Data from 1980.PennyLincolnUp.Lamp.En5.5.200Scan.071819.P1_HRD10591_16-38-27-957.txt Node
Date: Thu Jul 18 16:38:27 EDT 2019
User: cochatt
Spectrometer: HR+D1059
Trigger mode: 1
Integration Time (sec): 1.000000E-1
Scans to average: 1
Electric dark correction enabled: true
Nonlinearity correction enabled: false
Boxcar width: 0
XAxis mode: Wavelengths
Number of Pixels in Spectrum: 2048
>>>>>Begin Spectral Data<<<<<
223.165	-18.25
223.4	-18.25
223.635	-18.25
223.869	-25.25
224.104	-22.25
224.338	2.75
224.573	-11.25
224.808	-9.25
225.042	-8.25
225.277	-9.25
225.511	-3.25
225.746	-5.25
225.98	3.75
226.215	9.75
226.449	11.75
226.683	15.75
226.918	27.75
227.152	40.75
227.387	18.75
227.621	25.75
227.856	39.75
228.09	38.75
228.324	59.75
228.559	54.75
228.793	57.75
229.027	85.75
229.262	115.75
229.496	121.75
229.73	129.75
229.964	168.75
230.199	131.75
230.433	118.75
230.667	116.75
230.901	111.75
231.136	107.75
231.37	95.75
231.604	99.75
231.838	120.75
232.072	131.75
232.306	119.75
232.541	94.75
232.775	115.75
233.009	98.75
233.243	113.75
233.477	121.75
233.711	105.75
233.945	101.75
234.179	101.75
234.413	118.75
234.647	120.75
234.881	114.75
235.115	134.75
235.349	110.75
235.583	117.75
235.817	113.75
236.051	133.75
236.285	120.75
236.519	130.75
236.753	131.75
236.987	151.75
237.221	201.75
237.455	259.75
237.689	195.75
237.922	148.75
238.156	157.75
238.39	121.75
238.624	131.75
238.858	115.75
239.091	117.75
239.325	117.75
239.559	139.75
239.793	134.75
240.027	150.75
240.26	166.75
240.494	177.75
240.728	143.75
240.961	161.75
241.195	146.75
241.429	135.75
241.662	131.75
241.896	134.75
242.13	141.75
242.363	133.75
242.597	143.75
242.83	129.75
243.064	141.75
243.298	131.75
243.531	144.75
243.765	144.75
243.998	131.75
244.232	134.75
244.465	137.75
244.699	148.75
244.932	135.75
245.166	142.75
245.399	153.75
245.633	136.75
245.866	147.75
246.099	138.75
246.333	141.75
246.566	150.75
246.8	128.75
247.033	147.75
247.266	160.75
247.5	154.75
247.733	177.75
247.966	170.75
248.2	168.75
248.433	164.75
248.666	166.75
248.899	193.75
249.133	201.75
249.366	231.75
249.599	206.75
249.832	193.75
250.066	204.75
250.299	167.75
250.532	185.75
250.765	213.75
250.998	215.75
251.231	244.75
251.465	219.75
251.698	219.75
251.931	202.75
252.164	206.75
252.397	205.75
252.63	216.75
252.863	205.75
253.096	231.75
253.329	226.75
253.562	247.75
253.795	239.75
254.028	208.75
254.261	215.75
254.494	225.75
254.727	269.75
254.96	296.75
255.193	293.75
255.426	273.75
255.659	259.75
255.892	233.75
256.124	222.75
256.357	243.75
256.59	225.75
256.823	231.75
257.056	221.75
257.289	216.75
257.521	211.75
257.754	200.75
257.987	205.75
258.22	205.75
258.452	210.75
258.685	205.75
258.918	211.75
259.151	208.75
259.383	226.75
259.616	209.75
259.849	206.75
260.081	245.75
260.314	253.75
260.547	273.75
260.779	255.75
261.012	239.75
261.244	229.75
261.477	257.75
261.71	220.75
261.942	242.75
262.175	231.75
262.407	246.75
262.64	228.75
262.872	222.75
263.105	208.75
263.337	189.75
263.57	219.75
263.802	209.75
264.035	193.75
264.267	210.75
264.499	211.75
264.732	205.75
264.964	213.75
265.197	214.75
265.429	203.75
265.661	200.75
265.894	201.75
266.126	203.75
266.358	213.75
266.591	212.75
266.823	218.75
267.055	221.75
267.287	230.75
267.52	204.75
267.752	212.75
267.984	215.75
268.216	220.75
268.448	208.75
268.681	248.75
268.913	227.75
269.145	251.75
269.377	259.75
269.609	276.75
269.841	271.75
270.073	274.75
270.306	301.75
270.538	322.75
270.77	312.75
271.002	311.75
271.234	291.75
271.466	313.75
271.698	310.75
271.93	339.75
272.162	324.75
272.394	337.75
272.626	320.75
272.858	301.75
273.09	288.75
273.322	258.75
273.553	246.75
273.785	260.75
274.017	258.75
274.249	263.75
274.481	267.75
274.713	270.75
274.945	268.75
275.176	259.75
275.408	269.75
275.64	268.75
275.872	244.75
276.104	258.75
276.335	256.75
276.567	269.75
276.799	279.75
277.031	301.75
277.262	303.75
277.494	311.75
277.726	306.75
277.957	279.75
278.189	283.75
278.421	262.75
278.652	282.75
278.884	282.75
279.115	251.75
279.347	245.75
279.579	235.75
279.81	260.75
280.042	247.75
280.273	256.75
280.505	252.75
280.736	246.75
280.968	250.75
281.199	246.75
281.431	272.75
281.662	251.75
281.894	249.75
282.125	255.75
282.356	263.75
282.588	283.75
282.819	297.75
283.051	267.75
283.282	264.75
283.513	256.75
283.745	269.75
283.976	263.75
284.207	261.75
284.439	267.75
284.67	282.75
284.901	265.75
285.132	256.75
285.364	263.75
285.595	257.75
285.826	257.75
286.057	259.75
286.288	294.75
286.52	259.75
286.751	245.75
286.982	268.75
287.213	250.75
287.444	261.75
287.675	277.75
287.906	301.75
288.138	267.75
288.369	275.75
288.6	278.75
288.831	285.75
289.062	277.75
289.293	274.75
289.524	277.75
289.755	266.75
289.986	278.75
290.217	273.75
290.448	262.75
290.679	268.75
290.91	266.75
291.141	278.75
291.371	258.75
291.602	269.75
291.833	255.75
292.064	256.75
292.295	267.75
292.526	259.75
292.757	273.75
292.987	265.75
293.218	251.75
293.449	263.75
293.68	253.75
293.91	269.75
294.141	267.75
294.372	281.75
294.603	266.75
294.833	263.75
295.064	262.75
295.295	272.75
295.525	287.75
295.756	282.75
295.987	278.75
296.217	279.75
296.448	309.75
296.679	287.75
296.909	275.75
297.14	280.75
297.37	260.75
297.601	275.75
297.831	266.75
298.062	293.75
298.292	264.75
298.523	289.75
298.753	287.75
298.984	282.75
299.214	279.75
299.445	306.75
299.675	301.75
299.905	279.75
300.136	294.75
300.366	303.75
300.597	293.75
300.827	297.75
301.057	279.75
301.288	307.75
301.518	287.75
301.748	283.75
301.979	300.75
302.209	315.75
302.439	287.75
302.669	285.75
302.9	321.75
303.13	290.75
303.36	315.75
303.59	316.75
303.82	316.75
304.051	314.75
304.281	297.75
304.511	285.75
304.741	293.75
304.971	287.75
305.201	293.75
305.431	273.75
305.661	303.75
305.891	293.75
306.121	300.75
306.352	320.75
306.582	321.75
306.812	321.75
307.042	299.75
307.272	297.75
307.502	297.75
307.731	316.75
307.961	290.75
308.191	321.75
308.421	322.75
308.651	329.75
308.881	323.75
309.111	311.75
309.341	321.75
309.571	332.75
309.8	346.75
310.03	361.75
310.26	356.75
310.49	355.75
310.72	340.75
310.949	398.75
311.179	387.75
311.409	379.75
311.639	347.75
311.868	377.75
312.098	371.75
312.328	371.75
312.557	382.75
312.787	410.75
313.017	407.75
313.246	381.75
313.476	369.75
313.706	374.75
313.935	377.75
314.165	376.75
314.394	374.75
314.624	364.75
314.853	374.75
315.083	342.75
315.312	395.75
315.542	367.75
315.771	352.75
316.001	340.75
316.23	351.75
316.46	346.75
316.689	355.75
316.919	361.75
317.148	372.75
317.377	370.75
317.607	376.75
317.836	365.75
318.065	369.75
318.295	377.75
318.524	357.75
318.753	378.75
318.983	357.75
319.212	351.75
319.441	362.75
319.67	364.75
319.9	384.75
320.129	355.75
320.358	348.75
320.587	363.75
320.816	377.75
321.046	393.75
321.275	374.75
321.504	373.75
321.733	383.75
321.962	397.75
322.191	395.75
322.42	432.75
322.649	431.75
322.878	471.75
323.108	474.75
323.337	507.75
323.566	525.75
323.795	556.75
324.024	614.75
324.253	783.75
324.482	1118.75
324.71	1713.75
324.939	2433.75
325.168	2103.75
325.397	1139.75
325.626	760.75
325.855	608.75
326.084	555.75
326.313	502.75
326.542	540.75
326.77	609.75
326.999	691.75
327.228	963.75
327.457	1478.75
327.686	1855.75
327.914	1247.75
328.143	821.75
328.372	711.75
328.6	626.75
328.829	635.75
329.058	623.75
329.287	633.75
329.515	591.75
329.744	535.75
329.972	541.75
330.201	578.75
330.43	599.75
330.658	647.75
330.887	682.75
331.115	642.75
331.344	560.75
331.572	492.75
331.801	510.75
332.03	480.75
332.258	463.75
332.486	435.75
332.715	431.75
332.943	432.75
333.172	436.75
333.4	426.75
333.629	437.75
333.857	431.75
334.085	473.75
334.314	465.75
334.542	521.75
334.771	549.75
334.999	488.75
335.227	458.75
335.455	433.75
335.684	405.75
335.912	425.75
336.14	408.75
336.369	409.75
336.597	420.75
336.825	407.75
337.053	423.75
337.281	418.75
337.51	410.75
337.738	412.75
337.966	401.75
338.194	407.75
338.422	400.75
338.65	415.75
338.878	383.75
339.106	389.75
339.334	400.75
339.562	399.75
339.79	395.75
340.018	409.75
340.246	408.75
340.474	419.75
340.702	420.75
340.93	392.75
341.158	385.75
341.386	418.75
341.614	384.75
341.842	386.75
342.07	371.75
342.298	390.75
342.526	388.75
342.754	393.75
342.981	374.75
343.209	371.75
343.437	371.75
343.665	363.75
343.893	389.75
344.12	392.75
344.348	390.75
344.576	394.75
344.804	397.75
345.031	418.75
345.259	420.75
345.487	408.75
345.714	399.75
345.942	421.75
346.17	397.75
346.397	384.75
346.625	385.75
346.853	402.75
347.08	389.75
347.308	406.75
347.535	405.75
347.763	407.75
347.99	412.75
348.218	401.75
348.445	407.75
348.673	413.75
348.9	426.75
349.128	393.75
349.355	367.75
349.583	369.75
349.81	392.75
350.037	406.75
350.265	388.75
350.492	375.75
350.72	395.75
350.947	392.75
351.174	407.75
351.402	395.75
351.629	406.75
351.856	404.75
352.083	411.75
352.311	417.75
352.538	417.75
352.765	431.75
352.992	425.75
353.22	419.75
353.447	392.75
353.674	379.75
353.901	370.75
354.128	360.75
354.355	364.75
354.583	349.75
354.81	347.75
355.037	355.75
355.264	355.75
355.491	345.75
355.718	355.75
355.945	348.75
356.172	356.75
356.399	365.75
356.626	327.75
356.853	339.75
357.08	367.75
357.307	340.75
357.534	339.75
357.761	346.75
357.988	376.75
358.215	340.75
358.441	357.75
358.668	373.75
358.895	363.75
359.122	377.75
359.349	381.75
359.576	395.75
359.802	418.75
360.029	460.75
360.256	480.75
360.483	438.75
360.709	412.75
360.936	394.75
361.163	416.75
361.39	404.75
361.616	388.75
361.843	393.75
362.07	381.75
362.296	404.75
362.523	387.75
362.749	384.75
362.976	370.75
363.203	377.75
363.429	355.75
363.656	379.75
363.882	375.75
364.109	376.75
364.335	354.75
364.562	367.75
364.788	374.75
365.015	387.75
365.241	380.75
365.468	376.75
365.694	375.75
365.92	368.75
366.147	384.75
366.373	338.75
366.599	349.75
366.826	349.75
367.052	349.75
367.278	337.75
367.505	359.75
367.731	365.75
367.957	376.75
368.184	360.75
368.41	359.75
368.636	391.75
368.862	393.75
369.089	380.75
369.315	383.75
369.541	376.75
369.767	362.75
369.993	358.75
370.219	363.75
370.445	357.75
370.672	364.75
370.898	369.75
371.124	367.75
371.35	351.75
371.576	354.75
371.802	343.75
372.028	342.75
372.254	350.75
372.48	360.75
372.706	367.75
372.932	371.75
373.158	352.75
373.384	352.75
373.61	367.75
373.835	387.75
374.061	340.75
374.287	362.75
374.513	361.75
374.739	356.75
374.965	342.75
375.191	367.75
375.416	345.75
375.642	372.75
375.868	371.75
376.094	367.75
376.319	363.75
376.545	363.75
376.771	345.75
376.997	360.75
377.222	342.75
377.448	343.75
377.674	342.75
377.899	348.75
378.125	348.75
378.35	346.75
378.576	329.75
378.802	343.75
379.027	363.75
379.253	351.75
379.478	361.75
379.704	355.75
379.929	367.75
380.155	369.75
380.38	357.75
380.606	365.75
380.831	343.75
381.057	358.75
381.282	344.75
381.507	356.75
381.733	359.75
381.958	349.75
382.184	373.75
382.409	335.75
382.634	356.75
382.86	346.75
383.085	375.75
383.31	361.75
383.535	363.75
383.761	364.75
383.986	348.75
384.211	357.75
384.436	361.75
384.662	377.75
384.887	372.75
385.112	341.75
385.337	379.75
385.562	389.75
385.787	371.75
386.013	374.75
386.238	371.75
386.463	391.75
386.688	379.75
386.913	378.75
387.138	371.75
387.363	391.75
387.588	375.75
387.813	380.75
388.038	372.75
388.263	367.75
388.488	374.75
388.713	363.75
388.938	360.75
389.163	394.75
389.387	373.75
389.612	373.75
389.837	370.75
390.062	374.75
390.287	392.75
390.512	398.75
390.736	372.75
390.961	361.75
391.186	362.75
391.411	375.75
391.636	374.75
391.86	391.75
392.085	373.75
392.31	375.75
392.534	374.75
392.759	370.75
392.984	390.75
393.208	396.75
393.433	367.75
393.658	363.75
393.882	375.75
394.107	360.75
394.331	371.75
394.556	381.75
394.78	389.75
395.005	364.75
395.229	367.75
395.454	391.75
395.678	380.75
395.903	377.75
396.127	419.75
396.352	423.75
396.576	406.75
396.801	386.75
397.025	379.75
397.249	384.75
397.474	380.75
397.698	380.75
397.922	420.75
398.147	424.75
398.371	433.75
398.595	427.75
398.82	417.75
399.044	397.75
399.268	416.75
399.492	455.75
399.717	434.75
399.941	481.75
400.165	504.75
400.389	533.75
400.613	464.75
400.837	446.75
401.062	443.75
401.286	432.75
401.51	424.75
401.734	405.75
401.958	418.75
402.182	436.75
402.406	439.75
402.63	443.75
402.854	437.75
403.078	441.75
403.302	439.75
403.526	454.75
403.75	424.75
403.974	462.75
404.198	436.75
404.422	456.75
404.645	459.75
404.869	449.75
405.093	475.75
405.317	529.75
405.541	567.75
405.765	511.75
405.988	471.75
406.212	471.75
406.436	516.75
406.66	523.75
406.883	530.75
407.107	491.75
407.331	557.75
407.555	615.75
407.778	595.75
408.002	552.75
408.226	483.75
408.449	513.75
408.673	484.75
408.896	509.75
409.12	589.75
409.344	548.75
409.567	492.75
409.791	457.75
410.014	467.75
410.238	429.75
410.461	467.75
410.685	437.75
410.908	476.75
411.132	504.75
411.355	523.75
411.578	498.75
411.802	480.75
412.025	455.75
412.249	430.75
412.472	491.75
412.695	553.75
412.919	509.75
413.142	452.75
413.365	450.75
413.589	431.75
413.812	424.75
414.035	412.75
414.258	427.75
414.482	427.75
414.705	411.75
414.928	419.75
415.151	419.75
415.374	408.75
415.597	398.75
415.821	407.75
416.044	403.75
416.267	424.75
416.49	419.75
416.713	441.75
416.936	415.75
417.159	415.75
417.382	412.75
417.605	446.75
417.828	447.75
418.051	482.75
418.274	449.75
418.497	437.75
418.72	452.75
418.943	431.75
419.166	433.75
419.389	477.75
419.611	445.75
419.834	448.75
420.057	467.75
420.28	443.75
420.503	469.75
420.726	454.75
420.948	477.75
421.171	510.75
421.394	524.75
421.617	491.75
421.839	457.75
422.062	447.75
422.285	455.75
422.507	504.75
422.73	589.75
422.953	582.75
423.175	523.75
423.398	474.75
423.621	487.75
423.843	499.75
424.066	499.75
424.288	506.75
424.511	515.75
424.733	578.75
424.956	662.75
425.178	618.75
425.401	634.75
425.623	655.75
425.846	541.75
426.068	527.75
426.291	490.75
426.513	513.75
426.735	503.75
426.958	564.75
427.18	629.75
427.402	730.75
427.625	844.75
427.847	755.75
428.069	643.75
428.292	596.75
428.514	497.75
428.736	465.75
428.958	504.75
429.181	495.75
429.403	453.75
429.625	462.75
429.847	515.75
430.069	579.75
430.292	566.75
430.514	472.75
430.736	481.75
430.958	460.75
431.18	436.75
431.402	441.75
431.624	432.75
431.846	444.75
432.068	436.75
432.29	417.75
432.512	452.75
432.734	415.75
432.956	444.75
433.178	449.75
433.4	466.75
433.622	449.75
433.844	445.75
434.066	470.75
434.287	460.75
434.509	439.75
434.731	451.75
434.953	460.75
435.175	480.75
435.397	488.75
435.618	500.75
435.84	548.75
436.062	632.75
436.284	718.75
436.505	610.75
436.727	533.75
436.949	511.75
437.17	468.75
437.392	489.75
437.614	483.75
437.835	528.75
438.057	611.75
438.278	730.75
438.5	727.75
438.721	762.75
438.943	735.75
439.165	593.75
439.386	534.75
439.608	540.75
439.829	537.75
440.05	590.75
440.272	611.75
440.493	565.75
440.715	511.75
440.936	491.75
441.158	491.75
441.379	488.75
441.6	499.75
441.822	511.75
442.043	548.75
442.264	639.75
442.486	691.75
442.707	580.75
442.928	540.75
443.149	545.75
443.371	579.75
443.592	604.75
443.813	707.75
444.034	739.75
444.255	614.75
444.476	526.75
444.698	532.75
444.919	500.75
445.14	581.75
445.361	559.75
445.582	563.75
445.803	626.75
446.024	726.75
446.245	747.75
446.466	671.75
446.687	566.75
446.908	521.75
447.129	501.75
447.35	479.75
447.571	473.75
447.792	482.75
448.013	483.75
448.234	516.75
448.455	565.75
448.675	660.75
448.896	760.75
449.117	684.75
449.338	623.75
449.559	694.75
449.779	812.75
450	660.75
450.221	566.75
450.442	488.75
450.662	471.75
450.883	484.75
451.104	509.75
451.324	482.75
451.545	468.75
451.766	448.75
451.986	420.75
452.207	417.75
452.428	419.75
452.648	425.75
452.869	423.75
453.089	445.75
453.31	441.75
453.53	439.75
453.751	441.75
453.971	428.75
454.192	471.75
454.412	446.75
454.633	433.75
454.853	413.75
455.073	417.75
455.294	469.75
455.514	528.75
455.734	531.75
455.955	418.75
456.175	393.75
456.395	409.75
456.616	398.75
456.836	392.75
457.056	374.75
457.276	357.75
457.497	379.75
457.717	391.75
457.937	395.75
458.157	405.75
458.377	419.75
458.598	457.75
458.818	515.75
459.038	608.75
459.258	598.75
459.478	509.75
459.698	477.75
459.918	435.75
460.138	426.75
460.358	433.75
460.578	423.75
460.798	431.75
461.018	434.75
461.238	409.75
461.458	414.75
461.678	429.75
461.898	425.75
462.118	419.75
462.338	428.75
462.558	442.75
462.777	460.75
462.997	431.75
463.217	435.75
463.437	423.75
463.657	460.75
463.876	441.75
464.096	423.75
464.316	460.75
464.536	444.75
464.755	463.75
464.975	480.75
465.195	521.75
465.414	634.75
465.634	538.75
465.854	485.75
466.073	467.75
466.293	479.75
466.512	442.75
466.732	449.75
466.951	421.75
467.171	415.75
467.391	407.75
467.61	432.75
467.829	449.75
468.049	440.75
468.268	456.75
468.488	443.75
468.707	417.75
468.927	408.75
469.146	397.75
469.365	403.75
469.585	413.75
469.804	425.75
470.023	432.75
470.243	458.75
470.462	433.75
470.681	472.75
470.901	457.75
471.12	409.75
471.339	451.75
471.558	420.75
471.777	449.75
471.997	427.75
472.216	451.75
472.435	483.75
472.654	457.75
472.873	425.75
473.092	433.75
473.311	446.75
473.53	449.75
473.749	461.75
473.968	473.75
474.187	583.75
474.406	651.75
474.625	517.75
474.844	461.75
475.063	452.75
475.282	457.75
475.501	438.75
475.72	439.75
475.939	437.75
476.158	453.75
476.377	450.75
476.596	432.75
476.814	444.75
477.033	437.75
477.252	449.75
477.471	461.75
477.69	453.75
477.908	465.75
478.127	457.75
478.346	452.75
478.564	445.75
478.783	482.75
479.002	483.75
479.22	514.75
479.439	499.75
479.658	503.75
479.876	542.75
480.095	529.75
480.313	551.75
480.532	532.75
480.751	524.75
480.969	556.75
481.188	623.75
481.406	667.75
481.624	577.75
481.843	553.75
482.061	553.75
482.28	532.75
482.498	516.75
482.717	511.75
482.935	525.75
483.153	525.75
483.372	506.75
483.59	498.75
483.808	507.75
484.027	513.75
484.245	504.75
484.463	510.75
484.681	540.75
484.9	539.75
485.118	539.75
485.336	540.75
485.554	519.75
485.772	535.75
485.99	519.75
486.209	524.75
486.427	549.75
486.645	546.75
486.863	586.75
487.081	570.75
487.299	570.75
487.517	554.75
487.735	565.75
487.953	554.75
488.171	567.75
488.389	573.75
488.607	562.75
488.825	567.75
489.043	561.75
489.261	564.75
489.479	557.75
489.696	561.75
489.914	579.75
490.132	579.75
490.35	595.75
490.568	600.75
490.786	584.75
491.003	616.75
491.221	633.75
491.439	634.75
491.657	630.75
491.874	656.75
492.092	635.75
492.31	667.75
492.527	659.75
492.745	633.75
492.963	672.75
493.18	657.75
493.398	687.75
493.615	666.75
493.833	679.75
494.05	677.75
494.268	670.75
494.485	650.75
494.703	650.75
494.92	657.75
495.138	646.75
495.355	697.75
495.573	681.75
495.79	683.75
496.008	674.75
496.225	675.75
496.442	661.75
496.66	661.75
496.877	656.75
497.094	671.75
497.312	665.75
497.529	684.75
497.746	699.75
497.963	682.75
498.181	683.75
498.398	717.75
498.615	718.75
498.832	717.75
499.049	724.75
499.267	718.75
499.484	737.75
499.701	756.75
499.918	744.75
500.135	773.75
500.352	809.75
500.569	757.75
500.786	795.75
501.003	799.75
501.22	776.75
501.437	764.75
501.654	789.75
501.871	795.75
502.088	753.75
