Data from 1980.PennyLincolnUp.Lamp.En5.5.200Scan.071819.P1_HRD10591_16-36-09-956.txt Node
Date: Thu Jul 18 16:36:09 EDT 2019
User: cochatt
Spectrometer: HR+D1059
Trigger mode: 1
Integration Time (sec): 1.000000E-1
Scans to average: 1
Electric dark correction enabled: true
Nonlinearity correction enabled: false
Boxcar width: 0
XAxis mode: Wavelengths
Number of Pixels in Spectrum: 2048
>>>>>Begin Spectral Data<<<<<
223.165	-17.56
223.4	-17.56
223.635	-17.56
223.869	-34.56
224.104	0.44
224.338	4.44
224.573	-25.56
224.808	-17.56
225.042	-19.56
225.277	-3.56
225.511	3.44
225.746	11.44
225.98	11.44
226.215	-1.56
226.449	8.44
226.683	30.44
226.918	24.44
227.152	25.44
227.387	13.44
227.621	36.44
227.856	46.44
228.09	50.44
228.324	62.44
228.559	62.44
228.793	57.44
229.027	91.44
229.262	84.44
229.496	99.44
229.73	112.44
229.964	109.44
230.199	110.44
230.433	92.44
230.667	85.44
230.901	103.44
231.136	95.44
231.37	110.44
231.604	96.44
231.838	93.44
232.072	106.44
232.306	109.44
232.541	101.44
232.775	100.44
233.009	99.44
233.243	98.44
233.477	97.44
233.711	106.44
233.945	113.44
234.179	108.44
234.413	108.44
234.647	108.44
234.881	111.44
235.115	124.44
235.349	100.44
235.583	119.44
235.817	110.44
236.051	110.44
236.285	114.44
236.519	103.44
236.753	110.44
236.987	133.44
237.221	156.44
237.455	188.44
237.689	161.44
237.922	115.44
238.156	125.44
238.39	117.44
238.624	119.44
238.858	115.44
239.091	116.44
239.325	87.44
239.559	96.44
239.793	105.44
240.027	126.44
240.26	128.44
240.494	136.44
240.728	132.44
240.961	130.44
241.195	118.44
241.429	111.44
241.662	106.44
241.896	117.44
242.13	107.44
242.363	122.44
242.597	121.44
242.83	128.44
243.064	134.44
243.298	108.44
243.531	126.44
243.765	140.44
243.998	122.44
244.232	127.44
244.465	140.44
244.699	124.44
244.932	122.44
245.166	128.44
245.399	116.44
245.633	137.44
245.866	126.44
246.099	123.44
246.333	138.44
246.566	124.44
246.8	131.44
247.033	136.44
247.266	130.44
247.5	128.44
247.733	160.44
247.966	158.44
248.2	147.44
248.433	148.44
248.666	149.44
248.899	169.44
249.133	182.44
249.366	167.44
249.599	173.44
249.832	164.44
250.066	148.44
250.299	143.44
250.532	184.44
250.765	162.44
250.998	158.44
251.231	182.44
251.465	189.44
251.698	173.44
251.931	169.44
252.164	184.44
252.397	169.44
252.63	178.44
252.863	164.44
253.096	186.44
253.329	190.44
253.562	187.44
253.795	195.44
254.028	179.44
254.261	182.44
254.494	186.44
254.727	220.44
254.96	247.44
255.193	208.44
255.426	210.44
255.659	198.44
255.892	184.44
256.124	206.44
256.357	192.44
256.59	172.44
256.823	172.44
257.056	169.44
257.289	164.44
257.521	171.44
257.754	178.44
257.987	173.44
258.22	175.44
258.452	166.44
258.685	168.44
258.918	190.44
259.151	174.44
259.383	190.44
259.616	193.44
259.849	187.44
260.081	201.44
260.314	209.44
260.547	205.44
260.779	210.44
261.012	212.44
261.244	202.44
261.477	198.44
261.71	191.44
261.942	178.44
262.175	174.44
262.407	198.44
262.64	181.44
262.872	167.44
263.105	187.44
263.337	182.44
263.57	174.44
263.802	179.44
264.035	202.44
264.267	178.44
264.499	169.44
264.732	170.44
264.964	172.44
265.197	164.44
265.429	164.44
265.661	171.44
265.894	177.44
266.126	186.44
266.358	186.44
266.591	167.44
266.823	172.44
267.055	179.44
267.287	187.44
267.52	179.44
267.752	176.44
267.984	173.44
268.216	191.44
268.448	196.44
268.681	196.44
268.913	201.44
269.145	206.44
269.377	217.44
269.609	218.44
269.841	211.44
270.073	198.44
270.306	231.44
270.538	252.44
270.77	243.44
271.002	235.44
271.234	222.44
271.466	223.44
271.698	223.44
271.93	243.44
272.162	262.44
272.394	230.44
272.626	228.44
272.858	221.44
273.09	224.44
273.322	227.44
273.553	212.44
273.785	207.44
274.017	187.44
274.249	203.44
274.481	199.44
274.713	198.44
274.945	221.44
275.176	209.44
275.408	197.44
275.64	207.44
275.872	203.44
276.104	208.44
276.335	203.44
276.567	206.44
276.799	189.44
277.031	210.44
277.262	217.44
277.494	243.44
277.726	210.44
277.957	239.44
278.189	218.44
278.421	206.44
278.652	222.44
278.884	203.44
279.115	206.44
279.347	207.44
279.579	209.44
279.81	198.44
280.042	215.44
280.273	205.44
280.505	207.44
280.736	204.44
280.968	210.44
281.199	204.44
281.431	215.44
281.662	200.44
281.894	197.44
282.125	201.44
282.356	212.44
282.588	232.44
282.819	218.44
283.051	233.44
283.282	230.44
283.513	212.44
283.745	216.44
283.976	211.44
284.207	211.44
284.439	222.44
284.67	218.44
284.901	215.44
285.132	212.44
285.364	221.44
285.595	210.44
285.826	211.44
286.057	208.44
286.288	212.44
286.52	201.44
286.751	209.44
286.982	213.44
287.213	220.44
287.444	208.44
287.675	217.44
287.906	220.44
288.138	219.44
288.369	231.44
288.6	219.44
288.831	215.44
289.062	215.44
289.293	212.44
289.524	209.44
289.755	219.44
289.986	197.44
290.217	218.44
290.448	213.44
290.679	226.44
290.91	206.44
291.141	217.44
291.371	231.44
291.602	220.44
291.833	211.44
292.064	211.44
292.295	218.44
292.526	227.44
292.757	224.44
292.987	232.44
293.218	215.44
293.449	223.44
293.68	215.44
293.91	216.44
294.141	213.44
294.372	208.44
294.603	229.44
294.833	222.44
295.064	212.44
295.295	219.44
295.525	230.44
295.756	210.44
295.987	216.44
296.217	234.44
296.448	258.44
296.679	220.44
296.909	236.44
297.14	208.44
297.37	220.44
297.601	243.44
297.831	223.44
298.062	227.44
298.292	241.44
298.523	228.44
298.753	220.44
298.984	207.44
299.214	221.44
299.445	246.44
299.675	228.44
299.905	230.44
300.136	219.44
300.366	254.44
300.597	214.44
300.827	230.44
301.057	235.44
301.288	261.44
301.518	239.44
301.748	238.44
301.979	228.44
302.209	242.44
302.439	246.44
302.669	248.44
302.9	235.44
303.13	225.44
303.36	233.44
303.59	250.44
303.82	253.44
304.051	244.44
304.281	240.44
304.511	242.44
304.741	246.44
304.971	237.44
305.201	232.44
305.431	242.44
305.661	246.44
305.891	227.44
306.121	237.44
306.352	244.44
306.582	245.44
306.812	251.44
307.042	249.44
307.272	235.44
307.502	237.44
307.731	246.44
307.961	243.44
308.191	240.44
308.421	240.44
308.651	242.44
308.881	258.44
309.111	247.44
309.341	260.44
309.571	262.44
309.8	264.44
310.03	259.44
310.26	267.44
310.49	268.44
310.72	280.44
310.949	293.44
311.179	285.44
311.409	293.44
311.639	271.44
311.868	279.44
312.098	270.44
312.328	286.44
312.557	277.44
312.787	316.44
313.017	304.44
313.246	285.44
313.476	275.44
313.706	269.44
313.935	276.44
314.165	282.44
314.394	276.44
314.624	297.44
314.853	279.44
315.083	254.44
315.312	285.44
315.542	272.44
315.771	260.44
316.001	258.44
316.23	256.44
316.46	281.44
316.689	262.44
316.919	261.44
317.148	270.44
317.377	273.44
317.607	278.44
317.836	274.44
318.065	292.44
318.295	270.44
318.524	277.44
318.753	273.44
318.983	279.44
319.212	282.44
319.441	293.44
319.67	285.44
319.9	272.44
320.129	278.44
320.358	276.44
320.587	263.44
320.816	285.44
321.046	284.44
321.275	296.44
321.504	289.44
321.733	296.44
321.962	300.44
322.191	297.44
322.42	315.44
322.649	316.44
322.878	327.44
323.108	331.44
323.337	347.44
323.566	331.44
323.795	363.44
324.024	395.44
324.253	454.44
324.482	651.44
324.71	968.44
324.939	1424.44
325.168	1242.44
325.397	662.44
325.626	448.44
325.855	376.44
326.084	355.44
326.313	342.44
326.542	366.44
326.77	395.44
326.999	434.44
327.228	610.44
327.457	871.44
327.686	1077.44
327.914	724.44
328.143	481.44
328.372	426.44
328.6	400.44
328.829	398.44
329.058	398.44
329.287	392.44
329.515	365.44
329.744	354.44
329.972	329.44
330.201	366.44
330.43	395.44
330.658	382.44
330.887	399.44
331.115	413.44
331.344	362.44
331.572	357.44
331.801	331.44
332.03	351.44
332.258	351.44
332.486	331.44
332.715	326.44
332.943	333.44
333.172	313.44
333.4	330.44
333.629	326.44
333.857	315.44
334.085	334.44
334.314	359.44
334.542	344.44
334.771	343.44
334.999	331.44
335.227	324.44
335.455	316.44
335.684	322.44
335.912	330.44
336.14	328.44
336.369	337.44
336.597	324.44
336.825	328.44
337.053	313.44
337.281	299.44
337.51	312.44
337.738	306.44
337.966	311.44
338.194	326.44
338.422	313.44
338.65	329.44
338.878	309.44
339.106	308.44
339.334	314.44
339.562	306.44
339.79	311.44
340.018	304.44
340.246	297.44
340.474	316.44
340.702	322.44
340.93	316.44
341.158	319.44
341.386	304.44
341.614	322.44
341.842	310.44
342.07	312.44
342.298	306.44
342.526	296.44
342.754	303.44
342.981	306.44
343.209	315.44
343.437	311.44
343.665	303.44
343.893	301.44
344.12	319.44
344.348	319.44
344.576	321.44
344.804	329.44
345.031	310.44
345.259	324.44
345.487	312.44
345.714	316.44
345.942	304.44
346.17	302.44
346.397	306.44
346.625	286.44
346.853	306.44
347.08	296.44
347.308	312.44
347.535	297.44
347.763	323.44
347.99	326.44
348.218	315.44
348.445	302.44
348.673	310.44
348.9	301.44
349.128	303.44
349.355	300.44
349.583	279.44
349.81	317.44
350.037	286.44
350.265	292.44
350.492	298.44
350.72	292.44
350.947	307.44
351.174	295.44
351.402	322.44
351.629	323.44
351.856	293.44
352.083	310.44
352.311	316.44
352.538	318.44
352.765	322.44
352.992	310.44
353.22	295.44
353.447	302.44
353.674	308.44
353.901	288.44
354.128	299.44
354.355	292.44
354.583	295.44
354.81	280.44
355.037	295.44
355.264	290.44
355.491	299.44
355.718	286.44
355.945	292.44
356.172	283.44
356.399	271.44
356.626	281.44
356.853	282.44
357.08	298.44
357.307	294.44
357.534	287.44
357.761	298.44
357.988	292.44
358.215	280.44
358.441	291.44
358.668	271.44
358.895	295.44
359.122	295.44
359.349	309.44
359.576	294.44
359.802	315.44
360.029	332.44
360.256	362.44
360.483	330.44
360.709	306.44
360.936	306.44
361.163	311.44
361.39	309.44
361.616	305.44
361.843	313.44
362.07	299.44
362.296	295.44
362.523	314.44
362.749	288.44
362.976	312.44
363.203	314.44
363.429	286.44
363.656	298.44
363.882	294.44
364.109	300.44
364.335	304.44
364.562	306.44
364.788	272.44
365.015	302.44
365.241	306.44
365.468	300.44
365.694	297.44
365.92	312.44
366.147	289.44
366.373	311.44
366.599	281.44
366.826	302.44
367.052	300.44
367.278	281.44
367.505	295.44
367.731	303.44
367.957	297.44
368.184	288.44
368.41	290.44
368.636	301.44
368.862	320.44
369.089	303.44
369.315	298.44
369.541	292.44
369.767	293.44
369.993	281.44
370.219	308.44
370.445	294.44
370.672	282.44
370.898	296.44
371.124	282.44
371.35	291.44
371.576	308.44
371.802	286.44
372.028	310.44
372.254	301.44
372.48	317.44
372.706	301.44
372.932	303.44
373.158	311.44
373.384	296.44
373.61	302.44
373.835	304.44
374.061	290.44
374.287	293.44
374.513	294.44
374.739	314.44
374.965	329.44
375.191	311.44
375.416	301.44
375.642	301.44
375.868	308.44
376.094	295.44
376.319	290.44
376.545	307.44
376.771	307.44
376.997	300.44
377.222	300.44
377.448	314.44
377.674	287.44
377.899	298.44
378.125	307.44
378.35	294.44
378.576	300.44
378.802	304.44
379.027	303.44
379.253	303.44
379.478	299.44
379.704	306.44
379.929	286.44
380.155	311.44
380.38	292.44
380.606	314.44
380.831	293.44
381.057	293.44
381.282	320.44
381.507	316.44
381.733	300.44
381.958	289.44
382.184	291.44
382.409	312.44
382.634	310.44
382.86	295.44
383.085	311.44
383.31	314.44
383.535	322.44
383.761	312.44
383.986	298.44
384.211	307.44
384.436	331.44
384.662	307.44
384.887	317.44
385.112	325.44
385.337	318.44
385.562	311.44
385.787	336.44
386.013	339.44
386.238	324.44
386.463	338.44
386.688	312.44
386.913	320.44
387.138	336.44
387.363	321.44
387.588	331.44
387.813	320.44
388.038	330.44
388.263	330.44
388.488	327.44
388.713	333.44
388.938	324.44
389.163	335.44
389.387	331.44
389.612	315.44
389.837	335.44
390.062	317.44
390.287	312.44
390.512	320.44
390.736	313.44
390.961	312.44
391.186	317.44
391.411	336.44
391.636	326.44
391.86	330.44
392.085	331.44
392.31	334.44
392.534	332.44
392.759	336.44
392.984	327.44
393.208	332.44
393.433	331.44
393.658	340.44
393.882	331.44
394.107	301.44
394.331	318.44
394.556	316.44
394.78	318.44
395.005	327.44
395.229	314.44
395.454	322.44
395.678	329.44
395.903	350.44
396.127	355.44
396.352	374.44
396.576	345.44
396.801	338.44
397.025	344.44
397.249	346.44
397.474	348.44
397.698	352.44
397.922	331.44
398.147	351.44
398.371	349.44
398.595	328.44
398.82	343.44
399.044	360.44
399.268	365.44
399.492	381.44
399.717	407.44
399.941	409.44
400.165	431.44
400.389	439.44
400.613	404.44
400.837	376.44
401.062	362.44
401.286	354.44
401.51	353.44
401.734	356.44
401.958	359.44
402.182	372.44
402.406	358.44
402.63	373.44
402.854	356.44
403.078	382.44
403.302	378.44
403.526	372.44
403.75	364.44
403.974	353.44
404.198	365.44
404.422	365.44
404.645	378.44
404.869	356.44
405.093	382.44
405.317	429.44
405.541	464.44
405.765	428.44
405.988	392.44
406.212	392.44
406.436	416.44
406.66	405.44
406.883	416.44
407.107	416.44
407.331	452.44
407.555	476.44
407.778	503.44
408.002	475.44
408.226	407.44
408.449	400.44
408.673	393.44
408.896	440.44
409.12	469.44
409.344	436.44
409.567	387.44
409.791	378.44
410.014	387.44
410.238	380.44
410.461	385.44
410.685	384.44
410.908	382.44
411.132	405.44
411.355	450.44
411.578	423.44
411.802	384.44
412.025	382.44
412.249	370.44
412.472	396.44
412.695	398.44
412.919	418.44
413.142	374.44
413.365	351.44
413.589	343.44
413.812	378.44
414.035	364.44
414.258	368.44
414.482	351.44
414.705	377.44
414.928	349.44
415.151	344.44
415.374	378.44
415.597	370.44
415.821	360.44
416.044	362.44
416.267	367.44
416.49	369.44
416.713	359.44
416.936	350.44
417.159	362.44
417.382	359.44
417.605	346.44
417.828	365.44
418.051	394.44
418.274	376.44
418.497	363.44
418.72	370.44
418.943	362.44
419.166	362.44
419.389	396.44
419.611	377.44
419.834	373.44
420.057	380.44
420.28	362.44
420.503	372.44
420.726	374.44
420.948	381.44
421.171	425.44
421.394	474.44
421.617	405.44
421.839	368.44
422.062	388.44
422.285	394.44
422.507	423.44
422.73	455.44
422.953	474.44
423.175	398.44
423.398	396.44
423.621	398.44
423.843	409.44
424.066	386.44
424.288	399.44
424.511	404.44
424.733	448.44
424.956	527.44
425.178	495.44
425.401	489.44
425.623	515.44
425.846	464.44
426.068	429.44
426.291	386.44
426.513	423.44
426.735	392.44
426.958	440.44
427.18	501.44
427.402	596.44
427.625	664.44
427.847	583.44
428.069	483.44
428.292	423.44
428.514	388.44
428.736	401.44
428.958	398.44
429.181	391.44
429.403	376.44
429.625	385.44
429.847	412.44
430.069	464.44
430.292	462.44
430.514	407.44
430.736	384.44
430.958	389.44
431.18	358.44
431.402	358.44
431.624	362.44
431.846	348.44
432.068	355.44
432.29	383.44
432.512	344.44
432.734	357.44
432.956	352.44
433.178	384.44
433.4	378.44
433.622	366.44
433.844	363.44
434.066	364.44
434.287	362.44
434.509	361.44
434.731	384.44
434.953	378.44
435.175	395.44
435.397	423.44
435.618	408.44
435.84	441.44
436.062	516.44
436.284	566.44
436.505	494.44
436.727	420.44
436.949	410.44
437.17	378.44
437.392	385.44
437.614	398.44
437.835	434.44
438.057	474.44
438.278	571.44
438.5	563.44
438.721	634.44
438.943	591.44
439.165	472.44
439.386	423.44
439.608	440.44
439.829	421.44
440.05	418.44
440.272	469.44
440.493	455.44
440.715	387.44
440.936	399.44
441.158	380.44
441.379	382.44
441.6	384.44
441.822	420.44
442.043	427.44
442.264	499.44
442.486	542.44
442.707	447.44
442.928	422.44
443.149	441.44
443.371	440.44
443.592	473.44
443.813	565.44
444.034	598.44
444.255	493.44
444.476	428.44
444.698	411.44
444.919	399.44
445.14	498.44
445.361	455.44
445.582	438.44
445.803	460.44
446.024	564.44
446.245	572.44
446.466	546.44
446.687	450.44
446.908	416.44
447.129	399.44
447.35	394.44
447.571	355.44
447.792	379.44
448.013	399.44
448.234	403.44
448.455	419.44
448.675	525.44
448.896	611.44
449.117	538.44
449.338	480.44
449.559	566.44
449.779	630.44
450	540.44
450.221	438.44
450.442	398.44
450.662	383.44
450.883	370.44
451.104	372.44
451.324	374.44
451.545	375.44
451.766	342.44
451.986	350.44
452.207	353.44
452.428	331.44
452.648	354.44
452.869	342.44
453.089	349.44
453.31	354.44
453.53	350.44
453.751	339.44
453.971	348.44
454.192	366.44
454.412	355.44
454.633	344.44
454.853	354.44
455.073	346.44
455.294	352.44
455.514	418.44
455.734	386.44
455.955	338.44
456.175	338.44
456.395	327.44
456.616	322.44
456.836	325.44
457.056	312.44
457.276	316.44
457.497	323.44
457.717	328.44
457.937	341.44
458.157	332.44
458.377	321.44
458.598	363.44
458.818	364.44
459.038	439.44
459.258	466.44
459.478	386.44
459.698	358.44
459.918	355.44
460.138	350.44
460.358	358.44
460.578	368.44
460.798	353.44
461.018	366.44
461.238	362.44
461.458	372.44
461.678	333.44
461.898	352.44
462.118	339.44
462.338	349.44
462.558	370.44
462.777	388.44
462.997	377.44
463.217	384.44
463.437	380.44
463.657	374.44
463.876	373.44
464.096	374.44
464.316	399.44
464.536	392.44
464.755	371.44
464.975	380.44
465.195	413.44
465.414	458.44
465.634	409.44
465.854	383.44
466.073	365.44
466.293	356.44
466.512	349.44
466.732	342.44
466.951	371.44
467.171	350.44
467.391	346.44
467.61	371.44
467.829	358.44
468.049	344.44
468.268	353.44
468.488	338.44
468.707	355.44
468.927	341.44
469.146	331.44
469.365	323.44
469.585	326.44
469.804	359.44
470.023	362.44
470.243	347.44
470.462	375.44
470.681	356.44
470.901	358.44
471.12	351.44
471.339	350.44
471.558	370.44
471.777	370.44
471.997	361.44
472.216	358.44
472.435	349.44
472.654	348.44
472.873	334.44
473.092	351.44
473.311	351.44
473.53	355.44
473.749	364.44
473.968	383.44
474.187	468.44
474.406	499.44
474.625	410.44
474.844	368.44
475.063	367.44
475.282	358.44
475.501	346.44
475.72	376.44
475.939	365.44
476.158	369.44
476.377	380.44
476.596	371.44
476.814	360.44
477.033	390.44
477.252	376.44
477.471	387.44
477.69	377.44
477.908	386.44
478.127	374.44
478.346	392.44
478.564	403.44
478.783	390.44
479.002	398.44
479.22	406.44
479.439	404.44
479.658	421.44
479.876	436.44
480.095	426.44
480.313	448.44
480.532	442.44
480.751	424.44
480.969	421.44
481.188	443.44
481.406	442.44
481.624	440.44
481.843	440.44
482.061	407.44
482.28	422.44
482.498	408.44
482.717	403.44
482.935	423.44
483.153	433.44
483.372	426.44
483.59	418.44
483.808	441.44
484.027	400.44
484.245	429.44
484.463	416.44
484.681	419.44
484.9	410.44
485.118	429.44
485.336	456.44
485.554	423.44
485.772	444.44
485.99	434.44
486.209	408.44
486.427	429.44
486.645	413.44
486.863	453.44
487.081	439.44
487.299	453.44
487.517	448.44
487.735	446.44
487.953	454.44
488.171	447.44
488.389	458.44
488.607	454.44
488.825	466.44
489.043	445.44
489.261	444.44
489.479	463.44
489.696	461.44
489.914	456.44
490.132	479.44
490.35	479.44
490.568	509.44
490.786	488.44
491.003	487.44
491.221	494.44
491.439	498.44
491.657	494.44
491.874	517.44
492.092	531.44
492.31	500.44
492.527	524.44
492.745	501.44
492.963	527.44
493.18	510.44
493.398	518.44
493.615	549.44
493.833	528.44
494.05	543.44
494.268	534.44
494.485	504.44
494.703	517.44
494.92	511.44
495.138	516.44
495.355	540.44
495.573	534.44
495.79	525.44
496.008	560.44
496.225	525.44
496.442	534.44
496.66	558.44
496.877	536.44
497.094	543.44
497.312	541.44
497.529	549.44
497.746	555.44
497.963	564.44
498.181	578.44
498.398	551.44
498.615	574.44
498.832	580.44
499.049	603.44
499.267	598.44
499.484	607.44
499.701	643.44
499.918	653.44
500.135	676.44
500.352	692.44
500.569	710.44
500.786	709.44
501.003	670.44
501.22	679.44
501.437	654.44
501.654	675.44
501.871	642.44
502.088	632.44
