Data from 1980.PennyLincolnUp.Lamp.En5.5.200Scan.071819.P1_HRD10591_16-38-24-957.txt Node
Date: Thu Jul 18 16:38:24 EDT 2019
User: cochatt
Spectrometer: HR+D1059
Trigger mode: 1
Integration Time (sec): 1.000000E-1
Scans to average: 1
Electric dark correction enabled: true
Nonlinearity correction enabled: false
Boxcar width: 0
XAxis mode: Wavelengths
Number of Pixels in Spectrum: 2048
>>>>>Begin Spectral Data<<<<<
223.165	-7.75
223.4	-7.75
223.635	-7.75
223.869	-27.75
224.104	-12.75
224.338	-9.75
224.573	-4.75
224.808	-22.75
225.042	-16.75
225.277	-7.75
225.511	-10.75
225.746	15.25
225.98	3.25
226.215	-0.75
226.449	13.25
226.683	18.25
226.918	34.25
227.152	37.25
227.387	19.25
227.621	35.25
227.856	44.25
228.09	38.25
228.324	53.25
228.559	47.25
228.793	56.25
229.027	106.25
229.262	104.25
229.496	116.25
229.73	146.25
229.964	166.25
230.199	145.25
230.433	125.25
230.667	113.25
230.901	117.25
231.136	116.25
231.37	111.25
231.604	113.25
231.838	109.25
232.072	98.25
232.306	107.25
232.541	114.25
232.775	121.25
233.009	130.25
233.243	122.25
233.477	118.25
233.711	121.25
233.945	112.25
234.179	114.25
234.413	127.25
234.647	108.25
234.881	117.25
235.115	121.25
235.349	125.25
235.583	121.25
235.817	139.25
236.051	150.25
236.285	122.25
236.519	123.25
236.753	120.25
236.987	138.25
237.221	178.25
237.455	263.25
237.689	201.25
237.922	150.25
238.156	127.25
238.39	136.25
238.624	116.25
238.858	109.25
239.091	111.25
239.325	123.25
239.559	109.25
239.793	151.25
240.027	123.25
240.26	146.25
240.494	156.25
240.728	153.25
240.961	152.25
241.195	155.25
241.429	124.25
241.662	124.25
241.896	140.25
242.13	128.25
242.363	123.25
242.597	135.25
242.83	135.25
243.064	106.25
243.298	137.25
243.531	150.25
243.765	132.25
243.998	129.25
244.232	131.25
244.465	133.25
244.699	157.25
244.932	155.25
245.166	135.25
245.399	131.25
245.633	156.25
245.866	153.25
246.099	140.25
246.333	140.25
246.566	132.25
246.8	140.25
247.033	149.25
247.266	145.25
247.5	147.25
247.733	159.25
247.966	141.25
248.2	161.25
248.433	172.25
248.666	178.25
248.899	192.25
249.133	194.25
249.366	217.25
249.599	220.25
249.832	182.25
250.066	195.25
250.299	189.25
250.532	196.25
250.765	199.25
250.998	226.25
251.231	235.25
251.465	213.25
251.698	201.25
251.931	198.25
252.164	197.25
252.397	197.25
252.63	211.25
252.863	198.25
253.096	203.25
253.329	233.25
253.562	218.25
253.795	230.25
254.028	244.25
254.261	244.25
254.494	236.25
254.727	249.25
254.96	291.25
255.193	269.25
255.426	255.25
255.659	237.25
255.892	241.25
256.124	247.25
256.357	236.25
256.59	229.25
256.823	234.25
257.056	224.25
257.289	219.25
257.521	181.25
257.754	197.25
257.987	198.25
258.22	209.25
258.452	207.25
258.685	197.25
258.918	197.25
259.151	195.25
259.383	214.25
259.616	200.25
259.849	244.25
260.081	232.25
260.314	263.25
260.547	256.25
260.779	245.25
261.012	233.25
261.244	214.25
261.477	221.25
261.71	202.25
261.942	212.25
262.175	229.25
262.407	236.25
262.64	236.25
262.872	218.25
263.105	208.25
263.337	213.25
263.57	200.25
263.802	203.25
264.035	209.25
264.267	201.25
264.499	221.25
264.732	199.25
264.964	217.25
265.197	203.25
265.429	201.25
265.661	192.25
265.894	223.25
266.126	224.25
266.358	196.25
266.591	227.25
266.823	217.25
267.055	207.25
267.287	221.25
267.52	216.25
267.752	205.25
267.984	190.25
268.216	227.25
268.448	233.25
268.681	243.25
268.913	241.25
269.145	246.25
269.377	257.25
269.609	262.25
269.841	273.25
270.073	265.25
270.306	288.25
270.538	307.25
270.77	311.25
271.002	308.25
271.234	290.25
271.466	301.25
271.698	313.25
271.93	322.25
272.162	333.25
272.394	337.25
272.626	296.25
272.858	294.25
273.09	280.25
273.322	281.25
273.553	276.25
273.785	265.25
274.017	257.25
274.249	281.25
274.481	251.25
274.713	256.25
274.945	250.25
275.176	269.25
275.408	248.25
275.64	241.25
275.872	237.25
276.104	265.25
276.335	261.25
276.567	256.25
276.799	287.25
277.031	313.25
277.262	320.25
277.494	312.25
277.726	316.25
277.957	300.25
278.189	273.25
278.421	267.25
278.652	245.25
278.884	240.25
279.115	248.25
279.347	249.25
279.579	257.25
279.81	249.25
280.042	264.25
280.273	248.25
280.505	233.25
280.736	247.25
280.968	255.25
281.199	257.25
281.431	262.25
281.662	243.25
281.894	263.25
282.125	258.25
282.356	267.25
282.588	283.25
282.819	283.25
283.051	262.25
283.282	235.25
283.513	257.25
283.745	250.25
283.976	267.25
284.207	266.25
284.439	281.25
284.67	271.25
284.901	237.25
285.132	250.25
285.364	236.25
285.595	263.25
285.826	245.25
286.057	257.25
286.288	253.25
286.52	284.25
286.751	257.25
286.982	244.25
287.213	244.25
287.444	261.25
287.675	262.25
287.906	247.25
288.138	284.25
288.369	275.25
288.6	277.25
288.831	286.25
289.062	268.25
289.293	255.25
289.524	265.25
289.755	268.25
289.986	260.25
290.217	276.25
290.448	257.25
290.679	253.25
290.91	247.25
291.141	267.25
291.371	250.25
291.602	252.25
291.833	250.25
292.064	247.25
292.295	264.25
292.526	264.25
292.757	263.25
292.987	260.25
293.218	260.25
293.449	276.25
293.68	286.25
293.91	271.25
294.141	248.25
294.372	260.25
294.603	264.25
294.833	264.25
295.064	268.25
295.295	244.25
295.525	263.25
295.756	252.25
295.987	277.25
296.217	287.25
296.448	295.25
296.679	289.25
296.909	281.25
297.14	258.25
297.37	243.25
297.601	283.25
297.831	291.25
298.062	259.25
298.292	265.25
298.523	296.25
298.753	261.25
298.984	285.25
299.214	285.25
299.445	266.25
299.675	289.25
299.905	289.25
300.136	285.25
300.366	275.25
300.597	265.25
300.827	284.25
301.057	278.25
301.288	299.25
301.518	294.25
301.748	280.25
301.979	295.25
302.209	300.25
302.439	303.25
302.669	295.25
302.9	294.25
303.13	296.25
303.36	301.25
303.59	284.25
303.82	297.25
304.051	298.25
304.281	311.25
304.511	291.25
304.741	291.25
304.971	279.25
305.201	279.25
305.431	299.25
305.661	301.25
305.891	282.25
306.121	282.25
306.352	311.25
306.582	306.25
306.812	314.25
307.042	305.25
307.272	292.25
307.502	314.25
307.731	306.25
307.961	310.25
308.191	321.25
308.421	295.25
308.651	308.25
308.881	325.25
309.111	301.25
309.341	313.25
309.571	333.25
309.8	332.25
310.03	349.25
310.26	344.25
310.49	357.25
310.72	339.25
310.949	385.25
311.179	418.25
311.409	383.25
311.639	362.25
311.868	355.25
312.098	360.25
312.328	355.25
312.557	383.25
312.787	391.25
313.017	398.25
313.246	381.25
313.476	356.25
313.706	343.25
313.935	355.25
314.165	372.25
314.394	403.25
314.624	376.25
314.853	358.25
315.083	349.25
315.312	332.25
315.542	345.25
315.771	330.25
316.001	332.25
316.23	349.25
316.46	344.25
316.689	355.25
316.919	355.25
317.148	354.25
317.377	363.25
317.607	374.25
317.836	370.25
318.065	340.25
318.295	355.25
318.524	346.25
318.753	348.25
318.983	351.25
319.212	359.25
319.441	361.25
319.67	373.25
319.9	357.25
320.129	368.25
320.358	361.25
320.587	371.25
320.816	369.25
321.046	383.25
321.275	385.25
321.504	381.25
321.733	369.25
321.962	381.25
322.191	393.25
322.42	410.25
322.649	453.25
322.878	455.25
323.108	469.25
323.337	488.25
323.566	496.25
323.795	565.25
324.024	614.25
324.253	732.25
324.482	1057.25
324.71	1652.25
324.939	2348.25
325.168	2068.25
325.397	1113.25
325.626	724.25
325.855	591.25
326.084	530.25
326.313	506.25
326.542	525.25
326.77	557.25
326.999	677.25
327.228	965.25
327.457	1455.25
327.686	1765.25
327.914	1215.25
328.143	809.25
328.372	689.25
328.6	637.25
328.829	585.25
329.058	616.25
329.287	630.25
329.515	566.25
329.744	519.25
329.972	503.25
330.201	557.25
330.43	611.25
330.658	635.25
330.887	660.25
331.115	637.25
331.344	526.25
331.572	492.25
331.801	493.25
332.03	464.25
332.258	444.25
332.486	456.25
332.715	417.25
332.943	407.25
333.172	418.25
333.4	418.25
333.629	448.25
333.857	473.25
334.085	468.25
334.314	482.25
334.542	495.25
334.771	512.25
334.999	460.25
335.227	437.25
335.455	419.25
335.684	395.25
335.912	422.25
336.14	403.25
336.369	399.25
336.597	406.25
336.825	421.25
337.053	418.25
337.281	394.25
337.51	398.25
337.738	403.25
337.966	407.25
338.194	394.25
338.422	380.25
338.65	391.25
338.878	405.25
339.106	383.25
339.334	398.25
339.562	381.25
339.79	387.25
340.018	376.25
340.246	394.25
340.474	394.25
340.702	404.25
340.93	395.25
341.158	379.25
341.386	383.25
341.614	393.25
341.842	414.25
342.07	387.25
342.298	388.25
342.526	353.25
342.754	371.25
342.981	359.25
343.209	363.25
343.437	379.25
343.665	371.25
343.893	383.25
344.12	387.25
344.348	390.25
344.576	380.25
344.804	406.25
345.031	417.25
345.259	420.25
345.487	400.25
345.714	405.25
345.942	379.25
346.17	399.25
346.397	379.25
346.625	379.25
346.853	386.25
347.08	377.25
347.308	394.25
347.535	381.25
347.763	367.25
347.99	411.25
348.218	411.25
348.445	405.25
348.673	406.25
348.9	391.25
349.128	383.25
349.355	368.25
349.583	354.25
349.81	349.25
350.037	378.25
350.265	357.25
350.492	375.25
350.72	384.25
350.947	361.25
351.174	379.25
351.402	397.25
351.629	375.25
351.856	382.25
352.083	391.25
352.311	408.25
352.538	413.25
352.765	416.25
352.992	409.25
353.22	389.25
353.447	403.25
353.674	363.25
353.901	363.25
354.128	367.25
354.355	345.25
354.583	376.25
354.81	358.25
355.037	359.25
355.264	359.25
355.491	344.25
355.718	343.25
355.945	352.25
356.172	330.25
356.399	338.25
356.626	370.25
356.853	351.25
357.08	347.25
357.307	354.25
357.534	356.25
357.761	337.25
357.988	347.25
358.215	355.25
358.441	351.25
358.668	334.25
358.895	344.25
359.122	341.25
359.349	365.25
359.576	400.25
359.802	417.25
360.029	441.25
360.256	456.25
360.483	428.25
360.709	416.25
360.936	394.25
361.163	393.25
361.39	397.25
361.616	390.25
361.843	380.25
362.07	384.25
362.296	374.25
362.523	368.25
362.749	383.25
362.976	384.25
363.203	358.25
363.429	367.25
363.656	364.25
363.882	351.25
364.109	355.25
364.335	373.25
364.562	347.25
364.788	351.25
365.015	351.25
365.241	352.25
365.468	360.25
365.694	362.25
365.92	363.25
366.147	355.25
366.373	350.25
366.599	354.25
366.826	330.25
367.052	341.25
367.278	345.25
367.505	360.25
367.731	375.25
367.957	354.25
368.184	349.25
368.41	362.25
368.636	383.25
368.862	376.25
369.089	377.25
369.315	355.25
369.541	344.25
369.767	345.25
369.993	342.25
370.219	338.25
370.445	331.25
370.672	360.25
370.898	354.25
371.124	361.25
371.35	351.25
371.576	367.25
371.802	341.25
372.028	355.25
372.254	346.25
372.48	339.25
372.706	341.25
372.932	352.25
373.158	347.25
373.384	352.25
373.61	358.25
373.835	347.25
374.061	342.25
374.287	334.25
374.513	348.25
374.739	345.25
374.965	366.25
375.191	341.25
375.416	333.25
375.642	355.25
375.868	338.25
376.094	348.25
376.319	343.25
376.545	343.25
376.771	339.25
376.997	338.25
377.222	343.25
377.448	336.25
377.674	329.25
377.899	363.25
378.125	334.25
378.35	333.25
378.576	342.25
378.802	348.25
379.027	333.25
379.253	336.25
379.478	334.25
379.704	341.25
379.929	332.25
380.155	338.25
380.38	347.25
380.606	351.25
380.831	359.25
381.057	348.25
381.282	338.25
381.507	358.25
381.733	335.25
381.958	356.25
382.184	341.25
382.409	354.25
382.634	365.25
382.86	339.25
383.085	346.25
383.31	346.25
383.535	375.25
383.761	348.25
383.986	351.25
384.211	356.25
384.436	336.25
384.662	345.25
384.887	358.25
385.112	360.25
385.337	346.25
385.562	350.25
385.787	361.25
386.013	380.25
386.238	389.25
386.463	374.25
386.688	379.25
386.913	361.25
387.138	388.25
387.363	355.25
387.588	365.25
387.813	361.25
388.038	353.25
388.263	377.25
388.488	360.25
388.713	355.25
388.938	371.25
389.163	393.25
389.387	373.25
389.612	370.25
389.837	359.25
390.062	364.25
390.287	374.25
390.512	373.25
390.736	365.25
390.961	374.25
391.186	377.25
391.411	375.25
391.636	371.25
391.86	381.25
392.085	372.25
392.31	367.25
392.534	362.25
392.759	348.25
392.984	384.25
393.208	369.25
393.433	370.25
393.658	376.25
393.882	352.25
394.107	359.25
394.331	373.25
394.556	359.25
394.78	343.25
395.005	361.25
395.229	360.25
395.454	362.25
395.678	375.25
395.903	369.25
396.127	398.25
396.352	410.25
396.576	390.25
396.801	384.25
397.025	387.25
397.249	387.25
397.474	389.25
397.698	379.25
397.922	403.25
398.147	424.25
398.371	406.25
398.595	412.25
398.82	414.25
399.044	392.25
399.268	411.25
399.492	431.25
399.717	451.25
399.941	471.25
400.165	487.25
400.389	519.25
400.613	470.25
400.837	445.25
401.062	428.25
401.286	423.25
401.51	414.25
401.734	419.25
401.958	413.25
402.182	415.25
402.406	437.25
402.63	446.25
402.854	422.25
403.078	447.25
403.302	435.25
403.526	441.25
403.75	437.25
403.974	434.25
404.198	422.25
404.422	444.25
404.645	429.25
404.869	459.25
405.093	474.25
405.317	513.25
405.541	557.25
405.765	520.25
405.988	467.25
406.212	451.25
406.436	491.25
406.66	522.25
406.883	469.25
407.107	500.25
407.331	522.25
407.555	581.25
407.778	565.25
408.002	508.25
408.226	479.25
408.449	487.25
408.673	499.25
408.896	489.25
409.12	550.25
409.344	521.25
409.567	458.25
409.791	473.25
410.014	439.25
410.238	448.25
410.461	447.25
410.685	455.25
410.908	447.25
411.132	484.25
411.355	531.25
411.578	504.25
411.802	446.25
412.025	439.25
412.249	438.25
412.472	474.25
412.695	523.25
412.919	509.25
413.142	460.25
413.365	434.25
413.589	431.25
413.812	418.25
414.035	409.25
414.258	410.25
414.482	412.25
414.705	392.25
414.928	407.25
415.151	417.25
415.374	401.25
415.597	405.25
415.821	402.25
416.044	419.25
416.267	428.25
416.49	404.25
416.713	415.25
416.936	433.25
417.159	401.25
417.382	419.25
417.605	429.25
417.828	433.25
418.051	452.25
418.274	415.25
418.497	411.25
418.72	417.25
418.943	413.25
419.166	435.25
419.389	433.25
419.611	435.25
419.834	428.25
420.057	433.25
420.28	445.25
420.503	449.25
420.726	455.25
420.948	456.25
421.171	519.25
421.394	535.25
421.617	474.25
421.839	468.25
422.062	451.25
422.285	458.25
422.507	512.25
422.73	584.25
422.953	566.25
423.175	508.25
423.398	472.25
423.621	488.25
423.843	503.25
424.066	500.25
424.288	486.25
424.511	515.25
424.733	562.25
424.956	638.25
425.178	621.25
425.401	610.25
425.623	627.25
425.846	551.25
426.068	502.25
426.291	487.25
426.513	495.25
426.735	530.25
426.958	533.25
427.18	623.25
427.402	736.25
427.625	819.25
427.847	740.25
428.069	643.25
428.292	582.25
428.514	507.25
428.736	501.25
428.958	471.25
429.181	444.25
429.403	462.25
429.625	464.25
429.847	511.25
430.069	572.25
430.292	570.25
430.514	484.25
430.736	459.25
430.958	460.25
431.18	436.25
431.402	419.25
431.624	419.25
431.846	424.25
432.068	416.25
432.29	412.25
432.512	431.25
432.734	438.25
432.956	441.25
433.178	442.25
433.4	444.25
433.622	428.25
433.844	422.25
434.066	412.25
434.287	424.25
434.509	437.25
434.731	441.25
434.953	434.25
435.175	464.25
435.397	466.25
435.618	491.25
435.84	550.25
436.062	650.25
436.284	683.25
436.505	566.25
436.727	531.25
436.949	494.25
437.17	467.25
437.392	463.25
437.614	475.25
437.835	505.25
438.057	603.25
438.278	718.25
438.5	710.25
438.721	762.25
438.943	718.25
439.165	575.25
439.386	530.25
439.608	524.25
439.829	526.25
440.05	569.25
440.272	581.25
440.493	576.25
440.715	518.25
440.936	466.25
441.158	475.25
441.379	465.25
441.6	470.25
441.822	502.25
442.043	547.25
442.264	613.25
442.486	653.25
442.707	572.25
442.928	517.25
443.149	533.25
443.371	542.25
443.592	593.25
443.813	679.25
444.034	734.25
444.255	584.25
444.476	533.25
444.698	489.25
444.919	489.25
445.14	581.25
445.361	567.25
445.582	551.25
445.803	609.25
446.024	699.25
446.245	737.25
446.466	662.25
446.687	541.25
446.908	486.25
447.129	484.25
447.35	461.25
447.571	451.25
447.792	464.25
448.013	467.25
448.234	511.25
448.455	557.25
448.675	657.25
448.896	758.25
449.117	635.25
449.338	616.25
449.559	693.25
449.779	775.25
450	633.25
450.221	533.25
450.442	504.25
450.662	468.25
450.883	483.25
451.104	495.25
451.324	489.25
451.545	453.25
451.766	464.25
451.986	418.25
452.207	404.25
452.428	435.25
452.648	421.25
452.869	406.25
453.089	432.25
453.31	468.25
453.53	408.25
453.751	413.25
453.971	435.25
454.192	458.25
454.412	449.25
454.633	421.25
454.853	436.25
455.073	428.25
455.294	465.25
455.514	505.25
455.734	511.25
455.955	433.25
456.175	392.25
456.395	391.25
456.616	375.25
456.836	398.25
457.056	378.25
457.276	365.25
457.497	378.25
457.717	395.25
457.937	378.25
458.157	405.25
458.377	389.25
458.598	422.25
458.818	498.25
459.038	562.25
459.258	597.25
459.478	479.25
459.698	454.25
459.918	424.25
460.138	437.25
460.358	425.25
460.578	411.25
460.798	417.25
461.018	405.25
461.238	420.25
461.458	415.25
461.678	412.25
461.898	403.25
462.118	416.25
462.338	412.25
462.558	424.25
462.777	418.25
462.997	417.25
463.217	432.25
463.437	437.25
463.657	409.25
463.876	431.25
464.096	408.25
464.316	453.25
464.536	443.25
464.755	447.25
464.975	455.25
465.195	510.25
465.414	617.25
465.634	545.25
465.854	479.25
466.073	436.25
466.293	445.25
466.512	408.25
466.732	389.25
466.951	427.25
467.171	403.25
467.391	413.25
467.61	425.25
467.829	407.25
468.049	422.25
468.268	430.25
468.488	407.25
468.707	416.25
468.927	401.25
469.146	393.25
469.365	399.25
469.585	396.25
469.804	400.25
470.023	425.25
470.243	428.25
470.462	429.25
470.681	459.25
470.901	431.25
471.12	417.25
471.339	426.25
471.558	419.25
471.777	413.25
471.997	435.25
472.216	419.25
472.435	471.25
472.654	470.25
472.873	442.25
473.092	439.25
473.311	420.25
473.53	431.25
473.749	427.25
473.968	511.25
474.187	580.25
474.406	602.25
474.625	492.25
474.844	459.25
475.063	455.25
475.282	436.25
475.501	402.25
475.72	445.25
475.939	446.25
476.158	453.25
476.377	439.25
476.596	426.25
476.814	451.25
477.033	447.25
477.252	436.25
477.471	450.25
477.69	466.25
477.908	446.25
478.127	457.25
478.346	460.25
478.564	457.25
478.783	461.25
479.002	481.25
479.22	471.25
479.439	502.25
479.658	518.25
479.876	499.25
480.095	521.25
480.313	542.25
480.532	539.25
480.751	517.25
480.969	525.25
481.188	618.25
481.406	639.25
481.624	551.25
481.843	513.25
482.061	530.25
482.28	511.25
482.498	502.25
482.717	491.25
482.935	513.25
483.153	502.25
483.372	519.25
483.59	520.25
483.808	491.25
484.027	490.25
484.245	507.25
484.463	496.25
484.681	492.25
484.9	521.25
485.118	516.25
485.336	531.25
485.554	502.25
485.772	508.25
485.99	531.25
486.209	538.25
486.427	504.25
486.645	520.25
486.863	541.25
487.081	569.25
487.299	537.25
487.517	537.25
487.735	529.25
487.953	526.25
488.171	553.25
488.389	551.25
488.607	556.25
488.825	535.25
489.043	555.25
489.261	551.25
489.479	546.25
489.696	532.25
489.914	553.25
490.132	559.25
490.35	581.25
490.568	586.25
490.786	591.25
491.003	565.25
491.221	600.25
491.439	658.25
491.657	647.25
491.874	617.25
492.092	625.25
492.31	645.25
492.527	676.25
492.745	663.25
492.963	661.25
493.18	665.25
493.398	664.25
493.615	664.25
493.833	672.25
494.05	640.25
494.268	649.25
494.485	689.25
494.703	644.25
494.92	667.25
495.138	649.25
495.355	650.25
495.573	651.25
495.79	657.25
496.008	651.25
496.225	672.25
496.442	667.25
496.66	669.25
496.877	636.25
497.094	642.25
497.312	657.25
497.529	678.25
497.746	678.25
497.963	651.25
498.181	697.25
498.398	693.25
498.615	713.25
498.832	688.25
499.049	695.25
499.267	718.25
499.484	723.25
499.701	736.25
499.918	748.25
500.135	753.25
500.352	763.25
500.569	792.25
500.786	790.25
501.003	789.25
501.22	765.25
501.437	767.25
501.654	753.25
501.871	771.25
