Data from 1980.PennyLincolnUp.Lamp.En5.5.200Scan.071819.P1_HRD10591_16-38-53-958.txt Node
Date: Thu Jul 18 16:38:53 EDT 2019
User: cochatt
Spectrometer: HR+D1059
Trigger mode: 1
Integration Time (sec): 1.000000E-1
Scans to average: 1
Electric dark correction enabled: true
Nonlinearity correction enabled: false
Boxcar width: 0
XAxis mode: Wavelengths
Number of Pixels in Spectrum: 2048
>>>>>Begin Spectral Data<<<<<
223.165	-18.75
223.4	-18.75
223.635	-18.75
223.869	-11.75
224.104	-15.75
224.338	7.25
224.573	-8.75
224.808	-19.75
225.042	-25.75
225.277	-9.75
225.511	7.25
225.746	7.25
225.98	-1.75
226.215	6.25
226.449	17.25
226.683	23.25
226.918	30.25
227.152	13.25
227.387	36.25
227.621	35.25
227.856	39.25
228.09	47.25
228.324	57.25
228.559	54.25
228.793	71.25
229.027	110.25
229.262	102.25
229.496	115.25
229.73	141.25
229.964	177.25
230.199	142.25
230.433	117.25
230.667	107.25
230.901	113.25
231.136	113.25
231.37	133.25
231.604	120.25
231.838	107.25
232.072	117.25
232.306	120.25
232.541	110.25
232.775	108.25
233.009	97.25
233.243	106.25
233.477	100.25
233.711	119.25
233.945	119.25
234.179	105.25
234.413	114.25
234.647	119.25
234.881	120.25
235.115	124.25
235.349	116.25
235.583	128.25
235.817	129.25
236.051	120.25
236.285	140.25
236.519	142.25
236.753	136.25
236.987	157.25
237.221	204.25
237.455	258.25
237.689	203.25
237.922	147.25
238.156	144.25
238.39	129.25
238.624	136.25
238.858	129.25
239.091	140.25
239.325	125.25
239.559	112.25
239.793	136.25
240.027	127.25
240.26	127.25
240.494	159.25
240.728	158.25
240.961	166.25
241.195	152.25
241.429	138.25
241.662	141.25
241.896	147.25
242.13	133.25
242.363	132.25
242.597	132.25
242.83	140.25
243.064	145.25
243.298	151.25
243.531	139.25
243.765	141.25
243.998	124.25
244.232	140.25
244.465	139.25
244.699	150.25
244.932	154.25
245.166	134.25
245.399	147.25
245.633	137.25
245.866	152.25
246.099	138.25
246.333	141.25
246.566	161.25
246.8	154.25
247.033	160.25
247.266	178.25
247.5	175.25
247.733	179.25
247.966	186.25
248.2	171.25
248.433	171.25
248.666	170.25
248.899	202.25
249.133	193.25
249.366	232.25
249.599	217.25
249.832	205.25
250.066	192.25
250.299	175.25
250.532	203.25
250.765	215.25
250.998	233.25
251.231	239.25
251.465	217.25
251.698	208.25
251.931	211.25
252.164	205.25
252.397	193.25
252.63	216.25
252.863	203.25
253.096	219.25
253.329	232.25
253.562	234.25
253.795	250.25
254.028	227.25
254.261	219.25
254.494	242.25
254.727	272.25
254.96	298.25
255.193	287.25
255.426	276.25
255.659	274.25
255.892	231.25
256.124	214.25
256.357	245.25
256.59	236.25
256.823	225.25
257.056	228.25
257.289	211.25
257.521	216.25
257.754	227.25
257.987	205.25
258.22	219.25
258.452	203.25
258.685	203.25
258.918	197.25
259.151	211.25
259.383	227.25
259.616	218.25
259.849	233.25
260.081	253.25
260.314	272.25
260.547	282.25
260.779	267.25
261.012	231.25
261.244	224.25
261.477	233.25
261.71	236.25
261.942	227.25
262.175	258.25
262.407	252.25
262.64	221.25
262.872	220.25
263.105	225.25
263.337	218.25
263.57	225.25
263.802	213.25
264.035	203.25
264.267	226.25
264.499	215.25
264.732	201.25
264.964	205.25
265.197	207.25
265.429	211.25
265.661	218.25
265.894	208.25
266.126	221.25
266.358	203.25
266.591	201.25
266.823	216.25
267.055	228.25
267.287	225.25
267.52	224.25
267.752	204.25
267.984	220.25
268.216	228.25
268.448	234.25
268.681	234.25
268.913	237.25
269.145	271.25
269.377	269.25
269.609	300.25
269.841	268.25
270.073	269.25
270.306	308.25
270.538	339.25
270.77	335.25
271.002	324.25
271.234	297.25
271.466	290.25
271.698	315.25
271.93	314.25
272.162	352.25
272.394	346.25
272.626	333.25
272.858	300.25
273.09	301.25
273.322	292.25
273.553	265.25
273.785	261.25
274.017	253.25
274.249	262.25
274.481	260.25
274.713	283.25
274.945	272.25
275.176	265.25
275.408	281.25
275.64	278.25
275.872	257.25
276.104	261.25
276.335	263.25
276.567	274.25
276.799	283.25
277.031	312.25
277.262	335.25
277.494	322.25
277.726	292.25
277.957	284.25
278.189	293.25
278.421	262.25
278.652	285.25
278.884	282.25
279.115	267.25
279.347	255.25
279.579	268.25
279.81	270.25
280.042	255.25
280.273	266.25
280.505	273.25
280.736	257.25
280.968	249.25
281.199	261.25
281.431	272.25
281.662	233.25
281.894	268.25
282.125	253.25
282.356	275.25
282.588	305.25
282.819	315.25
283.051	267.25
283.282	277.25
283.513	266.25
283.745	262.25
283.976	258.25
284.207	264.25
284.439	269.25
284.67	272.25
284.901	275.25
285.132	263.25
285.364	260.25
285.595	271.25
285.826	269.25
286.057	264.25
286.288	277.25
286.52	291.25
286.751	260.25
286.982	265.25
287.213	252.25
287.444	281.25
287.675	279.25
287.906	275.25
288.138	268.25
288.369	296.25
288.6	279.25
288.831	289.25
289.062	277.25
289.293	299.25
289.524	260.25
289.755	266.25
289.986	286.25
290.217	281.25
290.448	267.25
290.679	273.25
290.91	276.25
291.141	280.25
291.371	290.25
291.602	289.25
291.833	279.25
292.064	281.25
292.295	282.25
292.526	287.25
292.757	272.25
292.987	279.25
293.218	275.25
293.449	269.25
293.68	283.25
293.91	275.25
294.141	274.25
294.372	280.25
294.603	274.25
294.833	282.25
295.064	285.25
295.295	277.25
295.525	262.25
295.756	271.25
295.987	279.25
296.217	307.25
296.448	340.25
296.679	293.25
296.909	285.25
297.14	288.25
297.37	279.25
297.601	266.25
297.831	286.25
298.062	285.25
298.292	300.25
298.523	291.25
298.753	293.25
298.984	287.25
299.214	286.25
299.445	280.25
299.675	298.25
299.905	303.25
300.136	294.25
300.366	287.25
300.597	311.25
300.827	314.25
301.057	309.25
301.288	303.25
301.518	306.25
301.748	316.25
301.979	289.25
302.209	314.25
302.439	317.25
302.669	316.25
302.9	293.25
303.13	312.25
303.36	323.25
303.59	321.25
303.82	324.25
304.051	313.25
304.281	322.25
304.511	316.25
304.741	306.25
304.971	298.25
305.201	291.25
305.431	311.25
305.661	311.25
305.891	304.25
306.121	327.25
306.352	321.25
306.582	330.25
306.812	308.25
307.042	313.25
307.272	307.25
307.502	285.25
307.731	317.25
307.961	303.25
308.191	311.25
308.421	322.25
308.651	325.25
308.881	305.25
309.111	332.25
309.341	310.25
309.571	312.25
309.8	345.25
310.03	337.25
310.26	365.25
310.49	366.25
310.72	371.25
310.949	378.25
311.179	396.25
311.409	365.25
311.639	371.25
311.868	369.25
312.098	375.25
312.328	397.25
312.557	405.25
312.787	408.25
313.017	437.25
313.246	397.25
313.476	384.25
313.706	375.25
313.935	391.25
314.165	396.25
314.394	409.25
314.624	387.25
314.853	387.25
315.083	374.25
315.312	372.25
315.542	349.25
315.771	365.25
316.001	348.25
316.23	349.25
316.46	360.25
316.689	365.25
316.919	366.25
317.148	369.25
317.377	379.25
317.607	376.25
317.836	379.25
318.065	357.25
318.295	373.25
318.524	355.25
318.753	343.25
318.983	367.25
319.212	371.25
319.441	360.25
319.67	402.25
319.9	376.25
320.129	384.25
320.358	360.25
320.587	378.25
320.816	383.25
321.046	384.25
321.275	388.25
321.504	387.25
321.733	377.25
321.962	408.25
322.191	435.25
322.42	445.25
322.649	441.25
322.878	458.25
323.108	459.25
323.337	501.25
323.566	548.25
323.795	555.25
324.024	633.25
324.253	777.25
324.482	1117.25
324.71	1711.25
324.939	2473.25
325.168	2181.25
325.397	1179.25
325.626	743.25
325.855	627.25
326.084	561.25
326.313	556.25
326.542	541.25
326.77	600.25
326.999	690.25
327.228	988.25
327.457	1535.25
327.686	1939.25
327.914	1271.25
328.143	823.25
328.372	708.25
328.6	663.25
328.829	615.25
329.058	629.25
329.287	631.25
329.515	607.25
329.744	549.25
329.972	544.25
330.201	559.25
330.43	601.25
330.658	641.25
330.887	665.25
331.115	663.25
331.344	581.25
331.572	496.25
331.801	508.25
332.03	501.25
332.258	457.25
332.486	470.25
332.715	444.25
332.943	431.25
333.172	448.25
333.4	440.25
333.629	441.25
333.857	477.25
334.085	467.25
334.314	484.25
334.542	531.25
334.771	559.25
334.999	496.25
335.227	449.25
335.455	453.25
335.684	448.25
335.912	423.25
336.14	437.25
336.369	433.25
336.597	428.25
336.825	421.25
337.053	416.25
337.281	394.25
337.51	393.25
337.738	408.25
337.966	409.25
338.194	434.25
338.422	415.25
338.65	413.25
338.878	417.25
339.106	410.25
339.334	386.25
339.562	402.25
339.79	402.25
340.018	401.25
340.246	416.25
340.474	434.25
340.702	406.25
340.93	414.25
341.158	404.25
341.386	405.25
341.614	399.25
341.842	407.25
342.07	400.25
342.298	404.25
342.526	400.25
342.754	380.25
342.981	392.25
343.209	395.25
343.437	397.25
343.665	396.25
343.893	409.25
344.12	393.25
344.348	400.25
344.576	398.25
344.804	412.25
345.031	436.25
345.259	418.25
345.487	420.25
345.714	403.25
345.942	403.25
346.17	399.25
346.397	417.25
346.625	411.25
346.853	397.25
347.08	397.25
347.308	397.25
347.535	415.25
347.763	433.25
347.99	432.25
348.218	424.25
348.445	432.25
348.673	408.25
348.9	390.25
349.128	398.25
349.355	376.25
349.583	374.25
349.81	373.25
350.037	391.25
350.265	379.25
350.492	406.25
350.72	387.25
350.947	396.25
351.174	387.25
351.402	427.25
351.629	397.25
351.856	398.25
352.083	401.25
352.311	425.25
352.538	397.25
352.765	437.25
352.992	422.25
353.22	399.25
353.447	391.25
353.674	393.25
353.901	379.25
354.128	376.25
354.355	345.25
354.583	372.25
354.81	364.25
355.037	369.25
355.264	356.25
355.491	360.25
355.718	347.25
355.945	365.25
356.172	349.25
356.399	360.25
356.626	372.25
356.853	378.25
357.08	342.25
357.307	369.25
357.534	360.25
357.761	344.25
357.988	371.25
358.215	369.25
358.441	369.25
358.668	378.25
358.895	362.25
359.122	375.25
359.349	408.25
359.576	388.25
359.802	447.25
360.029	460.25
360.256	468.25
360.483	456.25
360.709	415.25
360.936	431.25
361.163	403.25
361.39	417.25
361.616	397.25
361.843	398.25
362.07	408.25
362.296	428.25
362.523	407.25
362.749	381.25
362.976	381.25
363.203	397.25
363.429	388.25
363.656	382.25
363.882	375.25
364.109	383.25
364.335	389.25
364.562	368.25
364.788	380.25
365.015	377.25
365.241	358.25
365.468	375.25
365.694	392.25
365.92	406.25
366.147	370.25
366.373	375.25
366.599	369.25
366.826	367.25
367.052	382.25
367.278	389.25
367.505	390.25
367.731	379.25
367.957	359.25
368.184	387.25
368.41	362.25
368.636	380.25
368.862	389.25
369.089	378.25
369.315	389.25
369.541	368.25
369.767	350.25
369.993	377.25
370.219	375.25
370.445	353.25
370.672	360.25
370.898	364.25
371.124	361.25
371.35	367.25
371.576	369.25
371.802	355.25
372.028	344.25
372.254	372.25
372.48	358.25
372.706	369.25
372.932	357.25
373.158	367.25
373.384	348.25
373.61	359.25
373.835	368.25
374.061	369.25
374.287	364.25
374.513	352.25
374.739	354.25
374.965	372.25
375.191	358.25
375.416	353.25
375.642	369.25
375.868	358.25
376.094	339.25
376.319	364.25
376.545	369.25
376.771	356.25
376.997	356.25
377.222	372.25
377.448	362.25
377.674	349.25
377.899	352.25
378.125	358.25
378.35	364.25
378.576	342.25
378.802	352.25
379.027	362.25
379.253	370.25
379.478	355.25
379.704	343.25
379.929	346.25
380.155	348.25
380.38	346.25
380.606	348.25
380.831	379.25
381.057	368.25
381.282	351.25
381.507	362.25
381.733	366.25
381.958	369.25
382.184	372.25
382.409	377.25
382.634	359.25
382.86	352.25
383.085	369.25
383.31	377.25
383.535	361.25
383.761	369.25
383.986	376.25
384.211	381.25
384.436	378.25
384.662	362.25
384.887	365.25
385.112	372.25
385.337	381.25
385.562	361.25
385.787	372.25
386.013	413.25
386.238	387.25
386.463	396.25
386.688	384.25
386.913	376.25
387.138	386.25
387.363	397.25
387.588	383.25
387.813	390.25
388.038	372.25
388.263	384.25
388.488	370.25
388.713	378.25
388.938	390.25
389.163	385.25
389.387	379.25
389.612	377.25
389.837	377.25
390.062	394.25
390.287	396.25
390.512	373.25
390.736	373.25
390.961	388.25
391.186	374.25
391.411	355.25
391.636	377.25
391.86	394.25
392.085	389.25
392.31	376.25
392.534	367.25
392.759	390.25
392.984	391.25
393.208	374.25
393.433	382.25
393.658	388.25
393.882	377.25
394.107	377.25
394.331	375.25
394.556	379.25
394.78	386.25
395.005	407.25
395.229	378.25
395.454	381.25
395.678	395.25
395.903	410.25
396.127	425.25
396.352	419.25
396.576	412.25
396.801	393.25
397.025	388.25
397.249	404.25
397.474	407.25
397.698	387.25
397.922	405.25
398.147	403.25
398.371	416.25
398.595	419.25
398.82	418.25
399.044	426.25
399.268	436.25
399.492	467.25
399.717	460.25
399.941	507.25
400.165	511.25
400.389	533.25
400.613	480.25
400.837	467.25
401.062	455.25
401.286	440.25
401.51	453.25
401.734	460.25
401.958	449.25
402.182	443.25
402.406	447.25
402.63	465.25
402.854	441.25
403.078	435.25
403.302	451.25
403.526	470.25
403.75	483.25
403.974	470.25
404.198	452.25
404.422	474.25
404.645	455.25
404.869	462.25
405.093	523.25
405.317	549.25
405.541	577.25
405.765	528.25
405.988	487.25
406.212	477.25
406.436	512.25
406.66	523.25
406.883	506.25
407.107	509.25
407.331	559.25
407.555	605.25
407.778	601.25
408.002	552.25
408.226	520.25
408.449	518.25
408.673	528.25
408.896	517.25
409.12	564.25
409.344	562.25
409.567	484.25
409.791	473.25
410.014	446.25
410.238	475.25
410.461	461.25
410.685	467.25
410.908	472.25
411.132	531.25
411.355	563.25
411.578	530.25
411.802	485.25
412.025	477.25
412.249	481.25
412.472	513.25
412.695	537.25
412.919	535.25
413.142	492.25
413.365	462.25
413.589	451.25
413.812	439.25
414.035	431.25
414.258	444.25
414.482	421.25
414.705	437.25
414.928	439.25
415.151	420.25
415.374	435.25
415.597	420.25
415.821	418.25
416.044	420.25
416.267	437.25
416.49	447.25
416.713	459.25
416.936	436.25
417.159	426.25
417.382	427.25
417.605	451.25
417.828	450.25
418.051	463.25
418.274	451.25
418.497	453.25
418.72	446.25
418.943	445.25
419.166	465.25
419.389	475.25
419.611	476.25
419.834	456.25
420.057	473.25
420.28	487.25
420.503	473.25
420.726	462.25
420.948	504.25
421.171	520.25
421.394	560.25
421.617	487.25
421.839	469.25
422.062	456.25
422.285	491.25
422.507	551.25
422.73	617.25
422.953	594.25
423.175	515.25
423.398	498.25
423.621	498.25
423.843	508.25
424.066	530.25
424.288	493.25
424.511	551.25
424.733	569.25
424.956	674.25
425.178	659.25
425.401	629.25
425.623	648.25
425.846	575.25
426.068	545.25
426.291	513.25
426.513	520.25
426.735	550.25
426.958	571.25
427.18	666.25
427.402	742.25
427.625	873.25
427.847	756.25
428.069	669.25
428.292	589.25
428.514	516.25
428.736	488.25
428.958	504.25
429.181	483.25
429.403	481.25
429.625	485.25
429.847	503.25
430.069	587.25
430.292	610.25
430.514	530.25
430.736	471.25
430.958	466.25
431.18	451.25
431.402	456.25
431.624	451.25
431.846	440.25
432.068	437.25
432.29	427.25
432.512	423.25
432.734	461.25
432.956	452.25
433.178	475.25
433.4	468.25
433.622	460.25
433.844	447.25
434.066	443.25
434.287	426.25
434.509	443.25
434.731	463.25
434.953	460.25
435.175	475.25
435.397	511.25
435.618	522.25
435.84	587.25
436.062	660.25
436.284	725.25
436.505	591.25
436.727	537.25
436.949	518.25
437.17	499.25
437.392	487.25
437.614	515.25
437.835	560.25
438.057	669.25
438.278	755.25
438.5	748.25
438.721	806.25
438.943	788.25
439.165	613.25
439.386	537.25
439.608	570.25
439.829	549.25
440.05	560.25
440.272	619.25
440.493	583.25
440.715	525.25
440.936	515.25
441.158	498.25
441.379	476.25
441.6	506.25
441.822	530.25
442.043	578.25
442.264	654.25
442.486	704.25
442.707	572.25
442.928	527.25
443.149	559.25
443.371	543.25
443.592	640.25
443.813	692.25
444.034	741.25
444.255	621.25
444.476	535.25
444.698	521.25
444.919	524.25
445.14	576.25
445.361	569.25
445.582	567.25
445.803	640.25
446.024	747.25
446.245	744.25
446.466	691.25
446.687	572.25
446.908	541.25
447.129	513.25
447.35	486.25
447.571	492.25
447.792	482.25
448.013	513.25
448.234	519.25
448.455	594.25
448.675	680.25
448.896	760.25
449.117	686.25
449.338	655.25
449.559	709.25
449.779	828.25
450	653.25
450.221	556.25
450.442	520.25
450.662	491.25
450.883	515.25
451.104	520.25
451.324	529.25
451.545	454.25
451.766	467.25
451.986	442.25
452.207	428.25
452.428	448.25
452.648	432.25
452.869	443.25
453.089	460.25
453.31	464.25
453.53	447.25
453.751	428.25
453.971	440.25
454.192	467.25
454.412	466.25
454.633	456.25
454.853	427.25
455.073	446.25
455.294	462.25
455.514	548.25
455.734	540.25
455.955	454.25
456.175	429.25
456.395	405.25
456.616	413.25
456.836	402.25
457.056	398.25
457.276	405.25
457.497	393.25
457.717	395.25
457.937	409.25
458.157	419.25
458.377	413.25
458.598	427.25
458.818	520.25
459.038	614.25
459.258	625.25
459.478	520.25
459.698	453.25
459.918	466.25
460.138	455.25
460.358	439.25
460.578	423.25
460.798	457.25
461.018	457.25
461.238	427.25
461.458	423.25
461.678	413.25
461.898	452.25
462.118	437.25
462.338	432.25
462.558	465.25
462.777	461.25
462.997	445.25
463.217	446.25
463.437	454.25
463.657	411.25
463.876	438.25
464.096	440.25
464.316	457.25
464.536	467.25
464.755	466.25
464.975	486.25
465.195	530.25
465.414	641.25
465.634	573.25
465.854	484.25
466.073	467.25
466.293	451.25
466.512	457.25
466.732	439.25
466.951	420.25
467.171	433.25
467.391	439.25
467.61	449.25
467.829	479.25
468.049	444.25
468.268	451.25
468.488	452.25
468.707	448.25
468.927	434.25
469.146	426.25
469.365	416.25
469.585	452.25
469.804	445.25
470.023	468.25
470.243	449.25
470.462	450.25
470.681	464.25
470.901	469.25
471.12	442.25
471.339	438.25
471.558	423.25
471.777	456.25
471.997	424.25
472.216	448.25
472.435	509.25
472.654	489.25
472.873	477.25
473.092	447.25
473.311	444.25
473.53	433.25
473.749	463.25
473.968	497.25
474.187	627.25
474.406	657.25
474.625	531.25
474.844	477.25
475.063	440.25
475.282	435.25
475.501	444.25
475.72	470.25
475.939	453.25
476.158	455.25
476.377	453.25
476.596	473.25
476.814	452.25
477.033	475.25
477.252	473.25
477.471	484.25
477.69	474.25
477.908	483.25
478.127	470.25
478.346	484.25
478.564	477.25
478.783	502.25
479.002	487.25
479.22	481.25
479.439	511.25
479.658	515.25
479.876	541.25
480.095	554.25
480.313	566.25
480.532	541.25
480.751	554.25
480.969	548.25
481.188	642.25
481.406	686.25
481.624	591.25
481.843	557.25
482.061	543.25
482.28	532.25
482.498	535.25
482.717	515.25
482.935	525.25
483.153	524.25
483.372	514.25
483.59	521.25
483.808	524.25
484.027	540.25
484.245	549.25
484.463	516.25
484.681	534.25
484.9	541.25
485.118	550.25
485.336	548.25
485.554	528.25
485.772	550.25
485.99	546.25
486.209	555.25
486.427	554.25
486.645	564.25
486.863	578.25
487.081	595.25
487.299	586.25
487.517	583.25
487.735	581.25
487.953	578.25
488.171	571.25
488.389	585.25
488.607	570.25
488.825	590.25
489.043	577.25
489.261	560.25
489.479	575.25
489.696	576.25
489.914	577.25
490.132	608.25
490.35	615.25
490.568	585.25
490.786	625.25
491.003	624.25
491.221	627.25
491.439	651.25
491.657	649.25
491.874	676.25
492.092	664.25
492.31	647.25
492.527	690.25
492.745	666.25
492.963	671.25
493.18	662.25
493.398	671.25
493.615	695.25
493.833	683.25
494.05	662.25
494.268	682.25
494.485	658.25
494.703	661.25
494.92	686.25
495.138	676.25
495.355	689.25
495.573	692.25
495.79	676.25
496.008	669.25
496.225	681.25
496.442	684.25
496.66	665.25
496.877	695.25
497.094	680.25
497.312	700.25
497.529	680.25
497.746	697.25
497.963	704.25
498.181	723.25
498.398	735.25
498.615	733.25
498.832	752.25
499.049	760.25
499.267	731.25
499.484	763.25
499.701	769.25
499.918	783.25
500.135	800.25
500.352	828.25
500.569	839.25
500.786	811.25
501.003	831.25
501.22	811.25
501.437	810.25
501.654	805.25
501.871	830.25
