Data from 1980.PennyLincolnUp.Lamp.En5.5.200Scan.071819.P1_HRD10591_16-38-25-960.txt Node
Date: Thu Jul 18 16:38:25 EDT 2019
User: cochatt
Spectrometer: HR+D1059
Trigger mode: 1
Integration Time (sec): 1.000000E-1
Scans to average: 1
Electric dark correction enabled: true
Nonlinearity correction enabled: false
Boxcar width: 0
XAxis mode: Wavelengths
Number of Pixels in Spectrum: 2048
>>>>>Begin Spectral Data<<<<<
223.165	-10.88
223.4	-10.88
223.635	-10.88
223.869	-19.88
224.104	-15.88
224.338	-18.88
224.573	-18.88
224.808	-9.88
225.042	-7.88
225.277	-16.88
225.511	-0.88
225.746	-5.88
225.98	9.12
226.215	6.12
226.449	19.12
226.683	18.12
226.918	38.12
227.152	35.12
227.387	35.12
227.621	41.12
227.856	56.12
228.09	43.12
228.324	45.12
228.559	59.12
228.793	70.12
229.027	106.12
229.262	107.12
229.496	108.12
229.73	139.12
229.964	181.12
230.199	152.12
230.433	124.12
230.667	120.12
230.901	123.12
231.136	114.12
231.37	123.12
231.604	118.12
231.838	100.12
232.072	103.12
232.306	137.12
232.541	101.12
232.775	117.12
233.009	117.12
233.243	121.12
233.477	113.12
233.711	115.12
233.945	128.12
234.179	121.12
234.413	112.12
234.647	120.12
234.881	135.12
235.115	116.12
235.349	124.12
235.583	127.12
235.817	131.12
236.051	132.12
236.285	125.12
236.519	139.12
236.753	133.12
236.987	146.12
237.221	208.12
237.455	252.12
237.689	196.12
237.922	160.12
238.156	132.12
238.39	140.12
238.624	139.12
238.858	130.12
239.091	131.12
239.325	137.12
239.559	126.12
239.793	144.12
240.027	146.12
240.26	144.12
240.494	165.12
240.728	159.12
240.961	157.12
241.195	149.12
241.429	142.12
241.662	141.12
241.896	161.12
242.13	139.12
242.363	129.12
242.597	145.12
242.83	140.12
243.064	128.12
243.298	154.12
243.531	138.12
243.765	143.12
243.998	153.12
244.232	140.12
244.465	145.12
244.699	157.12
244.932	148.12
245.166	164.12
245.399	145.12
245.633	141.12
245.866	150.12
246.099	151.12
246.333	135.12
246.566	164.12
246.8	151.12
247.033	153.12
247.266	176.12
247.5	176.12
247.733	177.12
247.966	188.12
248.2	185.12
248.433	175.12
248.666	177.12
248.899	191.12
249.133	200.12
249.366	223.12
249.599	207.12
249.832	193.12
250.066	183.12
250.299	192.12
250.532	203.12
250.765	204.12
250.998	222.12
251.231	240.12
251.465	222.12
251.698	205.12
251.931	212.12
252.164	209.12
252.397	221.12
252.63	212.12
252.863	209.12
253.096	228.12
253.329	243.12
253.562	245.12
253.795	239.12
254.028	229.12
254.261	214.12
254.494	239.12
254.727	256.12
254.96	295.12
255.193	283.12
255.426	267.12
255.659	261.12
255.892	245.12
256.124	271.12
256.357	238.12
256.59	236.12
256.823	233.12
257.056	223.12
257.289	218.12
257.521	200.12
257.754	223.12
257.987	209.12
258.22	212.12
258.452	191.12
258.685	221.12
258.918	225.12
259.151	205.12
259.383	228.12
259.616	225.12
259.849	232.12
260.081	240.12
260.314	257.12
260.547	274.12
260.779	267.12
261.012	232.12
261.244	247.12
261.477	230.12
261.71	235.12
261.942	220.12
262.175	234.12
262.407	245.12
262.64	242.12
262.872	215.12
263.105	212.12
263.337	217.12
263.57	197.12
263.802	204.12
264.035	206.12
264.267	207.12
264.499	222.12
264.732	191.12
264.964	206.12
265.197	210.12
265.429	213.12
265.661	214.12
265.894	220.12
266.126	204.12
266.358	204.12
266.591	225.12
266.823	247.12
267.055	220.12
267.287	242.12
267.52	221.12
267.752	211.12
267.984	229.12
268.216	215.12
268.448	226.12
268.681	213.12
268.913	240.12
269.145	248.12
269.377	276.12
269.609	287.12
269.841	272.12
270.073	260.12
270.306	280.12
270.538	318.12
270.77	311.12
271.002	291.12
271.234	321.12
271.466	304.12
271.698	317.12
271.93	319.12
272.162	331.12
272.394	337.12
272.626	318.12
272.858	300.12
273.09	295.12
273.322	269.12
273.553	268.12
273.785	248.12
274.017	248.12
274.249	263.12
274.481	263.12
274.713	260.12
274.945	265.12
275.176	267.12
275.408	267.12
275.64	255.12
275.872	235.12
276.104	261.12
276.335	260.12
276.567	278.12
276.799	284.12
277.031	326.12
277.262	304.12
277.494	310.12
277.726	311.12
277.957	287.12
278.189	273.12
278.421	259.12
278.652	276.12
278.884	255.12
279.115	263.12
279.347	271.12
279.579	248.12
279.81	270.12
280.042	260.12
280.273	263.12
280.505	263.12
280.736	263.12
280.968	236.12
281.199	253.12
281.431	245.12
281.662	257.12
281.894	256.12
282.125	246.12
282.356	279.12
282.588	293.12
282.819	292.12
283.051	277.12
283.282	250.12
283.513	251.12
283.745	246.12
283.976	275.12
284.207	268.12
284.439	265.12
284.67	278.12
284.901	250.12
285.132	265.12
285.364	270.12
285.595	267.12
285.826	277.12
286.057	248.12
286.288	254.12
286.52	274.12
286.751	263.12
286.982	256.12
287.213	279.12
287.444	275.12
287.675	289.12
287.906	291.12
288.138	304.12
288.369	274.12
288.6	277.12
288.831	281.12
289.062	289.12
289.293	264.12
289.524	284.12
289.755	254.12
289.986	255.12
290.217	264.12
290.448	247.12
290.679	256.12
290.91	274.12
291.141	283.12
291.371	273.12
291.602	261.12
291.833	248.12
292.064	259.12
292.295	267.12
292.526	253.12
292.757	262.12
292.987	264.12
293.218	279.12
293.449	281.12
293.68	259.12
293.91	264.12
294.141	268.12
294.372	268.12
294.603	274.12
294.833	280.12
295.064	271.12
295.295	263.12
295.525	261.12
295.756	279.12
295.987	273.12
296.217	298.12
296.448	325.12
296.679	279.12
296.909	268.12
297.14	275.12
297.37	284.12
297.601	277.12
297.831	270.12
298.062	285.12
298.292	271.12
298.523	279.12
298.753	258.12
298.984	270.12
299.214	269.12
299.445	282.12
299.675	279.12
299.905	288.12
300.136	283.12
300.366	286.12
300.597	280.12
300.827	309.12
301.057	299.12
301.288	318.12
301.518	309.12
301.748	299.12
301.979	279.12
302.209	282.12
302.439	307.12
302.669	298.12
302.9	289.12
303.13	287.12
303.36	296.12
303.59	311.12
303.82	315.12
304.051	323.12
304.281	308.12
304.511	294.12
304.741	294.12
304.971	291.12
305.201	295.12
305.431	304.12
305.661	299.12
305.891	297.12
306.121	302.12
306.352	328.12
306.582	311.12
306.812	295.12
307.042	308.12
307.272	293.12
307.502	287.12
307.731	292.12
307.961	309.12
308.191	304.12
308.421	305.12
308.651	313.12
308.881	315.12
309.111	347.12
309.341	332.12
309.571	332.12
309.8	332.12
310.03	344.12
310.26	371.12
310.49	353.12
310.72	353.12
310.949	377.12
311.179	384.12
311.409	383.12
311.639	376.12
311.868	329.12
312.098	379.12
312.328	392.12
312.557	386.12
312.787	405.12
313.017	413.12
313.246	390.12
313.476	347.12
313.706	360.12
313.935	365.12
314.165	390.12
314.394	391.12
314.624	384.12
314.853	352.12
315.083	364.12
315.312	374.12
315.542	339.12
315.771	329.12
316.001	345.12
316.23	342.12
316.46	355.12
316.689	344.12
316.919	355.12
317.148	374.12
317.377	360.12
317.607	368.12
317.836	363.12
318.065	350.12
318.295	347.12
318.524	332.12
318.753	347.12
318.983	372.12
319.212	373.12
319.441	352.12
319.67	372.12
319.9	377.12
320.129	362.12
320.358	375.12
320.587	377.12
320.816	371.12
321.046	381.12
321.275	395.12
321.504	387.12
321.733	407.12
321.962	393.12
322.191	413.12
322.42	423.12
322.649	415.12
322.878	462.12
323.108	472.12
323.337	506.12
323.566	521.12
323.795	574.12
324.024	615.12
324.253	774.12
324.482	1093.12
324.71	1676.12
324.939	2401.12
325.168	2166.12
325.397	1151.12
325.626	727.12
325.855	608.12
326.084	563.12
326.313	543.12
326.542	547.12
326.77	572.12
326.999	700.12
327.228	963.12
327.457	1501.12
327.686	1857.12
327.914	1285.12
328.143	827.12
328.372	694.12
328.6	678.12
328.829	602.12
329.058	643.12
329.287	630.12
329.515	591.12
329.744	537.12
329.972	562.12
330.201	557.12
330.43	616.12
330.658	631.12
330.887	671.12
331.115	651.12
331.344	551.12
331.572	498.12
331.801	471.12
332.03	490.12
332.258	453.12
332.486	449.12
332.715	425.12
332.943	430.12
333.172	429.12
333.4	443.12
333.629	427.12
333.857	461.12
334.085	476.12
334.314	488.12
334.542	517.12
334.771	557.12
334.999	510.12
335.227	472.12
335.455	412.12
335.684	440.12
335.912	424.12
336.14	398.12
336.369	405.12
336.597	418.12
336.825	392.12
337.053	408.12
337.281	398.12
337.51	412.12
337.738	390.12
337.966	408.12
338.194	420.12
338.422	424.12
338.65	391.12
338.878	410.12
339.106	395.12
339.334	386.12
339.562	387.12
339.79	391.12
340.018	393.12
340.246	415.12
340.474	405.12
340.702	399.12
340.93	387.12
341.158	389.12
341.386	408.12
341.614	390.12
341.842	397.12
342.07	414.12
342.298	387.12
342.526	389.12
342.754	387.12
342.981	358.12
343.209	388.12
343.437	380.12
343.665	385.12
343.893	381.12
344.12	389.12
344.348	404.12
344.576	389.12
344.804	418.12
345.031	411.12
345.259	402.12
345.487	412.12
345.714	402.12
345.942	399.12
346.17	377.12
346.397	395.12
346.625	377.12
346.853	382.12
347.08	391.12
347.308	371.12
347.535	397.12
347.763	410.12
347.99	391.12
348.218	408.12
348.445	413.12
348.673	403.12
348.9	391.12
349.128	390.12
349.355	380.12
349.583	378.12
349.81	371.12
350.037	383.12
350.265	372.12
350.492	366.12
350.72	379.12
350.947	366.12
351.174	387.12
351.402	401.12
351.629	392.12
351.856	405.12
352.083	406.12
352.311	411.12
352.538	408.12
352.765	422.12
352.992	405.12
353.22	396.12
353.447	373.12
353.674	384.12
353.901	377.12
354.128	364.12
354.355	337.12
354.583	363.12
354.81	361.12
355.037	344.12
355.264	361.12
355.491	350.12
355.718	373.12
355.945	335.12
356.172	336.12
356.399	351.12
356.626	336.12
356.853	344.12
357.08	341.12
357.307	348.12
357.534	353.12
357.761	350.12
357.988	346.12
358.215	351.12
358.441	356.12
358.668	358.12
358.895	368.12
359.122	373.12
359.349	391.12
359.576	369.12
359.802	412.12
360.029	441.12
360.256	481.12
360.483	425.12
360.709	399.12
360.936	404.12
361.163	388.12
361.39	409.12
361.616	414.12
361.843	399.12
362.07	394.12
362.296	405.12
362.523	388.12
362.749	402.12
362.976	372.12
363.203	363.12
363.429	355.12
363.656	382.12
363.882	375.12
364.109	354.12
364.335	351.12
364.562	369.12
364.788	368.12
365.015	366.12
365.241	335.12
365.468	366.12
365.694	389.12
365.92	380.12
366.147	367.12
366.373	362.12
366.599	364.12
366.826	360.12
367.052	344.12
367.278	377.12
367.505	377.12
367.731	362.12
367.957	352.12
368.184	352.12
368.41	381.12
368.636	379.12
368.862	389.12
369.089	364.12
369.315	355.12
369.541	352.12
369.767	372.12
369.993	366.12
370.219	377.12
370.445	367.12
370.672	357.12
370.898	342.12
371.124	339.12
371.35	378.12
371.576	351.12
371.802	345.12
372.028	346.12
372.254	339.12
372.48	333.12
372.706	348.12
372.932	352.12
373.158	356.12
373.384	342.12
373.61	356.12
373.835	334.12
374.061	347.12
374.287	338.12
374.513	373.12
374.739	347.12
374.965	353.12
375.191	357.12
375.416	360.12
375.642	365.12
375.868	349.12
376.094	334.12
376.319	371.12
376.545	348.12
376.771	346.12
376.997	332.12
377.222	336.12
377.448	349.12
377.674	348.12
377.899	349.12
378.125	356.12
378.35	351.12
378.576	323.12
378.802	344.12
379.027	350.12
379.253	342.12
379.478	355.12
379.704	350.12
379.929	353.12
380.155	364.12
380.38	348.12
380.606	355.12
380.831	366.12
381.057	363.12
381.282	343.12
381.507	352.12
381.733	334.12
381.958	363.12
382.184	369.12
382.409	357.12
382.634	368.12
382.86	346.12
383.085	341.12
383.31	361.12
383.535	369.12
383.761	364.12
383.986	371.12
384.211	357.12
384.436	360.12
384.662	373.12
384.887	379.12
385.112	355.12
385.337	372.12
385.562	371.12
385.787	386.12
386.013	397.12
386.238	379.12
386.463	372.12
386.688	379.12
386.913	389.12
387.138	360.12
387.363	361.12
387.588	347.12
387.813	374.12
388.038	374.12
388.263	343.12
388.488	360.12
388.713	368.12
388.938	351.12
389.163	377.12
389.387	385.12
389.612	382.12
389.837	368.12
390.062	353.12
390.287	372.12
390.512	357.12
390.736	335.12
390.961	363.12
391.186	356.12
391.411	373.12
391.636	355.12
391.86	375.12
392.085	368.12
392.31	370.12
392.534	361.12
392.759	371.12
392.984	369.12
393.208	368.12
393.433	377.12
393.658	373.12
393.882	350.12
394.107	376.12
394.331	368.12
394.556	363.12
394.78	371.12
395.005	368.12
395.229	360.12
395.454	388.12
395.678	369.12
395.903	402.12
396.127	402.12
396.352	410.12
396.576	404.12
396.801	391.12
397.025	364.12
397.249	379.12
397.474	385.12
397.698	396.12
397.922	408.12
398.147	425.12
398.371	441.12
398.595	390.12
398.82	396.12
399.044	414.12
399.268	419.12
399.492	440.12
399.717	444.12
399.941	488.12
400.165	508.12
400.389	515.12
400.613	498.12
400.837	456.12
401.062	424.12
401.286	420.12
401.51	424.12
401.734	421.12
401.958	424.12
402.182	424.12
402.406	437.12
402.63	449.12
402.854	435.12
403.078	433.12
403.302	438.12
403.526	435.12
403.75	445.12
403.974	427.12
404.198	435.12
404.422	453.12
404.645	439.12
404.869	429.12
405.093	480.12
405.317	517.12
405.541	550.12
405.765	483.12
405.988	478.12
406.212	455.12
406.436	486.12
406.66	523.12
406.883	509.12
407.107	520.12
407.331	538.12
407.555	592.12
407.778	591.12
408.002	548.12
408.226	501.12
408.449	500.12
408.673	488.12
408.896	495.12
409.12	524.12
409.344	525.12
409.567	457.12
409.791	424.12
410.014	429.12
410.238	446.12
410.461	475.12
410.685	458.12
410.908	468.12
411.132	482.12
411.355	512.12
411.578	523.12
411.802	463.12
412.025	459.12
412.249	441.12
412.472	481.12
412.695	513.12
412.919	511.12
413.142	452.12
413.365	453.12
413.589	434.12
413.812	421.12
414.035	432.12
414.258	416.12
414.482	410.12
414.705	412.12
414.928	425.12
415.151	409.12
415.374	402.12
415.597	412.12
415.821	416.12
416.044	424.12
416.267	425.12
416.49	408.12
416.713	391.12
416.936	413.12
417.159	413.12
417.382	428.12
417.605	411.12
417.828	464.12
418.051	452.12
418.274	439.12
418.497	421.12
418.72	433.12
418.943	416.12
419.166	424.12
419.389	441.12
419.611	445.12
419.834	462.12
420.057	430.12
420.28	443.12
420.503	446.12
420.726	456.12
420.948	462.12
421.171	491.12
421.394	545.12
421.617	470.12
421.839	455.12
422.062	452.12
422.285	450.12
422.507	537.12
422.73	597.12
422.953	569.12
423.175	515.12
423.398	472.12
423.621	479.12
423.843	499.12
424.066	499.12
424.288	519.12
424.511	504.12
424.733	587.12
424.956	632.12
425.178	622.12
425.401	620.12
425.623	639.12
425.846	549.12
426.068	511.12
426.291	511.12
426.513	495.12
426.735	521.12
426.958	565.12
427.18	627.12
427.402	731.12
427.625	862.12
427.847	763.12
428.069	631.12
428.292	572.12
428.514	516.12
428.736	473.12
428.958	480.12
429.181	466.12
429.403	466.12
429.625	464.12
429.847	517.12
430.069	579.12
430.292	569.12
430.514	493.12
430.736	461.12
430.958	444.12
431.18	441.12
431.402	428.12
431.624	429.12
431.846	426.12
432.068	420.12
432.29	441.12
432.512	433.12
432.734	449.12
432.956	456.12
433.178	445.12
433.4	472.12
433.622	449.12
433.844	414.12
434.066	426.12
434.287	437.12
434.509	435.12
434.731	437.12
434.953	433.12
435.175	455.12
435.397	464.12
435.618	501.12
435.84	560.12
436.062	620.12
436.284	708.12
436.505	585.12
436.727	534.12
436.949	496.12
437.17	476.12
437.392	458.12
437.614	509.12
437.835	534.12
438.057	631.12
438.278	707.12
438.5	704.12
438.721	762.12
438.943	739.12
439.165	601.12
439.386	547.12
439.608	533.12
439.829	530.12
440.05	552.12
440.272	636.12
440.493	568.12
440.715	505.12
440.936	485.12
441.158	485.12
441.379	465.12
441.6	478.12
441.822	547.12
442.043	547.12
442.264	643.12
442.486	678.12
442.707	591.12
442.928	549.12
443.149	521.12
443.371	534.12
443.592	604.12
443.813	649.12
444.034	712.12
444.255	598.12
444.476	527.12
444.698	508.12
444.919	505.12
445.14	582.12
445.361	559.12
445.582	544.12
445.803	609.12
446.024	702.12
446.245	716.12
446.466	679.12
446.687	555.12
446.908	545.12
447.129	484.12
447.35	490.12
447.571	448.12
447.792	464.12
448.013	464.12
448.234	502.12
448.455	549.12
448.675	662.12
448.896	765.12
449.117	665.12
449.338	633.12
449.559	705.12
449.779	812.12
450	643.12
450.221	539.12
450.442	494.12
450.662	485.12
450.883	474.12
451.104	517.12
451.324	489.12
451.545	462.12
451.766	455.12
451.986	407.12
452.207	417.12
452.428	425.12
452.648	413.12
452.869	421.12
453.089	422.12
453.31	440.12
453.53	444.12
453.751	417.12
453.971	442.12
454.192	451.12
454.412	453.12
454.633	442.12
454.853	401.12
455.073	421.12
455.294	437.12
455.514	530.12
455.734	511.12
455.955	427.12
456.175	407.12
456.395	396.12
456.616	411.12
456.836	401.12
457.056	396.12
457.276	381.12
457.497	379.12
457.717	388.12
457.937	405.12
458.157	416.12
458.377	395.12
458.598	432.12
458.818	487.12
459.038	605.12
459.258	629.12
459.478	506.12
459.698	443.12
459.918	429.12
460.138	412.12
460.358	407.12
460.578	417.12
460.798	435.12
461.018	426.12
461.238	423.12
461.458	430.12
461.678	400.12
461.898	430.12
462.118	422.12
462.338	409.12
462.558	424.12
462.777	453.12
462.997	424.12
463.217	413.12
463.437	411.12
463.657	436.12
463.876	420.12
464.096	432.12
464.316	434.12
464.536	429.12
464.755	424.12
464.975	461.12
465.195	522.12
465.414	633.12
465.634	533.12
465.854	453.12
466.073	461.12
466.293	446.12
466.512	441.12
466.732	408.12
466.951	428.12
467.171	413.12
467.391	412.12
467.61	420.12
467.829	456.12
468.049	429.12
468.268	434.12
468.488	413.12
468.707	419.12
468.927	406.12
469.146	409.12
469.365	400.12
469.585	423.12
469.804	404.12
470.023	436.12
470.243	430.12
470.462	441.12
470.681	448.12
470.901	436.12
471.12	425.12
471.339	447.12
471.558	443.12
471.777	437.12
471.997	443.12
472.216	435.12
472.435	479.12
472.654	452.12
472.873	445.12
473.092	439.12
473.311	437.12
473.53	429.12
473.749	446.12
473.968	473.12
474.187	602.12
474.406	596.12
474.625	519.12
474.844	463.12
475.063	435.12
475.282	421.12
475.501	444.12
475.72	455.12
475.939	439.12
476.158	441.12
476.377	447.12
476.596	423.12
476.814	448.12
477.033	471.12
477.252	464.12
477.471	447.12
477.69	422.12
477.908	464.12
478.127	440.12
478.346	451.12
478.564	471.12
478.783	455.12
479.002	465.12
479.22	491.12
479.439	471.12
479.658	528.12
479.876	527.12
480.095	521.12
480.313	552.12
480.532	543.12
480.751	530.12
480.969	558.12
481.188	610.12
481.406	656.12
481.624	569.12
481.843	549.12
482.061	521.12
482.28	540.12
482.498	522.12
482.717	510.12
482.935	504.12
483.153	527.12
483.372	517.12
483.59	518.12
483.808	522.12
484.027	497.12
484.245	500.12
484.463	496.12
484.681	520.12
484.9	508.12
485.118	515.12
485.336	496.12
485.554	497.12
485.772	529.12
485.99	536.12
486.209	541.12
486.427	537.12
486.645	548.12
486.863	554.12
487.081	558.12
487.299	543.12
487.517	563.12
487.735	542.12
487.953	568.12
488.171	562.12
488.389	571.12
488.607	547.12
488.825	542.12
489.043	551.12
489.261	560.12
489.479	574.12
489.696	567.12
489.914	578.12
490.132	567.12
490.35	559.12
490.568	568.12
490.786	587.12
491.003	612.12
491.221	605.12
491.439	623.12
491.657	637.12
491.874	632.12
492.092	621.12
492.31	649.12
492.527	647.12
492.745	634.12
492.963	651.12
493.18	643.12
493.398	650.12
493.615	662.12
493.833	657.12
494.05	681.12
494.268	669.12
494.485	655.12
494.703	651.12
494.92	638.12
495.138	654.12
495.355	644.12
495.573	649.12
495.79	645.12
496.008	656.12
496.225	661.12
496.442	655.12
496.66	675.12
496.877	634.12
497.094	656.12
497.312	695.12
497.529	667.12
497.746	683.12
497.963	687.12
498.181	697.12
498.398	700.12
498.615	704.12
498.832	711.12
499.049	708.12
499.267	688.12
499.484	723.12
499.701	727.12
499.918	736.12
500.135	746.12
500.352	773.12
500.569	789.12
500.786	794.12
501.003	785.12
501.22	776.12
501.437	796.12
501.654	804.12
501.871	801.12
