Data from 1980.PennyLincolnUp.Lamp.En5.5.200Scan.071819.P1_HRD10591_16-36-34-957.txt Node
Date: Thu Jul 18 16:36:34 EDT 2019
User: cochatt
Spectrometer: HR+D1059
Trigger mode: 1
Integration Time (sec): 1.000000E-1
Scans to average: 1
Electric dark correction enabled: true
Nonlinearity correction enabled: false
Boxcar width: 0
XAxis mode: Wavelengths
Number of Pixels in Spectrum: 2048
>>>>>Begin Spectral Data<<<<<
223.165	-4.06
223.4	-4.06
223.635	-4.06
223.869	-16.06
224.104	-28.06
224.338	-6.06
224.573	-3.06
224.808	-20.06
225.042	-13.06
225.277	7.94
225.511	-9.06
225.746	1.94
225.98	-0.06
226.215	8.94
226.449	19.94
226.683	11.94
226.918	14.94
227.152	33.94
227.387	36.94
227.621	35.94
227.856	59.94
228.09	37.94
228.324	41.94
228.559	63.94
228.793	67.94
229.027	100.94
229.262	109.94
229.496	118.94
229.73	125.94
229.964	137.94
230.199	119.94
230.433	112.94
230.667	105.94
230.901	112.94
231.136	102.94
231.37	103.94
231.604	93.94
231.838	102.94
232.072	119.94
232.306	104.94
232.541	110.94
232.775	114.94
233.009	121.94
233.243	107.94
233.477	99.94
233.711	101.94
233.945	104.94
234.179	112.94
234.413	114.94
234.647	118.94
234.881	113.94
235.115	116.94
235.349	99.94
235.583	101.94
235.817	112.94
236.051	116.94
236.285	108.94
236.519	115.94
236.753	124.94
236.987	134.94
237.221	175.94
237.455	225.94
237.689	195.94
237.922	133.94
238.156	125.94
238.39	109.94
238.624	111.94
238.858	125.94
239.091	101.94
239.325	127.94
239.559	118.94
239.793	123.94
240.027	115.94
240.26	125.94
240.494	146.94
240.728	145.94
240.961	135.94
241.195	135.94
241.429	135.94
241.662	127.94
241.896	124.94
242.13	123.94
242.363	115.94
242.597	126.94
242.83	133.94
243.064	132.94
243.298	135.94
243.531	125.94
243.765	147.94
243.998	132.94
244.232	121.94
244.465	121.94
244.699	131.94
244.932	131.94
245.166	138.94
245.399	133.94
245.633	135.94
245.866	144.94
246.099	139.94
246.333	136.94
246.566	148.94
246.8	151.94
247.033	146.94
247.266	146.94
247.5	156.94
247.733	151.94
247.966	165.94
248.2	169.94
248.433	151.94
248.666	169.94
248.899	173.94
249.133	173.94
249.366	178.94
249.599	187.94
249.832	171.94
250.066	169.94
250.299	171.94
250.532	178.94
250.765	193.94
250.998	211.94
251.231	210.94
251.465	208.94
251.698	193.94
251.931	181.94
252.164	181.94
252.397	191.94
252.63	207.94
252.863	201.94
253.096	206.94
253.329	222.94
253.562	210.94
253.795	213.94
254.028	187.94
254.261	187.94
254.494	209.94
254.727	228.94
254.96	285.94
255.193	268.94
255.426	248.94
255.659	208.94
255.892	213.94
256.124	202.94
256.357	210.94
256.59	207.94
256.823	205.94
257.056	185.94
257.289	181.94
257.521	188.94
257.754	186.94
257.987	197.94
258.22	191.94
258.452	195.94
258.685	185.94
258.918	200.94
259.151	194.94
259.383	218.94
259.616	216.94
259.849	197.94
260.081	218.94
260.314	221.94
260.547	227.94
260.779	217.94
261.012	227.94
261.244	209.94
261.477	224.94
261.71	190.94
261.942	205.94
262.175	210.94
262.407	203.94
262.64	207.94
262.872	185.94
263.105	187.94
263.337	208.94
263.57	201.94
263.802	171.94
264.035	199.94
264.267	196.94
264.499	193.94
264.732	186.94
264.964	187.94
265.197	192.94
265.429	195.94
265.661	181.94
265.894	189.94
266.126	202.94
266.358	181.94
266.591	176.94
266.823	204.94
267.055	212.94
267.287	204.94
267.52	207.94
267.752	218.94
267.984	205.94
268.216	195.94
268.448	204.94
268.681	207.94
268.913	208.94
269.145	216.94
269.377	242.94
269.609	227.94
269.841	236.94
270.073	240.94
270.306	244.94
270.538	280.94
270.77	274.94
271.002	288.94
271.234	261.94
271.466	264.94
271.698	275.94
271.93	285.94
272.162	280.94
272.394	295.94
272.626	265.94
272.858	246.94
273.09	258.94
273.322	240.94
273.553	234.94
273.785	245.94
274.017	231.94
274.249	227.94
274.481	244.94
274.713	237.94
274.945	243.94
275.176	234.94
275.408	227.94
275.64	233.94
275.872	221.94
276.104	234.94
276.335	241.94
276.567	242.94
276.799	263.94
277.031	271.94
277.262	293.94
277.494	289.94
277.726	289.94
277.957	244.94
278.189	241.94
278.421	235.94
278.652	229.94
278.884	239.94
279.115	232.94
279.347	213.94
279.579	247.94
279.81	229.94
280.042	233.94
280.273	216.94
280.505	223.94
280.736	208.94
280.968	220.94
281.199	217.94
281.431	208.94
281.662	212.94
281.894	239.94
282.125	221.94
282.356	231.94
282.588	273.94
282.819	267.94
283.051	236.94
283.282	232.94
283.513	231.94
283.745	226.94
283.976	232.94
284.207	237.94
284.439	223.94
284.67	239.94
284.901	232.94
285.132	231.94
285.364	224.94
285.595	217.94
285.826	236.94
286.057	228.94
286.288	235.94
286.52	221.94
286.751	227.94
286.982	255.94
287.213	254.94
287.444	233.94
287.675	230.94
287.906	234.94
288.138	251.94
288.369	247.94
288.6	254.94
288.831	239.94
289.062	228.94
289.293	265.94
289.524	245.94
289.755	231.94
289.986	224.94
290.217	246.94
290.448	231.94
290.679	230.94
290.91	227.94
291.141	227.94
291.371	244.94
291.602	241.94
291.833	243.94
292.064	234.94
292.295	260.94
292.526	253.94
292.757	238.94
292.987	246.94
293.218	231.94
293.449	225.94
293.68	246.94
293.91	241.94
294.141	227.94
294.372	223.94
294.603	255.94
294.833	232.94
295.064	240.94
295.295	268.94
295.525	247.94
295.756	251.94
295.987	274.94
296.217	279.94
296.448	283.94
296.679	247.94
296.909	239.94
297.14	268.94
297.37	231.94
297.601	236.94
297.831	239.94
298.062	235.94
298.292	250.94
298.523	248.94
298.753	260.94
298.984	236.94
299.214	241.94
299.445	225.94
299.675	260.94
299.905	267.94
300.136	258.94
300.366	260.94
300.597	241.94
300.827	261.94
301.057	262.94
301.288	265.94
301.518	267.94
301.748	263.94
301.979	280.94
302.209	278.94
302.439	274.94
302.669	261.94
302.9	267.94
303.13	264.94
303.36	273.94
303.59	257.94
303.82	281.94
304.051	284.94
304.281	258.94
304.511	245.94
304.741	241.94
304.971	254.94
305.201	249.94
305.431	260.94
305.661	273.94
305.891	256.94
306.121	245.94
306.352	275.94
306.582	275.94
306.812	287.94
307.042	279.94
307.272	270.94
307.502	256.94
307.731	266.94
307.961	251.94
308.191	279.94
308.421	274.94
308.651	275.94
308.881	274.94
309.111	278.94
309.341	288.94
309.571	281.94
309.8	328.94
310.03	299.94
310.26	309.94
310.49	328.94
310.72	311.94
310.949	338.94
311.179	333.94
311.409	324.94
311.639	325.94
311.868	324.94
312.098	320.94
312.328	313.94
312.557	336.94
312.787	337.94
313.017	335.94
313.246	324.94
313.476	323.94
313.706	328.94
313.935	329.94
314.165	330.94
314.394	348.94
314.624	341.94
314.853	328.94
315.083	328.94
315.312	319.94
315.542	291.94
315.771	308.94
316.001	294.94
316.23	308.94
316.46	302.94
316.689	292.94
316.919	324.94
317.148	344.94
317.377	327.94
317.607	320.94
317.836	319.94
318.065	308.94
318.295	309.94
318.524	299.94
318.753	314.94
318.983	308.94
319.212	299.94
319.441	314.94
319.67	320.94
319.9	316.94
320.129	303.94
320.358	302.94
320.587	313.94
320.816	325.94
321.046	338.94
321.275	344.94
321.504	348.94
321.733	333.94
321.962	372.94
322.191	365.94
322.42	348.94
322.649	361.94
322.878	396.94
323.108	401.94
323.337	414.94
323.566	457.94
323.795	462.94
324.024	519.94
324.253	637.94
324.482	858.94
324.71	1343.94
324.939	1930.94
325.168	1691.94
325.397	913.94
325.626	577.94
325.855	499.94
326.084	454.94
326.313	433.94
326.542	444.94
326.77	493.94
326.999	575.94
327.228	787.94
327.457	1176.94
327.686	1461.94
327.914	1003.94
328.143	698.94
328.372	576.94
328.6	497.94
328.829	504.94
329.058	507.94
329.287	524.94
329.515	491.94
329.744	461.94
329.972	437.94
330.201	450.94
330.43	460.94
330.658	525.94
330.887	536.94
331.115	521.94
331.344	427.94
331.572	424.94
331.801	412.94
332.03	402.94
332.258	395.94
332.486	382.94
332.715	379.94
332.943	372.94
333.172	371.94
333.4	376.94
333.629	382.94
333.857	392.94
334.085	398.94
334.314	403.94
334.542	426.94
334.771	441.94
334.999	399.94
335.227	381.94
335.455	363.94
335.684	371.94
335.912	355.94
336.14	367.94
336.369	334.94
336.597	361.94
336.825	369.94
337.053	373.94
337.281	349.94
337.51	335.94
337.738	355.94
337.966	347.94
338.194	376.94
338.422	336.94
338.65	341.94
338.878	335.94
339.106	349.94
339.334	345.94
339.562	363.94
339.79	336.94
340.018	354.94
340.246	322.94
340.474	352.94
340.702	360.94
340.93	355.94
341.158	339.94
341.386	335.94
341.614	346.94
341.842	342.94
342.07	354.94
342.298	337.94
342.526	345.94
342.754	331.94
342.981	337.94
343.209	341.94
343.437	344.94
343.665	340.94
343.893	321.94
344.12	341.94
344.348	358.94
344.576	355.94
344.804	338.94
345.031	384.94
345.259	380.94
345.487	372.94
345.714	374.94
345.942	342.94
346.17	330.94
346.397	339.94
346.625	345.94
346.853	323.94
347.08	323.94
347.308	344.94
347.535	351.94
347.763	374.94
347.99	355.94
348.218	361.94
348.445	340.94
348.673	374.94
348.9	341.94
349.128	315.94
349.355	317.94
349.583	340.94
349.81	348.94
350.037	324.94
350.265	318.94
350.492	329.94
350.72	329.94
350.947	345.94
351.174	345.94
351.402	352.94
351.629	344.94
351.856	337.94
352.083	340.94
352.311	359.94
352.538	348.94
352.765	352.94
352.992	354.94
353.22	337.94
353.447	348.94
353.674	340.94
353.901	327.94
354.128	329.94
354.355	313.94
354.583	313.94
354.81	340.94
355.037	314.94
355.264	317.94
355.491	293.94
355.718	307.94
355.945	321.94
356.172	316.94
356.399	308.94
356.626	327.94
356.853	315.94
357.08	316.94
357.307	314.94
357.534	296.94
357.761	315.94
357.988	313.94
358.215	325.94
358.441	319.94
358.668	317.94
358.895	322.94
359.122	311.94
359.349	335.94
359.576	339.94
359.802	373.94
360.029	395.94
360.256	419.94
360.483	391.94
360.709	368.94
360.936	359.94
361.163	347.94
361.39	336.94
361.616	352.94
361.843	341.94
362.07	321.94
362.296	362.94
362.523	346.94
362.749	343.94
362.976	359.94
363.203	338.94
363.429	329.94
363.656	307.94
363.882	323.94
364.109	337.94
364.335	330.94
364.562	340.94
364.788	332.94
365.015	310.94
365.241	331.94
365.468	341.94
365.694	351.94
365.92	334.94
366.147	316.94
366.373	297.94
366.599	318.94
366.826	331.94
367.052	311.94
367.278	315.94
367.505	312.94
367.731	338.94
367.957	324.94
368.184	315.94
368.41	352.94
368.636	349.94
368.862	344.94
369.089	325.94
369.315	332.94
369.541	340.94
369.767	327.94
369.993	328.94
370.219	316.94
370.445	350.94
370.672	328.94
370.898	309.94
371.124	312.94
371.35	312.94
371.576	317.94
371.802	333.94
372.028	320.94
372.254	313.94
372.48	316.94
372.706	327.94
372.932	306.94
373.158	324.94
373.384	332.94
373.61	324.94
373.835	327.94
374.061	318.94
374.287	331.94
374.513	323.94
374.739	325.94
374.965	348.94
375.191	323.94
375.416	328.94
375.642	320.94
375.868	335.94
376.094	311.94
376.319	321.94
376.545	311.94
376.771	334.94
376.997	323.94
377.222	325.94
377.448	331.94
377.674	326.94
377.899	337.94
378.125	323.94
378.35	296.94
378.576	302.94
378.802	312.94
379.027	329.94
379.253	329.94
379.478	319.94
379.704	322.94
379.929	322.94
380.155	317.94
380.38	309.94
380.606	315.94
380.831	333.94
381.057	338.94
381.282	310.94
381.507	311.94
381.733	298.94
381.958	321.94
382.184	328.94
382.409	306.94
382.634	326.94
382.86	327.94
383.085	305.94
383.31	338.94
383.535	329.94
383.761	325.94
383.986	348.94
384.211	329.94
384.436	348.94
384.662	333.94
384.887	335.94
385.112	338.94
385.337	336.94
385.562	337.94
385.787	341.94
386.013	344.94
386.238	343.94
386.463	335.94
386.688	351.94
386.913	330.94
387.138	335.94
387.363	343.94
387.588	354.94
387.813	339.94
388.038	344.94
388.263	345.94
388.488	327.94
388.713	352.94
388.938	338.94
389.163	348.94
389.387	356.94
389.612	340.94
389.837	329.94
390.062	353.94
390.287	346.94
390.512	343.94
390.736	333.94
390.961	334.94
391.186	323.94
391.411	342.94
391.636	347.94
391.86	332.94
392.085	347.94
392.31	327.94
392.534	326.94
392.759	347.94
392.984	337.94
393.208	339.94
393.433	351.94
393.658	353.94
393.882	331.94
394.107	338.94
394.331	349.94
394.556	338.94
394.78	337.94
395.005	340.94
395.229	340.94
395.454	358.94
395.678	338.94
395.903	352.94
396.127	378.94
396.352	377.94
396.576	359.94
396.801	370.94
397.025	355.94
397.249	341.94
397.474	355.94
397.698	352.94
397.922	367.94
398.147	392.94
398.371	390.94
398.595	373.94
398.82	383.94
399.044	383.94
399.268	392.94
399.492	393.94
399.717	403.94
399.941	448.94
400.165	451.94
400.389	461.94
400.613	438.94
400.837	414.94
401.062	395.94
401.286	393.94
401.51	374.94
401.734	375.94
401.958	372.94
402.182	393.94
402.406	383.94
402.63	392.94
402.854	389.94
403.078	380.94
403.302	386.94
403.526	403.94
403.75	395.94
403.974	386.94
404.198	393.94
404.422	388.94
404.645	413.94
404.869	401.94
405.093	423.94
405.317	465.94
405.541	495.94
405.765	444.94
405.988	421.94
406.212	442.94
406.436	452.94
406.66	472.94
406.883	471.94
407.107	447.94
407.331	505.94
407.555	530.94
407.778	538.94
408.002	516.94
408.226	437.94
408.449	432.94
408.673	443.94
408.896	469.94
409.12	511.94
409.344	486.94
409.567	449.94
409.791	427.94
410.014	408.94
410.238	393.94
410.461	413.94
410.685	393.94
410.908	419.94
411.132	437.94
411.355	459.94
411.578	455.94
411.802	455.94
412.025	410.94
412.249	408.94
412.472	403.94
412.695	441.94
412.919	443.94
413.142	409.94
413.365	369.94
413.589	402.94
413.812	387.94
414.035	379.94
414.258	383.94
414.482	369.94
414.705	376.94
414.928	379.94
415.151	358.94
415.374	383.94
415.597	365.94
415.821	379.94
416.044	390.94
416.267	381.94
416.49	367.94
416.713	381.94
416.936	385.94
417.159	375.94
417.382	388.94
417.605	413.94
417.828	391.94
418.051	396.94
418.274	396.94
418.497	404.94
418.72	413.94
418.943	362.94
419.166	396.94
419.389	409.94
419.611	409.94
419.834	401.94
420.057	396.94
420.28	389.94
420.503	393.94
420.726	400.94
420.948	425.94
421.171	440.94
421.394	486.94
421.617	426.94
421.839	398.94
422.062	421.94
422.285	414.94
422.507	481.94
422.73	544.94
422.953	514.94
423.175	451.94
423.398	427.94
423.621	408.94
423.843	437.94
424.066	435.94
424.288	433.94
424.511	469.94
424.733	501.94
424.956	560.94
425.178	575.94
425.401	564.94
425.623	555.94
425.846	495.94
426.068	460.94
426.291	455.94
426.513	440.94
426.735	464.94
426.958	496.94
427.18	562.94
427.402	659.94
427.625	727.94
427.847	672.94
428.069	567.94
428.292	498.94
428.514	451.94
428.736	431.94
428.958	434.94
429.181	400.94
429.403	412.94
429.625	417.94
429.847	438.94
430.069	506.94
430.292	530.94
430.514	443.94
430.736	429.94
430.958	422.94
431.18	418.94
431.402	392.94
431.624	416.94
431.846	386.94
432.068	387.94
432.29	395.94
432.512	413.94
432.734	404.94
432.956	406.94
433.178	409.94
433.4	396.94
433.622	397.94
433.844	388.94
434.066	400.94
434.287	377.94
434.509	372.94
434.731	405.94
434.953	410.94
435.175	412.94
435.397	430.94
435.618	445.94
435.84	485.94
436.062	563.94
436.284	641.94
436.505	525.94
436.727	471.94
436.949	439.94
437.17	427.94
437.392	441.94
437.614	435.94
437.835	456.94
438.057	571.94
438.278	635.94
438.5	610.94
438.721	691.94
438.943	663.94
439.165	548.94
439.386	479.94
439.608	454.94
439.829	483.94
440.05	469.94
440.272	526.94
440.493	490.94
440.715	464.94
440.936	445.94
441.158	441.94
441.379	429.94
441.6	427.94
441.822	449.94
442.043	479.94
442.264	571.94
442.486	591.94
442.707	501.94
442.928	475.94
443.149	491.94
443.371	503.94
443.592	516.94
443.813	592.94
444.034	646.94
444.255	523.94
444.476	468.94
444.698	456.94
444.919	450.94
445.14	527.94
445.361	518.94
445.582	501.94
445.803	542.94
446.024	636.94
446.245	648.94
446.466	560.94
446.687	504.94
446.908	473.94
447.129	417.94
447.35	400.94
447.571	410.94
447.792	418.94
448.013	433.94
448.234	480.94
448.455	488.94
448.675	599.94
448.896	684.94
449.117	572.94
449.338	551.94
449.559	650.94
449.779	700.94
450	567.94
450.221	472.94
450.442	436.94
450.662	427.94
450.883	419.94
451.104	445.94
451.324	443.94
451.545	401.94
451.766	389.94
451.986	383.94
452.207	370.94
452.428	377.94
452.648	367.94
452.869	381.94
453.089	378.94
453.31	402.94
453.53	384.94
453.751	389.94
453.971	391.94
454.192	417.94
454.412	380.94
454.633	384.94
454.853	372.94
455.073	364.94
455.294	410.94
455.514	472.94
455.734	433.94
455.955	392.94
456.175	362.94
456.395	349.94
456.616	348.94
456.836	358.94
457.056	347.94
457.276	338.94
457.497	343.94
457.717	371.94
457.937	353.94
458.157	357.94
458.377	353.94
458.598	391.94
458.818	445.94
459.038	511.94
459.258	536.94
459.478	452.94
459.698	406.94
459.918	391.94
460.138	388.94
460.358	384.94
460.578	374.94
460.798	384.94
461.018	401.94
461.238	399.94
461.458	405.94
461.678	397.94
461.898	369.94
462.118	372.94
462.338	385.94
462.558	378.94
462.777	390.94
462.997	393.94
463.217	406.94
463.437	406.94
463.657	388.94
463.876	398.94
464.096	414.94
464.316	402.94
464.536	391.94
464.755	420.94
464.975	416.94
465.195	433.94
465.414	521.94
465.634	476.94
465.854	426.94
466.073	393.94
466.293	402.94
466.512	385.94
466.732	374.94
466.951	381.94
467.171	367.94
467.391	377.94
467.61	378.94
467.829	387.94
468.049	391.94
468.268	388.94
468.488	344.94
468.707	360.94
468.927	383.94
469.146	373.94
469.365	363.94
469.585	375.94
469.804	360.94
470.023	380.94
470.243	387.94
470.462	404.94
470.681	392.94
470.901	407.94
471.12	387.94
471.339	381.94
471.558	392.94
471.777	390.94
471.997	387.94
472.216	397.94
472.435	389.94
472.654	420.94
472.873	402.94
473.092	390.94
473.311	389.94
473.53	386.94
473.749	402.94
473.968	425.94
474.187	521.94
474.406	559.94
474.625	463.94
474.844	396.94
475.063	389.94
475.282	383.94
475.501	391.94
475.72	411.94
475.939	405.94
476.158	400.94
476.377	397.94
476.596	401.94
476.814	396.94
477.033	405.94
477.252	415.94
477.471	406.94
477.69	401.94
477.908	398.94
478.127	400.94
478.346	394.94
478.564	409.94
478.783	400.94
479.002	436.94
479.22	439.94
479.439	416.94
479.658	471.94
479.876	455.94
480.095	457.94
480.313	465.94
480.532	457.94
480.751	460.94
480.969	461.94
481.188	506.94
481.406	548.94
481.624	501.94
481.843	464.94
482.061	451.94
482.28	467.94
482.498	456.94
482.717	441.94
482.935	448.94
483.153	437.94
483.372	459.94
483.59	441.94
483.808	467.94
484.027	451.94
484.245	457.94
484.463	462.94
484.681	444.94
484.9	444.94
485.118	464.94
485.336	472.94
485.554	481.94
485.772	488.94
485.99	453.94
486.209	463.94
486.427	478.94
486.645	493.94
486.863	503.94
487.081	505.94
487.299	508.94
487.517	508.94
487.735	490.94
487.953	483.94
488.171	489.94
488.389	493.94
488.607	491.94
488.825	503.94
489.043	517.94
489.261	523.94
489.479	504.94
489.696	515.94
489.914	499.94
490.132	503.94
490.35	525.94
490.568	532.94
490.786	549.94
491.003	520.94
491.221	539.94
491.439	555.94
491.657	570.94
491.874	563.94
492.092	572.94
492.31	602.94
492.527	565.94
492.745	579.94
492.963	588.94
493.18	563.94
493.398	592.94
493.615	588.94
493.833	583.94
494.05	599.94
494.268	609.94
494.485	602.94
494.703	568.94
494.92	578.94
495.138	574.94
495.355	579.94
495.573	587.94
495.79	595.94
496.008	594.94
496.225	576.94
496.442	590.94
496.66	603.94
496.877	571.94
497.094	608.94
497.312	598.94
497.529	619.94
497.746	612.94
497.963	627.94
498.181	627.94
498.398	620.94
498.615	620.94
498.832	634.94
499.049	638.94
499.267	640.94
499.484	644.94
499.701	661.94
499.918	679.94
500.135	692.94
500.352	723.94
500.569	711.94
500.786	733.94
501.003	720.94
501.22	689.94
501.437	698.94
501.654	700.94
501.871	726.94
502.088	695.94
