Data from 1980.PennyLincolnUp.Lamp.En5.5.200Scan.071819.P1_HRD10591_16-39-09-958.txt Node
Date: Thu Jul 18 16:39:09 EDT 2019
User: cochatt
Spectrometer: HR+D1059
Trigger mode: 1
Integration Time (sec): 1.000000E-1
Scans to average: 1
Electric dark correction enabled: true
Nonlinearity correction enabled: false
Boxcar width: 0
XAxis mode: Wavelengths
Number of Pixels in Spectrum: 2048
>>>>>Begin Spectral Data<<<<<
223.165	-21.19
223.4	-21.19
223.635	-21.19
223.869	-15.19
224.104	-16.19
224.338	3.81
224.573	-5.19
224.808	-25.19
225.042	-5.19
225.277	-7.19
225.511	-7.19
225.746	11.81
225.98	0.81
226.215	10.81
226.449	20.81
226.683	10.81
226.918	20.81
227.152	22.81
227.387	26.81
227.621	35.81
227.856	45.81
228.09	57.81
228.324	44.81
228.559	56.81
228.793	66.81
229.027	109.81
229.262	116.81
229.496	117.81
229.73	144.81
229.964	168.81
230.199	128.81
230.433	123.81
230.667	116.81
230.901	121.81
231.136	117.81
231.37	122.81
231.604	122.81
231.838	117.81
232.072	92.81
232.306	115.81
232.541	120.81
232.775	121.81
233.009	112.81
233.243	104.81
233.477	122.81
233.711	120.81
233.945	100.81
234.179	102.81
234.413	102.81
234.647	129.81
234.881	124.81
235.115	114.81
235.349	116.81
235.583	131.81
235.817	126.81
236.051	127.81
236.285	134.81
236.519	121.81
236.753	121.81
236.987	154.81
237.221	196.81
237.455	245.81
237.689	216.81
237.922	148.81
238.156	160.81
238.39	127.81
238.624	120.81
238.858	122.81
239.091	126.81
239.325	128.81
239.559	122.81
239.793	139.81
240.027	131.81
240.26	148.81
240.494	162.81
240.728	160.81
240.961	149.81
241.195	128.81
241.429	124.81
241.662	130.81
241.896	139.81
242.13	131.81
242.363	124.81
242.597	130.81
242.83	114.81
243.064	142.81
243.298	148.81
243.531	128.81
243.765	120.81
243.998	126.81
244.232	151.81
244.465	157.81
244.699	160.81
244.932	138.81
245.166	152.81
245.399	136.81
245.633	134.81
245.866	140.81
246.099	151.81
246.333	148.81
246.566	156.81
246.8	158.81
247.033	155.81
247.266	157.81
247.5	161.81
247.733	171.81
247.966	174.81
248.2	158.81
248.433	147.81
248.666	171.81
248.899	187.81
249.133	214.81
249.366	227.81
249.599	218.81
249.832	194.81
250.066	196.81
250.299	197.81
250.532	190.81
250.765	221.81
250.998	238.81
251.231	249.81
251.465	232.81
251.698	215.81
251.931	214.81
252.164	194.81
252.397	188.81
252.63	213.81
252.863	210.81
253.096	232.81
253.329	237.81
253.562	226.81
253.795	230.81
254.028	228.81
254.261	235.81
254.494	240.81
254.727	261.81
254.96	308.81
255.193	306.81
255.426	267.81
255.659	241.81
255.892	258.81
256.124	258.81
256.357	264.81
256.59	252.81
256.823	217.81
257.056	209.81
257.289	226.81
257.521	210.81
257.754	209.81
257.987	210.81
258.22	206.81
258.452	206.81
258.685	215.81
258.918	211.81
259.151	224.81
259.383	228.81
259.616	241.81
259.849	225.81
260.081	236.81
260.314	260.81
260.547	274.81
260.779	261.81
261.012	233.81
261.244	252.81
261.477	237.81
261.71	223.81
261.942	242.81
262.175	254.81
262.407	267.81
262.64	232.81
262.872	211.81
263.105	222.81
263.337	227.81
263.57	220.81
263.802	207.81
264.035	219.81
264.267	218.81
264.499	220.81
264.732	214.81
264.964	231.81
265.197	200.81
265.429	228.81
265.661	205.81
265.894	224.81
266.126	214.81
266.358	202.81
266.591	200.81
266.823	214.81
267.055	234.81
267.287	209.81
267.52	213.81
267.752	237.81
267.984	233.81
268.216	220.81
268.448	241.81
268.681	214.81
268.913	250.81
269.145	260.81
269.377	264.81
269.609	264.81
269.841	280.81
270.073	285.81
270.306	306.81
270.538	315.81
270.77	335.81
271.002	339.81
271.234	311.81
271.466	301.81
271.698	322.81
271.93	328.81
272.162	337.81
272.394	344.81
272.626	315.81
272.858	318.81
273.09	296.81
273.322	274.81
273.553	265.81
273.785	266.81
274.017	267.81
274.249	274.81
274.481	256.81
274.713	254.81
274.945	275.81
275.176	260.81
275.408	296.81
275.64	257.81
275.872	260.81
276.104	266.81
276.335	262.81
276.567	259.81
276.799	292.81
277.031	307.81
277.262	310.81
277.494	325.81
277.726	300.81
277.957	292.81
278.189	283.81
278.421	285.81
278.652	260.81
278.884	256.81
279.115	272.81
279.347	278.81
279.579	276.81
279.81	264.81
280.042	242.81
280.273	252.81
280.505	244.81
280.736	244.81
280.968	279.81
281.199	231.81
281.431	255.81
281.662	262.81
281.894	260.81
282.125	254.81
282.356	295.81
282.588	311.81
282.819	282.81
283.051	260.81
283.282	269.81
283.513	264.81
283.745	262.81
283.976	263.81
284.207	261.81
284.439	273.81
284.67	273.81
284.901	274.81
285.132	267.81
285.364	252.81
285.595	260.81
285.826	252.81
286.057	266.81
286.288	292.81
286.52	276.81
286.751	262.81
286.982	267.81
287.213	254.81
287.444	288.81
287.675	295.81
287.906	278.81
288.138	289.81
288.369	300.81
288.6	304.81
288.831	291.81
289.062	287.81
289.293	262.81
289.524	271.81
289.755	267.81
289.986	250.81
290.217	274.81
290.448	266.81
290.679	277.81
290.91	276.81
291.141	274.81
291.371	293.81
291.602	267.81
291.833	251.81
292.064	259.81
292.295	262.81
292.526	276.81
292.757	260.81
292.987	273.81
293.218	272.81
293.449	274.81
293.68	264.81
293.91	256.81
294.141	275.81
294.372	276.81
294.603	281.81
294.833	275.81
295.064	271.81
295.295	293.81
295.525	283.81
295.756	288.81
295.987	279.81
296.217	319.81
296.448	330.81
296.679	270.81
296.909	295.81
297.14	290.81
297.37	292.81
297.601	283.81
297.831	295.81
298.062	294.81
298.292	286.81
298.523	282.81
298.753	280.81
298.984	278.81
299.214	288.81
299.445	290.81
299.675	296.81
299.905	286.81
300.136	284.81
300.366	285.81
300.597	296.81
300.827	298.81
301.057	289.81
301.288	301.81
301.518	301.81
301.748	308.81
301.979	295.81
302.209	291.81
302.439	290.81
302.669	304.81
302.9	277.81
303.13	292.81
303.36	302.81
303.59	309.81
303.82	308.81
304.051	327.81
304.281	308.81
304.511	302.81
304.741	299.81
304.971	294.81
305.201	304.81
305.431	296.81
305.661	316.81
305.891	300.81
306.121	300.81
306.352	320.81
306.582	318.81
306.812	307.81
307.042	325.81
307.272	294.81
307.502	307.81
307.731	314.81
307.961	284.81
308.191	306.81
308.421	294.81
308.651	318.81
308.881	332.81
309.111	329.81
309.341	327.81
309.571	330.81
309.8	340.81
310.03	359.81
310.26	385.81
310.49	355.81
310.72	374.81
310.949	425.81
311.179	397.81
311.409	368.81
311.639	362.81
311.868	361.81
312.098	391.81
312.328	380.81
312.557	395.81
312.787	398.81
313.017	401.81
313.246	395.81
313.476	381.81
313.706	358.81
313.935	382.81
314.165	388.81
314.394	390.81
314.624	405.81
314.853	395.81
315.083	381.81
315.312	351.81
315.542	347.81
315.771	340.81
316.001	342.81
316.23	344.81
316.46	339.81
316.689	345.81
316.919	353.81
317.148	382.81
317.377	354.81
317.607	378.81
317.836	382.81
318.065	356.81
318.295	365.81
318.524	360.81
318.753	365.81
318.983	371.81
319.212	343.81
319.441	365.81
319.67	381.81
319.9	363.81
320.129	371.81
320.358	368.81
320.587	385.81
320.816	374.81
321.046	387.81
321.275	397.81
321.504	397.81
321.733	377.81
321.962	420.81
322.191	438.81
322.42	448.81
322.649	460.81
322.878	457.81
323.108	480.81
323.337	495.81
323.566	560.81
323.795	574.81
324.024	660.81
324.253	792.81
324.482	1148.81
324.71	1749.81
324.939	2578.81
325.168	2266.81
325.397	1202.81
325.626	760.81
325.855	610.81
326.084	545.81
326.313	549.81
326.542	556.81
326.77	615.81
326.999	725.81
327.228	990.81
327.457	1540.81
327.686	1897.81
327.914	1296.81
328.143	858.81
328.372	717.81
328.6	682.81
328.829	642.81
329.058	646.81
329.287	651.81
329.515	602.81
329.744	544.81
329.972	551.81
330.201	586.81
330.43	640.81
330.658	631.81
330.887	708.81
331.115	655.81
331.344	554.81
331.572	512.81
331.801	487.81
332.03	496.81
332.258	478.81
332.486	442.81
332.715	443.81
332.943	454.81
333.172	430.81
333.4	434.81
333.629	460.81
333.857	460.81
334.085	471.81
334.314	488.81
334.542	527.81
334.771	552.81
334.999	493.81
335.227	471.81
335.455	465.81
335.684	428.81
335.912	436.81
336.14	427.81
336.369	432.81
336.597	422.81
336.825	429.81
337.053	422.81
337.281	413.81
337.51	426.81
337.738	424.81
337.966	417.81
338.194	413.81
338.422	419.81
338.65	412.81
338.878	410.81
339.106	378.81
339.334	398.81
339.562	407.81
339.79	387.81
340.018	436.81
340.246	425.81
340.474	429.81
340.702	423.81
340.93	407.81
341.158	416.81
341.386	394.81
341.614	402.81
341.842	411.81
342.07	386.81
342.298	394.81
342.526	404.81
342.754	388.81
342.981	414.81
343.209	389.81
343.437	390.81
343.665	387.81
343.893	376.81
344.12	411.81
344.348	388.81
344.576	422.81
344.804	426.81
345.031	409.81
345.259	453.81
345.487	424.81
345.714	412.81
345.942	392.81
346.17	405.81
346.397	407.81
346.625	394.81
346.853	400.81
347.08	413.81
347.308	402.81
347.535	405.81
347.763	427.81
347.99	420.81
348.218	422.81
348.445	420.81
348.673	427.81
348.9	410.81
349.128	387.81
349.355	392.81
349.583	384.81
349.81	378.81
350.037	381.81
350.265	368.81
350.492	361.81
350.72	362.81
350.947	381.81
351.174	405.81
351.402	428.81
351.629	397.81
351.856	410.81
352.083	415.81
352.311	436.81
352.538	443.81
352.765	405.81
352.992	404.81
353.22	406.81
353.447	407.81
353.674	402.81
353.901	374.81
354.128	389.81
354.355	366.81
354.583	399.81
354.81	380.81
355.037	352.81
355.264	375.81
355.491	359.81
355.718	360.81
355.945	362.81
356.172	374.81
356.399	363.81
356.626	339.81
356.853	362.81
357.08	361.81
357.307	358.81
357.534	377.81
357.761	368.81
357.988	352.81
358.215	344.81
358.441	351.81
358.668	356.81
358.895	368.81
359.122	370.81
359.349	390.81
359.576	409.81
359.802	432.81
360.029	462.81
360.256	481.81
360.483	450.81
360.709	420.81
360.936	393.81
361.163	404.81
361.39	395.81
361.616	406.81
361.843	408.81
362.07	416.81
362.296	405.81
362.523	407.81
362.749	395.81
362.976	386.81
363.203	400.81
363.429	378.81
363.656	371.81
363.882	365.81
364.109	388.81
364.335	372.81
364.562	381.81
364.788	361.81
365.015	361.81
365.241	377.81
365.468	386.81
365.694	384.81
365.92	389.81
366.147	384.81
366.373	371.81
366.599	372.81
366.826	376.81
367.052	376.81
367.278	370.81
367.505	389.81
367.731	370.81
367.957	368.81
368.184	374.81
368.41	375.81
368.636	375.81
368.862	405.81
369.089	390.81
369.315	365.81
369.541	380.81
369.767	384.81
369.993	377.81
370.219	376.81
370.445	379.81
370.672	369.81
370.898	364.81
371.124	344.81
371.35	356.81
371.576	343.81
371.802	337.81
372.028	362.81
372.254	339.81
372.48	364.81
372.706	350.81
372.932	365.81
373.158	369.81
373.384	334.81
373.61	360.81
373.835	359.81
374.061	368.81
374.287	376.81
374.513	374.81
374.739	369.81
374.965	377.81
375.191	364.81
375.416	359.81
375.642	358.81
375.868	358.81
376.094	359.81
376.319	348.81
376.545	350.81
376.771	377.81
376.997	372.81
377.222	346.81
377.448	362.81
377.674	380.81
377.899	376.81
378.125	342.81
378.35	341.81
378.576	353.81
378.802	368.81
379.027	364.81
379.253	355.81
379.478	368.81
379.704	353.81
379.929	341.81
380.155	369.81
380.38	358.81
380.606	359.81
380.831	365.81
381.057	358.81
381.282	357.81
381.507	383.81
381.733	378.81
381.958	361.81
382.184	368.81
382.409	376.81
382.634	354.81
382.86	351.81
383.085	368.81
383.31	370.81
383.535	373.81
383.761	385.81
383.986	375.81
384.211	353.81
384.436	372.81
384.662	369.81
384.887	357.81
385.112	368.81
385.337	372.81
385.562	378.81
385.787	373.81
386.013	401.81
386.238	405.81
386.463	409.81
386.688	390.81
386.913	413.81
387.138	372.81
387.363	387.81
387.588	388.81
387.813	378.81
388.038	393.81
388.263	378.81
388.488	371.81
388.713	370.81
388.938	366.81
389.163	388.81
389.387	384.81
389.612	388.81
389.837	391.81
390.062	378.81
390.287	381.81
390.512	376.81
390.736	382.81
390.961	399.81
391.186	373.81
391.411	379.81
391.636	387.81
391.86	392.81
392.085	396.81
392.31	393.81
392.534	399.81
392.759	386.81
392.984	402.81
393.208	400.81
393.433	390.81
393.658	387.81
393.882	371.81
394.107	395.81
394.331	400.81
394.556	384.81
394.78	380.81
395.005	383.81
395.229	370.81
395.454	392.81
395.678	392.81
395.903	405.81
396.127	418.81
396.352	430.81
396.576	386.81
396.801	379.81
397.025	380.81
397.249	388.81
397.474	403.81
397.698	394.81
397.922	419.81
398.147	420.81
398.371	426.81
398.595	424.81
398.82	414.81
399.044	425.81
399.268	453.81
399.492	456.81
399.717	465.81
399.941	484.81
400.165	514.81
400.389	520.81
400.613	500.81
400.837	462.81
401.062	460.81
401.286	445.81
401.51	424.81
401.734	423.81
401.958	435.81
402.182	447.81
402.406	452.81
402.63	472.81
402.854	434.81
403.078	464.81
403.302	439.81
403.526	467.81
403.75	476.81
403.974	436.81
404.198	446.81
404.422	469.81
404.645	453.81
404.869	456.81
405.093	497.81
405.317	536.81
405.541	589.81
405.765	507.81
405.988	486.81
406.212	487.81
406.436	523.81
406.66	544.81
406.883	523.81
407.107	538.81
407.331	568.81
407.555	618.81
407.778	626.81
408.002	544.81
408.226	528.81
408.449	496.81
408.673	519.81
408.896	509.81
409.12	571.81
409.344	544.81
409.567	506.81
409.791	466.81
410.014	470.81
410.238	450.81
410.461	438.81
410.685	459.81
410.908	479.81
411.132	530.81
411.355	540.81
411.578	508.81
411.802	472.81
412.025	461.81
412.249	437.81
412.472	484.81
412.695	532.81
412.919	508.81
413.142	469.81
413.365	441.81
413.589	437.81
413.812	427.81
414.035	431.81
414.258	432.81
414.482	433.81
414.705	425.81
414.928	408.81
415.151	418.81
415.374	427.81
415.597	442.81
415.821	400.81
416.044	421.81
416.267	446.81
416.49	445.81
416.713	432.81
416.936	417.81
417.159	417.81
417.382	447.81
417.605	454.81
417.828	464.81
418.051	463.81
418.274	434.81
418.497	438.81
418.72	439.81
418.943	432.81
419.166	449.81
419.389	446.81
419.611	472.81
419.834	472.81
420.057	465.81
420.28	477.81
420.503	461.81
420.726	467.81
420.948	480.81
421.171	524.81
421.394	558.81
421.617	505.81
421.839	447.81
422.062	455.81
422.285	469.81
422.507	543.81
422.73	611.81
422.953	598.81
423.175	517.81
423.398	489.81
423.621	512.81
423.843	516.81
424.066	525.81
424.288	503.81
424.511	526.81
424.733	570.81
424.956	670.81
425.178	633.81
425.401	643.81
425.623	666.81
425.846	566.81
426.068	515.81
426.291	528.81
426.513	536.81
426.735	543.81
426.958	553.81
427.18	626.81
427.402	748.81
427.625	851.81
427.847	778.81
428.069	661.81
428.292	588.81
428.514	532.81
428.736	512.81
428.958	513.81
429.181	494.81
429.403	464.81
429.625	487.81
429.847	514.81
430.069	572.81
430.292	607.81
430.514	505.81
430.736	501.81
430.958	504.81
431.18	448.81
431.402	439.81
431.624	440.81
431.846	443.81
432.068	440.81
432.29	437.81
432.512	448.81
432.734	470.81
432.956	458.81
433.178	453.81
433.4	462.81
433.622	463.81
433.844	448.81
434.066	433.81
434.287	444.81
434.509	466.81
434.731	443.81
434.953	453.81
435.175	468.81
435.397	511.81
435.618	516.81
435.84	562.81
436.062	665.81
436.284	704.81
436.505	604.81
436.727	554.81
436.949	530.81
437.17	481.81
437.392	496.81
437.614	482.81
437.835	532.81
438.057	636.81
438.278	772.81
438.5	728.81
438.721	822.81
438.943	781.81
439.165	617.81
439.386	549.81
439.608	553.81
439.829	548.81
440.05	562.81
440.272	634.81
440.493	595.81
440.715	531.81
440.936	501.81
441.158	487.81
441.379	481.81
441.6	488.81
441.822	512.81
442.043	566.81
442.264	647.81
442.486	712.81
442.707	567.81
442.928	532.81
443.149	542.81
443.371	592.81
443.592	607.81
443.813	684.81
444.034	747.81
444.255	635.81
444.476	547.81
444.698	526.81
444.919	514.81
445.14	581.81
445.361	566.81
445.582	565.81
445.803	650.81
446.024	740.81
446.245	781.81
446.466	712.81
446.687	600.81
446.908	532.81
447.129	496.81
447.35	483.81
447.571	480.81
447.792	478.81
448.013	493.81
448.234	511.81
448.455	577.81
448.675	674.81
448.896	738.81
449.117	669.81
449.338	651.81
449.559	760.81
449.779	824.81
450	654.81
450.221	555.81
450.442	530.81
450.662	503.81
450.883	498.81
451.104	537.81
451.324	494.81
451.545	476.81
451.766	465.81
451.986	452.81
452.207	438.81
452.428	437.81
452.648	410.81
452.869	446.81
453.089	457.81
453.31	466.81
453.53	459.81
453.751	442.81
453.971	449.81
454.192	467.81
454.412	459.81
454.633	454.81
454.853	436.81
455.073	434.81
455.294	471.81
455.514	539.81
455.734	523.81
455.955	429.81
456.175	397.81
456.395	410.81
456.616	384.81
456.836	416.81
457.056	386.81
457.276	406.81
457.497	412.81
457.717	394.81
457.937	408.81
458.157	410.81
458.377	428.81
458.598	438.81
458.818	508.81
459.038	613.81
459.258	615.81
459.478	523.81
459.698	458.81
459.918	458.81
460.138	419.81
460.358	461.81
460.578	460.81
460.798	427.81
461.018	469.81
461.238	413.81
461.458	432.81
461.678	407.81
461.898	418.81
462.118	448.81
462.338	444.81
462.558	443.81
462.777	441.81
462.997	442.81
463.217	422.81
463.437	473.81
463.657	444.81
463.876	448.81
464.096	446.81
464.316	447.81
464.536	459.81
464.755	486.81
464.975	477.81
465.195	541.81
465.414	654.81
465.634	531.81
465.854	512.81
466.073	475.81
466.293	459.81
466.512	438.81
466.732	420.81
466.951	438.81
467.171	434.81
467.391	415.81
467.61	448.81
467.829	452.81
468.049	457.81
468.268	464.81
468.488	427.81
468.707	429.81
468.927	436.81
469.146	410.81
469.365	402.81
469.585	415.81
469.804	434.81
470.023	435.81
470.243	432.81
470.462	457.81
470.681	483.81
470.901	476.81
471.12	444.81
471.339	422.81
471.558	437.81
471.777	453.81
471.997	448.81
472.216	467.81
472.435	482.81
472.654	471.81
472.873	453.81
473.092	462.81
473.311	427.81
473.53	452.81
473.749	460.81
473.968	514.81
474.187	597.81
474.406	640.81
474.625	536.81
474.844	477.81
475.063	454.81
475.282	432.81
475.501	462.81
475.72	461.81
475.939	457.81
476.158	414.81
476.377	463.81
476.596	444.81
476.814	447.81
477.033	461.81
477.252	475.81
477.471	483.81
477.69	468.81
477.908	474.81
478.127	460.81
478.346	468.81
478.564	476.81
478.783	480.81
479.002	491.81
479.22	509.81
479.439	512.81
479.658	523.81
479.876	564.81
480.095	538.81
480.313	572.81
480.532	558.81
480.751	543.81
480.969	536.81
481.188	611.81
481.406	693.81
481.624	602.81
481.843	564.81
482.061	553.81
482.28	536.81
482.498	528.81
482.717	528.81
482.935	521.81
483.153	500.81
483.372	542.81
483.59	532.81
483.808	515.81
484.027	536.81
484.245	520.81
484.463	522.81
484.681	545.81
484.9	532.81
485.118	524.81
485.336	514.81
485.554	548.81
485.772	533.81
485.99	523.81
486.209	541.81
486.427	557.81
486.645	555.81
486.863	572.81
487.081	585.81
487.299	555.81
487.517	573.81
487.735	565.81
487.953	571.81
488.171	574.81
488.389	549.81
488.607	587.81
488.825	572.81
489.043	555.81
489.261	551.81
489.479	579.81
489.696	568.81
489.914	572.81
490.132	580.81
490.35	587.81
490.568	625.81
490.786	610.81
491.003	606.81
491.221	621.81
491.439	644.81
491.657	640.81
491.874	653.81
492.092	659.81
492.31	670.81
492.527	688.81
492.745	682.81
492.963	667.81
493.18	674.81
493.398	697.81
493.615	684.81
493.833	678.81
494.05	663.81
494.268	684.81
494.485	681.81
494.703	671.81
494.92	694.81
495.138	666.81
495.355	670.81
495.573	689.81
495.79	685.81
496.008	692.81
496.225	679.81
496.442	677.81
496.66	674.81
496.877	679.81
497.094	672.81
497.312	683.81
497.529	694.81
497.746	683.81
497.963	692.81
498.181	721.81
498.398	738.81
498.615	722.81
498.832	724.81
499.049	715.81
499.267	732.81
499.484	740.81
499.701	774.81
499.918	777.81
500.135	776.81
500.352	837.81
500.569	809.81
500.786	812.81
501.003	805.81
501.22	805.81
501.437	804.81
501.654	783.81
501.871	806.81
