Data from 1980.PennyLincolnUp.Lamp.En5.5.200Scan.071819.P1_HRD10591_16-38-36-958.txt Node
Date: Thu Jul 18 16:38:36 EDT 2019
User: cochatt
Spectrometer: HR+D1059
Trigger mode: 1
Integration Time (sec): 1.000000E-1
Scans to average: 1
Electric dark correction enabled: true
Nonlinearity correction enabled: false
Boxcar width: 0
XAxis mode: Wavelengths
Number of Pixels in Spectrum: 2048
>>>>>Begin Spectral Data<<<<<
223.165	-18.19
223.4	-18.19
223.635	-18.19
223.869	-14.19
224.104	-11.19
224.338	-13.19
224.573	-16.19
224.808	-8.19
225.042	-7.19
225.277	-2.19
225.511	-13.19
225.746	-3.19
225.98	-5.19
226.215	13.81
226.449	21.81
226.683	17.81
226.918	25.81
227.152	32.81
227.387	33.81
227.621	42.81
227.856	49.81
228.09	48.81
228.324	48.81
228.559	59.81
228.793	74.81
229.027	106.81
229.262	124.81
229.496	123.81
229.73	135.81
229.964	160.81
230.199	140.81
230.433	123.81
230.667	117.81
230.901	121.81
231.136	125.81
231.37	125.81
231.604	125.81
231.838	121.81
232.072	97.81
232.306	112.81
232.541	113.81
232.775	113.81
233.009	113.81
233.243	121.81
233.477	109.81
233.711	123.81
233.945	122.81
234.179	125.81
234.413	108.81
234.647	116.81
234.881	116.81
235.115	132.81
235.349	117.81
235.583	124.81
235.817	123.81
236.051	128.81
236.285	127.81
236.519	137.81
236.753	125.81
236.987	156.81
237.221	195.81
237.455	268.81
237.689	189.81
237.922	160.81
238.156	140.81
238.39	124.81
238.624	127.81
238.858	132.81
239.091	145.81
239.325	122.81
239.559	136.81
239.793	133.81
240.027	141.81
240.26	159.81
240.494	155.81
240.728	155.81
240.961	160.81
241.195	129.81
241.429	142.81
241.662	120.81
241.896	145.81
242.13	141.81
242.363	137.81
242.597	150.81
242.83	149.81
243.064	141.81
243.298	128.81
243.531	142.81
243.765	133.81
243.998	135.81
244.232	158.81
244.465	140.81
244.699	149.81
244.932	149.81
245.166	180.81
245.399	148.81
245.633	146.81
245.866	148.81
246.099	154.81
246.333	159.81
246.566	160.81
246.8	150.81
247.033	150.81
247.266	165.81
247.5	152.81
247.733	171.81
247.966	181.81
248.2	188.81
248.433	162.81
248.666	178.81
248.899	199.81
249.133	224.81
249.366	207.81
249.599	211.81
249.832	196.81
250.066	176.81
250.299	191.81
250.532	204.81
250.765	226.81
250.998	257.81
251.231	234.81
251.465	232.81
251.698	229.81
251.931	226.81
252.164	232.81
252.397	205.81
252.63	209.81
252.863	202.81
253.096	226.81
253.329	237.81
253.562	244.81
253.795	227.81
254.028	242.81
254.261	220.81
254.494	258.81
254.727	259.81
254.96	289.81
255.193	304.81
255.426	289.81
255.659	248.81
255.892	260.81
256.124	246.81
256.357	246.81
256.59	247.81
256.823	222.81
257.056	254.81
257.289	201.81
257.521	217.81
257.754	209.81
257.987	219.81
258.22	217.81
258.452	224.81
258.685	215.81
258.918	226.81
259.151	222.81
259.383	244.81
259.616	221.81
259.849	229.81
260.081	245.81
260.314	270.81
260.547	279.81
260.779	252.81
261.012	237.81
261.244	249.81
261.477	234.81
261.71	249.81
261.942	244.81
262.175	256.81
262.407	246.81
262.64	209.81
262.872	233.81
263.105	214.81
263.337	228.81
263.57	221.81
263.802	217.81
264.035	219.81
264.267	212.81
264.499	220.81
264.732	221.81
264.964	210.81
265.197	209.81
265.429	225.81
265.661	205.81
265.894	201.81
266.126	235.81
266.358	210.81
266.591	233.81
266.823	243.81
267.055	239.81
267.287	258.81
267.52	225.81
267.752	231.81
267.984	241.81
268.216	232.81
268.448	237.81
268.681	223.81
268.913	257.81
269.145	262.81
269.377	293.81
269.609	285.81
269.841	292.81
270.073	300.81
270.306	306.81
270.538	326.81
270.77	360.81
271.002	323.81
271.234	331.81
271.466	312.81
271.698	317.81
271.93	342.81
272.162	350.81
272.394	353.81
272.626	345.81
272.858	325.81
273.09	298.81
273.322	288.81
273.553	284.81
273.785	263.81
274.017	306.81
274.249	305.81
274.481	274.81
274.713	281.81
274.945	282.81
275.176	270.81
275.408	255.81
275.64	262.81
275.872	293.81
276.104	276.81
276.335	276.81
276.567	275.81
276.799	294.81
277.031	313.81
277.262	334.81
277.494	333.81
277.726	323.81
277.957	310.81
278.189	305.81
278.421	297.81
278.652	285.81
278.884	265.81
279.115	264.81
279.347	267.81
279.579	256.81
279.81	288.81
280.042	267.81
280.273	291.81
280.505	268.81
280.736	258.81
280.968	246.81
281.199	272.81
281.431	286.81
281.662	282.81
281.894	263.81
282.125	269.81
282.356	292.81
282.588	304.81
282.819	321.81
283.051	296.81
283.282	264.81
283.513	270.81
283.745	281.81
283.976	285.81
284.207	279.81
284.439	259.81
284.67	292.81
284.901	284.81
285.132	288.81
285.364	298.81
285.595	276.81
285.826	270.81
286.057	280.81
286.288	262.81
286.52	276.81
286.751	281.81
286.982	293.81
287.213	277.81
287.444	281.81
287.675	280.81
287.906	289.81
288.138	298.81
288.369	313.81
288.6	300.81
288.831	298.81
289.062	293.81
289.293	302.81
289.524	279.81
289.755	276.81
289.986	274.81
290.217	294.81
290.448	291.81
290.679	307.81
290.91	284.81
291.141	286.81
291.371	280.81
291.602	280.81
291.833	276.81
292.064	286.81
292.295	292.81
292.526	280.81
292.757	267.81
292.987	282.81
293.218	294.81
293.449	294.81
293.68	273.81
293.91	301.81
294.141	293.81
294.372	285.81
294.603	292.81
294.833	286.81
295.064	293.81
295.295	293.81
295.525	283.81
295.756	277.81
295.987	289.81
296.217	324.81
296.448	364.81
296.679	292.81
296.909	287.81
297.14	290.81
297.37	292.81
297.601	283.81
297.831	282.81
298.062	308.81
298.292	292.81
298.523	301.81
298.753	306.81
298.984	284.81
299.214	297.81
299.445	311.81
299.675	295.81
299.905	307.81
300.136	299.81
300.366	297.81
300.597	300.81
300.827	312.81
301.057	317.81
301.288	336.81
301.518	301.81
301.748	309.81
301.979	316.81
302.209	320.81
302.439	337.81
302.669	329.81
302.9	329.81
303.13	291.81
303.36	326.81
303.59	304.81
303.82	344.81
304.051	320.81
304.281	309.81
304.511	302.81
304.741	314.81
304.971	309.81
305.201	322.81
305.431	310.81
305.661	305.81
305.891	301.81
306.121	320.81
306.352	326.81
306.582	339.81
306.812	308.81
307.042	317.81
307.272	324.81
307.502	319.81
307.731	313.81
307.961	310.81
308.191	329.81
308.421	314.81
308.651	338.81
308.881	323.81
309.111	344.81
309.341	327.81
309.571	360.81
309.8	364.81
310.03	368.81
310.26	396.81
310.49	378.81
310.72	395.81
310.949	392.81
311.179	408.81
311.409	382.81
311.639	373.81
311.868	391.81
312.098	388.81
312.328	396.81
312.557	397.81
312.787	438.81
313.017	412.81
313.246	400.81
313.476	384.81
313.706	378.81
313.935	402.81
314.165	391.81
314.394	404.81
314.624	418.81
314.853	404.81
315.083	396.81
315.312	374.81
315.542	363.81
315.771	366.81
316.001	370.81
316.23	362.81
316.46	358.81
316.689	365.81
316.919	362.81
317.148	387.81
317.377	374.81
317.607	375.81
317.836	377.81
318.065	387.81
318.295	372.81
318.524	374.81
318.753	352.81
318.983	373.81
319.212	374.81
319.441	388.81
319.67	397.81
319.9	368.81
320.129	381.81
320.358	386.81
320.587	376.81
320.816	393.81
321.046	390.81
321.275	399.81
321.504	395.81
321.733	421.81
321.962	412.81
322.191	442.81
322.42	451.81
322.649	469.81
322.878	468.81
323.108	496.81
323.337	509.81
323.566	558.81
323.795	587.81
324.024	650.81
324.253	814.81
324.482	1157.81
324.71	1761.81
324.939	2549.81
325.168	2252.81
325.397	1204.81
325.626	775.81
325.855	636.81
326.084	562.81
326.313	532.81
326.542	576.81
326.77	585.81
326.999	732.81
327.228	1048.81
327.457	1536.81
327.686	1931.81
327.914	1307.81
328.143	872.81
328.372	748.81
328.6	665.81
328.829	650.81
329.058	676.81
329.287	669.81
329.515	620.81
329.744	552.81
329.972	565.81
330.201	582.81
330.43	617.81
330.658	666.81
330.887	696.81
331.115	673.81
331.344	583.81
331.572	528.81
331.801	518.81
332.03	505.81
332.258	498.81
332.486	485.81
332.715	444.81
332.943	460.81
333.172	438.81
333.4	463.81
333.629	464.81
333.857	483.81
334.085	493.81
334.314	521.81
334.542	546.81
334.771	582.81
334.999	526.81
335.227	473.81
335.455	449.81
335.684	458.81
335.912	442.81
336.14	439.81
336.369	442.81
336.597	446.81
336.825	439.81
337.053	440.81
337.281	426.81
337.51	423.81
337.738	422.81
337.966	423.81
338.194	429.81
338.422	424.81
338.65	410.81
338.878	426.81
339.106	428.81
339.334	420.81
339.562	417.81
339.79	398.81
340.018	420.81
340.246	416.81
340.474	448.81
340.702	421.81
340.93	424.81
341.158	400.81
341.386	421.81
341.614	418.81
341.842	423.81
342.07	438.81
342.298	420.81
342.526	410.81
342.754	409.81
342.981	391.81
343.209	380.81
343.437	418.81
343.665	406.81
343.893	401.81
344.12	415.81
344.348	414.81
344.576	430.81
344.804	428.81
345.031	443.81
345.259	469.81
345.487	429.81
345.714	400.81
345.942	417.81
346.17	411.81
346.397	409.81
346.625	415.81
346.853	409.81
347.08	413.81
347.308	409.81
347.535	416.81
347.763	436.81
347.99	433.81
348.218	410.81
348.445	428.81
348.673	433.81
348.9	424.81
349.128	410.81
349.355	399.81
349.583	402.81
349.81	413.81
350.037	377.81
350.265	393.81
350.492	378.81
350.72	396.81
350.947	407.81
351.174	398.81
351.402	433.81
351.629	442.81
351.856	437.81
352.083	434.81
352.311	454.81
352.538	423.81
352.765	432.81
352.992	418.81
353.22	404.81
353.447	425.81
353.674	412.81
353.901	397.81
354.128	370.81
354.355	385.81
354.583	378.81
354.81	369.81
355.037	381.81
355.264	371.81
355.491	372.81
355.718	383.81
355.945	395.81
356.172	363.81
356.399	363.81
356.626	384.81
356.853	362.81
357.08	354.81
357.307	355.81
357.534	378.81
357.761	388.81
357.988	368.81
358.215	342.81
358.441	374.81
358.668	378.81
358.895	392.81
359.122	371.81
359.349	408.81
359.576	412.81
359.802	425.81
360.029	463.81
360.256	501.81
360.483	458.81
360.709	442.81
360.936	410.81
361.163	426.81
361.39	421.81
361.616	406.81
361.843	407.81
362.07	410.81
362.296	421.81
362.523	397.81
362.749	404.81
362.976	387.81
363.203	385.81
363.429	385.81
363.656	382.81
363.882	373.81
364.109	373.81
364.335	379.81
364.562	373.81
364.788	397.81
365.015	396.81
365.241	393.81
365.468	393.81
365.694	411.81
365.92	409.81
366.147	389.81
366.373	382.81
366.599	413.81
366.826	393.81
367.052	380.81
367.278	394.81
367.505	382.81
367.731	379.81
367.957	382.81
368.184	375.81
368.41	401.81
368.636	396.81
368.862	392.81
369.089	401.81
369.315	396.81
369.541	380.81
369.767	388.81
369.993	389.81
370.219	379.81
370.445	392.81
370.672	396.81
370.898	373.81
371.124	379.81
371.35	383.81
371.576	362.81
371.802	373.81
372.028	377.81
372.254	365.81
372.48	359.81
372.706	360.81
372.932	384.81
373.158	368.81
373.384	382.81
373.61	366.81
373.835	374.81
374.061	356.81
374.287	384.81
374.513	397.81
374.739	354.81
374.965	384.81
375.191	380.81
375.416	370.81
375.642	379.81
375.868	388.81
376.094	378.81
376.319	377.81
376.545	358.81
376.771	363.81
376.997	377.81
377.222	386.81
377.448	404.81
377.674	364.81
377.899	363.81
378.125	372.81
378.35	363.81
378.576	362.81
378.802	353.81
379.027	373.81
379.253	378.81
379.478	374.81
379.704	374.81
379.929	356.81
380.155	373.81
380.38	376.81
380.606	362.81
380.831	379.81
381.057	390.81
381.282	368.81
381.507	369.81
381.733	379.81
381.958	366.81
382.184	388.81
382.409	375.81
382.634	391.81
382.86	380.81
383.085	385.81
383.31	386.81
383.535	388.81
383.761	384.81
383.986	384.81
384.211	372.81
384.436	380.81
384.662	373.81
384.887	404.81
385.112	384.81
385.337	393.81
385.562	394.81
385.787	390.81
386.013	399.81
386.238	390.81
386.463	409.81
386.688	395.81
386.913	396.81
387.138	388.81
387.363	415.81
387.588	396.81
387.813	366.81
388.038	392.81
388.263	380.81
388.488	385.81
388.713	390.81
388.938	399.81
389.163	385.81
389.387	400.81
389.612	393.81
389.837	407.81
390.062	388.81
390.287	392.81
390.512	388.81
390.736	399.81
390.961	395.81
391.186	409.81
391.411	405.81
391.636	392.81
391.86	390.81
392.085	416.81
392.31	404.81
392.534	412.81
392.759	411.81
392.984	415.81
393.208	406.81
393.433	400.81
393.658	396.81
393.882	407.81
394.107	384.81
394.331	407.81
394.556	400.81
394.78	395.81
395.005	393.81
395.229	396.81
395.454	401.81
395.678	417.81
395.903	427.81
396.127	443.81
396.352	474.81
396.576	422.81
396.801	418.81
397.025	414.81
397.249	418.81
397.474	414.81
397.698	424.81
397.922	419.81
398.147	450.81
398.371	462.81
398.595	441.81
398.82	443.81
399.044	442.81
399.268	445.81
399.492	465.81
399.717	488.81
399.941	506.81
400.165	564.81
400.389	552.81
400.613	505.81
400.837	497.81
401.062	462.81
401.286	454.81
401.51	461.81
401.734	481.81
401.958	460.81
402.182	470.81
402.406	461.81
402.63	466.81
402.854	452.81
403.078	444.81
403.302	462.81
403.526	468.81
403.75	482.81
403.974	470.81
404.198	477.81
404.422	466.81
404.645	483.81
404.869	491.81
405.093	522.81
405.317	566.81
405.541	566.81
405.765	545.81
405.988	500.81
406.212	536.81
406.436	563.81
406.66	555.81
406.883	532.81
407.107	524.81
407.331	579.81
407.555	618.81
407.778	642.81
408.002	581.81
408.226	523.81
408.449	510.81
408.673	522.81
408.896	550.81
409.12	576.81
409.344	546.81
409.567	530.81
409.791	486.81
410.014	479.81
410.238	471.81
410.461	465.81
410.685	493.81
410.908	492.81
411.132	541.81
411.355	557.81
411.578	551.81
411.802	509.81
412.025	482.81
412.249	490.81
412.472	513.81
412.695	553.81
412.919	526.81
413.142	495.81
413.365	470.81
413.589	445.81
413.812	442.81
414.035	445.81
414.258	435.81
414.482	460.81
414.705	471.81
414.928	430.81
415.151	436.81
415.374	436.81
415.597	439.81
415.821	458.81
416.044	455.81
416.267	451.81
416.49	481.81
416.713	444.81
416.936	434.81
417.159	444.81
417.382	460.81
417.605	477.81
417.828	467.81
418.051	499.81
418.274	468.81
418.497	449.81
418.72	451.81
418.943	449.81
419.166	470.81
419.389	458.81
419.611	484.81
419.834	497.81
420.057	478.81
420.28	489.81
420.503	489.81
420.726	486.81
420.948	490.81
421.171	518.81
421.394	588.81
421.617	484.81
421.839	483.81
422.062	456.81
422.285	510.81
422.507	564.81
422.73	628.81
422.953	603.81
423.175	538.81
423.398	505.81
423.621	520.81
423.843	527.81
424.066	541.81
424.288	528.81
424.511	564.81
424.733	588.81
424.956	675.81
425.178	642.81
425.401	646.81
425.623	690.81
425.846	592.81
426.068	556.81
426.291	537.81
426.513	544.81
426.735	552.81
426.958	582.81
427.18	675.81
427.402	786.81
427.625	896.81
427.847	810.81
428.069	716.81
428.292	604.81
428.514	560.81
428.736	536.81
428.958	510.81
429.181	489.81
429.403	486.81
429.625	479.81
429.847	542.81
430.069	610.81
430.292	592.81
430.514	513.81
430.736	498.81
430.958	488.81
431.18	469.81
431.402	455.81
431.624	449.81
431.846	452.81
432.068	444.81
432.29	466.81
432.512	456.81
432.734	453.81
432.956	469.81
433.178	468.81
433.4	466.81
433.622	483.81
433.844	442.81
434.066	448.81
434.287	450.81
434.509	454.81
434.731	490.81
434.953	477.81
435.175	503.81
435.397	536.81
435.618	542.81
435.84	570.81
436.062	702.81
436.284	743.81
436.505	632.81
436.727	562.81
436.949	520.81
437.17	526.81
437.392	510.81
437.614	529.81
437.835	574.81
438.057	680.81
438.278	738.81
438.5	760.81
438.721	807.81
438.943	783.81
439.165	643.81
439.386	566.81
439.608	548.81
439.829	564.81
440.05	583.81
440.272	638.81
440.493	595.81
440.715	536.81
440.936	524.81
441.158	510.81
441.379	493.81
441.6	526.81
441.822	533.81
442.043	568.81
442.264	663.81
442.486	717.81
442.707	611.81
442.928	566.81
443.149	570.81
443.371	585.81
443.592	658.81
443.813	714.81
444.034	797.81
444.255	656.81
444.476	558.81
444.698	536.81
444.919	538.81
445.14	605.81
445.361	588.81
445.582	594.81
445.803	664.81
446.024	758.81
446.245	792.81
446.466	698.81
446.687	628.81
446.908	556.81
447.129	497.81
447.35	483.81
447.571	492.81
447.792	504.81
448.013	483.81
448.234	530.81
448.455	586.81
448.675	702.81
448.896	802.81
449.117	697.81
449.338	652.81
449.559	744.81
449.779	872.81
450	704.81
450.221	568.81
450.442	520.81
450.662	517.81
450.883	504.81
451.104	540.81
451.324	550.81
451.545	492.81
451.766	476.81
451.986	451.81
452.207	438.81
452.428	462.81
452.648	468.81
452.869	465.81
453.089	450.81
453.31	476.81
453.53	457.81
453.751	454.81
453.971	470.81
454.192	497.81
454.412	489.81
454.633	448.81
454.853	445.81
455.073	431.81
455.294	503.81
455.514	533.81
455.734	531.81
455.955	461.81
456.175	445.81
456.395	425.81
456.616	417.81
456.836	434.81
457.056	406.81
457.276	438.81
457.497	405.81
457.717	433.81
457.937	424.81
458.157	436.81
458.377	433.81
458.598	448.81
458.818	544.81
459.038	613.81
459.258	634.81
459.478	530.81
459.698	470.81
459.918	468.81
460.138	465.81
460.358	463.81
460.578	438.81
460.798	458.81
461.018	470.81
461.238	461.81
461.458	456.81
461.678	455.81
461.898	452.81
462.118	445.81
462.338	461.81
462.558	447.81
462.777	468.81
462.997	456.81
463.217	478.81
463.437	482.81
463.657	481.81
463.876	465.81
464.096	489.81
464.316	465.81
464.536	472.81
464.755	486.81
464.975	512.81
465.195	556.81
465.414	666.81
465.634	581.81
465.854	522.81
466.073	497.81
466.293	468.81
466.512	443.81
466.732	460.81
466.951	450.81
467.171	442.81
467.391	462.81
467.61	487.81
467.829	510.81
468.049	470.81
468.268	451.81
468.488	454.81
468.707	432.81
468.927	443.81
469.146	441.81
469.365	413.81
469.585	433.81
469.804	445.81
470.023	471.81
470.243	471.81
470.462	472.81
470.681	498.81
470.901	474.81
471.12	470.81
471.339	448.81
471.558	462.81
471.777	456.81
471.997	437.81
472.216	482.81
472.435	504.81
472.654	467.81
472.873	493.81
473.092	458.81
473.311	466.81
473.53	463.81
473.749	466.81
473.968	517.81
474.187	607.81
474.406	635.81
474.625	514.81
474.844	480.81
475.063	483.81
475.282	470.81
475.501	465.81
475.72	456.81
475.939	463.81
476.158	506.81
476.377	472.81
476.596	470.81
476.814	477.81
477.033	493.81
477.252	501.81
477.471	489.81
477.69	511.81
477.908	517.81
478.127	517.81
478.346	517.81
478.564	509.81
478.783	492.81
479.002	509.81
479.22	502.81
479.439	519.81
479.658	558.81
479.876	556.81
480.095	561.81
480.313	599.81
480.532	569.81
480.751	577.81
480.969	552.81
481.188	664.81
481.406	706.81
481.624	628.81
481.843	592.81
482.061	575.81
482.28	562.81
482.498	570.81
482.717	553.81
482.935	540.81
483.153	552.81
483.372	565.81
483.59	567.81
483.808	538.81
484.027	563.81
484.245	539.81
484.463	550.81
484.681	554.81
484.9	544.81
485.118	538.81
485.336	550.81
485.554	572.81
485.772	560.81
485.99	557.81
486.209	585.81
486.427	570.81
486.645	586.81
486.863	590.81
487.081	608.81
487.299	584.81
487.517	606.81
487.735	603.81
487.953	595.81
488.171	592.81
488.389	590.81
488.607	601.81
488.825	606.81
489.043	584.81
489.261	588.81
489.479	585.81
489.696	596.81
489.914	609.81
490.132	600.81
490.35	616.81
490.568	635.81
490.786	624.81
491.003	618.81
491.221	660.81
491.439	676.81
491.657	667.81
491.874	682.81
492.092	669.81
492.31	674.81
492.527	685.81
492.745	697.81
492.963	685.81
493.18	680.81
493.398	711.81
493.615	712.81
493.833	718.81
494.05	701.81
494.268	695.81
494.485	708.81
494.703	720.81
494.92	695.81
495.138	707.81
495.355	698.81
495.573	709.81
495.79	714.81
496.008	731.81
496.225	704.81
496.442	718.81
496.66	705.81
496.877	683.81
497.094	704.81
497.312	714.81
497.529	726.81
497.746	718.81
497.963	729.81
498.181	754.81
498.398	754.81
498.615	745.81
498.832	746.81
499.049	773.81
499.267	764.81
499.484	769.81
499.701	801.81
499.918	821.81
500.135	848.81
500.352	846.81
500.569	862.81
500.786	876.81
501.003	866.81
501.22	867.81
501.437	823.81
501.654	832.81
501.871	837.81
