Data from 1980.PennyLincolnUp.Lamp.En5.5.200Scan.071819.P1_HRD10591_16-38-16-957.txt Node
Date: Thu Jul 18 16:38:16 EDT 2019
User: cochatt
Spectrometer: HR+D1059
Trigger mode: 1
Integration Time (sec): 1.000000E-1
Scans to average: 1
Electric dark correction enabled: true
Nonlinearity correction enabled: false
Boxcar width: 0
XAxis mode: Wavelengths
Number of Pixels in Spectrum: 2048
>>>>>Begin Spectral Data<<<<<
223.165	-16.5
223.4	-16.5
223.635	-16.5
223.869	-20.5
224.104	-22.5
224.338	-15.5
224.573	-9.5
224.808	0.5
225.042	-2.5
225.277	3.5
225.511	-0.5
225.746	-2.5
225.98	1.5
226.215	3.5
226.449	14.5
226.683	14.5
226.918	21.5
227.152	30.5
227.387	28.5
227.621	45.5
227.856	43.5
228.09	48.5
228.324	50.5
228.559	56.5
228.793	58.5
229.027	96.5
229.262	116.5
229.496	120.5
229.73	146.5
229.964	170.5
230.199	142.5
230.433	111.5
230.667	122.5
230.901	111.5
231.136	129.5
231.37	108.5
231.604	124.5
231.838	139.5
232.072	119.5
232.306	134.5
232.541	101.5
232.775	105.5
233.009	109.5
233.243	108.5
233.477	106.5
233.711	114.5
233.945	137.5
234.179	147.5
234.413	123.5
234.647	130.5
234.881	120.5
235.115	121.5
235.349	116.5
235.583	114.5
235.817	123.5
236.051	124.5
236.285	122.5
236.519	135.5
236.753	153.5
236.987	174.5
237.221	191.5
237.455	261.5
237.689	207.5
237.922	147.5
238.156	145.5
238.39	141.5
238.624	146.5
238.858	143.5
239.091	131.5
239.325	124.5
239.559	133.5
239.793	117.5
240.027	137.5
240.26	137.5
240.494	172.5
240.728	149.5
240.961	158.5
241.195	154.5
241.429	142.5
241.662	146.5
241.896	133.5
242.13	148.5
242.363	145.5
242.597	129.5
242.83	149.5
243.064	136.5
243.298	151.5
243.531	150.5
243.765	140.5
243.998	136.5
244.232	139.5
244.465	150.5
244.699	162.5
244.932	151.5
245.166	128.5
245.399	147.5
245.633	137.5
245.866	159.5
246.099	149.5
246.333	140.5
246.566	150.5
246.8	153.5
247.033	155.5
247.266	157.5
247.5	182.5
247.733	164.5
247.966	170.5
248.2	180.5
248.433	178.5
248.666	190.5
248.899	197.5
249.133	199.5
249.366	226.5
249.599	229.5
249.832	182.5
250.066	193.5
250.299	186.5
250.532	205.5
250.765	209.5
250.998	236.5
251.231	233.5
251.465	221.5
251.698	203.5
251.931	203.5
252.164	213.5
252.397	203.5
252.63	217.5
252.863	211.5
253.096	216.5
253.329	260.5
253.562	247.5
253.795	245.5
254.028	242.5
254.261	226.5
254.494	238.5
254.727	273.5
254.96	297.5
255.193	284.5
255.426	267.5
255.659	237.5
255.892	257.5
256.124	251.5
256.357	241.5
256.59	228.5
256.823	236.5
257.056	228.5
257.289	239.5
257.521	220.5
257.754	218.5
257.987	228.5
258.22	215.5
258.452	216.5
258.685	218.5
258.918	209.5
259.151	225.5
259.383	211.5
259.616	238.5
259.849	249.5
260.081	261.5
260.314	272.5
260.547	264.5
260.779	243.5
261.012	249.5
261.244	231.5
261.477	238.5
261.71	226.5
261.942	247.5
262.175	236.5
262.407	254.5
262.64	224.5
262.872	217.5
263.105	215.5
263.337	211.5
263.57	224.5
263.802	213.5
264.035	206.5
264.267	201.5
264.499	208.5
264.732	211.5
264.964	209.5
265.197	212.5
265.429	208.5
265.661	214.5
265.894	214.5
266.126	230.5
266.358	222.5
266.591	221.5
266.823	229.5
267.055	242.5
267.287	228.5
267.52	229.5
267.752	219.5
267.984	232.5
268.216	227.5
268.448	237.5
268.681	254.5
268.913	249.5
269.145	272.5
269.377	283.5
269.609	261.5
269.841	285.5
270.073	269.5
270.306	311.5
270.538	344.5
270.77	356.5
271.002	339.5
271.234	316.5
271.466	315.5
271.698	329.5
271.93	353.5
272.162	352.5
272.394	331.5
272.626	334.5
272.858	312.5
273.09	300.5
273.322	266.5
273.553	286.5
273.785	262.5
274.017	283.5
274.249	292.5
274.481	285.5
274.713	271.5
274.945	285.5
275.176	274.5
275.408	265.5
275.64	259.5
275.872	275.5
276.104	270.5
276.335	265.5
276.567	282.5
276.799	285.5
277.031	322.5
277.262	354.5
277.494	327.5
277.726	297.5
277.957	315.5
278.189	305.5
278.421	300.5
278.652	299.5
278.884	272.5
279.115	263.5
279.347	255.5
279.579	262.5
279.81	263.5
280.042	250.5
280.273	273.5
280.505	261.5
280.736	266.5
280.968	263.5
281.199	259.5
281.431	270.5
281.662	268.5
281.894	254.5
282.125	258.5
282.356	283.5
282.588	311.5
282.819	318.5
283.051	299.5
283.282	268.5
283.513	281.5
283.745	274.5
283.976	275.5
284.207	280.5
284.439	267.5
284.67	271.5
284.901	266.5
285.132	251.5
285.364	276.5
285.595	263.5
285.826	281.5
286.057	269.5
286.288	274.5
286.52	270.5
286.751	260.5
286.982	263.5
287.213	282.5
287.444	267.5
287.675	298.5
287.906	294.5
288.138	283.5
288.369	312.5
288.6	304.5
288.831	305.5
289.062	289.5
289.293	286.5
289.524	285.5
289.755	281.5
289.986	284.5
290.217	281.5
290.448	283.5
290.679	282.5
290.91	275.5
291.141	286.5
291.371	275.5
291.602	289.5
291.833	278.5
292.064	262.5
292.295	298.5
292.526	286.5
292.757	283.5
292.987	274.5
293.218	270.5
293.449	289.5
293.68	286.5
293.91	265.5
294.141	286.5
294.372	289.5
294.603	281.5
294.833	279.5
295.064	292.5
295.295	280.5
295.525	280.5
295.756	282.5
295.987	272.5
296.217	313.5
296.448	336.5
296.679	301.5
296.909	283.5
297.14	308.5
297.37	283.5
297.601	274.5
297.831	271.5
298.062	290.5
298.292	293.5
298.523	289.5
298.753	282.5
298.984	294.5
299.214	281.5
299.445	274.5
299.675	296.5
299.905	296.5
300.136	298.5
300.366	284.5
300.597	306.5
300.827	311.5
301.057	308.5
301.288	333.5
301.518	301.5
301.748	314.5
301.979	292.5
302.209	321.5
302.439	305.5
302.669	318.5
302.9	329.5
303.13	305.5
303.36	295.5
303.59	316.5
303.82	313.5
304.051	332.5
304.281	326.5
304.511	318.5
304.741	307.5
304.971	295.5
305.201	308.5
305.431	314.5
305.661	293.5
305.891	309.5
306.121	286.5
306.352	318.5
306.582	333.5
306.812	309.5
307.042	316.5
307.272	310.5
307.502	308.5
307.731	335.5
307.961	319.5
308.191	330.5
308.421	307.5
308.651	320.5
308.881	318.5
309.111	333.5
309.341	318.5
309.571	351.5
309.8	341.5
310.03	366.5
310.26	378.5
310.49	387.5
310.72	389.5
310.949	403.5
311.179	389.5
311.409	372.5
311.639	374.5
311.868	390.5
312.098	372.5
312.328	380.5
312.557	409.5
312.787	399.5
313.017	407.5
313.246	395.5
313.476	372.5
313.706	361.5
313.935	371.5
314.165	392.5
314.394	401.5
314.624	403.5
314.853	386.5
315.083	370.5
315.312	359.5
315.542	353.5
315.771	365.5
316.001	359.5
316.23	358.5
316.46	357.5
316.689	373.5
316.919	373.5
317.148	365.5
317.377	414.5
317.607	371.5
317.836	403.5
318.065	363.5
318.295	343.5
318.524	374.5
318.753	380.5
318.983	363.5
319.212	385.5
319.441	381.5
319.67	379.5
319.9	382.5
320.129	373.5
320.358	370.5
320.587	385.5
320.816	409.5
321.046	381.5
321.275	388.5
321.504	385.5
321.733	390.5
321.962	406.5
322.191	421.5
322.42	423.5
322.649	464.5
322.878	468.5
323.108	476.5
323.337	519.5
323.566	532.5
323.795	575.5
324.024	613.5
324.253	761.5
324.482	1091.5
324.71	1736.5
324.939	2524.5
325.168	2186.5
325.397	1149.5
325.626	749.5
325.855	603.5
326.084	534.5
326.313	542.5
326.542	550.5
326.77	604.5
326.999	699.5
327.228	975.5
327.457	1499.5
327.686	1856.5
327.914	1290.5
328.143	811.5
328.372	689.5
328.6	663.5
328.829	605.5
329.058	639.5
329.287	653.5
329.515	607.5
329.744	535.5
329.972	535.5
330.201	594.5
330.43	627.5
330.658	643.5
330.887	679.5
331.115	634.5
331.344	548.5
331.572	511.5
331.801	517.5
332.03	490.5
332.258	493.5
332.486	459.5
332.715	429.5
332.943	433.5
333.172	455.5
333.4	453.5
333.629	451.5
333.857	463.5
334.085	490.5
334.314	485.5
334.542	527.5
334.771	558.5
334.999	492.5
335.227	446.5
335.455	436.5
335.684	414.5
335.912	418.5
336.14	437.5
336.369	433.5
336.597	401.5
336.825	443.5
337.053	435.5
337.281	420.5
337.51	409.5
337.738	418.5
337.966	411.5
338.194	404.5
338.422	427.5
338.65	425.5
338.878	407.5
339.106	413.5
339.334	445.5
339.562	409.5
339.79	414.5
340.018	391.5
340.246	396.5
340.474	407.5
340.702	421.5
340.93	409.5
341.158	428.5
341.386	425.5
341.614	424.5
341.842	419.5
342.07	408.5
342.298	397.5
342.526	410.5
342.754	379.5
342.981	381.5
343.209	406.5
343.437	394.5
343.665	405.5
343.893	388.5
344.12	410.5
344.348	395.5
344.576	411.5
344.804	435.5
345.031	433.5
345.259	424.5
345.487	433.5
345.714	411.5
345.942	408.5
346.17	412.5
346.397	413.5
346.625	398.5
346.853	390.5
347.08	403.5
347.308	405.5
347.535	410.5
347.763	425.5
347.99	431.5
348.218	421.5
348.445	409.5
348.673	405.5
348.9	396.5
349.128	399.5
349.355	403.5
349.583	389.5
349.81	379.5
350.037	393.5
350.265	394.5
350.492	392.5
350.72	395.5
350.947	402.5
351.174	404.5
351.402	418.5
351.629	408.5
351.856	415.5
352.083	418.5
352.311	439.5
352.538	450.5
352.765	447.5
352.992	447.5
353.22	414.5
353.447	399.5
353.674	367.5
353.901	386.5
354.128	405.5
354.355	369.5
354.583	377.5
354.81	371.5
355.037	368.5
355.264	395.5
355.491	370.5
355.718	376.5
355.945	379.5
356.172	365.5
356.399	356.5
356.626	366.5
356.853	377.5
357.08	375.5
357.307	376.5
357.534	361.5
357.761	357.5
357.988	376.5
358.215	370.5
358.441	378.5
358.668	367.5
358.895	389.5
359.122	393.5
359.349	378.5
359.576	404.5
359.802	417.5
360.029	462.5
360.256	494.5
360.483	468.5
360.709	430.5
360.936	403.5
361.163	405.5
361.39	421.5
361.616	407.5
361.843	403.5
362.07	419.5
362.296	406.5
362.523	396.5
362.749	422.5
362.976	392.5
363.203	391.5
363.429	394.5
363.656	381.5
363.882	358.5
364.109	393.5
364.335	365.5
364.562	398.5
364.788	372.5
365.015	388.5
365.241	389.5
365.468	376.5
365.694	390.5
365.92	387.5
366.147	359.5
366.373	377.5
366.599	366.5
366.826	379.5
367.052	396.5
367.278	373.5
367.505	380.5
367.731	380.5
367.957	394.5
368.184	389.5
368.41	393.5
368.636	388.5
368.862	420.5
369.089	381.5
369.315	385.5
369.541	376.5
369.767	385.5
369.993	370.5
370.219	396.5
370.445	376.5
370.672	360.5
370.898	374.5
371.124	367.5
371.35	381.5
371.576	361.5
371.802	362.5
372.028	353.5
372.254	356.5
372.48	384.5
372.706	353.5
372.932	365.5
373.158	380.5
373.384	373.5
373.61	374.5
373.835	366.5
374.061	360.5
374.287	371.5
374.513	396.5
374.739	369.5
374.965	383.5
375.191	357.5
375.416	387.5
375.642	383.5
375.868	381.5
376.094	385.5
376.319	371.5
376.545	345.5
376.771	365.5
376.997	357.5
377.222	348.5
377.448	353.5
377.674	362.5
377.899	335.5
378.125	361.5
378.35	349.5
378.576	362.5
378.802	355.5
379.027	360.5
379.253	350.5
379.478	365.5
379.704	375.5
379.929	361.5
380.155	350.5
380.38	361.5
380.606	364.5
380.831	371.5
381.057	371.5
381.282	364.5
381.507	367.5
381.733	366.5
381.958	359.5
382.184	376.5
382.409	369.5
382.634	381.5
382.86	378.5
383.085	356.5
383.31	388.5
383.535	404.5
383.761	400.5
383.986	375.5
384.211	382.5
384.436	390.5
384.662	387.5
384.887	375.5
385.112	383.5
385.337	388.5
385.562	387.5
385.787	384.5
386.013	408.5
386.238	392.5
386.463	393.5
386.688	406.5
386.913	403.5
387.138	382.5
387.363	390.5
387.588	377.5
387.813	382.5
388.038	384.5
388.263	381.5
388.488	388.5
388.713	380.5
388.938	385.5
389.163	399.5
389.387	404.5
389.612	377.5
389.837	360.5
390.062	379.5
390.287	378.5
390.512	385.5
390.736	391.5
390.961	380.5
391.186	390.5
391.411	390.5
391.636	406.5
391.86	389.5
392.085	370.5
392.31	381.5
392.534	381.5
392.759	393.5
392.984	381.5
393.208	381.5
393.433	385.5
393.658	380.5
393.882	399.5
394.107	396.5
394.331	391.5
394.556	391.5
394.78	400.5
395.005	383.5
395.229	403.5
395.454	394.5
395.678	408.5
395.903	409.5
396.127	421.5
396.352	426.5
396.576	403.5
396.801	405.5
397.025	402.5
397.249	395.5
397.474	419.5
397.698	410.5
397.922	413.5
398.147	440.5
398.371	438.5
398.595	419.5
398.82	408.5
399.044	428.5
399.268	429.5
399.492	444.5
399.717	481.5
399.941	503.5
400.165	524.5
400.389	553.5
400.613	517.5
400.837	467.5
401.062	448.5
401.286	448.5
401.51	450.5
401.734	447.5
401.958	450.5
402.182	430.5
402.406	484.5
402.63	466.5
402.854	462.5
403.078	439.5
403.302	456.5
403.526	469.5
403.75	455.5
403.974	454.5
404.198	450.5
404.422	477.5
404.645	458.5
404.869	475.5
405.093	508.5
405.317	551.5
405.541	572.5
405.765	539.5
405.988	516.5
406.212	497.5
406.436	515.5
406.66	541.5
406.883	498.5
407.107	534.5
407.331	555.5
407.555	636.5
407.778	625.5
408.002	542.5
408.226	529.5
408.449	499.5
408.673	523.5
408.896	543.5
409.12	583.5
409.344	551.5
409.567	497.5
409.791	472.5
410.014	471.5
410.238	472.5
410.461	483.5
410.685	476.5
410.908	477.5
411.132	526.5
411.355	540.5
411.578	552.5
411.802	491.5
412.025	454.5
412.249	462.5
412.472	504.5
412.695	534.5
412.919	531.5
413.142	485.5
413.365	471.5
413.589	463.5
413.812	443.5
414.035	446.5
414.258	449.5
414.482	415.5
414.705	436.5
414.928	430.5
415.151	440.5
415.374	430.5
415.597	439.5
415.821	421.5
416.044	446.5
416.267	464.5
416.49	437.5
416.713	439.5
416.936	419.5
417.159	433.5
417.382	465.5
417.605	470.5
417.828	454.5
418.051	470.5
418.274	468.5
418.497	435.5
418.72	461.5
418.943	435.5
419.166	452.5
419.389	464.5
419.611	483.5
419.834	456.5
420.057	481.5
420.28	461.5
420.503	473.5
420.726	486.5
420.948	493.5
421.171	540.5
421.394	574.5
421.617	517.5
421.839	503.5
422.062	470.5
422.285	469.5
422.507	539.5
422.73	586.5
422.953	609.5
423.175	519.5
423.398	500.5
423.621	476.5
423.843	522.5
424.066	531.5
424.288	521.5
424.511	533.5
424.733	593.5
424.956	655.5
425.178	649.5
425.401	636.5
425.623	669.5
425.846	584.5
426.068	520.5
426.291	530.5
426.513	537.5
426.735	549.5
426.958	585.5
427.18	632.5
427.402	798.5
427.625	875.5
427.847	787.5
428.069	687.5
428.292	591.5
428.514	534.5
428.736	506.5
428.958	508.5
429.181	471.5
429.403	489.5
429.625	507.5
429.847	510.5
430.069	604.5
430.292	567.5
430.514	492.5
430.736	479.5
430.958	479.5
431.18	461.5
431.402	451.5
431.624	452.5
431.846	451.5
432.068	431.5
432.29	458.5
432.512	460.5
432.734	479.5
432.956	495.5
433.178	477.5
433.4	477.5
433.622	454.5
433.844	455.5
434.066	440.5
434.287	443.5
434.509	473.5
434.731	452.5
434.953	459.5
435.175	503.5
435.397	522.5
435.618	519.5
435.84	586.5
436.062	665.5
436.284	724.5
436.505	621.5
436.727	540.5
436.949	512.5
437.17	479.5
437.392	513.5
437.614	515.5
437.835	557.5
438.057	653.5
438.278	749.5
438.5	746.5
438.721	817.5
438.943	777.5
439.165	633.5
439.386	572.5
439.608	542.5
439.829	548.5
440.05	588.5
440.272	652.5
440.493	597.5
440.715	540.5
440.936	503.5
441.158	493.5
441.379	492.5
441.6	499.5
441.822	539.5
442.043	581.5
442.264	662.5
442.486	689.5
442.707	587.5
442.928	557.5
443.149	540.5
443.371	574.5
443.592	630.5
443.813	709.5
444.034	749.5
444.255	656.5
444.476	556.5
444.698	501.5
444.919	507.5
445.14	581.5
445.361	554.5
445.582	563.5
445.803	650.5
446.024	742.5
446.245	774.5
446.466	689.5
446.687	592.5
446.908	546.5
447.129	502.5
447.35	485.5
447.571	493.5
447.792	474.5
448.013	504.5
448.234	528.5
448.455	593.5
448.675	694.5
448.896	795.5
449.117	677.5
449.338	653.5
449.559	732.5
449.779	878.5
450	689.5
450.221	577.5
450.442	497.5
450.662	496.5
450.883	501.5
451.104	516.5
451.324	517.5
451.545	474.5
451.766	479.5
451.986	472.5
452.207	431.5
452.428	439.5
452.648	448.5
452.869	445.5
453.089	465.5
453.31	460.5
453.53	463.5
453.751	439.5
453.971	441.5
454.192	468.5
454.412	462.5
454.633	438.5
454.853	459.5
455.073	451.5
455.294	479.5
455.514	537.5
455.734	549.5
455.955	454.5
456.175	426.5
456.395	409.5
456.616	380.5
456.836	411.5
457.056	426.5
457.276	387.5
457.497	423.5
457.717	406.5
457.937	404.5
458.157	412.5
458.377	427.5
458.598	452.5
458.818	511.5
459.038	610.5
459.258	616.5
459.478	522.5
459.698	463.5
459.918	431.5
460.138	452.5
460.358	449.5
460.578	437.5
460.798	454.5
461.018	443.5
461.238	449.5
461.458	437.5
461.678	460.5
461.898	423.5
462.118	429.5
462.338	440.5
462.558	440.5
462.777	425.5
462.997	463.5
463.217	462.5
463.437	474.5
463.657	454.5
463.876	447.5
464.096	477.5
464.316	477.5
464.536	471.5
464.755	477.5
464.975	476.5
465.195	554.5
465.414	629.5
465.634	554.5
465.854	514.5
466.073	480.5
466.293	447.5
466.512	441.5
466.732	434.5
466.951	463.5
467.171	422.5
467.391	447.5
467.61	469.5
467.829	445.5
468.049	476.5
468.268	475.5
468.488	442.5
468.707	427.5
468.927	427.5
469.146	431.5
469.365	414.5
469.585	416.5
469.804	426.5
470.023	441.5
470.243	449.5
470.462	450.5
470.681	481.5
470.901	463.5
471.12	458.5
471.339	445.5
471.558	407.5
471.777	437.5
471.997	459.5
472.216	453.5
472.435	466.5
472.654	510.5
472.873	459.5
473.092	433.5
473.311	438.5
473.53	443.5
473.749	473.5
473.968	486.5
474.187	633.5
474.406	667.5
474.625	530.5
474.844	483.5
475.063	465.5
475.282	472.5
475.501	443.5
475.72	455.5
475.939	443.5
476.158	471.5
476.377	446.5
476.596	474.5
476.814	466.5
477.033	470.5
477.252	470.5
477.471	485.5
477.69	487.5
477.908	483.5
478.127	475.5
478.346	486.5
478.564	476.5
478.783	504.5
479.002	503.5
479.22	499.5
479.439	521.5
479.658	541.5
479.876	545.5
480.095	567.5
480.313	582.5
480.532	572.5
480.751	537.5
480.969	571.5
481.188	632.5
481.406	705.5
481.624	574.5
481.843	565.5
482.061	543.5
482.28	565.5
482.498	542.5
482.717	528.5
482.935	535.5
483.153	531.5
483.372	545.5
483.59	532.5
483.808	542.5
484.027	538.5
484.245	542.5
484.463	549.5
484.681	541.5
484.9	531.5
485.118	534.5
485.336	553.5
485.554	557.5
485.772	539.5
485.99	571.5
486.209	548.5
486.427	558.5
486.645	574.5
486.863	577.5
487.081	582.5
487.299	581.5
487.517	587.5
487.735	581.5
487.953	597.5
488.171	569.5
488.389	576.5
488.607	582.5
488.825	588.5
489.043	568.5
489.261	598.5
489.479	575.5
489.696	599.5
489.914	581.5
490.132	605.5
490.35	595.5
490.568	615.5
490.786	643.5
491.003	632.5
491.221	654.5
491.439	634.5
491.657	663.5
491.874	679.5
492.092	662.5
492.31	694.5
492.527	685.5
492.745	686.5
492.963	692.5
493.18	694.5
493.398	708.5
493.615	671.5
493.833	705.5
494.05	714.5
494.268	701.5
494.485	702.5
494.703	719.5
494.92	680.5
495.138	697.5
495.355	693.5
495.573	701.5
495.79	711.5
496.008	702.5
496.225	683.5
496.442	709.5
496.66	703.5
496.877	689.5
497.094	713.5
497.312	690.5
497.529	699.5
497.746	696.5
497.963	737.5
498.181	750.5
498.398	725.5
498.615	733.5
498.832	730.5
499.049	729.5
499.267	786.5
499.484	770.5
499.701	784.5
499.918	771.5
500.135	831.5
500.352	832.5
500.569	814.5
500.786	826.5
501.003	843.5
501.22	857.5
501.437	827.5
501.654	798.5
501.871	821.5
502.088	802.5
502.305	778.5
502.522	773.5
502.739	767.5
502.956	703.5
503.172	734.5
503.389	714.5
503.606	728.5
503.823	700.5
504.04	702.5
504.256	720.5
504.473	700.5
504.69	659.5
504.907	695.5
505.123	665.5
505.34	646.5
505.557	654.5
505.773	674.5
505.99	659.5
506.207	673.5
506.423	679.5
506.64	674.5
506.856	670.5
507.073	673.5
507.289	657.5
507.506	659.5
507.722	668.5
507.939	679.5
508.155	674.5
508.372	657.5
508.588	658.5
508.805	656.5
509.021	639.5
509.238	675.5
509.454	658.5
509.67	639.5
509.887	665.5
510.103	621.5
510.319	669.5
510.536	771.5
510.752	1345.5
510.968	1116.5
511.184	713.5
511.401	651.5
511.617	644.5
511.833	647.5
512.049	622.5
512.265	614.5
512.481	611.5
512.698	627.5
512.914	611.5
513.13	618.5
513.346	610.5
513.562	603.5
513.778	641.5
513.994	641.5
514.21	639.5
514.426	677.5
514.642	716.5
514.858	766.5
515.074	815.5
515.29	990.5
515.506	1506.5
515.721	1237.5
515.937	809.5
516.153	681.5
516.369	683.5
516.585	654.5
516.801	629.5
517.016	607.5
517.232	623.5
517.448	642.5
517.664	614.5
517.879	640.5
518.095	605.5
518.311	596.5
518.527	614.5
518.742	605.5
518.958	587.5
519.173	598.5
519.389	627.5
519.605	619.5
519.82	610.5
