Data from 1980.PennyLincolnUp.Lamp.En5.5.200Scan.071819.P1_HRD10591_16-39-15-958.txt Node
Date: Thu Jul 18 16:39:15 EDT 2019
User: cochatt
Spectrometer: HR+D1059
Trigger mode: 1
Integration Time (sec): 1.000000E-1
Scans to average: 1
Electric dark correction enabled: true
Nonlinearity correction enabled: false
Boxcar width: 0
XAxis mode: Wavelengths
Number of Pixels in Spectrum: 2048
>>>>>Begin Spectral Data<<<<<
223.165	-5.31
223.4	-5.31
223.635	-5.31
223.869	-27.31
224.104	-15.31
224.338	-3.31
224.573	-14.31
224.808	-20.31
225.042	-24.31
225.277	-9.31
225.511	4.69
225.746	5.69
225.98	-2.31
226.215	3.69
226.449	20.69
226.683	24.69
226.918	35.69
227.152	26.69
227.387	37.69
227.621	45.69
227.856	35.69
228.09	52.69
228.324	44.69
228.559	39.69
228.793	71.69
229.027	96.69
229.262	117.69
229.496	119.69
229.73	141.69
229.964	162.69
230.199	132.69
230.433	120.69
230.667	118.69
230.901	119.69
231.136	120.69
231.37	127.69
231.604	115.69
231.838	107.69
232.072	103.69
232.306	107.69
232.541	98.69
232.775	105.69
233.009	118.69
233.243	112.69
233.477	124.69
233.711	117.69
233.945	120.69
234.179	113.69
234.413	117.69
234.647	113.69
234.881	125.69
235.115	120.69
235.349	129.69
235.583	118.69
235.817	134.69
236.051	138.69
236.285	137.69
236.519	137.69
236.753	140.69
236.987	131.69
237.221	185.69
237.455	245.69
237.689	213.69
237.922	162.69
238.156	129.69
238.39	123.69
238.624	145.69
238.858	125.69
239.091	118.69
239.325	121.69
239.559	133.69
239.793	135.69
240.027	130.69
240.26	159.69
240.494	165.69
240.728	149.69
240.961	151.69
241.195	156.69
241.429	145.69
241.662	142.69
241.896	133.69
242.13	119.69
242.363	121.69
242.597	124.69
242.83	115.69
243.064	125.69
243.298	131.69
243.531	131.69
243.765	146.69
243.998	131.69
244.232	122.69
244.465	135.69
244.699	159.69
244.932	157.69
245.166	147.69
245.399	138.69
245.633	152.69
245.866	139.69
246.099	133.69
246.333	161.69
246.566	142.69
246.8	146.69
247.033	149.69
247.266	173.69
247.5	150.69
247.733	176.69
247.966	179.69
248.2	172.69
248.433	169.69
248.666	180.69
248.899	198.69
249.133	219.69
249.366	216.69
249.599	219.69
249.832	183.69
250.066	191.69
250.299	193.69
250.532	220.69
250.765	200.69
250.998	224.69
251.231	250.69
251.465	263.69
251.698	214.69
251.931	197.69
252.164	201.69
252.397	200.69
252.63	208.69
252.863	218.69
253.096	253.69
253.329	230.69
253.562	233.69
253.795	229.69
254.028	221.69
254.261	246.69
254.494	227.69
254.727	284.69
254.96	308.69
255.193	278.69
255.426	264.69
255.659	255.69
255.892	255.69
256.124	223.69
256.357	244.69
256.59	249.69
256.823	222.69
257.056	228.69
257.289	226.69
257.521	220.69
257.754	210.69
257.987	225.69
258.22	224.69
258.452	210.69
258.685	228.69
258.918	205.69
259.151	218.69
259.383	217.69
259.616	235.69
259.849	231.69
260.081	256.69
260.314	245.69
260.547	274.69
260.779	244.69
261.012	255.69
261.244	232.69
261.477	236.69
261.71	235.69
261.942	230.69
262.175	250.69
262.407	268.69
262.64	215.69
262.872	220.69
263.105	221.69
263.337	214.69
263.57	214.69
263.802	204.69
264.035	198.69
264.267	215.69
264.499	212.69
264.732	214.69
264.964	199.69
265.197	220.69
265.429	224.69
265.661	206.69
265.894	218.69
266.126	212.69
266.358	210.69
266.591	216.69
266.823	230.69
267.055	223.69
267.287	219.69
267.52	227.69
267.752	234.69
267.984	224.69
268.216	215.69
268.448	213.69
268.681	241.69
268.913	243.69
269.145	263.69
269.377	278.69
269.609	279.69
269.841	258.69
270.073	288.69
270.306	315.69
270.538	323.69
270.77	333.69
271.002	314.69
271.234	307.69
271.466	325.69
271.698	331.69
271.93	329.69
272.162	330.69
272.394	329.69
272.626	320.69
272.858	312.69
273.09	312.69
273.322	284.69
273.553	274.69
273.785	240.69
274.017	243.69
274.249	258.69
274.481	288.69
274.713	287.69
274.945	288.69
275.176	287.69
275.408	280.69
275.64	285.69
275.872	268.69
276.104	265.69
276.335	252.69
276.567	281.69
276.799	298.69
277.031	331.69
277.262	321.69
277.494	323.69
277.726	296.69
277.957	305.69
278.189	305.69
278.421	269.69
278.652	268.69
278.884	245.69
279.115	262.69
279.347	268.69
279.579	262.69
279.81	255.69
280.042	270.69
280.273	259.69
280.505	278.69
280.736	259.69
280.968	276.69
281.199	243.69
281.431	269.69
281.662	249.69
281.894	258.69
282.125	250.69
282.356	287.69
282.588	306.69
282.819	313.69
283.051	272.69
283.282	265.69
283.513	250.69
283.745	270.69
283.976	273.69
284.207	278.69
284.439	277.69
284.67	245.69
284.901	274.69
285.132	259.69
285.364	249.69
285.595	266.69
285.826	279.69
286.057	267.69
286.288	260.69
286.52	265.69
286.751	285.69
286.982	269.69
287.213	266.69
287.444	284.69
287.675	263.69
287.906	295.69
288.138	298.69
288.369	295.69
288.6	299.69
288.831	290.69
289.062	274.69
289.293	288.69
289.524	279.69
289.755	268.69
289.986	275.69
290.217	265.69
290.448	255.69
290.679	272.69
290.91	275.69
291.141	273.69
291.371	277.69
291.602	272.69
291.833	267.69
292.064	241.69
292.295	268.69
292.526	267.69
292.757	260.69
292.987	261.69
293.218	282.69
293.449	284.69
293.68	294.69
293.91	258.69
294.141	259.69
294.372	284.69
294.603	287.69
294.833	270.69
295.064	272.69
295.295	265.69
295.525	274.69
295.756	269.69
295.987	299.69
296.217	318.69
296.448	313.69
296.679	281.69
296.909	277.69
297.14	275.69
297.37	292.69
297.601	279.69
297.831	284.69
298.062	298.69
298.292	311.69
298.523	269.69
298.753	288.69
298.984	289.69
299.214	294.69
299.445	281.69
299.675	299.69
299.905	287.69
300.136	305.69
300.366	289.69
300.597	300.69
300.827	289.69
301.057	327.69
301.288	317.69
301.518	308.69
301.748	306.69
301.979	300.69
302.209	309.69
302.439	323.69
302.669	315.69
302.9	321.69
303.13	298.69
303.36	299.69
303.59	298.69
303.82	329.69
304.051	312.69
304.281	293.69
304.511	309.69
304.741	293.69
304.971	301.69
305.201	296.69
305.431	297.69
305.661	291.69
305.891	313.69
306.121	300.69
306.352	299.69
306.582	314.69
306.812	319.69
307.042	327.69
307.272	307.69
307.502	315.69
307.731	322.69
307.961	301.69
308.191	301.69
308.421	336.69
308.651	320.69
308.881	323.69
309.111	332.69
309.341	339.69
309.571	331.69
309.8	352.69
310.03	369.69
310.26	364.69
310.49	387.69
310.72	371.69
310.949	403.69
311.179	411.69
311.409	384.69
311.639	381.69
311.868	384.69
312.098	381.69
312.328	387.69
312.557	389.69
312.787	408.69
313.017	410.69
313.246	392.69
313.476	354.69
313.706	360.69
313.935	371.69
314.165	392.69
314.394	381.69
314.624	400.69
314.853	375.69
315.083	351.69
315.312	364.69
315.542	357.69
315.771	356.69
316.001	360.69
316.23	346.69
316.46	351.69
316.689	348.69
316.919	372.69
317.148	385.69
317.377	380.69
317.607	363.69
317.836	360.69
318.065	368.69
318.295	372.69
318.524	367.69
318.753	363.69
318.983	371.69
319.212	363.69
319.441	356.69
319.67	383.69
319.9	371.69
320.129	370.69
320.358	386.69
320.587	373.69
320.816	375.69
321.046	371.69
321.275	386.69
321.504	395.69
321.733	419.69
321.962	404.69
322.191	426.69
322.42	443.69
322.649	468.69
322.878	472.69
323.108	489.69
323.337	515.69
323.566	562.69
323.795	584.69
324.024	641.69
324.253	802.69
324.482	1145.69
324.71	1803.69
324.939	2590.69
325.168	2276.69
325.397	1207.69
325.626	760.69
325.855	644.69
326.084	585.69
326.313	537.69
326.542	558.69
326.77	619.69
326.999	751.69
327.228	1002.69
327.457	1587.69
327.686	1991.69
327.914	1333.69
328.143	873.69
328.372	729.69
328.6	677.69
328.829	639.69
329.058	669.69
329.287	648.69
329.515	619.69
329.744	551.69
329.972	544.69
330.201	570.69
330.43	630.69
330.658	679.69
330.887	713.69
331.115	672.69
331.344	544.69
331.572	516.69
331.801	500.69
332.03	493.69
332.258	466.69
332.486	449.69
332.715	448.69
332.943	424.69
333.172	445.69
333.4	426.69
333.629	442.69
333.857	449.69
334.085	482.69
334.314	493.69
334.542	547.69
334.771	568.69
334.999	493.69
335.227	457.69
335.455	421.69
335.684	425.69
335.912	436.69
336.14	405.69
336.369	403.69
336.597	423.69
336.825	433.69
337.053	431.69
337.281	379.69
337.51	410.69
337.738	416.69
337.966	408.69
338.194	424.69
338.422	421.69
338.65	409.69
338.878	426.69
339.106	399.69
339.334	397.69
339.562	377.69
339.79	395.69
340.018	407.69
340.246	432.69
340.474	429.69
340.702	409.69
340.93	404.69
341.158	411.69
341.386	401.69
341.614	425.69
341.842	408.69
342.07	419.69
342.298	391.69
342.526	389.69
342.754	390.69
342.981	391.69
343.209	385.69
343.437	396.69
343.665	404.69
343.893	388.69
344.12	395.69
344.348	414.69
344.576	417.69
344.804	415.69
345.031	427.69
345.259	421.69
345.487	414.69
345.714	410.69
345.942	419.69
346.17	413.69
346.397	402.69
346.625	387.69
346.853	410.69
347.08	393.69
347.308	397.69
347.535	422.69
347.763	405.69
347.99	407.69
348.218	409.69
348.445	422.69
348.673	434.69
348.9	415.69
349.128	390.69
349.355	387.69
349.583	384.69
349.81	383.69
350.037	349.69
350.265	397.69
350.492	378.69
350.72	374.69
350.947	411.69
351.174	403.69
351.402	420.69
351.629	404.69
351.856	429.69
352.083	435.69
352.311	433.69
352.538	437.69
352.765	431.69
352.992	405.69
353.22	412.69
353.447	388.69
353.674	396.69
353.901	386.69
354.128	362.69
354.355	357.69
354.583	387.69
354.81	391.69
355.037	357.69
355.264	357.69
355.491	363.69
355.718	344.69
355.945	377.69
356.172	373.69
356.399	341.69
356.626	352.69
356.853	360.69
357.08	355.69
357.307	348.69
357.534	353.69
357.761	348.69
357.988	364.69
358.215	336.69
358.441	362.69
358.668	376.69
358.895	353.69
359.122	380.69
359.349	393.69
359.576	405.69
359.802	427.69
360.029	458.69
360.256	472.69
360.483	443.69
360.709	414.69
360.936	395.69
361.163	393.69
361.39	401.69
361.616	380.69
361.843	397.69
362.07	407.69
362.296	405.69
362.523	397.69
362.749	397.69
362.976	406.69
363.203	398.69
363.429	376.69
363.656	386.69
363.882	387.69
364.109	362.69
364.335	361.69
364.562	367.69
364.788	351.69
365.015	368.69
365.241	363.69
365.468	357.69
365.694	392.69
365.92	385.69
366.147	380.69
366.373	377.69
366.599	374.69
366.826	367.69
367.052	366.69
367.278	375.69
367.505	342.69
367.731	385.69
367.957	367.69
368.184	379.69
368.41	364.69
368.636	394.69
368.862	409.69
369.089	397.69
369.315	368.69
369.541	353.69
369.767	372.69
369.993	377.69
370.219	354.69
370.445	364.69
370.672	349.69
370.898	368.69
371.124	357.69
371.35	363.69
371.576	364.69
371.802	358.69
372.028	359.69
372.254	356.69
372.48	339.69
372.706	358.69
372.932	333.69
373.158	363.69
373.384	368.69
373.61	360.69
373.835	374.69
374.061	362.69
374.287	370.69
374.513	359.69
374.739	353.69
374.965	344.69
375.191	346.69
375.416	361.69
375.642	358.69
375.868	345.69
376.094	380.69
376.319	346.69
376.545	356.69
376.771	339.69
376.997	351.69
377.222	383.69
377.448	373.69
377.674	344.69
377.899	343.69
378.125	340.69
378.35	354.69
378.576	350.69
378.802	357.69
379.027	351.69
379.253	370.69
379.478	362.69
379.704	345.69
379.929	364.69
380.155	357.69
380.38	362.69
380.606	366.69
380.831	373.69
381.057	363.69
381.282	362.69
381.507	356.69
381.733	351.69
381.958	359.69
382.184	371.69
382.409	359.69
382.634	348.69
382.86	357.69
383.085	354.69
383.31	364.69
383.535	342.69
383.761	378.69
383.986	381.69
384.211	374.69
384.436	390.69
384.662	368.69
384.887	363.69
385.112	371.69
385.337	355.69
385.562	365.69
385.787	358.69
386.013	387.69
386.238	386.69
386.463	410.69
386.688	398.69
386.913	379.69
387.138	371.69
387.363	376.69
387.588	393.69
387.813	376.69
388.038	375.69
388.263	380.69
388.488	387.69
388.713	381.69
388.938	381.69
389.163	381.69
389.387	363.69
389.612	396.69
389.837	372.69
390.062	375.69
390.287	375.69
390.512	368.69
390.736	372.69
390.961	380.69
391.186	395.69
391.411	380.69
391.636	370.69
391.86	387.69
392.085	390.69
392.31	367.69
392.534	373.69
392.759	393.69
392.984	410.69
393.208	385.69
393.433	391.69
393.658	376.69
393.882	370.69
394.107	385.69
394.331	369.69
394.556	345.69
394.78	381.69
395.005	367.69
395.229	379.69
395.454	389.69
395.678	381.69
395.903	389.69
396.127	434.69
396.352	424.69
396.576	405.69
396.801	384.69
397.025	389.69
397.249	383.69
397.474	385.69
397.698	417.69
397.922	417.69
398.147	431.69
398.371	391.69
398.595	414.69
398.82	424.69
399.044	402.69
399.268	437.69
399.492	445.69
399.717	458.69
399.941	495.69
400.165	523.69
400.389	526.69
400.613	488.69
400.837	451.69
401.062	441.69
401.286	427.69
401.51	436.69
401.734	439.69
401.958	424.69
402.182	448.69
402.406	455.69
402.63	478.69
402.854	425.69
403.078	441.69
403.302	444.69
403.526	475.69
403.75	459.69
403.974	441.69
404.198	441.69
404.422	457.69
404.645	464.69
404.869	467.69
405.093	487.69
405.317	550.69
405.541	573.69
405.765	520.69
405.988	503.69
406.212	491.69
406.436	530.69
406.66	547.69
406.883	488.69
407.107	516.69
407.331	539.69
407.555	606.69
407.778	625.69
408.002	557.69
408.226	506.69
408.449	502.69
408.673	519.69
408.896	533.69
409.12	573.69
409.344	546.69
409.567	472.69
409.791	479.69
410.014	460.69
410.238	477.69
410.461	453.69
410.685	461.69
410.908	485.69
411.132	517.69
411.355	560.69
411.578	517.69
411.802	466.69
412.025	465.69
412.249	459.69
412.472	497.69
412.695	511.69
412.919	545.69
413.142	484.69
413.365	453.69
413.589	453.69
413.812	441.69
414.035	447.69
414.258	422.69
414.482	420.69
414.705	437.69
414.928	420.69
415.151	432.69
415.374	422.69
415.597	416.69
415.821	436.69
416.044	411.69
416.267	412.69
416.49	432.69
416.713	428.69
416.936	403.69
417.159	423.69
417.382	441.69
417.605	439.69
417.828	469.69
418.051	465.69
418.274	457.69
418.497	463.69
418.72	429.69
418.943	418.69
419.166	437.69
419.389	461.69
419.611	479.69
419.834	459.69
420.057	456.69
420.28	468.69
420.503	455.69
420.726	449.69
420.948	470.69
421.171	519.69
421.394	553.69
421.617	483.69
421.839	466.69
422.062	458.69
422.285	485.69
422.507	517.69
422.73	611.69
422.953	587.69
423.175	526.69
423.398	499.69
423.621	474.69
423.843	491.69
424.066	519.69
424.288	523.69
424.511	520.69
424.733	553.69
424.956	689.69
425.178	642.69
425.401	671.69
425.623	641.69
425.846	575.69
426.068	529.69
426.291	512.69
426.513	511.69
426.735	519.69
426.958	570.69
427.18	660.69
427.402	775.69
427.625	868.69
427.847	803.69
428.069	683.69
428.292	601.69
428.514	519.69
428.736	508.69
428.958	487.69
429.181	480.69
429.403	492.69
429.625	493.69
429.847	500.69
430.069	582.69
430.292	581.69
430.514	500.69
430.736	490.69
430.958	477.69
431.18	458.69
431.402	447.69
431.624	444.69
431.846	424.69
432.068	416.69
432.29	437.69
432.512	458.69
432.734	439.69
432.956	448.69
433.178	447.69
433.4	472.69
433.622	453.69
433.844	439.69
434.066	433.69
434.287	446.69
434.509	441.69
434.731	439.69
434.953	455.69
435.175	456.69
435.397	505.69
435.618	526.69
435.84	573.69
436.062	641.69
436.284	730.69
436.505	611.69
436.727	543.69
436.949	492.69
437.17	460.69
437.392	471.69
437.614	503.69
437.835	548.69
438.057	667.69
438.278	752.69
438.5	742.69
438.721	770.69
438.943	778.69
439.165	623.69
439.386	573.69
439.608	544.69
439.829	555.69
440.05	568.69
440.272	615.69
440.493	579.69
440.715	514.69
440.936	504.69
441.158	460.69
441.379	493.69
441.6	498.69
441.822	523.69
442.043	574.69
442.264	637.69
442.486	684.69
442.707	587.69
442.928	551.69
443.149	547.69
443.371	579.69
443.592	625.69
443.813	705.69
444.034	745.69
444.255	624.69
444.476	555.69
444.698	515.69
444.919	516.69
445.14	619.69
445.361	587.69
445.582	577.69
445.803	645.69
446.024	743.69
446.245	761.69
446.466	679.69
446.687	592.69
446.908	541.69
447.129	496.69
447.35	507.69
447.571	500.69
447.792	495.69
448.013	498.69
448.234	544.69
448.455	561.69
448.675	683.69
448.896	786.69
449.117	673.69
449.338	626.69
449.559	701.69
449.779	806.69
450	663.69
450.221	524.69
450.442	504.69
450.662	483.69
450.883	493.69
451.104	510.69
451.324	488.69
451.545	475.69
451.766	472.69
451.986	457.69
452.207	462.69
452.428	420.69
452.648	411.69
452.869	429.69
453.089	448.69
453.31	468.69
453.53	440.69
453.751	442.69
453.971	453.69
454.192	471.69
454.412	451.69
454.633	439.69
454.853	424.69
455.073	418.69
455.294	468.69
455.514	534.69
455.734	526.69
455.955	432.69
456.175	410.69
456.395	391.69
456.616	413.69
456.836	403.69
457.056	378.69
457.276	378.69
457.497	386.69
457.717	401.69
457.937	424.69
458.157	423.69
458.377	417.69
458.598	442.69
458.818	512.69
459.038	595.69
459.258	624.69
459.478	552.69
459.698	467.69
459.918	451.69
460.138	451.69
460.358	434.69
460.578	459.69
460.798	439.69
461.018	458.69
461.238	425.69
461.458	403.69
461.678	400.69
461.898	425.69
462.118	417.69
462.338	434.69
462.558	417.69
462.777	428.69
462.997	438.69
463.217	440.69
463.437	443.69
463.657	442.69
463.876	458.69
464.096	439.69
464.316	448.69
464.536	461.69
464.755	451.69
464.975	519.69
465.195	547.69
465.414	636.69
465.634	563.69
465.854	492.69
466.073	464.69
466.293	434.69
466.512	419.69
466.732	428.69
466.951	436.69
467.171	436.69
467.391	436.69
467.61	448.69
467.829	469.69
468.049	450.69
468.268	441.69
468.488	435.69
468.707	413.69
468.927	428.69
469.146	423.69
469.365	427.69
469.585	429.69
469.804	422.69
470.023	425.69
470.243	438.69
470.462	435.69
470.681	463.69
470.901	464.69
471.12	430.69
471.339	440.69
471.558	434.69
471.777	447.69
471.997	435.69
472.216	440.69
472.435	503.69
472.654	485.69
472.873	450.69
473.092	433.69
473.311	440.69
473.53	450.69
473.749	444.69
473.968	490.69
474.187	636.69
474.406	665.69
474.625	525.69
474.844	461.69
475.063	429.69
475.282	440.69
475.501	436.69
475.72	460.69
475.939	449.69
476.158	460.69
476.377	457.69
476.596	467.69
476.814	463.69
477.033	480.69
477.252	470.69
477.471	470.69
477.69	472.69
477.908	443.69
478.127	477.69
478.346	476.69
478.564	473.69
478.783	495.69
479.002	490.69
479.22	487.69
479.439	526.69
479.658	512.69
479.876	537.69
480.095	528.69
480.313	578.69
480.532	556.69
480.751	550.69
480.969	561.69
481.188	660.69
481.406	700.69
481.624	607.69
481.843	571.69
482.061	565.69
482.28	540.69
482.498	537.69
482.717	536.69
482.935	521.69
483.153	531.69
483.372	525.69
483.59	530.69
483.808	538.69
484.027	550.69
484.245	539.69
484.463	545.69
484.681	540.69
484.9	532.69
485.118	545.69
485.336	536.69
485.554	548.69
485.772	545.69
485.99	559.69
486.209	535.69
486.427	573.69
486.645	567.69
486.863	585.69
487.081	582.69
487.299	586.69
487.517	556.69
487.735	567.69
487.953	577.69
488.171	555.69
488.389	576.69
488.607	590.69
488.825	566.69
489.043	571.69
489.261	569.69
489.479	586.69
489.696	563.69
489.914	574.69
490.132	575.69
490.35	582.69
490.568	625.69
490.786	618.69
491.003	637.69
491.221	650.69
491.439	637.69
491.657	644.69
491.874	653.69
492.092	677.69
492.31	656.69
492.527	691.69
492.745	663.69
492.963	671.69
493.18	672.69
493.398	681.69
493.615	679.69
493.833	697.69
494.05	697.69
494.268	693.69
494.485	688.69
494.703	676.69
494.92	697.69
495.138	697.69
495.355	677.69
495.573	685.69
495.79	703.69
496.008	695.69
496.225	685.69
496.442	692.69
496.66	677.69
496.877	653.69
497.094	692.69
497.312	690.69
497.529	695.69
497.746	693.69
497.963	707.69
498.181	736.69
498.398	713.69
498.615	716.69
498.832	720.69
499.049	751.69
499.267	732.69
499.484	735.69
499.701	722.69
499.918	779.69
500.135	796.69
500.352	818.69
500.569	818.69
500.786	827.69
501.003	812.69
501.22	777.69
501.437	810.69
501.654	805.69
501.871	812.69
