Data from 1980.PennyLincolnUp.Lamp.En5.5.200Scan.071819.P1_HRD10591_16-38-21-957.txt Node
Date: Thu Jul 18 16:38:21 EDT 2019
User: cochatt
Spectrometer: HR+D1059
Trigger mode: 1
Integration Time (sec): 1.000000E-1
Scans to average: 1
Electric dark correction enabled: true
Nonlinearity correction enabled: false
Boxcar width: 0
XAxis mode: Wavelengths
Number of Pixels in Spectrum: 2048
>>>>>Begin Spectral Data<<<<<
223.165	-3.56
223.4	-3.56
223.635	-3.56
223.869	-23.56
224.104	-21.56
224.338	-32.56
224.573	-18.56
224.808	-16.56
225.042	-25.56
225.277	-0.56
225.511	0.44
225.746	19.44
225.98	24.44
226.215	16.44
226.449	7.44
226.683	20.44
226.918	23.44
227.152	30.44
227.387	37.44
227.621	32.44
227.856	37.44
228.09	36.44
228.324	32.44
228.559	55.44
228.793	66.44
229.027	110.44
229.262	108.44
229.496	139.44
229.73	137.44
229.964	155.44
230.199	136.44
230.433	132.44
230.667	130.44
230.901	140.44
231.136	119.44
231.37	131.44
231.604	137.44
231.838	111.44
232.072	117.44
232.306	115.44
232.541	124.44
232.775	133.44
233.009	117.44
233.243	104.44
233.477	126.44
233.711	108.44
233.945	125.44
234.179	118.44
234.413	123.44
234.647	111.44
234.881	125.44
235.115	122.44
235.349	135.44
235.583	133.44
235.817	126.44
236.051	123.44
236.285	125.44
236.519	115.44
236.753	133.44
236.987	156.44
237.221	207.44
237.455	226.44
237.689	203.44
237.922	161.44
238.156	152.44
238.39	133.44
238.624	125.44
238.858	128.44
239.091	130.44
239.325	134.44
239.559	123.44
239.793	119.44
240.027	141.44
240.26	158.44
240.494	158.44
240.728	158.44
240.961	142.44
241.195	145.44
241.429	145.44
241.662	144.44
241.896	132.44
242.13	133.44
242.363	136.44
242.597	141.44
242.83	153.44
243.064	147.44
243.298	156.44
243.531	153.44
243.765	140.44
243.998	138.44
244.232	137.44
244.465	143.44
244.699	140.44
244.932	166.44
245.166	157.44
245.399	152.44
245.633	152.44
245.866	151.44
246.099	147.44
246.333	149.44
246.566	155.44
246.8	160.44
247.033	168.44
247.266	165.44
247.5	170.44
247.733	172.44
247.966	170.44
248.2	185.44
248.433	188.44
248.666	188.44
248.899	199.44
249.133	203.44
249.366	205.44
249.599	207.44
249.832	186.44
250.066	192.44
250.299	190.44
250.532	202.44
250.765	224.44
250.998	227.44
251.231	249.44
251.465	239.44
251.698	209.44
251.931	207.44
252.164	206.44
252.397	188.44
252.63	196.44
252.863	214.44
253.096	217.44
253.329	238.44
253.562	228.44
253.795	221.44
254.028	216.44
254.261	239.44
254.494	251.44
254.727	279.44
254.96	310.44
255.193	293.44
255.426	283.44
255.659	246.44
255.892	243.44
256.124	216.44
256.357	249.44
256.59	244.44
256.823	242.44
257.056	230.44
257.289	223.44
257.521	236.44
257.754	218.44
257.987	230.44
258.22	229.44
258.452	220.44
258.685	216.44
258.918	222.44
259.151	219.44
259.383	228.44
259.616	221.44
259.849	229.44
260.081	256.44
260.314	263.44
260.547	268.44
260.779	281.44
261.012	236.44
261.244	241.44
261.477	239.44
261.71	233.44
261.942	238.44
262.175	255.44
262.407	266.44
262.64	239.44
262.872	237.44
263.105	220.44
263.337	220.44
263.57	210.44
263.802	242.44
264.035	213.44
264.267	229.44
264.499	221.44
264.732	221.44
264.964	212.44
265.197	189.44
265.429	190.44
265.661	203.44
265.894	214.44
266.126	222.44
266.358	226.44
266.591	224.44
266.823	216.44
267.055	216.44
267.287	226.44
267.52	243.44
267.752	214.44
267.984	245.44
268.216	229.44
268.448	235.44
268.681	243.44
268.913	236.44
269.145	276.44
269.377	277.44
269.609	301.44
269.841	285.44
270.073	281.44
270.306	295.44
270.538	319.44
270.77	340.44
271.002	325.44
271.234	309.44
271.466	318.44
271.698	318.44
271.93	354.44
272.162	328.44
272.394	338.44
272.626	319.44
272.858	292.44
273.09	282.44
273.322	283.44
273.553	282.44
273.785	275.44
274.017	265.44
274.249	272.44
274.481	270.44
274.713	277.44
274.945	283.44
275.176	282.44
275.408	268.44
275.64	275.44
275.872	277.44
276.104	265.44
276.335	282.44
276.567	286.44
276.799	301.44
277.031	313.44
277.262	335.44
277.494	323.44
277.726	297.44
277.957	304.44
278.189	295.44
278.421	284.44
278.652	290.44
278.884	284.44
279.115	280.44
279.347	278.44
279.579	267.44
279.81	264.44
280.042	245.44
280.273	270.44
280.505	266.44
280.736	264.44
280.968	262.44
281.199	258.44
281.431	264.44
281.662	271.44
281.894	290.44
282.125	272.44
282.356	281.44
282.588	297.44
282.819	322.44
283.051	269.44
283.282	278.44
283.513	285.44
283.745	275.44
283.976	262.44
284.207	280.44
284.439	263.44
284.67	264.44
284.901	268.44
285.132	275.44
285.364	270.44
285.595	287.44
285.826	266.44
286.057	267.44
286.288	285.44
286.52	265.44
286.751	268.44
286.982	264.44
287.213	262.44
287.444	287.44
287.675	275.44
287.906	301.44
288.138	294.44
288.369	296.44
288.6	296.44
288.831	286.44
289.062	285.44
289.293	259.44
289.524	290.44
289.755	271.44
289.986	273.44
290.217	278.44
290.448	278.44
290.679	266.44
290.91	296.44
291.141	290.44
291.371	267.44
291.602	258.44
291.833	283.44
292.064	283.44
292.295	266.44
292.526	281.44
292.757	265.44
292.987	277.44
293.218	280.44
293.449	290.44
293.68	273.44
293.91	266.44
294.141	258.44
294.372	286.44
294.603	292.44
294.833	290.44
295.064	266.44
295.295	285.44
295.525	279.44
295.756	274.44
295.987	296.44
296.217	326.44
296.448	324.44
296.679	311.44
296.909	282.44
297.14	271.44
297.37	276.44
297.601	286.44
297.831	278.44
298.062	292.44
298.292	278.44
298.523	270.44
298.753	312.44
298.984	288.44
299.214	272.44
299.445	286.44
299.675	284.44
299.905	304.44
300.136	286.44
300.366	278.44
300.597	302.44
300.827	292.44
301.057	303.44
301.288	298.44
301.518	306.44
301.748	312.44
301.979	296.44
302.209	292.44
302.439	319.44
302.669	303.44
302.9	311.44
303.13	301.44
303.36	304.44
303.59	317.44
303.82	327.44
304.051	311.44
304.281	312.44
304.511	316.44
304.741	307.44
304.971	291.44
305.201	314.44
305.431	307.44
305.661	307.44
305.891	318.44
306.121	306.44
306.352	290.44
306.582	313.44
306.812	319.44
307.042	308.44
307.272	319.44
307.502	325.44
307.731	320.44
307.961	314.44
308.191	318.44
308.421	303.44
308.651	315.44
308.881	315.44
309.111	331.44
309.341	349.44
309.571	349.44
309.8	354.44
310.03	370.44
310.26	354.44
310.49	374.44
310.72	382.44
310.949	393.44
311.179	394.44
311.409	376.44
311.639	376.44
311.868	355.44
312.098	380.44
312.328	378.44
312.557	405.44
312.787	423.44
313.017	406.44
313.246	394.44
313.476	365.44
313.706	377.44
313.935	394.44
314.165	378.44
314.394	392.44
314.624	390.44
314.853	389.44
315.083	375.44
315.312	364.44
315.542	392.44
315.771	378.44
316.001	346.44
316.23	378.44
316.46	355.44
316.689	345.44
316.919	377.44
317.148	375.44
317.377	392.44
317.607	411.44
317.836	357.44
318.065	366.44
318.295	355.44
318.524	351.44
318.753	347.44
318.983	396.44
319.212	382.44
319.441	383.44
319.67	387.44
319.9	383.44
320.129	358.44
320.358	384.44
320.587	392.44
320.816	390.44
321.046	393.44
321.275	410.44
321.504	396.44
321.733	388.44
321.962	388.44
322.191	414.44
322.42	423.44
322.649	442.44
322.878	462.44
323.108	476.44
323.337	526.44
323.566	518.44
323.795	565.44
324.024	608.44
324.253	767.44
324.482	1149.44
324.71	1663.44
324.939	2452.44
325.168	2198.44
325.397	1146.44
325.626	749.44
325.855	594.44
326.084	534.44
326.313	532.44
326.542	564.44
326.77	578.44
326.999	711.44
327.228	999.44
327.457	1494.44
327.686	1899.44
327.914	1288.44
328.143	818.44
328.372	698.44
328.6	650.44
328.829	603.44
329.058	647.44
329.287	620.44
329.515	575.44
329.744	544.44
329.972	546.44
330.201	564.44
330.43	611.44
330.658	638.44
330.887	680.44
331.115	650.44
331.344	532.44
331.572	492.44
331.801	512.44
332.03	499.44
332.258	472.44
332.486	452.44
332.715	431.44
332.943	447.44
333.172	450.44
333.4	439.44
333.629	452.44
333.857	468.44
334.085	461.44
334.314	499.44
334.542	528.44
334.771	548.44
334.999	506.44
335.227	439.44
335.455	455.44
335.684	441.44
335.912	427.44
336.14	424.44
336.369	440.44
336.597	458.44
336.825	436.44
337.053	426.44
337.281	428.44
337.51	411.44
337.738	426.44
337.966	425.44
338.194	447.44
338.422	442.44
338.65	422.44
338.878	425.44
339.106	400.44
339.334	402.44
339.562	412.44
339.79	387.44
340.018	412.44
340.246	428.44
340.474	427.44
340.702	410.44
340.93	423.44
341.158	398.44
341.386	422.44
341.614	426.44
341.842	406.44
342.07	389.44
342.298	407.44
342.526	377.44
342.754	409.44
342.981	377.44
343.209	388.44
343.437	413.44
343.665	392.44
343.893	402.44
344.12	389.44
344.348	410.44
344.576	412.44
344.804	426.44
345.031	428.44
345.259	450.44
345.487	443.44
345.714	409.44
345.942	411.44
346.17	420.44
346.397	401.44
346.625	396.44
346.853	419.44
347.08	404.44
347.308	411.44
347.535	438.44
347.763	430.44
347.99	420.44
348.218	391.44
348.445	419.44
348.673	430.44
348.9	403.44
349.128	410.44
349.355	384.44
349.583	394.44
349.81	389.44
350.037	388.44
350.265	383.44
350.492	387.44
350.72	418.44
350.947	384.44
351.174	412.44
351.402	422.44
351.629	394.44
351.856	404.44
352.083	422.44
352.311	438.44
352.538	431.44
352.765	424.44
352.992	420.44
353.22	394.44
353.447	405.44
353.674	401.44
353.901	377.44
354.128	392.44
354.355	392.44
354.583	376.44
354.81	376.44
355.037	367.44
355.264	356.44
355.491	379.44
355.718	364.44
355.945	363.44
356.172	361.44
356.399	350.44
356.626	354.44
356.853	373.44
357.08	370.44
357.307	364.44
357.534	356.44
357.761	372.44
357.988	372.44
358.215	378.44
358.441	360.44
358.668	388.44
358.895	368.44
359.122	386.44
359.349	406.44
359.576	410.44
359.802	431.44
360.029	449.44
360.256	467.44
360.483	467.44
360.709	421.44
360.936	427.44
361.163	401.44
361.39	425.44
361.616	425.44
361.843	405.44
362.07	395.44
362.296	406.44
362.523	394.44
362.749	411.44
362.976	386.44
363.203	397.44
363.429	381.44
363.656	389.44
363.882	372.44
364.109	364.44
364.335	368.44
364.562	370.44
364.788	364.44
365.015	366.44
365.241	399.44
365.468	388.44
365.694	404.44
365.92	402.44
366.147	375.44
366.373	364.44
366.599	380.44
366.826	378.44
367.052	373.44
367.278	376.44
367.505	361.44
367.731	380.44
367.957	376.44
368.184	377.44
368.41	388.44
368.636	390.44
368.862	393.44
369.089	379.44
369.315	383.44
369.541	379.44
369.767	371.44
369.993	379.44
370.219	378.44
370.445	378.44
370.672	372.44
370.898	374.44
371.124	357.44
371.35	383.44
371.576	376.44
371.802	356.44
372.028	367.44
372.254	366.44
372.48	374.44
372.706	374.44
372.932	358.44
373.158	379.44
373.384	382.44
373.61	366.44
373.835	374.44
374.061	377.44
374.287	362.44
374.513	364.44
374.739	344.44
374.965	380.44
375.191	352.44
375.416	370.44
375.642	382.44
375.868	380.44
376.094	352.44
376.319	371.44
376.545	354.44
376.771	364.44
376.997	374.44
377.222	372.44
377.448	368.44
377.674	368.44
377.899	370.44
378.125	378.44
378.35	354.44
378.576	348.44
378.802	367.44
379.027	355.44
379.253	364.44
379.478	366.44
379.704	367.44
379.929	386.44
380.155	384.44
380.38	375.44
380.606	363.44
380.831	371.44
381.057	390.44
381.282	367.44
381.507	366.44
381.733	378.44
381.958	382.44
382.184	365.44
382.409	386.44
382.634	373.44
382.86	365.44
383.085	361.44
383.31	380.44
383.535	359.44
383.761	396.44
383.986	384.44
384.211	371.44
384.436	382.44
384.662	374.44
384.887	370.44
385.112	379.44
385.337	393.44
385.562	374.44
385.787	390.44
386.013	377.44
386.238	391.44
386.463	393.44
386.688	408.44
386.913	388.44
387.138	395.44
387.363	385.44
387.588	381.44
387.813	389.44
388.038	405.44
388.263	401.44
388.488	407.44
388.713	388.44
388.938	392.44
389.163	411.44
389.387	411.44
389.612	392.44
389.837	396.44
390.062	386.44
390.287	405.44
390.512	378.44
390.736	382.44
390.961	405.44
391.186	375.44
391.411	382.44
391.636	384.44
391.86	407.44
392.085	386.44
392.31	406.44
392.534	380.44
392.759	404.44
392.984	407.44
393.208	394.44
393.433	388.44
393.658	387.44
393.882	394.44
394.107	389.44
394.331	408.44
394.556	386.44
394.78	404.44
395.005	384.44
395.229	386.44
395.454	397.44
395.678	398.44
395.903	417.44
396.127	443.44
396.352	436.44
396.576	419.44
396.801	426.44
397.025	423.44
397.249	398.44
397.474	419.44
397.698	427.44
397.922	425.44
398.147	458.44
398.371	442.44
398.595	452.44
398.82	443.44
399.044	440.44
399.268	461.44
399.492	460.44
399.717	480.44
399.941	490.44
400.165	570.44
400.389	570.44
400.613	506.44
400.837	480.44
401.062	462.44
401.286	451.44
401.51	441.44
401.734	475.44
401.958	433.44
402.182	458.44
402.406	467.44
402.63	496.44
402.854	463.44
403.078	464.44
403.302	488.44
403.526	471.44
403.75	458.44
403.974	476.44
404.198	440.44
404.422	491.44
404.645	462.44
404.869	486.44
405.093	518.44
405.317	567.44
405.541	566.44
405.765	528.44
405.988	500.44
406.212	517.44
406.436	523.44
406.66	570.44
406.883	515.44
407.107	535.44
407.331	573.44
407.555	611.44
407.778	629.44
408.002	564.44
408.226	528.44
408.449	522.44
408.673	521.44
408.896	526.44
409.12	574.44
409.344	536.44
409.567	507.44
409.791	481.44
410.014	466.44
410.238	476.44
410.461	474.44
410.685	474.44
410.908	485.44
411.132	518.44
411.355	550.44
411.578	528.44
411.802	487.44
412.025	486.44
412.249	483.44
412.472	506.44
412.695	558.44
412.919	548.44
413.142	492.44
413.365	451.44
413.589	461.44
413.812	477.44
414.035	468.44
414.258	435.44
414.482	445.44
414.705	421.44
414.928	429.44
415.151	456.44
415.374	444.44
415.597	418.44
415.821	434.44
416.044	459.44
416.267	456.44
416.49	447.44
416.713	413.44
416.936	410.44
417.159	440.44
417.382	466.44
417.605	446.44
417.828	458.44
418.051	472.44
418.274	468.44
418.497	449.44
418.72	447.44
418.943	445.44
419.166	467.44
419.389	492.44
419.611	472.44
419.834	470.44
420.057	496.44
420.28	498.44
420.503	494.44
420.726	478.44
420.948	481.44
421.171	541.44
421.394	542.44
421.617	498.44
421.839	454.44
422.062	474.44
422.285	492.44
422.507	558.44
422.73	634.44
422.953	612.44
423.175	559.44
423.398	496.44
423.621	516.44
423.843	522.44
424.066	534.44
424.288	516.44
424.511	544.44
424.733	590.44
424.956	681.44
425.178	648.44
425.401	641.44
425.623	658.44
425.846	558.44
426.068	537.44
426.291	507.44
426.513	535.44
426.735	526.44
426.958	591.44
427.18	676.44
427.402	778.44
427.625	883.44
427.847	782.44
428.069	682.44
428.292	603.44
428.514	534.44
428.736	512.44
428.958	508.44
429.181	504.44
429.403	485.44
429.625	475.44
429.847	542.44
430.069	626.44
430.292	605.44
430.514	508.44
430.736	482.44
430.958	490.44
431.18	472.44
431.402	481.44
431.624	450.44
431.846	454.44
432.068	440.44
432.29	437.44
432.512	444.44
432.734	466.44
432.956	470.44
433.178	469.44
433.4	472.44
433.622	453.44
433.844	446.44
434.066	439.44
434.287	446.44
434.509	448.44
434.731	464.44
434.953	471.44
435.175	479.44
435.397	517.44
435.618	538.44
435.84	568.44
436.062	665.44
436.284	740.44
436.505	625.44
436.727	556.44
436.949	518.44
437.17	496.44
437.392	478.44
437.614	531.44
437.835	546.44
438.057	643.44
438.278	782.44
438.5	726.44
438.721	795.44
438.943	783.44
439.165	631.44
439.386	563.44
439.608	563.44
439.829	524.44
440.05	589.44
440.272	630.44
440.493	608.44
440.715	532.44
440.936	504.44
441.158	498.44
441.379	510.44
441.6	516.44
441.822	524.44
442.043	569.44
442.264	666.44
442.486	718.44
442.707	589.44
442.928	576.44
443.149	555.44
443.371	606.44
443.592	626.44
443.813	715.44
444.034	759.44
444.255	643.44
444.476	578.44
444.698	524.44
444.919	515.44
445.14	599.44
445.361	591.44
445.582	582.44
445.803	655.44
446.024	758.44
446.245	772.44
446.466	721.44
446.687	579.44
446.908	542.44
447.129	508.44
447.35	485.44
447.571	500.44
447.792	492.44
448.013	502.44
448.234	518.44
448.455	543.44
448.675	679.44
448.896	790.44
449.117	686.44
449.338	647.44
449.559	717.44
449.779	835.44
450	684.44
450.221	556.44
450.442	510.44
450.662	487.44
450.883	508.44
451.104	530.44
451.324	508.44
451.545	476.44
451.766	462.44
451.986	476.44
452.207	454.44
452.428	429.44
452.648	437.44
452.869	454.44
453.089	443.44
453.31	491.44
453.53	459.44
453.751	438.44
453.971	458.44
454.192	479.44
454.412	487.44
454.633	442.44
454.853	428.44
455.073	459.44
455.294	469.44
455.514	546.44
455.734	527.44
455.955	445.44
456.175	407.44
456.395	407.44
456.616	390.44
456.836	409.44
457.056	412.44
457.276	399.44
457.497	401.44
457.717	438.44
457.937	403.44
458.157	420.44
458.377	420.44
458.598	439.44
458.818	516.44
459.038	620.44
459.258	634.44
459.478	518.44
459.698	451.44
459.918	442.44
460.138	448.44
460.358	449.44
460.578	458.44
460.798	458.44
461.018	447.44
461.238	432.44
461.458	446.44
461.678	430.44
461.898	414.44
462.118	439.44
462.338	434.44
462.558	442.44
462.777	443.44
462.997	437.44
463.217	463.44
463.437	485.44
463.657	470.44
463.876	440.44
464.096	471.44
464.316	463.44
464.536	483.44
464.755	493.44
464.975	503.44
465.195	545.44
465.414	640.44
465.634	550.44
465.854	500.44
466.073	453.44
466.293	460.44
466.512	434.44
466.732	445.44
466.951	451.44
467.171	439.44
467.391	439.44
467.61	452.44
467.829	475.44
468.049	450.44
468.268	456.44
468.488	443.44
468.707	427.44
468.927	441.44
469.146	434.44
469.365	428.44
469.585	462.44
469.804	438.44
470.023	457.44
470.243	446.44
470.462	449.44
470.681	497.44
470.901	487.44
471.12	468.44
471.339	439.44
471.558	438.44
471.777	476.44
471.997	450.44
472.216	448.44
472.435	483.44
472.654	482.44
472.873	467.44
473.092	457.44
473.311	453.44
473.53	459.44
473.749	475.44
473.968	496.44
474.187	619.44
474.406	656.44
474.625	535.44
474.844	464.44
475.063	446.44
475.282	457.44
475.501	465.44
475.72	481.44
475.939	469.44
476.158	486.44
476.377	466.44
476.596	462.44
476.814	466.44
477.033	499.44
477.252	470.44
477.471	478.44
477.69	469.44
477.908	479.44
478.127	503.44
478.346	475.44
478.564	492.44
478.783	489.44
479.002	498.44
479.22	492.44
479.439	522.44
479.658	523.44
479.876	548.44
480.095	539.44
480.313	579.44
480.532	563.44
480.751	552.44
480.969	545.44
481.188	624.44
481.406	677.44
481.624	606.44
481.843	564.44
482.061	568.44
482.28	552.44
482.498	533.44
482.717	508.44
482.935	534.44
483.153	526.44
483.372	536.44
483.59	520.44
483.808	539.44
484.027	530.44
484.245	550.44
484.463	531.44
484.681	549.44
484.9	548.44
485.118	541.44
485.336	520.44
485.554	548.44
485.772	570.44
485.99	536.44
486.209	540.44
486.427	570.44
486.645	592.44
486.863	616.44
487.081	606.44
487.299	563.44
487.517	576.44
487.735	551.44
487.953	575.44
488.171	605.44
488.389	548.44
488.607	585.44
488.825	586.44
489.043	584.44
489.261	591.44
489.479	560.44
489.696	568.44
489.914	598.44
490.132	593.44
490.35	632.44
490.568	586.44
490.786	612.44
491.003	597.44
491.221	655.44
491.439	664.44
491.657	671.44
491.874	650.44
492.092	670.44
492.31	674.44
492.527	683.44
492.745	667.44
492.963	703.44
493.18	694.44
493.398	678.44
493.615	707.44
493.833	690.44
494.05	699.44
494.268	684.44
494.485	685.44
494.703	670.44
494.92	682.44
495.138	680.44
495.355	684.44
495.573	692.44
495.79	704.44
496.008	700.44
496.225	701.44
496.442	681.44
496.66	694.44
496.877	679.44
497.094	708.44
497.312	690.44
497.529	703.44
497.746	704.44
497.963	714.44
498.181	716.44
498.398	746.44
498.615	745.44
498.832	731.44
499.049	743.44
499.267	766.44
499.484	782.44
499.701	775.44
499.918	799.44
500.135	838.44
500.352	846.44
500.569	830.44
500.786	836.44
501.003	848.44
501.22	851.44
501.437	835.44
501.654	839.44
501.871	802.44
