Data from 1980.PennyLincolnUp.Lamp.En5.5.200Scan.071819.P1_HRD10591_16-37-44-957.txt Node
Date: Thu Jul 18 16:37:44 EDT 2019
User: cochatt
Spectrometer: HR+D1059
Trigger mode: 1
Integration Time (sec): 1.000000E-1
Scans to average: 1
Electric dark correction enabled: true
Nonlinearity correction enabled: false
Boxcar width: 0
XAxis mode: Wavelengths
Number of Pixels in Spectrum: 2048
>>>>>Begin Spectral Data<<<<<
223.165	-20.56
223.4	-20.56
223.635	-20.56
223.869	-24.56
224.104	-17.56
224.338	-18.56
224.573	7.44
224.808	-23.56
225.042	-17.56
225.277	-12.56
225.511	3.44
225.746	6.44
225.98	13.44
226.215	6.44
226.449	8.44
226.683	33.44
226.918	22.44
227.152	33.44
227.387	27.44
227.621	33.44
227.856	37.44
228.09	42.44
228.324	46.44
228.559	62.44
228.793	77.44
229.027	88.44
229.262	122.44
229.496	117.44
229.73	129.44
229.964	175.44
230.199	144.44
230.433	114.44
230.667	106.44
230.901	114.44
231.136	105.44
231.37	97.44
231.604	103.44
231.838	110.44
232.072	110.44
232.306	112.44
232.541	104.44
232.775	115.44
233.009	107.44
233.243	112.44
233.477	127.44
233.711	123.44
233.945	121.44
234.179	126.44
234.413	108.44
234.647	117.44
234.881	134.44
235.115	122.44
235.349	126.44
235.583	129.44
235.817	117.44
236.051	127.44
236.285	136.44
236.519	125.44
236.753	125.44
236.987	156.44
237.221	196.44
237.455	272.44
237.689	199.44
237.922	160.44
238.156	135.44
238.39	136.44
238.624	121.44
238.858	120.44
239.091	118.44
239.325	105.44
239.559	116.44
239.793	132.44
240.027	138.44
240.26	137.44
240.494	149.44
240.728	128.44
240.961	160.44
241.195	150.44
241.429	148.44
241.662	147.44
241.896	118.44
242.13	125.44
242.363	139.44
242.597	128.44
242.83	128.44
243.064	134.44
243.298	140.44
243.531	136.44
243.765	142.44
243.998	130.44
244.232	130.44
244.465	130.44
244.699	152.44
244.932	152.44
245.166	140.44
245.399	130.44
245.633	152.44
245.866	148.44
246.099	148.44
246.333	141.44
246.566	148.44
246.8	139.44
247.033	158.44
247.266	150.44
247.5	156.44
247.733	189.44
247.966	169.44
248.2	177.44
248.433	170.44
248.666	186.44
248.899	184.44
249.133	201.44
249.366	221.44
249.599	186.44
249.832	193.44
250.066	195.44
250.299	181.44
250.532	193.44
250.765	208.44
250.998	229.44
251.231	230.44
251.465	219.44
251.698	223.44
251.931	213.44
252.164	196.44
252.397	207.44
252.63	201.44
252.863	198.44
253.096	224.44
253.329	253.44
253.562	227.44
253.795	207.44
254.028	237.44
254.261	227.44
254.494	226.44
254.727	263.44
254.96	267.44
255.193	262.44
255.426	258.44
255.659	227.44
255.892	243.44
256.124	245.44
256.357	253.44
256.59	234.44
256.823	222.44
257.056	217.44
257.289	204.44
257.521	191.44
257.754	203.44
257.987	217.44
258.22	220.44
258.452	222.44
258.685	219.44
258.918	212.44
259.151	207.44
259.383	225.44
259.616	219.44
259.849	227.44
260.081	240.44
260.314	242.44
260.547	260.44
260.779	238.44
261.012	246.44
261.244	240.44
261.477	209.44
261.71	234.44
261.942	233.44
262.175	242.44
262.407	240.44
262.64	208.44
262.872	219.44
263.105	221.44
263.337	209.44
263.57	217.44
263.802	218.44
264.035	200.44
264.267	200.44
264.499	209.44
264.732	194.44
264.964	212.44
265.197	205.44
265.429	202.44
265.661	204.44
265.894	222.44
266.126	213.44
266.358	196.44
266.591	202.44
266.823	218.44
267.055	240.44
267.287	224.44
267.52	224.44
267.752	222.44
267.984	226.44
268.216	208.44
268.448	230.44
268.681	219.44
268.913	241.44
269.145	248.44
269.377	271.44
269.609	272.44
269.841	259.44
270.073	286.44
270.306	301.44
270.538	317.44
270.77	326.44
271.002	289.44
271.234	319.44
271.466	313.44
271.698	304.44
271.93	328.44
272.162	315.44
272.394	318.44
272.626	322.44
272.858	310.44
273.09	291.44
273.322	276.44
273.553	244.44
273.785	245.44
274.017	263.44
274.249	238.44
274.481	269.44
274.713	250.44
274.945	250.44
275.176	249.44
275.408	249.44
275.64	267.44
275.872	253.44
276.104	246.44
276.335	254.44
276.567	264.44
276.799	290.44
277.031	296.44
277.262	308.44
277.494	318.44
277.726	320.44
277.957	282.44
278.189	269.44
278.421	289.44
278.652	269.44
278.884	237.44
279.115	255.44
279.347	240.44
279.579	247.44
279.81	260.44
280.042	265.44
280.273	244.44
280.505	254.44
280.736	244.44
280.968	240.44
281.199	257.44
281.431	259.44
281.662	247.44
281.894	269.44
282.125	266.44
282.356	272.44
282.588	308.44
282.819	291.44
283.051	250.44
283.282	259.44
283.513	262.44
283.745	262.44
283.976	252.44
284.207	255.44
284.439	281.44
284.67	262.44
284.901	232.44
285.132	252.44
285.364	249.44
285.595	252.44
285.826	256.44
286.057	266.44
286.288	238.44
286.52	264.44
286.751	242.44
286.982	268.44
287.213	260.44
287.444	286.44
287.675	274.44
287.906	274.44
288.138	262.44
288.369	269.44
288.6	291.44
288.831	305.44
289.062	269.44
289.293	269.44
289.524	248.44
289.755	264.44
289.986	269.44
290.217	250.44
290.448	261.44
290.679	260.44
290.91	265.44
291.141	260.44
291.371	249.44
291.602	251.44
291.833	271.44
292.064	258.44
292.295	276.44
292.526	257.44
292.757	270.44
292.987	269.44
293.218	253.44
293.449	264.44
293.68	258.44
293.91	259.44
294.141	264.44
294.372	253.44
294.603	263.44
294.833	266.44
295.064	246.44
295.295	265.44
295.525	270.44
295.756	274.44
295.987	262.44
296.217	306.44
296.448	332.44
296.679	283.44
296.909	263.44
297.14	270.44
297.37	258.44
297.601	269.44
297.831	256.44
298.062	278.44
298.292	290.44
298.523	277.44
298.753	242.44
298.984	265.44
299.214	281.44
299.445	274.44
299.675	268.44
299.905	282.44
300.136	287.44
300.366	278.44
300.597	275.44
300.827	292.44
301.057	293.44
301.288	298.44
301.518	289.44
301.748	292.44
301.979	294.44
302.209	317.44
302.439	291.44
302.669	301.44
302.9	312.44
303.13	268.44
303.36	291.44
303.59	292.44
303.82	314.44
304.051	306.44
304.281	297.44
304.511	289.44
304.741	285.44
304.971	315.44
305.201	283.44
305.431	284.44
305.661	291.44
305.891	292.44
306.121	290.44
306.352	293.44
306.582	313.44
306.812	292.44
307.042	296.44
307.272	294.44
307.502	309.44
307.731	312.44
307.961	280.44
308.191	297.44
308.421	301.44
308.651	316.44
308.881	312.44
309.111	313.44
309.341	320.44
309.571	337.44
309.8	345.44
310.03	342.44
310.26	373.44
310.49	356.44
310.72	384.44
310.949	390.44
311.179	382.44
311.409	351.44
311.639	382.44
311.868	346.44
312.098	346.44
312.328	362.44
312.557	387.44
312.787	384.44
313.017	399.44
313.246	380.44
313.476	354.44
313.706	348.44
313.935	356.44
314.165	387.44
314.394	364.44
314.624	361.44
314.853	378.44
315.083	381.44
315.312	338.44
315.542	326.44
315.771	339.44
316.001	342.44
316.23	346.44
316.46	341.44
316.689	342.44
316.919	360.44
317.148	357.44
317.377	354.44
317.607	349.44
317.836	346.44
318.065	357.44
318.295	343.44
318.524	333.44
318.753	329.44
318.983	337.44
319.212	340.44
319.441	349.44
319.67	361.44
319.9	349.44
320.129	330.44
320.358	339.44
320.587	365.44
320.816	368.44
321.046	364.44
321.275	394.44
321.504	388.44
321.733	386.44
321.962	387.44
322.191	409.44
322.42	411.44
322.649	433.44
322.878	456.44
323.108	453.44
323.337	464.44
323.566	502.44
323.795	534.44
324.024	622.44
324.253	740.44
324.482	1054.44
324.71	1642.44
324.939	2340.44
325.168	2041.44
325.397	1079.44
325.626	713.44
325.855	566.44
326.084	557.44
326.313	510.44
326.542	534.44
326.77	582.44
326.999	678.44
327.228	938.44
327.457	1413.44
327.686	1846.44
327.914	1220.44
328.143	810.44
328.372	678.44
328.6	634.44
328.829	601.44
329.058	600.44
329.287	605.44
329.515	574.44
329.744	545.44
329.972	522.44
330.201	540.44
330.43	584.44
330.658	612.44
330.887	638.44
331.115	607.44
331.344	520.44
331.572	470.44
331.801	493.44
332.03	483.44
332.258	472.44
332.486	442.44
332.715	424.44
332.943	414.44
333.172	411.44
333.4	417.44
333.629	436.44
333.857	462.44
334.085	457.44
334.314	488.44
334.542	514.44
334.771	522.44
334.999	490.44
335.227	420.44
335.455	415.44
335.684	412.44
335.912	404.44
336.14	410.44
336.369	395.44
336.597	413.44
336.825	424.44
337.053	382.44
337.281	379.44
337.51	389.44
337.738	406.44
337.966	392.44
338.194	379.44
338.422	412.44
338.65	409.44
338.878	386.44
339.106	392.44
339.334	396.44
339.562	413.44
339.79	387.44
340.018	364.44
340.246	377.44
340.474	395.44
340.702	396.44
340.93	379.44
341.158	388.44
341.386	406.44
341.614	414.44
341.842	391.44
342.07	368.44
342.298	369.44
342.526	393.44
342.754	361.44
342.981	380.44
343.209	370.44
343.437	377.44
343.665	359.44
343.893	378.44
344.12	390.44
344.348	375.44
344.576	396.44
344.804	399.44
345.031	392.44
345.259	425.44
345.487	427.44
345.714	425.44
345.942	395.44
346.17	379.44
346.397	369.44
346.625	401.44
346.853	371.44
347.08	380.44
347.308	406.44
347.535	387.44
347.763	414.44
347.99	392.44
348.218	406.44
348.445	394.44
348.673	375.44
348.9	380.44
349.128	402.44
349.355	373.44
349.583	372.44
349.81	362.44
350.037	388.44
350.265	381.44
350.492	362.44
350.72	360.44
350.947	387.44
351.174	397.44
351.402	402.44
351.629	390.44
351.856	384.44
352.083	384.44
352.311	406.44
352.538	402.44
352.765	414.44
352.992	402.44
353.22	402.44
353.447	372.44
353.674	384.44
353.901	368.44
354.128	353.44
354.355	351.44
354.583	357.44
354.81	350.44
355.037	351.44
355.264	348.44
355.491	343.44
355.718	321.44
355.945	346.44
356.172	352.44
356.399	335.44
356.626	330.44
356.853	351.44
357.08	348.44
357.307	357.44
357.534	346.44
357.761	345.44
357.988	356.44
358.215	356.44
358.441	328.44
358.668	372.44
358.895	349.44
359.122	384.44
359.349	388.44
359.576	380.44
359.802	421.44
360.029	437.44
360.256	461.44
360.483	444.44
360.709	396.44
360.936	390.44
361.163	391.44
361.39	396.44
361.616	387.44
361.843	394.44
362.07	402.44
362.296	385.44
362.523	392.44
362.749	378.44
362.976	359.44
363.203	372.44
363.429	362.44
363.656	377.44
363.882	398.44
364.109	365.44
364.335	357.44
364.562	365.44
364.788	354.44
365.015	375.44
365.241	343.44
365.468	369.44
365.694	392.44
365.92	392.44
366.147	346.44
366.373	350.44
366.599	361.44
366.826	333.44
367.052	360.44
367.278	351.44
367.505	363.44
367.731	357.44
367.957	355.44
368.184	345.44
368.41	371.44
368.636	376.44
368.862	375.44
369.089	365.44
369.315	349.44
369.541	345.44
369.767	350.44
369.993	362.44
370.219	365.44
370.445	366.44
370.672	358.44
370.898	360.44
371.124	368.44
371.35	348.44
371.576	338.44
371.802	336.44
372.028	344.44
372.254	344.44
372.48	350.44
372.706	335.44
372.932	350.44
373.158	352.44
373.384	328.44
373.61	365.44
373.835	365.44
374.061	338.44
374.287	371.44
374.513	335.44
374.739	357.44
374.965	339.44
375.191	362.44
375.416	361.44
375.642	342.44
375.868	361.44
376.094	354.44
376.319	334.44
376.545	348.44
376.771	343.44
376.997	339.44
377.222	323.44
377.448	338.44
377.674	357.44
377.899	348.44
378.125	342.44
378.35	325.44
378.576	353.44
378.802	337.44
379.027	347.44
379.253	362.44
379.478	353.44
379.704	342.44
379.929	343.44
380.155	348.44
380.38	333.44
380.606	350.44
380.831	345.44
381.057	334.44
381.282	334.44
381.507	349.44
381.733	355.44
381.958	355.44
382.184	362.44
382.409	349.44
382.634	338.44
382.86	365.44
383.085	365.44
383.31	370.44
383.535	361.44
383.761	365.44
383.986	364.44
384.211	360.44
384.436	341.44
384.662	363.44
384.887	343.44
385.112	373.44
385.337	348.44
385.562	357.44
385.787	359.44
386.013	373.44
386.238	390.44
386.463	375.44
386.688	370.44
386.913	371.44
387.138	372.44
387.363	368.44
387.588	365.44
387.813	367.44
388.038	378.44
388.263	369.44
388.488	368.44
388.713	372.44
388.938	344.44
389.163	358.44
389.387	358.44
389.612	372.44
389.837	360.44
390.062	371.44
390.287	364.44
390.512	348.44
390.736	352.44
390.961	357.44
391.186	359.44
391.411	349.44
391.636	345.44
391.86	372.44
392.085	372.44
392.31	362.44
392.534	360.44
392.759	357.44
392.984	371.44
393.208	348.44
393.433	374.44
393.658	368.44
393.882	382.44
394.107	362.44
394.331	385.44
394.556	362.44
394.78	358.44
395.005	365.44
395.229	366.44
395.454	381.44
395.678	375.44
395.903	379.44
396.127	411.44
396.352	416.44
396.576	395.44
396.801	371.44
397.025	392.44
397.249	400.44
397.474	406.44
397.698	394.44
397.922	401.44
398.147	412.44
398.371	408.44
398.595	414.44
398.82	411.44
399.044	398.44
399.268	412.44
399.492	446.44
399.717	438.44
399.941	476.44
400.165	496.44
400.389	504.44
400.613	474.44
400.837	441.44
401.062	452.44
401.286	412.44
401.51	420.44
401.734	418.44
401.958	428.44
402.182	422.44
402.406	423.44
402.63	438.44
402.854	427.44
403.078	442.44
403.302	429.44
403.526	421.44
403.75	433.44
403.974	439.44
404.198	440.44
404.422	403.44
404.645	440.44
404.869	444.44
405.093	481.44
405.317	522.44
405.541	531.44
405.765	500.44
405.988	460.44
406.212	462.44
406.436	501.44
406.66	520.44
406.883	479.44
407.107	489.44
407.331	532.44
407.555	600.44
407.778	609.44
408.002	535.44
408.226	483.44
408.449	496.44
408.673	489.44
408.896	516.44
409.12	532.44
409.344	512.44
409.567	460.44
409.791	438.44
410.014	430.44
410.238	447.44
410.461	466.44
410.685	438.44
410.908	473.44
411.132	474.44
411.355	526.44
411.578	480.44
411.802	452.44
412.025	444.44
412.249	439.44
412.472	464.44
412.695	489.44
412.919	485.44
413.142	460.44
413.365	439.44
413.589	417.44
413.812	412.44
414.035	414.44
414.258	430.44
414.482	410.44
414.705	425.44
414.928	408.44
415.151	406.44
415.374	388.44
415.597	402.44
415.821	417.44
416.044	412.44
416.267	406.44
416.49	411.44
416.713	417.44
416.936	412.44
417.159	417.44
417.382	452.44
417.605	416.44
417.828	426.44
418.051	444.44
418.274	438.44
418.497	422.44
418.72	419.44
418.943	420.44
419.166	420.44
419.389	452.44
419.611	446.44
419.834	453.44
420.057	435.44
420.28	447.44
420.503	446.44
420.726	447.44
420.948	468.44
421.171	484.44
421.394	537.44
421.617	495.44
421.839	469.44
422.062	450.44
422.285	455.44
422.507	533.44
422.73	580.44
422.953	566.44
423.175	484.44
423.398	487.44
423.621	478.44
423.843	500.44
424.066	474.44
424.288	487.44
424.511	514.44
424.733	558.44
424.956	643.44
425.178	588.44
425.401	617.44
425.623	617.44
425.846	542.44
426.068	492.44
426.291	483.44
426.513	483.44
426.735	528.44
426.958	563.44
427.18	636.44
427.402	725.44
427.625	815.44
427.847	734.44
428.069	635.44
428.292	561.44
428.514	518.44
428.736	470.44
428.958	468.44
429.181	469.44
429.403	463.44
429.625	496.44
429.847	494.44
430.069	578.44
430.292	563.44
430.514	479.44
430.736	461.44
430.958	460.44
431.18	436.44
431.402	433.44
431.624	435.44
431.846	412.44
432.068	418.44
432.29	421.44
432.512	417.44
432.734	432.44
432.956	414.44
433.178	438.44
433.4	436.44
433.622	427.44
433.844	429.44
434.066	419.44
434.287	414.44
434.509	440.44
434.731	419.44
434.953	442.44
435.175	450.44
435.397	485.44
435.618	501.44
435.84	538.44
436.062	627.44
436.284	708.44
436.505	580.44
436.727	507.44
436.949	480.44
437.17	489.44
437.392	491.44
437.614	489.44
437.835	493.44
438.057	618.44
438.278	715.44
438.5	709.44
438.721	744.44
438.943	703.44
439.165	586.44
439.386	536.44
439.608	529.44
439.829	517.44
440.05	547.44
440.272	586.44
440.493	556.44
440.715	507.44
440.936	491.44
441.158	467.44
441.379	462.44
441.6	484.44
441.822	493.44
442.043	540.44
442.264	614.44
442.486	675.44
442.707	581.44
442.928	553.44
443.149	532.44
443.371	550.44
443.592	600.44
443.813	669.44
444.034	695.44
444.255	605.44
444.476	531.44
444.698	506.44
444.919	489.44
445.14	613.44
445.361	566.44
445.582	537.44
445.803	618.44
446.024	693.44
446.245	717.44
446.466	647.44
446.687	542.44
446.908	520.44
447.129	499.44
447.35	485.44
447.571	463.44
447.792	441.44
448.013	477.44
448.234	493.44
448.455	556.44
448.675	658.44
448.896	737.44
449.117	654.44
449.338	630.44
449.559	720.44
449.779	762.44
450	648.44
450.221	536.44
450.442	482.44
450.662	496.44
450.883	488.44
451.104	490.44
451.324	470.44
451.545	479.44
451.766	458.44
451.986	413.44
452.207	422.44
452.428	415.44
452.648	420.44
452.869	422.44
453.089	423.44
453.31	438.44
453.53	419.44
453.751	443.44
453.971	438.44
454.192	445.44
454.412	456.44
454.633	416.44
454.853	426.44
455.073	426.44
455.294	441.44
455.514	529.44
455.734	485.44
455.955	431.44
456.175	397.44
456.395	380.44
456.616	379.44
456.836	388.44
457.056	392.44
457.276	381.44
457.497	389.44
457.717	397.44
457.937	386.44
458.157	379.44
458.377	392.44
458.598	422.44
458.818	490.44
459.038	585.44
459.258	610.44
459.478	485.44
459.698	437.44
459.918	418.44
460.138	412.44
460.358	405.44
460.578	407.44
460.798	410.44
461.018	454.44
461.238	434.44
461.458	407.44
461.678	403.44
461.898	413.44
462.118	412.44
462.338	406.44
462.558	419.44
462.777	419.44
462.997	421.44
463.217	415.44
463.437	439.44
463.657	423.44
463.876	406.44
464.096	426.44
464.316	429.44
464.536	437.44
464.755	442.44
464.975	466.44
465.195	548.44
465.414	612.44
465.634	515.44
465.854	480.44
466.073	452.44
466.293	451.44
466.512	428.44
466.732	416.44
466.951	394.44
467.171	404.44
467.391	424.44
467.61	446.44
467.829	434.44
468.049	445.44
468.268	432.44
468.488	424.44
468.707	385.44
468.927	401.44
469.146	388.44
469.365	402.44
469.585	400.44
469.804	410.44
470.023	422.44
470.243	411.44
470.462	424.44
470.681	471.44
470.901	454.44
471.12	414.44
471.339	406.44
471.558	422.44
471.777	428.44
471.997	418.44
472.216	451.44
472.435	463.44
472.654	451.44
472.873	434.44
473.092	414.44
473.311	436.44
473.53	436.44
473.749	453.44
473.968	488.44
474.187	564.44
474.406	636.44
474.625	513.44
474.844	457.44
475.063	433.44
475.282	409.44
475.501	413.44
475.72	446.44
475.939	459.44
476.158	448.44
476.377	441.44
476.596	440.44
476.814	419.44
477.033	446.44
477.252	466.44
477.471	461.44
477.69	460.44
477.908	453.44
478.127	447.44
478.346	467.44
478.564	454.44
478.783	454.44
479.002	472.44
479.22	480.44
479.439	506.44
479.658	521.44
479.876	522.44
480.095	527.44
480.313	539.44
480.532	523.44
480.751	524.44
480.969	535.44
481.188	604.44
481.406	662.44
481.624	565.44
481.843	541.44
482.061	529.44
482.28	505.44
482.498	512.44
482.717	489.44
482.935	478.44
483.153	472.44
483.372	508.44
483.59	502.44
483.808	482.44
484.027	507.44
484.245	509.44
484.463	517.44
484.681	522.44
484.9	493.44
485.118	505.44
485.336	496.44
485.554	515.44
485.772	512.44
485.99	504.44
486.209	514.44
486.427	523.44
486.645	556.44
486.863	560.44
487.081	547.44
487.299	540.44
487.517	540.44
487.735	547.44
487.953	540.44
488.171	545.44
488.389	548.44
488.607	554.44
488.825	565.44
489.043	560.44
489.261	553.44
489.479	558.44
489.696	562.44
489.914	566.44
490.132	572.44
490.35	560.44
490.568	582.44
490.786	610.44
491.003	600.44
491.221	614.44
491.439	595.44
491.657	618.44
491.874	628.44
492.092	610.44
492.31	643.44
492.527	653.44
492.745	638.44
492.963	633.44
493.18	627.44
493.398	637.44
493.615	662.44
493.833	646.44
494.05	647.44
494.268	650.44
494.485	653.44
494.703	672.44
494.92	653.44
495.138	648.44
495.355	644.44
495.573	662.44
495.79	669.44
496.008	659.44
496.225	658.44
496.442	676.44
496.66	680.44
496.877	635.44
497.094	628.44
497.312	640.44
497.529	642.44
497.746	650.44
497.963	676.44
498.181	692.44
498.398	702.44
498.615	682.44
498.832	696.44
499.049	717.44
499.267	692.44
499.484	734.44
499.701	748.44
499.918	742.44
500.135	752.44
500.352	766.44
500.569	800.44
500.786	802.44
501.003	775.44
501.22	774.44
501.437	760.44
501.654	758.44
501.871	779.44
