Data from 1980.PennyLincolnUp.Lamp.En5.5.200Scan.071819.P1_HRD10591_16-37-05-957.txt Node
Date: Thu Jul 18 16:37:05 EDT 2019
User: cochatt
Spectrometer: HR+D1059
Trigger mode: 1
Integration Time (sec): 1.000000E-1
Scans to average: 1
Electric dark correction enabled: true
Nonlinearity correction enabled: false
Boxcar width: 0
XAxis mode: Wavelengths
Number of Pixels in Spectrum: 2048
>>>>>Begin Spectral Data<<<<<
223.165	-22.44
223.4	-22.44
223.635	-22.44
223.869	-17.44
224.104	-11.44
224.338	-1.44
224.573	4.56
224.808	-15.44
225.042	-10.44
225.277	-21.44
225.511	-7.44
225.746	6.56
225.98	-0.44
226.215	1.56
226.449	19.56
226.683	22.56
226.918	21.56
227.152	31.56
227.387	34.56
227.621	34.56
227.856	51.56
228.09	43.56
228.324	53.56
228.559	58.56
228.793	63.56
229.027	103.56
229.262	100.56
229.496	116.56
229.73	125.56
229.964	148.56
230.199	133.56
230.433	128.56
230.667	100.56
230.901	116.56
231.136	101.56
231.37	106.56
231.604	111.56
231.838	122.56
232.072	111.56
232.306	122.56
232.541	116.56
232.775	103.56
233.009	111.56
233.243	116.56
233.477	128.56
233.711	107.56
233.945	130.56
234.179	123.56
234.413	118.56
234.647	124.56
234.881	110.56
235.115	103.56
235.349	115.56
235.583	122.56
235.817	112.56
236.051	130.56
236.285	143.56
236.519	123.56
236.753	131.56
236.987	150.56
237.221	172.56
237.455	218.56
237.689	188.56
237.922	134.56
238.156	130.56
238.39	115.56
238.624	119.56
238.858	100.56
239.091	122.56
239.325	111.56
239.559	126.56
239.793	152.56
240.027	128.56
240.26	154.56
240.494	145.56
240.728	149.56
240.961	157.56
241.195	141.56
241.429	134.56
241.662	130.56
241.896	142.56
242.13	143.56
242.363	115.56
242.597	132.56
242.83	108.56
243.064	139.56
243.298	137.56
243.531	124.56
243.765	132.56
243.998	131.56
244.232	130.56
244.465	148.56
244.699	151.56
244.932	132.56
245.166	125.56
245.399	143.56
245.633	144.56
245.866	145.56
246.099	138.56
246.333	142.56
246.566	134.56
246.8	164.56
247.033	148.56
247.266	144.56
247.5	144.56
247.733	151.56
247.966	173.56
248.2	150.56
248.433	172.56
248.666	162.56
248.899	214.56
249.133	209.56
249.366	196.56
249.599	182.56
249.832	173.56
250.066	182.56
250.299	176.56
250.532	187.56
250.765	189.56
250.998	209.56
251.231	221.56
251.465	218.56
251.698	207.56
251.931	197.56
252.164	197.56
252.397	199.56
252.63	205.56
252.863	189.56
253.096	203.56
253.329	216.56
253.562	217.56
253.795	202.56
254.028	214.56
254.261	219.56
254.494	228.56
254.727	249.56
254.96	274.56
255.193	269.56
255.426	266.56
255.659	229.56
255.892	229.56
256.124	224.56
256.357	237.56
256.59	238.56
256.823	216.56
257.056	225.56
257.289	208.56
257.521	208.56
257.754	194.56
257.987	212.56
258.22	202.56
258.452	178.56
258.685	195.56
258.918	208.56
259.151	196.56
259.383	214.56
259.616	206.56
259.849	217.56
260.081	213.56
260.314	223.56
260.547	248.56
260.779	255.56
261.012	235.56
261.244	222.56
261.477	210.56
261.71	223.56
261.942	219.56
262.175	248.56
262.407	236.56
262.64	214.56
262.872	203.56
263.105	204.56
263.337	211.56
263.57	202.56
263.802	214.56
264.035	206.56
264.267	188.56
264.499	192.56
264.732	209.56
264.964	201.56
265.197	204.56
265.429	203.56
265.661	202.56
265.894	197.56
266.126	202.56
266.358	212.56
266.591	202.56
266.823	219.56
267.055	224.56
267.287	207.56
267.52	231.56
267.752	212.56
267.984	216.56
268.216	231.56
268.448	212.56
268.681	228.56
268.913	234.56
269.145	245.56
269.377	266.56
269.609	264.56
269.841	256.56
270.073	252.56
270.306	266.56
270.538	312.56
270.77	318.56
271.002	307.56
271.234	268.56
271.466	279.56
271.698	283.56
271.93	308.56
272.162	294.56
272.394	319.56
272.626	297.56
272.858	286.56
273.09	261.56
273.322	255.56
273.553	251.56
273.785	230.56
274.017	251.56
274.249	253.56
274.481	245.56
274.713	244.56
274.945	249.56
275.176	245.56
275.408	262.56
275.64	248.56
275.872	240.56
276.104	230.56
276.335	243.56
276.567	262.56
276.799	240.56
277.031	269.56
277.262	297.56
277.494	296.56
277.726	278.56
277.957	265.56
278.189	259.56
278.421	256.56
278.652	272.56
278.884	247.56
279.115	255.56
279.347	252.56
279.579	243.56
279.81	237.56
280.042	244.56
280.273	231.56
280.505	237.56
280.736	255.56
280.968	240.56
281.199	237.56
281.431	242.56
281.662	240.56
281.894	261.56
282.125	260.56
282.356	250.56
282.588	314.56
282.819	280.56
283.051	254.56
283.282	243.56
283.513	251.56
283.745	254.56
283.976	251.56
284.207	264.56
284.439	259.56
284.67	269.56
284.901	267.56
285.132	248.56
285.364	231.56
285.595	239.56
285.826	235.56
286.057	245.56
286.288	255.56
286.52	268.56
286.751	245.56
286.982	232.56
287.213	268.56
287.444	244.56
287.675	264.56
287.906	262.56
288.138	270.56
288.369	261.56
288.6	280.56
288.831	272.56
289.062	266.56
289.293	246.56
289.524	276.56
289.755	268.56
289.986	266.56
290.217	238.56
290.448	250.56
290.679	268.56
290.91	263.56
291.141	257.56
291.371	271.56
291.602	258.56
291.833	262.56
292.064	260.56
292.295	242.56
292.526	264.56
292.757	255.56
292.987	242.56
293.218	247.56
293.449	261.56
293.68	268.56
293.91	256.56
294.141	242.56
294.372	266.56
294.603	260.56
294.833	254.56
295.064	256.56
295.295	250.56
295.525	250.56
295.756	273.56
295.987	267.56
296.217	296.56
296.448	279.56
296.679	278.56
296.909	268.56
297.14	266.56
297.37	290.56
297.601	262.56
297.831	260.56
298.062	251.56
298.292	282.56
298.523	292.56
298.753	274.56
298.984	254.56
299.214	270.56
299.445	262.56
299.675	264.56
299.905	282.56
300.136	284.56
300.366	278.56
300.597	256.56
300.827	291.56
301.057	274.56
301.288	285.56
301.518	298.56
301.748	291.56
301.979	282.56
302.209	290.56
302.439	292.56
302.669	291.56
302.9	291.56
303.13	265.56
303.36	303.56
303.59	290.56
303.82	314.56
304.051	301.56
304.281	291.56
304.511	306.56
304.741	275.56
304.971	272.56
305.201	277.56
305.431	286.56
305.661	291.56
305.891	286.56
306.121	275.56
306.352	303.56
306.582	314.56
306.812	301.56
307.042	292.56
307.272	278.56
307.502	287.56
307.731	288.56
307.961	309.56
308.191	301.56
308.421	294.56
308.651	301.56
308.881	282.56
309.111	314.56
309.341	299.56
309.571	299.56
309.8	331.56
310.03	337.56
310.26	340.56
310.49	354.56
310.72	338.56
310.949	374.56
311.179	356.56
311.409	351.56
311.639	346.56
311.868	330.56
312.098	319.56
312.328	329.56
312.557	373.56
312.787	377.56
313.017	367.56
313.246	348.56
313.476	322.56
313.706	336.56
313.935	325.56
314.165	342.56
314.394	349.56
314.624	364.56
314.853	362.56
315.083	335.56
315.312	323.56
315.542	319.56
315.771	332.56
316.001	315.56
316.23	329.56
316.46	333.56
316.689	323.56
316.919	334.56
317.148	335.56
317.377	349.56
317.607	343.56
317.836	341.56
318.065	333.56
318.295	338.56
318.524	346.56
318.753	346.56
318.983	328.56
319.212	346.56
319.441	346.56
319.67	360.56
319.9	349.56
320.129	349.56
320.358	336.56
320.587	341.56
320.816	338.56
321.046	363.56
321.275	357.56
321.504	348.56
321.733	346.56
321.962	359.56
322.191	401.56
322.42	419.56
322.649	406.56
322.878	428.56
323.108	440.56
323.337	462.56
323.566	475.56
323.795	521.56
324.024	578.56
324.253	678.56
324.482	958.56
324.71	1483.56
324.939	2120.56
325.168	1895.56
325.397	1000.56
325.626	666.56
325.855	540.56
326.084	511.56
326.313	462.56
326.542	490.56
326.77	529.56
326.999	642.56
327.228	845.56
327.457	1284.56
327.686	1621.56
327.914	1111.56
328.143	735.56
328.372	638.56
328.6	584.56
328.829	546.56
329.058	564.56
329.287	573.56
329.515	517.56
329.744	484.56
329.972	467.56
330.201	495.56
330.43	548.56
330.658	562.56
330.887	587.56
331.115	593.56
331.344	506.56
331.572	464.56
331.801	449.56
332.03	462.56
332.258	432.56
332.486	396.56
332.715	405.56
332.943	388.56
333.172	395.56
333.4	410.56
333.629	415.56
333.857	429.56
334.085	420.56
334.314	445.56
334.542	484.56
334.771	482.56
334.999	457.56
335.227	422.56
335.455	402.56
335.684	405.56
335.912	380.56
336.14	378.56
336.369	398.56
336.597	384.56
336.825	391.56
337.053	409.56
337.281	392.56
337.51	390.56
337.738	389.56
337.966	363.56
338.194	367.56
338.422	382.56
338.65	370.56
338.878	370.56
339.106	369.56
339.334	380.56
339.562	354.56
339.79	357.56
340.018	364.56
340.246	359.56
340.474	372.56
340.702	391.56
340.93	384.56
341.158	398.56
341.386	386.56
341.614	383.56
341.842	379.56
342.07	369.56
342.298	358.56
342.526	382.56
342.754	340.56
342.981	371.56
343.209	358.56
343.437	342.56
343.665	362.56
343.893	378.56
344.12	351.56
344.348	365.56
344.576	371.56
344.804	378.56
345.031	372.56
345.259	407.56
345.487	390.56
345.714	384.56
345.942	383.56
346.17	366.56
346.397	367.56
346.625	368.56
346.853	358.56
347.08	356.56
347.308	359.56
347.535	368.56
347.763	385.56
347.99	382.56
348.218	408.56
348.445	383.56
348.673	382.56
348.9	384.56
349.128	363.56
349.355	366.56
349.583	356.56
349.81	352.56
350.037	347.56
350.265	360.56
350.492	350.56
350.72	350.56
350.947	374.56
351.174	359.56
351.402	394.56
351.629	390.56
351.856	388.56
352.083	378.56
352.311	405.56
352.538	395.56
352.765	408.56
352.992	389.56
353.22	371.56
353.447	386.56
353.674	358.56
353.901	347.56
354.128	335.56
354.355	324.56
354.583	343.56
354.81	347.56
355.037	345.56
355.264	333.56
355.491	349.56
355.718	341.56
355.945	339.56
356.172	332.56
356.399	317.56
356.626	335.56
356.853	357.56
357.08	327.56
357.307	336.56
357.534	357.56
357.761	336.56
357.988	331.56
358.215	336.56
358.441	334.56
358.668	356.56
358.895	345.56
359.122	354.56
359.349	370.56
359.576	375.56
359.802	389.56
360.029	427.56
360.256	436.56
360.483	442.56
360.709	366.56
360.936	378.56
361.163	370.56
361.39	376.56
361.616	375.56
361.843	383.56
362.07	375.56
362.296	380.56
362.523	376.56
362.749	371.56
362.976	356.56
363.203	354.56
363.429	367.56
363.656	363.56
363.882	370.56
364.109	334.56
364.335	352.56
364.562	351.56
364.788	352.56
365.015	347.56
365.241	343.56
365.468	347.56
365.694	345.56
365.92	364.56
366.147	351.56
366.373	359.56
366.599	345.56
366.826	347.56
367.052	334.56
367.278	336.56
367.505	349.56
367.731	359.56
367.957	325.56
368.184	328.56
368.41	356.56
368.636	372.56
368.862	362.56
369.089	373.56
369.315	332.56
369.541	345.56
369.767	322.56
369.993	351.56
370.219	357.56
370.445	346.56
370.672	315.56
370.898	334.56
371.124	331.56
371.35	340.56
371.576	331.56
371.802	315.56
372.028	327.56
372.254	334.56
372.48	338.56
372.706	329.56
372.932	347.56
373.158	335.56
373.384	342.56
373.61	358.56
373.835	328.56
374.061	334.56
374.287	345.56
374.513	358.56
374.739	325.56
374.965	351.56
375.191	342.56
375.416	357.56
375.642	351.56
375.868	343.56
376.094	349.56
376.319	322.56
376.545	326.56
376.771	350.56
376.997	344.56
377.222	343.56
377.448	350.56
377.674	343.56
377.899	308.56
378.125	339.56
378.35	355.56
378.576	329.56
378.802	316.56
379.027	338.56
379.253	345.56
379.478	341.56
379.704	339.56
379.929	327.56
380.155	343.56
380.38	344.56
380.606	334.56
380.831	340.56
381.057	339.56
381.282	361.56
381.507	338.56
381.733	346.56
381.958	336.56
382.184	341.56
382.409	359.56
382.634	354.56
382.86	344.56
383.085	362.56
383.31	350.56
383.535	336.56
383.761	335.56
383.986	340.56
384.211	331.56
384.436	356.56
384.662	351.56
384.887	346.56
385.112	357.56
385.337	356.56
385.562	353.56
385.787	339.56
386.013	364.56
386.238	404.56
386.463	374.56
386.688	363.56
386.913	358.56
387.138	371.56
387.363	360.56
387.588	347.56
387.813	367.56
388.038	368.56
388.263	356.56
388.488	361.56
388.713	342.56
388.938	357.56
389.163	351.56
389.387	356.56
389.612	348.56
389.837	354.56
390.062	357.56
390.287	328.56
390.512	347.56
390.736	355.56
390.961	355.56
391.186	358.56
391.411	357.56
391.636	356.56
391.86	358.56
392.085	360.56
392.31	367.56
392.534	358.56
392.759	363.56
392.984	370.56
393.208	382.56
393.433	374.56
393.658	378.56
393.882	357.56
394.107	356.56
394.331	354.56
394.556	345.56
394.78	359.56
395.005	377.56
395.229	377.56
395.454	377.56
395.678	372.56
395.903	370.56
396.127	398.56
396.352	405.56
396.576	368.56
396.801	387.56
397.025	382.56
397.249	358.56
397.474	375.56
397.698	360.56
397.922	382.56
398.147	399.56
398.371	412.56
398.595	385.56
398.82	398.56
399.044	392.56
399.268	429.56
399.492	428.56
399.717	438.56
399.941	447.56
400.165	479.56
400.389	483.56
400.613	456.56
400.837	454.56
401.062	427.56
401.286	386.56
401.51	404.56
401.734	408.56
401.958	407.56
402.182	387.56
402.406	436.56
402.63	438.56
402.854	421.56
403.078	420.56
403.302	408.56
403.526	431.56
403.75	411.56
403.974	438.56
404.198	434.56
404.422	417.56
404.645	442.56
404.869	420.56
405.093	475.56
405.317	463.56
405.541	517.56
405.765	479.56
405.988	445.56
406.212	443.56
406.436	484.56
406.66	485.56
406.883	468.56
407.107	471.56
407.331	513.56
407.555	559.56
407.778	550.56
408.002	517.56
408.226	500.56
408.449	476.56
408.673	477.56
408.896	500.56
409.12	530.56
409.344	495.56
409.567	459.56
409.791	428.56
410.014	418.56
410.238	442.56
410.461	420.56
410.685	418.56
410.908	425.56
411.132	466.56
411.355	506.56
411.578	484.56
411.802	436.56
412.025	414.56
412.249	434.56
412.472	437.56
412.695	487.56
412.919	491.56
413.142	438.56
413.365	410.56
413.589	408.56
413.812	402.56
414.035	412.56
414.258	404.56
414.482	404.56
414.705	401.56
414.928	390.56
415.151	404.56
415.374	392.56
415.597	398.56
415.821	390.56
416.044	404.56
416.267	406.56
416.49	397.56
416.713	404.56
416.936	399.56
417.159	394.56
417.382	430.56
417.605	402.56
417.828	420.56
418.051	421.56
418.274	428.56
418.497	399.56
418.72	416.56
418.943	424.56
419.166	426.56
419.389	438.56
419.611	431.56
419.834	423.56
420.057	441.56
420.28	429.56
420.503	433.56
420.726	414.56
420.948	420.56
421.171	468.56
421.394	510.56
421.617	434.56
421.839	418.56
422.062	440.56
422.285	477.56
422.507	512.56
422.73	554.56
422.953	554.56
423.175	484.56
423.398	460.56
423.621	460.56
423.843	477.56
424.066	473.56
424.288	474.56
424.511	475.56
424.733	558.56
424.956	639.56
425.178	604.56
425.401	581.56
425.623	594.56
425.846	537.56
426.068	506.56
426.291	481.56
426.513	494.56
426.735	482.56
426.958	506.56
427.18	596.56
427.402	709.56
427.625	758.56
427.847	742.56
428.069	620.56
428.292	532.56
428.514	487.56
428.736	458.56
428.958	456.56
429.181	450.56
429.403	453.56
429.625	447.56
429.847	475.56
430.069	545.56
430.292	533.56
430.514	462.56
430.736	428.56
430.958	450.56
431.18	410.56
431.402	438.56
431.624	399.56
431.846	396.56
432.068	401.56
432.29	402.56
432.512	410.56
432.734	421.56
432.956	410.56
433.178	415.56
433.4	418.56
433.622	410.56
433.844	419.56
434.066	426.56
434.287	415.56
434.509	405.56
434.731	400.56
434.953	430.56
435.175	450.56
435.397	476.56
435.618	487.56
435.84	509.56
436.062	612.56
436.284	666.56
436.505	565.56
436.727	488.56
436.949	468.56
437.17	445.56
437.392	430.56
437.614	454.56
437.835	498.56
438.057	574.56
438.278	671.56
438.5	684.56
438.721	708.56
438.943	687.56
439.165	570.56
439.386	518.56
439.608	500.56
439.829	512.56
440.05	515.56
440.272	571.56
440.493	527.56
440.715	459.56
440.936	461.56
441.158	448.56
441.379	441.56
441.6	463.56
441.822	470.56
442.043	514.56
442.264	607.56
442.486	635.56
442.707	532.56
442.928	491.56
443.149	510.56
443.371	528.56
443.592	558.56
443.813	623.56
444.034	715.56
444.255	571.56
444.476	509.56
444.698	483.56
444.919	483.56
445.14	562.56
445.361	519.56
445.582	520.56
445.803	586.56
446.024	689.56
446.245	691.56
446.466	630.56
446.687	532.56
446.908	502.56
447.129	467.56
447.35	468.56
447.571	437.56
447.792	446.56
448.013	441.56
448.234	471.56
448.455	519.56
448.675	619.56
448.896	679.56
449.117	614.56
449.338	606.56
449.559	655.56
449.779	735.56
450	597.56
450.221	508.56
450.442	476.56
450.662	455.56
450.883	463.56
451.104	475.56
451.324	454.56
451.545	433.56
451.766	409.56
451.986	419.56
452.207	401.56
452.428	407.56
452.648	394.56
452.869	408.56
453.089	427.56
453.31	416.56
453.53	419.56
453.751	419.56
453.971	412.56
454.192	421.56
454.412	419.56
454.633	421.56
454.853	400.56
455.073	393.56
455.294	431.56
455.514	492.56
455.734	492.56
455.955	420.56
456.175	394.56
456.395	382.56
456.616	391.56
456.836	384.56
457.056	367.56
457.276	378.56
457.497	376.56
457.717	362.56
457.937	381.56
458.157	373.56
458.377	393.56
458.598	400.56
458.818	453.56
459.038	554.56
459.258	548.56
459.478	492.56
459.698	424.56
459.918	385.56
460.138	393.56
460.358	414.56
460.578	406.56
460.798	394.56
461.018	410.56
461.238	404.56
461.458	394.56
461.678	392.56
461.898	418.56
462.118	402.56
462.338	406.56
462.558	414.56
462.777	391.56
462.997	394.56
463.217	421.56
463.437	410.56
463.657	395.56
463.876	422.56
464.096	426.56
464.316	434.56
464.536	440.56
464.755	401.56
464.975	441.56
465.195	507.56
465.414	586.56
465.634	502.56
465.854	466.56
466.073	436.56
466.293	427.56
466.512	434.56
466.732	408.56
466.951	407.56
467.171	401.56
467.391	377.56
467.61	422.56
467.829	410.56
468.049	414.56
468.268	426.56
468.488	391.56
468.707	412.56
468.927	394.56
469.146	387.56
469.365	396.56
469.585	401.56
469.804	407.56
470.023	421.56
470.243	413.56
470.462	426.56
470.681	452.56
470.901	427.56
471.12	400.56
471.339	413.56
471.558	411.56
471.777	423.56
471.997	394.56
472.216	394.56
472.435	453.56
472.654	419.56
472.873	407.56
473.092	413.56
473.311	417.56
473.53	394.56
473.749	423.56
473.968	469.56
474.187	562.56
474.406	578.56
474.625	471.56
474.844	418.56
475.063	415.56
475.282	399.56
475.501	419.56
475.72	435.56
475.939	405.56
476.158	412.56
476.377	429.56
476.596	422.56
476.814	423.56
477.033	447.56
477.252	424.56
477.471	450.56
477.69	435.56
477.908	439.56
478.127	435.56
478.346	453.56
478.564	442.56
478.783	461.56
479.002	468.56
479.22	458.56
479.439	475.56
479.658	487.56
479.876	473.56
480.095	480.56
480.313	531.56
480.532	505.56
480.751	468.56
480.969	514.56
481.188	566.56
481.406	597.56
481.624	528.56
481.843	530.56
482.061	512.56
482.28	482.56
482.498	478.56
482.717	472.56
482.935	483.56
483.153	477.56
483.372	471.56
483.59	458.56
483.808	502.56
484.027	488.56
484.245	474.56
484.463	505.56
484.681	499.56
484.9	492.56
485.118	502.56
485.336	506.56
485.554	505.56
485.772	511.56
485.99	498.56
486.209	504.56
486.427	510.56
486.645	520.56
486.863	518.56
487.081	528.56
487.299	537.56
487.517	513.56
487.735	530.56
487.953	528.56
488.171	528.56
488.389	529.56
488.607	521.56
488.825	541.56
489.043	525.56
489.261	540.56
489.479	521.56
489.696	536.56
489.914	545.56
490.132	555.56
490.35	554.56
490.568	551.56
490.786	557.56
491.003	565.56
491.221	598.56
491.439	590.56
491.657	600.56
491.874	612.56
492.092	587.56
492.31	604.56
492.527	600.56
492.745	586.56
492.963	596.56
493.18	607.56
493.398	618.56
493.615	628.56
493.833	636.56
494.05	629.56
494.268	618.56
494.485	625.56
494.703	604.56
494.92	627.56
495.138	629.56
495.355	630.56
495.573	637.56
495.79	635.56
496.008	630.56
496.225	630.56
496.442	642.56
496.66	631.56
496.877	612.56
497.094	638.56
497.312	628.56
497.529	644.56
497.746	623.56
497.963	663.56
498.181	687.56
498.398	646.56
498.615	662.56
498.832	670.56
499.049	714.56
499.267	706.56
499.484	670.56
499.701	714.56
499.918	703.56
500.135	770.56
500.352	774.56
500.569	750.56
500.786	758.56
501.003	756.56
501.22	764.56
501.437	740.56
501.654	737.56
501.871	748.56
