Data from 1980.PennyLincolnUp.Lamp.En5.5.200Scan.071819.P1_HRD10591_16-37-27-957.txt Node
Date: Thu Jul 18 16:37:27 EDT 2019
User: cochatt
Spectrometer: HR+D1059
Trigger mode: 1
Integration Time (sec): 1.000000E-1
Scans to average: 1
Electric dark correction enabled: true
Nonlinearity correction enabled: false
Boxcar width: 0
XAxis mode: Wavelengths
Number of Pixels in Spectrum: 2048
>>>>>Begin Spectral Data<<<<<
223.165	-28.06
223.4	-28.06
223.635	-28.06
223.869	-18.06
224.104	-25.06
224.338	-14.06
224.573	-22.06
224.808	-0.06
225.042	-8.06
225.277	7.94
225.511	2.94
225.746	-2.06
225.98	8.94
226.215	15.94
226.449	9.94
226.683	7.94
226.918	26.94
227.152	36.94
227.387	35.94
227.621	37.94
227.856	48.94
228.09	43.94
228.324	51.94
228.559	55.94
228.793	63.94
229.027	96.94
229.262	111.94
229.496	133.94
229.73	131.94
229.964	162.94
230.199	134.94
230.433	113.94
230.667	108.94
230.901	121.94
231.136	114.94
231.37	118.94
231.604	106.94
231.838	98.94
232.072	112.94
232.306	113.94
232.541	104.94
232.775	103.94
233.009	96.94
233.243	108.94
233.477	130.94
233.711	117.94
233.945	95.94
234.179	111.94
234.413	119.94
234.647	116.94
234.881	107.94
235.115	127.94
235.349	125.94
235.583	120.94
235.817	141.94
236.051	131.94
236.285	142.94
236.519	134.94
236.753	121.94
236.987	152.94
237.221	202.94
237.455	241.94
237.689	201.94
237.922	144.94
238.156	130.94
238.39	140.94
238.624	141.94
238.858	124.94
239.091	127.94
239.325	125.94
239.559	134.94
239.793	132.94
240.027	148.94
240.26	160.94
240.494	156.94
240.728	151.94
240.961	153.94
241.195	145.94
241.429	132.94
241.662	133.94
241.896	132.94
242.13	116.94
242.363	116.94
242.597	131.94
242.83	129.94
243.064	131.94
243.298	125.94
243.531	149.94
243.765	131.94
243.998	127.94
244.232	135.94
244.465	156.94
244.699	138.94
244.932	153.94
245.166	127.94
245.399	141.94
245.633	140.94
245.866	153.94
246.099	155.94
246.333	151.94
246.566	147.94
246.8	150.94
247.033	157.94
247.266	153.94
247.5	147.94
247.733	158.94
247.966	160.94
248.2	163.94
248.433	187.94
248.666	171.94
248.899	191.94
249.133	210.94
249.366	201.94
249.599	211.94
249.832	177.94
250.066	184.94
250.299	186.94
250.532	181.94
250.765	214.94
250.998	227.94
251.231	228.94
251.465	208.94
251.698	195.94
251.931	197.94
252.164	204.94
252.397	184.94
252.63	196.94
252.863	197.94
253.096	215.94
253.329	243.94
253.562	220.94
253.795	208.94
254.028	212.94
254.261	225.94
254.494	220.94
254.727	259.94
254.96	293.94
255.193	273.94
255.426	260.94
255.659	245.94
255.892	246.94
256.124	236.94
256.357	226.94
256.59	218.94
256.823	223.94
257.056	214.94
257.289	206.94
257.521	206.94
257.754	211.94
257.987	210.94
258.22	201.94
258.452	189.94
258.685	201.94
258.918	209.94
259.151	211.94
259.383	228.94
259.616	234.94
259.849	210.94
260.081	243.94
260.314	259.94
260.547	263.94
260.779	261.94
261.012	232.94
261.244	246.94
261.477	227.94
261.71	207.94
261.942	213.94
262.175	245.94
262.407	212.94
262.64	218.94
262.872	211.94
263.105	225.94
263.337	207.94
263.57	204.94
263.802	214.94
264.035	209.94
264.267	209.94
264.499	195.94
264.732	193.94
264.964	207.94
265.197	201.94
265.429	213.94
265.661	209.94
265.894	206.94
266.126	212.94
266.358	211.94
266.591	213.94
266.823	217.94
267.055	232.94
267.287	218.94
267.52	204.94
267.752	204.94
267.984	221.94
268.216	208.94
268.448	219.94
268.681	229.94
268.913	221.94
269.145	252.94
269.377	274.94
269.609	269.94
269.841	268.94
270.073	269.94
270.306	287.94
270.538	312.94
270.77	313.94
271.002	289.94
271.234	304.94
271.466	288.94
271.698	294.94
271.93	324.94
272.162	312.94
272.394	323.94
272.626	306.94
272.858	272.94
273.09	263.94
273.322	267.94
273.553	282.94
273.785	259.94
274.017	266.94
274.249	241.94
274.481	272.94
274.713	255.94
274.945	243.94
275.176	258.94
275.408	256.94
275.64	255.94
275.872	245.94
276.104	247.94
276.335	259.94
276.567	250.94
276.799	264.94
277.031	288.94
277.262	307.94
277.494	287.94
277.726	289.94
277.957	275.94
278.189	277.94
278.421	264.94
278.652	270.94
278.884	255.94
279.115	237.94
279.347	261.94
279.579	251.94
279.81	272.94
280.042	248.94
280.273	254.94
280.505	249.94
280.736	241.94
280.968	242.94
281.199	255.94
281.431	243.94
281.662	246.94
281.894	234.94
282.125	253.94
282.356	258.94
282.588	297.94
282.819	293.94
283.051	265.94
283.282	237.94
283.513	254.94
283.745	257.94
283.976	260.94
284.207	273.94
284.439	252.94
284.67	259.94
284.901	256.94
285.132	239.94
285.364	244.94
285.595	253.94
285.826	244.94
286.057	255.94
286.288	261.94
286.52	235.94
286.751	267.94
286.982	263.94
287.213	260.94
287.444	263.94
287.675	255.94
287.906	287.94
288.138	256.94
288.369	274.94
288.6	256.94
288.831	263.94
289.062	274.94
289.293	264.94
289.524	273.94
289.755	264.94
289.986	264.94
290.217	247.94
290.448	258.94
290.679	250.94
290.91	255.94
291.141	258.94
291.371	249.94
291.602	254.94
291.833	259.94
292.064	264.94
292.295	262.94
292.526	267.94
292.757	245.94
292.987	272.94
293.218	253.94
293.449	255.94
293.68	260.94
293.91	276.94
294.141	264.94
294.372	259.94
294.603	266.94
294.833	253.94
295.064	264.94
295.295	270.94
295.525	250.94
295.756	253.94
295.987	276.94
296.217	298.94
296.448	297.94
296.679	274.94
296.909	245.94
297.14	255.94
297.37	274.94
297.601	258.94
297.831	274.94
298.062	274.94
298.292	269.94
298.523	263.94
298.753	277.94
298.984	268.94
299.214	274.94
299.445	265.94
299.675	257.94
299.905	284.94
300.136	276.94
300.366	271.94
300.597	264.94
300.827	292.94
301.057	281.94
301.288	284.94
301.518	287.94
301.748	285.94
301.979	269.94
302.209	288.94
302.439	277.94
302.669	294.94
302.9	288.94
303.13	280.94
303.36	297.94
303.59	282.94
303.82	305.94
304.051	294.94
304.281	279.94
304.511	294.94
304.741	291.94
304.971	295.94
305.201	292.94
305.431	288.94
305.661	271.94
305.891	286.94
306.121	294.94
306.352	294.94
306.582	287.94
306.812	295.94
307.042	296.94
307.272	295.94
307.502	303.94
307.731	291.94
307.961	276.94
308.191	279.94
308.421	292.94
308.651	290.94
308.881	290.94
309.111	301.94
309.341	310.94
309.571	325.94
309.8	341.94
310.03	360.94
310.26	346.94
310.49	375.94
310.72	347.94
310.949	360.94
311.179	376.94
311.409	347.94
311.639	353.94
311.868	359.94
312.098	342.94
312.328	360.94
312.557	389.94
312.787	372.94
313.017	374.94
313.246	363.94
313.476	329.94
313.706	328.94
313.935	332.94
314.165	353.94
314.394	401.94
314.624	352.94
314.853	361.94
315.083	358.94
315.312	338.94
315.542	339.94
315.771	338.94
316.001	317.94
316.23	338.94
316.46	355.94
316.689	349.94
316.919	342.94
317.148	357.94
317.377	360.94
317.607	359.94
317.836	346.94
318.065	337.94
318.295	357.94
318.524	339.94
318.753	338.94
318.983	330.94
319.212	347.94
319.441	355.94
319.67	367.94
319.9	353.94
320.129	330.94
320.358	362.94
320.587	358.94
320.816	360.94
321.046	367.94
321.275	376.94
321.504	368.94
321.733	369.94
321.962	397.94
322.191	409.94
322.42	407.94
322.649	438.94
322.878	433.94
323.108	462.94
323.337	480.94
323.566	493.94
323.795	530.94
324.024	593.94
324.253	707.94
324.482	1022.94
324.71	1515.94
324.939	2213.94
325.168	1948.94
325.397	1058.94
325.626	723.94
325.855	586.94
326.084	488.94
326.313	470.94
326.542	534.94
326.77	556.94
326.999	653.94
327.228	899.94
327.457	1349.94
327.686	1701.94
327.914	1171.94
328.143	744.94
328.372	655.94
328.6	608.94
328.829	582.94
329.058	585.94
329.287	611.94
329.515	552.94
329.744	525.94
329.972	510.94
330.201	543.94
330.43	569.94
330.658	610.94
330.887	663.94
331.115	621.94
331.344	499.94
331.572	484.94
331.801	473.94
332.03	469.94
332.258	443.94
332.486	411.94
332.715	401.94
332.943	421.94
333.172	413.94
333.4	424.94
333.629	392.94
333.857	415.94
334.085	439.94
334.314	453.94
334.542	496.94
334.771	501.94
334.999	468.94
335.227	421.94
335.455	417.94
335.684	411.94
335.912	409.94
336.14	396.94
336.369	411.94
336.597	417.94
336.825	404.94
337.053	388.94
337.281	386.94
337.51	391.94
337.738	376.94
337.966	379.94
338.194	389.94
338.422	386.94
338.65	402.94
338.878	385.94
339.106	397.94
339.334	402.94
339.562	362.94
339.79	376.94
340.018	389.94
340.246	377.94
340.474	364.94
340.702	385.94
340.93	380.94
341.158	345.94
341.386	398.94
341.614	395.94
341.842	401.94
342.07	370.94
342.298	373.94
342.526	362.94
342.754	367.94
342.981	358.94
343.209	354.94
343.437	378.94
343.665	367.94
343.893	376.94
344.12	392.94
344.348	357.94
344.576	363.94
344.804	374.94
345.031	407.94
345.259	414.94
345.487	400.94
345.714	398.94
345.942	415.94
346.17	376.94
346.397	365.94
346.625	384.94
346.853	391.94
347.08	359.94
347.308	380.94
347.535	397.94
347.763	419.94
347.99	385.94
348.218	382.94
348.445	407.94
348.673	401.94
348.9	381.94
349.128	363.94
349.355	361.94
349.583	361.94
349.81	340.94
350.037	347.94
350.265	369.94
350.492	373.94
350.72	364.94
350.947	371.94
351.174	379.94
351.402	387.94
351.629	393.94
351.856	387.94
352.083	372.94
352.311	412.94
352.538	388.94
352.765	409.94
352.992	399.94
353.22	392.94
353.447	377.94
353.674	360.94
353.901	347.94
354.128	370.94
354.355	351.94
354.583	352.94
354.81	348.94
355.037	355.94
355.264	348.94
355.491	349.94
355.718	335.94
355.945	334.94
356.172	351.94
356.399	370.94
356.626	328.94
356.853	348.94
357.08	339.94
357.307	342.94
357.534	340.94
357.761	370.94
357.988	347.94
358.215	332.94
358.441	328.94
358.668	331.94
358.895	337.94
359.122	345.94
359.349	379.94
359.576	399.94
359.802	410.94
360.029	426.94
360.256	465.94
360.483	426.94
360.709	386.94
360.936	385.94
361.163	379.94
361.39	383.94
361.616	395.94
361.843	370.94
362.07	385.94
362.296	383.94
362.523	356.94
362.749	372.94
362.976	353.94
363.203	355.94
363.429	360.94
363.656	356.94
363.882	355.94
364.109	345.94
364.335	350.94
364.562	375.94
364.788	359.94
365.015	356.94
365.241	352.94
365.468	354.94
365.694	379.94
365.92	354.94
366.147	361.94
366.373	363.94
366.599	346.94
366.826	352.94
367.052	357.94
367.278	335.94
367.505	353.94
367.731	333.94
367.957	370.94
368.184	363.94
368.41	365.94
368.636	377.94
368.862	367.94
369.089	348.94
369.315	367.94
369.541	342.94
369.767	340.94
369.993	348.94
370.219	346.94
370.445	341.94
370.672	346.94
370.898	363.94
371.124	337.94
371.35	339.94
371.576	351.94
371.802	334.94
372.028	351.94
372.254	340.94
372.48	339.94
372.706	328.94
372.932	354.94
373.158	358.94
373.384	336.94
373.61	357.94
373.835	338.94
374.061	341.94
374.287	356.94
374.513	348.94
374.739	352.94
374.965	356.94
375.191	351.94
375.416	353.94
375.642	351.94
375.868	364.94
376.094	361.94
376.319	343.94
376.545	316.94
376.771	349.94
376.997	328.94
377.222	334.94
377.448	351.94
377.674	328.94
377.899	338.94
378.125	330.94
378.35	336.94
378.576	337.94
378.802	342.94
379.027	338.94
379.253	342.94
379.478	347.94
379.704	336.94
379.929	344.94
380.155	339.94
380.38	338.94
380.606	348.94
380.831	349.94
381.057	339.94
381.282	356.94
381.507	359.94
381.733	343.94
381.958	347.94
382.184	352.94
382.409	325.94
382.634	348.94
382.86	357.94
383.085	347.94
383.31	337.94
383.535	344.94
383.761	343.94
383.986	321.94
384.211	341.94
384.436	356.94
384.662	342.94
384.887	350.94
385.112	337.94
385.337	344.94
385.562	373.94
385.787	372.94
386.013	379.94
386.238	378.94
386.463	369.94
386.688	358.94
386.913	343.94
387.138	349.94
387.363	359.94
387.588	371.94
387.813	348.94
388.038	379.94
388.263	347.94
388.488	370.94
388.713	347.94
388.938	369.94
389.163	353.94
389.387	373.94
389.612	360.94
389.837	348.94
390.062	352.94
390.287	349.94
390.512	371.94
390.736	359.94
390.961	385.94
391.186	358.94
391.411	359.94
391.636	348.94
391.86	351.94
392.085	349.94
392.31	348.94
392.534	360.94
392.759	360.94
392.984	374.94
393.208	391.94
393.433	378.94
393.658	359.94
393.882	351.94
394.107	348.94
394.331	363.94
394.556	363.94
394.78	367.94
395.005	356.94
395.229	360.94
395.454	374.94
395.678	367.94
395.903	395.94
396.127	417.94
396.352	398.94
396.576	383.94
396.801	360.94
397.025	379.94
397.249	378.94
397.474	393.94
397.698	387.94
397.922	389.94
398.147	431.94
398.371	434.94
398.595	396.94
398.82	416.94
399.044	395.94
399.268	425.94
399.492	427.94
399.717	440.94
399.941	451.94
400.165	499.94
400.389	485.94
400.613	460.94
400.837	435.94
401.062	435.94
401.286	420.94
401.51	394.94
401.734	429.94
401.958	397.94
402.182	397.94
402.406	420.94
402.63	422.94
402.854	412.94
403.078	424.94
403.302	426.94
403.526	423.94
403.75	425.94
403.974	434.94
404.198	422.94
404.422	440.94
404.645	433.94
404.869	448.94
405.093	453.94
405.317	522.94
405.541	532.94
405.765	483.94
405.988	473.94
406.212	479.94
406.436	485.94
406.66	509.94
406.883	488.94
407.107	491.94
407.331	541.94
407.555	599.94
407.778	582.94
408.002	534.94
408.226	471.94
408.449	463.94
408.673	488.94
408.896	510.94
409.12	513.94
409.344	527.94
409.567	483.94
409.791	459.94
410.014	434.94
410.238	406.94
410.461	442.94
410.685	445.94
410.908	442.94
411.132	467.94
411.355	490.94
411.578	493.94
411.802	447.94
412.025	439.94
412.249	448.94
412.472	454.94
412.695	496.94
412.919	479.94
413.142	459.94
413.365	434.94
413.589	426.94
413.812	433.94
414.035	408.94
414.258	419.94
414.482	397.94
414.705	417.94
414.928	400.94
415.151	422.94
415.374	399.94
415.597	391.94
415.821	397.94
416.044	419.94
416.267	410.94
416.49	396.94
416.713	429.94
416.936	433.94
417.159	411.94
417.382	402.94
417.605	412.94
417.828	418.94
418.051	443.94
418.274	425.94
418.497	411.94
418.72	402.94
418.943	413.94
419.166	408.94
419.389	448.94
419.611	433.94
419.834	440.94
420.057	447.94
420.28	437.94
420.503	428.94
420.726	428.94
420.948	451.94
421.171	495.94
421.394	526.94
421.617	460.94
421.839	445.94
422.062	458.94
422.285	463.94
422.507	497.94
422.73	589.94
422.953	551.94
423.175	495.94
423.398	484.94
423.621	469.94
423.843	469.94
424.066	483.94
424.288	483.94
424.511	501.94
424.733	560.94
424.956	636.94
425.178	605.94
425.401	582.94
425.623	607.94
425.846	551.94
426.068	508.94
426.291	481.94
426.513	480.94
426.735	499.94
426.958	543.94
427.18	616.94
427.402	711.94
427.625	793.94
427.847	704.94
428.069	633.94
428.292	583.94
428.514	523.94
428.736	490.94
428.958	470.94
429.181	468.94
429.403	438.94
429.625	460.94
429.847	524.94
430.069	537.94
430.292	545.94
430.514	482.94
430.736	440.94
430.958	415.94
431.18	440.94
431.402	437.94
431.624	423.94
431.846	452.94
432.068	407.94
432.29	424.94
432.512	414.94
432.734	428.94
432.956	438.94
433.178	444.94
433.4	433.94
433.622	420.94
433.844	417.94
434.066	409.94
434.287	412.94
434.509	416.94
434.731	441.94
434.953	424.94
435.175	452.94
435.397	488.94
435.618	485.94
435.84	531.94
436.062	619.94
436.284	666.94
436.505	577.94
436.727	504.94
436.949	475.94
437.17	443.94
437.392	476.94
437.614	465.94
437.835	509.94
438.057	603.94
438.278	700.94
438.5	688.94
438.721	711.94
438.943	698.94
439.165	581.94
439.386	523.94
439.608	505.94
439.829	523.94
440.05	540.94
440.272	577.94
440.493	568.94
440.715	497.94
440.936	472.94
441.158	475.94
441.379	475.94
441.6	461.94
441.822	497.94
442.043	528.94
442.264	584.94
442.486	646.94
442.707	539.94
442.928	501.94
443.149	523.94
443.371	533.94
443.592	565.94
443.813	661.94
444.034	696.94
444.255	593.94
444.476	524.94
444.698	503.94
444.919	499.94
445.14	623.94
445.361	563.94
445.582	531.94
445.803	593.94
446.024	711.94
446.245	695.94
446.466	651.94
446.687	544.94
446.908	509.94
447.129	467.94
447.35	456.94
447.571	455.94
447.792	464.94
448.013	458.94
448.234	475.94
448.455	539.94
448.675	620.94
448.896	740.94
449.117	637.94
449.338	604.94
449.559	663.94
449.779	745.94
450	609.94
450.221	523.94
450.442	499.94
450.662	476.94
450.883	487.94
451.104	487.94
451.324	487.94
451.545	446.94
451.766	433.94
451.986	412.94
452.207	403.94
452.428	399.94
452.648	425.94
452.869	412.94
453.089	431.94
453.31	439.94
453.53	418.94
453.751	426.94
453.971	419.94
454.192	442.94
454.412	431.94
454.633	417.94
454.853	425.94
455.073	409.94
455.294	432.94
455.514	511.94
455.734	480.94
455.955	403.94
456.175	386.94
456.395	368.94
456.616	380.94
456.836	378.94
457.056	379.94
457.276	376.94
457.497	379.94
457.717	383.94
457.937	386.94
458.157	409.94
458.377	403.94
458.598	436.94
458.818	484.94
459.038	569.94
459.258	585.94
459.478	488.94
459.698	448.94
459.918	408.94
460.138	427.94
460.358	417.94
460.578	405.94
460.798	396.94
461.018	408.94
461.238	396.94
461.458	427.94
461.678	415.94
461.898	425.94
462.118	401.94
462.338	396.94
462.558	402.94
462.777	418.94
462.997	409.94
463.217	440.94
463.437	432.94
463.657	427.94
463.876	431.94
464.096	436.94
464.316	434.94
464.536	450.94
464.755	439.94
464.975	439.94
465.195	504.94
465.414	602.94
465.634	489.94
465.854	473.94
466.073	433.94
466.293	418.94
466.512	416.94
466.732	408.94
466.951	385.94
467.171	405.94
467.391	410.94
467.61	436.94
467.829	446.94
468.049	413.94
468.268	437.94
468.488	425.94
468.707	397.94
468.927	393.94
469.146	402.94
469.365	408.94
469.585	382.94
469.804	405.94
470.023	413.94
470.243	419.94
470.462	436.94
470.681	452.94
470.901	428.94
471.12	419.94
471.339	413.94
471.558	428.94
471.777	438.94
471.997	427.94
472.216	417.94
472.435	474.94
472.654	442.94
472.873	419.94
473.092	419.94
473.311	428.94
473.53	409.94
473.749	432.94
473.968	471.94
474.187	573.94
474.406	602.94
474.625	477.94
474.844	416.94
475.063	403.94
475.282	423.94
475.501	415.94
475.72	412.94
475.939	411.94
476.158	436.94
476.377	446.94
476.596	425.94
476.814	435.94
477.033	454.94
477.252	442.94
477.471	422.94
477.69	439.94
477.908	435.94
478.127	467.94
478.346	449.94
478.564	460.94
478.783	471.94
479.002	447.94
479.22	481.94
479.439	496.94
479.658	489.94
479.876	484.94
480.095	502.94
480.313	535.94
480.532	521.94
480.751	532.94
480.969	523.94
481.188	605.94
481.406	639.94
481.624	553.94
481.843	515.94
482.061	496.94
482.28	512.94
482.498	482.94
482.717	479.94
482.935	509.94
483.153	501.94
483.372	492.94
483.59	511.94
483.808	501.94
484.027	480.94
484.245	516.94
484.463	511.94
484.681	527.94
484.9	505.94
485.118	510.94
485.336	501.94
485.554	536.94
485.772	524.94
485.99	519.94
486.209	517.94
486.427	517.94
486.645	539.94
486.863	568.94
487.081	555.94
487.299	550.94
487.517	537.94
487.735	512.94
487.953	535.94
488.171	536.94
488.389	525.94
488.607	555.94
488.825	517.94
489.043	535.94
489.261	563.94
489.479	540.94
489.696	544.94
489.914	552.94
490.132	564.94
490.35	571.94
490.568	573.94
490.786	578.94
491.003	579.94
491.221	591.94
491.439	587.94
491.657	608.94
491.874	614.94
492.092	629.94
492.31	640.94
492.527	621.94
492.745	641.94
492.963	627.94
493.18	639.94
493.398	635.94
493.615	628.94
493.833	629.94
494.05	670.94
494.268	658.94
494.485	647.94
494.703	664.94
494.92	640.94
495.138	652.94
495.355	657.94
495.573	650.94
495.79	656.94
496.008	657.94
496.225	639.94
496.442	631.94
496.66	641.94
496.877	641.94
497.094	664.94
497.312	645.94
497.529	641.94
497.746	669.94
497.963	650.94
498.181	677.94
498.398	661.94
498.615	690.94
498.832	698.94
499.049	688.94
499.267	669.94
499.484	708.94
499.701	728.94
499.918	729.94
500.135	735.94
500.352	753.94
500.569	757.94
500.786	774.94
501.003	764.94
501.22	748.94
501.437	768.94
501.654	750.94
501.871	762.94
502.088	754.94
