Data from 1980.PennyLincolnUp.Lamp.En5.5.200Scan.071819.P1_HRD10591_16-38-54-958.txt Node
Date: Thu Jul 18 16:38:54 EDT 2019
User: cochatt
Spectrometer: HR+D1059
Trigger mode: 1
Integration Time (sec): 1.000000E-1
Scans to average: 1
Electric dark correction enabled: true
Nonlinearity correction enabled: false
Boxcar width: 0
XAxis mode: Wavelengths
Number of Pixels in Spectrum: 2048
>>>>>Begin Spectral Data<<<<<
223.165	-12.31
223.4	-12.31
223.635	-12.31
223.869	-30.31
224.104	-13.31
224.338	-15.31
224.573	-9.31
224.808	-8.31
225.042	-5.31
225.277	-21.31
225.511	-0.31
225.746	11.69
225.98	3.69
226.215	14.69
226.449	21.69
226.683	4.69
226.918	22.69
227.152	36.69
227.387	18.69
227.621	31.69
227.856	42.69
228.09	53.69
228.324	53.69
228.559	58.69
228.793	73.69
229.027	102.69
229.262	99.69
229.496	125.69
229.73	147.69
229.964	161.69
230.199	136.69
230.433	126.69
230.667	97.69
230.901	121.69
231.136	115.69
231.37	122.69
231.604	126.69
231.838	119.69
232.072	121.69
232.306	120.69
232.541	117.69
232.775	134.69
233.009	126.69
233.243	115.69
233.477	108.69
233.711	117.69
233.945	123.69
234.179	113.69
234.413	117.69
234.647	103.69
234.881	121.69
235.115	122.69
235.349	118.69
235.583	135.69
235.817	119.69
236.051	118.69
236.285	130.69
236.519	130.69
236.753	136.69
236.987	155.69
237.221	200.69
237.455	247.69
237.689	215.69
237.922	146.69
238.156	143.69
238.39	151.69
238.624	119.69
238.858	124.69
239.091	124.69
239.325	132.69
239.559	117.69
239.793	133.69
240.027	138.69
240.26	139.69
240.494	167.69
240.728	163.69
240.961	153.69
241.195	148.69
241.429	137.69
241.662	123.69
241.896	144.69
242.13	149.69
242.363	137.69
242.597	152.69
242.83	133.69
243.064	133.69
243.298	146.69
243.531	135.69
243.765	150.69
243.998	135.69
244.232	154.69
244.465	149.69
244.699	157.69
244.932	142.69
245.166	155.69
245.399	137.69
245.633	153.69
245.866	155.69
246.099	140.69
246.333	156.69
246.566	151.69
246.8	157.69
247.033	155.69
247.266	174.69
247.5	170.69
247.733	185.69
247.966	179.69
248.2	171.69
248.433	181.69
248.666	168.69
248.899	201.69
249.133	221.69
249.366	208.69
249.599	198.69
249.832	190.69
250.066	195.69
250.299	183.69
250.532	195.69
250.765	217.69
250.998	231.69
251.231	247.69
251.465	238.69
251.698	233.69
251.931	220.69
252.164	181.69
252.397	211.69
252.63	220.69
252.863	225.69
253.096	241.69
253.329	243.69
253.562	235.69
253.795	237.69
254.028	222.69
254.261	229.69
254.494	244.69
254.727	263.69
254.96	295.69
255.193	298.69
255.426	263.69
255.659	242.69
255.892	252.69
256.124	259.69
256.357	235.69
256.59	221.69
256.823	223.69
257.056	230.69
257.289	236.69
257.521	213.69
257.754	234.69
257.987	218.69
258.22	218.69
258.452	219.69
258.685	226.69
258.918	221.69
259.151	228.69
259.383	220.69
259.616	232.69
259.849	241.69
260.081	263.69
260.314	270.69
260.547	284.69
260.779	259.69
261.012	250.69
261.244	234.69
261.477	213.69
261.71	218.69
261.942	224.69
262.175	244.69
262.407	259.69
262.64	219.69
262.872	226.69
263.105	214.69
263.337	208.69
263.57	212.69
263.802	230.69
264.035	203.69
264.267	205.69
264.499	213.69
264.732	220.69
264.964	224.69
265.197	222.69
265.429	197.69
265.661	221.69
265.894	211.69
266.126	208.69
266.358	208.69
266.591	208.69
266.823	220.69
267.055	213.69
267.287	231.69
267.52	245.69
267.752	234.69
267.984	236.69
268.216	247.69
268.448	228.69
268.681	235.69
268.913	253.69
269.145	262.69
269.377	287.69
269.609	286.69
269.841	263.69
270.073	285.69
270.306	297.69
270.538	330.69
270.77	331.69
271.002	298.69
271.234	318.69
271.466	317.69
271.698	309.69
271.93	336.69
272.162	341.69
272.394	343.69
272.626	316.69
272.858	309.69
273.09	301.69
273.322	284.69
273.553	271.69
273.785	269.69
274.017	277.69
274.249	285.69
274.481	255.69
274.713	280.69
274.945	258.69
275.176	267.69
275.408	276.69
275.64	266.69
275.872	264.69
276.104	270.69
276.335	271.69
276.567	275.69
276.799	294.69
277.031	320.69
277.262	323.69
277.494	322.69
277.726	322.69
277.957	278.69
278.189	295.69
278.421	273.69
278.652	267.69
278.884	261.69
279.115	279.69
279.347	257.69
279.579	269.69
279.81	242.69
280.042	241.69
280.273	263.69
280.505	240.69
280.736	248.69
280.968	267.69
281.199	263.69
281.431	251.69
281.662	270.69
281.894	271.69
282.125	252.69
282.356	299.69
282.588	308.69
282.819	292.69
283.051	275.69
283.282	264.69
283.513	277.69
283.745	286.69
283.976	284.69
284.207	245.69
284.439	262.69
284.67	271.69
284.901	258.69
285.132	275.69
285.364	268.69
285.595	274.69
285.826	259.69
286.057	264.69
286.288	263.69
286.52	260.69
286.751	270.69
286.982	279.69
287.213	270.69
287.444	261.69
287.675	273.69
287.906	275.69
288.138	303.69
288.369	322.69
288.6	305.69
288.831	300.69
289.062	281.69
289.293	285.69
289.524	288.69
289.755	267.69
289.986	281.69
290.217	266.69
290.448	271.69
290.679	278.69
290.91	278.69
291.141	291.69
291.371	274.69
291.602	265.69
291.833	277.69
292.064	275.69
292.295	305.69
292.526	280.69
292.757	287.69
292.987	273.69
293.218	272.69
293.449	274.69
293.68	293.69
293.91	293.69
294.141	282.69
294.372	269.69
294.603	266.69
294.833	281.69
295.064	283.69
295.295	280.69
295.525	276.69
295.756	277.69
295.987	278.69
296.217	313.69
296.448	327.69
296.679	295.69
296.909	274.69
297.14	287.69
297.37	294.69
297.601	276.69
297.831	282.69
298.062	262.69
298.292	282.69
298.523	277.69
298.753	298.69
298.984	303.69
299.214	287.69
299.445	297.69
299.675	307.69
299.905	294.69
300.136	292.69
300.366	290.69
300.597	295.69
300.827	294.69
301.057	290.69
301.288	309.69
301.518	322.69
301.748	318.69
301.979	292.69
302.209	315.69
302.439	299.69
302.669	306.69
302.9	319.69
303.13	316.69
303.36	296.69
303.59	317.69
303.82	329.69
304.051	323.69
304.281	325.69
304.511	307.69
304.741	320.69
304.971	305.69
305.201	295.69
305.431	319.69
305.661	310.69
305.891	296.69
306.121	331.69
306.352	340.69
306.582	345.69
306.812	312.69
307.042	293.69
307.272	295.69
307.502	315.69
307.731	333.69
307.961	324.69
308.191	322.69
308.421	330.69
308.651	315.69
308.881	334.69
309.111	314.69
309.341	346.69
309.571	336.69
309.8	365.69
310.03	355.69
310.26	375.69
310.49	362.69
310.72	373.69
310.949	407.69
311.179	422.69
311.409	397.69
311.639	378.69
311.868	363.69
312.098	370.69
312.328	386.69
312.557	398.69
312.787	441.69
313.017	418.69
313.246	369.69
313.476	373.69
313.706	375.69
313.935	380.69
314.165	391.69
314.394	409.69
314.624	399.69
314.853	377.69
315.083	373.69
315.312	372.69
315.542	369.69
315.771	358.69
316.001	358.69
316.23	353.69
316.46	355.69
316.689	379.69
316.919	391.69
317.148	394.69
317.377	416.69
317.607	374.69
317.836	348.69
318.065	369.69
318.295	369.69
318.524	372.69
318.753	370.69
318.983	380.69
319.212	353.69
319.441	357.69
319.67	390.69
319.9	364.69
320.129	359.69
320.358	382.69
320.587	364.69
320.816	381.69
321.046	399.69
321.275	408.69
321.504	387.69
321.733	405.69
321.962	429.69
322.191	422.69
322.42	447.69
322.649	454.69
322.878	467.69
323.108	486.69
323.337	513.69
323.566	525.69
323.795	568.69
324.024	639.69
324.253	794.69
324.482	1134.69
324.71	1775.69
324.939	2549.69
325.168	2215.69
325.397	1159.69
325.626	782.69
325.855	623.69
326.084	555.69
326.313	534.69
326.542	553.69
326.77	581.69
326.999	694.69
327.228	1011.69
327.457	1528.69
327.686	1892.69
327.914	1317.69
328.143	843.69
328.372	721.69
328.6	666.69
328.829	620.69
329.058	627.69
329.287	675.69
329.515	604.69
329.744	549.69
329.972	566.69
330.201	567.69
330.43	612.69
330.658	659.69
330.887	699.69
331.115	663.69
331.344	585.69
331.572	521.69
331.801	490.69
332.03	478.69
332.258	490.69
332.486	444.69
332.715	451.69
332.943	427.69
333.172	447.69
333.4	452.69
333.629	453.69
333.857	473.69
334.085	486.69
334.314	505.69
334.542	527.69
334.771	550.69
334.999	509.69
335.227	459.69
335.455	453.69
335.684	416.69
335.912	430.69
336.14	410.69
336.369	425.69
336.597	434.69
336.825	421.69
337.053	421.69
337.281	407.69
337.51	432.69
337.738	395.69
337.966	411.69
338.194	426.69
338.422	434.69
338.65	429.69
338.878	404.69
339.106	417.69
339.334	399.69
339.562	400.69
339.79	413.69
340.018	397.69
340.246	413.69
340.474	427.69
340.702	396.69
340.93	409.69
341.158	396.69
341.386	406.69
341.614	395.69
341.842	414.69
342.07	415.69
342.298	404.69
342.526	399.69
342.754	415.69
342.981	420.69
343.209	369.69
343.437	397.69
343.665	416.69
343.893	372.69
344.12	407.69
344.348	388.69
344.576	389.69
344.804	414.69
345.031	423.69
345.259	439.69
345.487	437.69
345.714	419.69
345.942	411.69
346.17	412.69
346.397	374.69
346.625	402.69
346.853	395.69
347.08	406.69
347.308	411.69
347.535	417.69
347.763	441.69
347.99	412.69
348.218	429.69
348.445	396.69
348.673	419.69
348.9	409.69
349.128	405.69
349.355	389.69
349.583	393.69
349.81	373.69
350.037	370.69
350.265	373.69
350.492	376.69
350.72	402.69
350.947	402.69
351.174	394.69
351.402	410.69
351.629	413.69
351.856	409.69
352.083	421.69
352.311	445.69
352.538	435.69
352.765	426.69
352.992	417.69
353.22	420.69
353.447	400.69
353.674	388.69
353.901	374.69
354.128	391.69
354.355	366.69
354.583	369.69
354.81	356.69
355.037	349.69
355.264	374.69
355.491	353.69
355.718	374.69
355.945	357.69
356.172	363.69
356.399	382.69
356.626	400.69
356.853	353.69
357.08	353.69
357.307	371.69
357.534	380.69
357.761	360.69
357.988	367.69
358.215	382.69
358.441	359.69
358.668	365.69
358.895	362.69
359.122	363.69
359.349	386.69
359.576	412.69
359.802	437.69
360.029	453.69
360.256	472.69
360.483	436.69
360.709	418.69
360.936	423.69
361.163	419.69
361.39	422.69
361.616	421.69
361.843	410.69
362.07	405.69
362.296	414.69
362.523	381.69
362.749	410.69
362.976	377.69
363.203	379.69
363.429	369.69
363.656	387.69
363.882	377.69
364.109	375.69
364.335	374.69
364.562	383.69
364.788	397.69
365.015	368.69
365.241	378.69
365.468	381.69
365.694	395.69
365.92	407.69
366.147	361.69
366.373	383.69
366.599	385.69
366.826	373.69
367.052	368.69
367.278	374.69
367.505	375.69
367.731	385.69
367.957	363.69
368.184	383.69
368.41	376.69
368.636	389.69
368.862	379.69
369.089	361.69
369.315	381.69
369.541	376.69
369.767	361.69
369.993	389.69
370.219	379.69
370.445	355.69
370.672	349.69
370.898	378.69
371.124	353.69
371.35	357.69
371.576	354.69
371.802	345.69
372.028	358.69
372.254	340.69
372.48	351.69
372.706	350.69
372.932	364.69
373.158	346.69
373.384	375.69
373.61	358.69
373.835	375.69
374.061	352.69
374.287	368.69
374.513	372.69
374.739	364.69
374.965	355.69
375.191	356.69
375.416	377.69
375.642	363.69
375.868	377.69
376.094	366.69
376.319	379.69
376.545	369.69
376.771	365.69
376.997	358.69
377.222	358.69
377.448	344.69
377.674	362.69
377.899	358.69
378.125	362.69
378.35	350.69
378.576	374.69
378.802	350.69
379.027	366.69
379.253	364.69
379.478	359.69
379.704	352.69
379.929	364.69
380.155	346.69
380.38	368.69
380.606	379.69
380.831	375.69
381.057	360.69
381.282	369.69
381.507	366.69
381.733	364.69
381.958	383.69
382.184	382.69
382.409	379.69
382.634	378.69
382.86	375.69
383.085	367.69
383.31	369.69
383.535	386.69
383.761	369.69
383.986	358.69
384.211	391.69
384.436	363.69
384.662	377.69
384.887	381.69
385.112	356.69
385.337	373.69
385.562	390.69
385.787	389.69
386.013	388.69
386.238	409.69
386.463	381.69
386.688	377.69
386.913	380.69
387.138	384.69
387.363	379.69
387.588	391.69
387.813	380.69
388.038	376.69
388.263	371.69
388.488	402.69
388.713	392.69
388.938	375.69
389.163	384.69
389.387	380.69
389.612	377.69
389.837	400.69
390.062	391.69
390.287	375.69
390.512	377.69
390.736	373.69
390.961	382.69
391.186	387.69
391.411	381.69
391.636	393.69
391.86	397.69
392.085	378.69
392.31	381.69
392.534	374.69
392.759	396.69
392.984	381.69
393.208	386.69
393.433	387.69
393.658	388.69
393.882	374.69
394.107	376.69
394.331	371.69
394.556	382.69
394.78	390.69
395.005	384.69
395.229	398.69
395.454	412.69
395.678	403.69
395.903	409.69
396.127	424.69
396.352	423.69
396.576	399.69
396.801	408.69
397.025	390.69
397.249	397.69
397.474	406.69
397.698	416.69
397.922	421.69
398.147	422.69
398.371	438.69
398.595	397.69
398.82	407.69
399.044	419.69
399.268	439.69
399.492	469.69
399.717	468.69
399.941	509.69
400.165	525.69
400.389	551.69
400.613	501.69
400.837	456.69
401.062	449.69
401.286	452.69
401.51	431.69
401.734	435.69
401.958	441.69
402.182	434.69
402.406	464.69
402.63	468.69
402.854	441.69
403.078	440.69
403.302	470.69
403.526	463.69
403.75	468.69
403.974	460.69
404.198	451.69
404.422	445.69
404.645	471.69
404.869	474.69
405.093	508.69
405.317	525.69
405.541	585.69
405.765	526.69
405.988	500.69
406.212	513.69
406.436	534.69
406.66	547.69
406.883	523.69
407.107	548.69
407.331	588.69
407.555	628.69
407.778	651.69
408.002	578.69
408.226	518.69
408.449	514.69
408.673	523.69
408.896	521.69
409.12	586.69
409.344	547.69
409.567	484.69
409.791	494.69
410.014	475.69
410.238	497.69
410.461	458.69
410.685	471.69
410.908	489.69
411.132	522.69
411.355	535.69
411.578	518.69
411.802	472.69
412.025	461.69
412.249	457.69
412.472	508.69
412.695	537.69
412.919	552.69
413.142	488.69
413.365	458.69
413.589	438.69
413.812	452.69
414.035	430.69
414.258	429.69
414.482	439.69
414.705	419.69
414.928	456.69
415.151	429.69
415.374	423.69
415.597	407.69
415.821	418.69
416.044	420.69
416.267	443.69
416.49	417.69
416.713	427.69
416.936	445.69
417.159	419.69
417.382	433.69
417.605	444.69
417.828	449.69
418.051	488.69
418.274	460.69
418.497	446.69
418.72	442.69
418.943	446.69
419.166	437.69
419.389	453.69
419.611	466.69
419.834	462.69
420.057	462.69
420.28	476.69
420.503	473.69
420.726	472.69
420.948	467.69
421.171	511.69
421.394	572.69
421.617	474.69
421.839	479.69
422.062	475.69
422.285	484.69
422.507	535.69
422.73	622.69
422.953	581.69
423.175	527.69
423.398	503.69
423.621	492.69
423.843	508.69
424.066	510.69
424.288	506.69
424.511	545.69
424.733	572.69
424.956	680.69
425.178	659.69
425.401	649.69
425.623	645.69
425.846	569.69
426.068	526.69
426.291	507.69
426.513	530.69
426.735	533.69
426.958	575.69
427.18	638.69
427.402	774.69
427.625	855.69
427.847	779.69
428.069	677.69
428.292	601.69
428.514	520.69
428.736	533.69
428.958	512.69
429.181	489.69
429.403	483.69
429.625	473.69
429.847	534.69
430.069	594.69
430.292	602.69
430.514	507.69
430.736	489.69
430.958	451.69
431.18	479.69
431.402	449.69
431.624	445.69
431.846	422.69
432.068	429.69
432.29	433.69
432.512	453.69
432.734	456.69
432.956	458.69
433.178	460.69
433.4	471.69
433.622	476.69
433.844	434.69
434.066	449.69
434.287	420.69
434.509	440.69
434.731	455.69
434.953	474.69
435.175	488.69
435.397	507.69
435.618	516.69
435.84	561.69
436.062	666.69
436.284	731.69
436.505	606.69
436.727	550.69
436.949	510.69
437.17	480.69
437.392	470.69
437.614	503.69
437.835	532.69
438.057	632.69
438.278	756.69
438.5	750.69
438.721	797.69
438.943	758.69
439.165	614.69
439.386	552.69
439.608	541.69
439.829	535.69
440.05	561.69
440.272	611.69
440.493	590.69
440.715	543.69
440.936	518.69
441.158	477.69
441.379	498.69
441.6	493.69
441.822	534.69
442.043	558.69
442.264	641.69
442.486	678.69
442.707	616.69
442.928	542.69
443.149	559.69
443.371	568.69
443.592	616.69
443.813	700.69
444.034	737.69
444.255	625.69
444.476	553.69
444.698	520.69
444.919	510.69
445.14	598.69
445.361	563.69
445.582	568.69
445.803	654.69
446.024	751.69
446.245	754.69
446.466	677.69
446.687	609.69
446.908	547.69
447.129	499.69
447.35	501.69
447.571	486.69
447.792	497.69
448.013	515.69
448.234	527.69
448.455	580.69
448.675	661.69
448.896	782.69
449.117	677.69
449.338	627.69
449.559	754.69
449.779	827.69
450	672.69
450.221	560.69
450.442	503.69
450.662	485.69
450.883	515.69
451.104	521.69
451.324	509.69
451.545	474.69
451.766	469.69
451.986	435.69
452.207	452.69
452.428	453.69
452.648	427.69
452.869	445.69
453.089	453.69
453.31	468.69
453.53	456.69
453.751	418.69
453.971	450.69
454.192	484.69
454.412	463.69
454.633	450.69
454.853	433.69
455.073	435.69
455.294	463.69
455.514	539.69
455.734	547.69
455.955	436.69
456.175	413.69
456.395	396.69
456.616	411.69
456.836	396.69
457.056	393.69
457.276	405.69
457.497	395.69
457.717	409.69
457.937	406.69
458.157	417.69
458.377	430.69
458.598	441.69
458.818	522.69
459.038	615.69
459.258	629.69
459.478	534.69
459.698	476.69
459.918	460.69
460.138	417.69
460.358	456.69
460.578	440.69
460.798	438.69
461.018	434.69
461.238	428.69
461.458	457.69
461.678	425.69
461.898	415.69
462.118	400.69
462.338	446.69
462.558	425.69
462.777	429.69
462.997	443.69
463.217	450.69
463.437	470.69
463.657	442.69
463.876	451.69
464.096	448.69
464.316	454.69
464.536	461.69
464.755	461.69
464.975	485.69
465.195	537.69
465.414	627.69
465.634	567.69
465.854	503.69
466.073	465.69
466.293	467.69
466.512	426.69
466.732	422.69
466.951	418.69
467.171	429.69
467.391	437.69
467.61	461.69
467.829	474.69
468.049	464.69
468.268	448.69
468.488	434.69
468.707	415.69
468.927	424.69
469.146	409.69
469.365	423.69
469.585	412.69
469.804	413.69
470.023	444.69
470.243	436.69
470.462	452.69
470.681	489.69
470.901	474.69
471.12	455.69
471.339	441.69
471.558	436.69
471.777	447.69
471.997	433.69
472.216	474.69
472.435	506.69
472.654	478.69
472.873	459.69
473.092	448.69
473.311	451.69
473.53	450.69
473.749	483.69
473.968	490.69
474.187	618.69
474.406	647.69
474.625	513.69
474.844	474.69
475.063	471.69
475.282	461.69
475.501	462.69
475.72	460.69
475.939	464.69
476.158	468.69
476.377	458.69
476.596	454.69
476.814	462.69
477.033	470.69
477.252	463.69
477.471	483.69
477.69	474.69
477.908	458.69
478.127	481.69
478.346	478.69
478.564	463.69
478.783	480.69
479.002	503.69
479.22	493.69
479.439	508.69
479.658	537.69
479.876	543.69
480.095	558.69
480.313	574.69
480.532	550.69
480.751	563.69
480.969	576.69
481.188	654.69
481.406	685.69
481.624	591.69
481.843	581.69
482.061	541.69
482.28	547.69
482.498	538.69
482.717	515.69
482.935	540.69
483.153	550.69
483.372	538.69
483.59	507.69
483.808	558.69
484.027	541.69
484.245	538.69
484.463	525.69
484.681	563.69
484.9	552.69
485.118	547.69
485.336	521.69
485.554	521.69
485.772	527.69
485.99	531.69
486.209	555.69
486.427	540.69
486.645	541.69
486.863	594.69
487.081	570.69
487.299	571.69
487.517	585.69
487.735	564.69
487.953	559.69
488.171	555.69
488.389	580.69
488.607	580.69
488.825	566.69
489.043	576.69
489.261	563.69
489.479	586.69
489.696	574.69
489.914	610.69
490.132	605.69
490.35	603.69
490.568	604.69
490.786	622.69
491.003	622.69
491.221	644.69
491.439	626.69
491.657	650.69
491.874	660.69
492.092	658.69
492.31	674.69
492.527	677.69
492.745	665.69
492.963	685.69
493.18	677.69
493.398	693.69
493.615	658.69
493.833	706.69
494.05	687.69
494.268	693.69
494.485	677.69
494.703	683.69
494.92	706.69
495.138	685.69
495.355	675.69
495.573	682.69
495.79	662.69
496.008	673.69
496.225	686.69
496.442	713.69
496.66	687.69
496.877	665.69
497.094	671.69
497.312	678.69
497.529	666.69
497.746	712.69
497.963	719.69
498.181	713.69
498.398	728.69
498.615	759.69
498.832	745.69
499.049	748.69
499.267	737.69
499.484	746.69
499.701	781.69
499.918	777.69
500.135	797.69
500.352	807.69
500.569	844.69
500.786	838.69
501.003	809.69
501.22	828.69
501.437	801.69
501.654	801.69
501.871	838.69
