Data from 1980.PennyLincolnUp.Lamp.En5.5.200Scan.071819.P1_HRD10591_16-37-43-958.txt Node
Date: Thu Jul 18 16:37:43 EDT 2019
User: cochatt
Spectrometer: HR+D1059
Trigger mode: 1
Integration Time (sec): 1.000000E-1
Scans to average: 1
Electric dark correction enabled: true
Nonlinearity correction enabled: false
Boxcar width: 0
XAxis mode: Wavelengths
Number of Pixels in Spectrum: 2048
>>>>>Begin Spectral Data<<<<<
223.165	-10.25
223.4	-10.25
223.635	-10.25
223.869	-10.25
224.104	-11.25
224.338	-23.25
224.573	-11.25
224.808	-12.25
225.042	6.75
225.277	-15.25
225.511	-2.25
225.746	4.75
225.98	-13.25
226.215	9.75
226.449	15.75
226.683	8.75
226.918	27.75
227.152	35.75
227.387	20.75
227.621	24.75
227.856	38.75
228.09	45.75
228.324	54.75
228.559	39.75
228.793	66.75
229.027	94.75
229.262	114.75
229.496	122.75
229.73	132.75
229.964	173.75
230.199	144.75
230.433	126.75
230.667	113.75
230.901	120.75
231.136	135.75
231.37	110.75
231.604	115.75
231.838	111.75
232.072	101.75
232.306	120.75
232.541	115.75
232.775	114.75
233.009	110.75
233.243	133.75
233.477	113.75
233.711	122.75
233.945	103.75
234.179	117.75
234.413	122.75
234.647	119.75
234.881	107.75
235.115	111.75
235.349	122.75
235.583	120.75
235.817	124.75
236.051	133.75
236.285	121.75
236.519	125.75
236.753	125.75
236.987	144.75
237.221	197.75
237.455	243.75
237.689	189.75
237.922	157.75
238.156	145.75
238.39	138.75
238.624	122.75
238.858	113.75
239.091	123.75
239.325	114.75
239.559	125.75
239.793	125.75
240.027	141.75
240.26	144.75
240.494	165.75
240.728	162.75
240.961	177.75
241.195	154.75
241.429	141.75
241.662	146.75
241.896	139.75
242.13	149.75
242.363	132.75
242.597	136.75
242.83	129.75
243.064	149.75
243.298	141.75
243.531	147.75
243.765	143.75
243.998	141.75
244.232	134.75
244.465	149.75
244.699	133.75
244.932	143.75
245.166	151.75
245.399	151.75
245.633	146.75
245.866	144.75
246.099	173.75
246.333	151.75
246.566	153.75
246.8	158.75
247.033	143.75
247.266	156.75
247.5	169.75
247.733	170.75
247.966	172.75
248.2	155.75
248.433	174.75
248.666	167.75
248.899	185.75
249.133	206.75
249.366	215.75
249.599	209.75
249.832	189.75
250.066	182.75
250.299	188.75
250.532	205.75
250.765	203.75
250.998	221.75
251.231	244.75
251.465	237.75
251.698	203.75
251.931	195.75
252.164	204.75
252.397	204.75
252.63	213.75
252.863	213.75
253.096	229.75
253.329	229.75
253.562	247.75
253.795	221.75
254.028	220.75
254.261	222.75
254.494	237.75
254.727	261.75
254.96	290.75
255.193	286.75
255.426	267.75
255.659	251.75
255.892	255.75
256.124	260.75
256.357	255.75
256.59	235.75
256.823	219.75
257.056	215.75
257.289	202.75
257.521	205.75
257.754	209.75
257.987	202.75
258.22	213.75
258.452	198.75
258.685	208.75
258.918	197.75
259.151	226.75
259.383	247.75
259.616	215.75
259.849	238.75
260.081	236.75
260.314	245.75
260.547	278.75
260.779	251.75
261.012	253.75
261.244	241.75
261.477	224.75
261.71	228.75
261.942	238.75
262.175	252.75
262.407	241.75
262.64	217.75
262.872	214.75
263.105	222.75
263.337	203.75
263.57	213.75
263.802	223.75
264.035	206.75
264.267	214.75
264.499	217.75
264.732	196.75
264.964	208.75
265.197	211.75
265.429	205.75
265.661	211.75
265.894	217.75
266.126	218.75
266.358	228.75
266.591	217.75
266.823	210.75
267.055	221.75
267.287	232.75
267.52	215.75
267.752	219.75
267.984	224.75
268.216	224.75
268.448	213.75
268.681	230.75
268.913	258.75
269.145	276.75
269.377	283.75
269.609	278.75
269.841	279.75
270.073	259.75
270.306	300.75
270.538	327.75
270.77	341.75
271.002	311.75
271.234	293.75
271.466	317.75
271.698	329.75
271.93	324.75
272.162	315.75
272.394	341.75
272.626	315.75
272.858	300.75
273.09	289.75
273.322	282.75
273.553	275.75
273.785	270.75
274.017	254.75
274.249	255.75
274.481	266.75
274.713	266.75
274.945	254.75
275.176	253.75
275.408	258.75
275.64	240.75
275.872	260.75
276.104	258.75
276.335	266.75
276.567	251.75
276.799	279.75
277.031	314.75
277.262	348.75
277.494	323.75
277.726	297.75
277.957	277.75
278.189	283.75
278.421	245.75
278.652	255.75
278.884	262.75
279.115	251.75
279.347	265.75
279.579	243.75
279.81	275.75
280.042	264.75
280.273	253.75
280.505	248.75
280.736	268.75
280.968	247.75
281.199	246.75
281.431	253.75
281.662	257.75
281.894	259.75
282.125	263.75
282.356	290.75
282.588	296.75
282.819	307.75
283.051	276.75
283.282	249.75
283.513	262.75
283.745	265.75
283.976	269.75
284.207	272.75
284.439	278.75
284.67	266.75
284.901	276.75
285.132	278.75
285.364	258.75
285.595	261.75
285.826	265.75
286.057	267.75
286.288	258.75
286.52	257.75
286.751	248.75
286.982	254.75
287.213	254.75
287.444	270.75
287.675	271.75
287.906	278.75
288.138	285.75
288.369	279.75
288.6	297.75
288.831	288.75
289.062	280.75
289.293	266.75
289.524	267.75
289.755	275.75
289.986	280.75
290.217	268.75
290.448	259.75
290.679	279.75
290.91	267.75
291.141	273.75
291.371	273.75
291.602	260.75
291.833	243.75
292.064	257.75
292.295	273.75
292.526	270.75
292.757	267.75
292.987	268.75
293.218	272.75
293.449	263.75
293.68	270.75
293.91	271.75
294.141	246.75
294.372	277.75
294.603	281.75
294.833	268.75
295.064	279.75
295.295	290.75
295.525	278.75
295.756	277.75
295.987	269.75
296.217	285.75
296.448	316.75
296.679	291.75
296.909	293.75
297.14	275.75
297.37	280.75
297.601	270.75
297.831	275.75
298.062	284.75
298.292	283.75
298.523	264.75
298.753	264.75
298.984	279.75
299.214	286.75
299.445	278.75
299.675	316.75
299.905	290.75
300.136	281.75
300.366	269.75
300.597	282.75
300.827	309.75
301.057	286.75
301.288	309.75
301.518	318.75
301.748	292.75
301.979	295.75
302.209	299.75
302.439	327.75
302.669	298.75
302.9	315.75
303.13	297.75
303.36	292.75
303.59	323.75
303.82	314.75
304.051	302.75
304.281	297.75
304.511	300.75
304.741	288.75
304.971	296.75
305.201	311.75
305.431	313.75
305.661	300.75
305.891	293.75
306.121	311.75
306.352	305.75
306.582	307.75
306.812	303.75
307.042	309.75
307.272	315.75
307.502	303.75
307.731	323.75
307.961	284.75
308.191	292.75
308.421	291.75
308.651	298.75
308.881	313.75
309.111	318.75
309.341	307.75
309.571	325.75
309.8	350.75
310.03	358.75
310.26	360.75
310.49	361.75
310.72	366.75
310.949	392.75
311.179	405.75
311.409	381.75
311.639	366.75
311.868	350.75
312.098	351.75
312.328	355.75
312.557	399.75
312.787	423.75
313.017	417.75
313.246	380.75
313.476	375.75
313.706	360.75
313.935	373.75
314.165	383.75
314.394	383.75
314.624	391.75
314.853	352.75
315.083	342.75
315.312	355.75
315.542	331.75
315.771	351.75
316.001	342.75
316.23	350.75
316.46	371.75
316.689	355.75
316.919	375.75
317.148	363.75
317.377	374.75
317.607	381.75
317.836	378.75
318.065	370.75
318.295	362.75
318.524	346.75
318.753	338.75
318.983	369.75
319.212	378.75
319.441	366.75
319.67	379.75
319.9	386.75
320.129	364.75
320.358	358.75
320.587	359.75
320.816	369.75
321.046	387.75
321.275	393.75
321.504	399.75
321.733	374.75
321.962	390.75
322.191	410.75
322.42	419.75
322.649	435.75
322.878	438.75
323.108	487.75
323.337	490.75
323.566	532.75
323.795	546.75
324.024	603.75
324.253	759.75
324.482	1069.75
324.71	1667.75
324.939	2397.75
325.168	2097.75
325.397	1115.75
325.626	742.75
325.855	603.75
326.084	539.75
326.313	500.75
326.542	536.75
326.77	585.75
326.999	695.75
327.228	967.75
327.457	1449.75
327.686	1856.75
327.914	1268.75
328.143	793.75
328.372	697.75
328.6	658.75
328.829	607.75
329.058	620.75
329.287	638.75
329.515	575.75
329.744	526.75
329.972	514.75
330.201	546.75
330.43	601.75
330.658	642.75
330.887	635.75
331.115	636.75
331.344	527.75
331.572	511.75
331.801	500.75
332.03	479.75
332.258	463.75
332.486	453.75
332.715	407.75
332.943	427.75
333.172	435.75
333.4	435.75
333.629	422.75
333.857	449.75
334.085	457.75
334.314	478.75
334.542	512.75
334.771	519.75
334.999	489.75
335.227	457.75
335.455	414.75
335.684	399.75
335.912	383.75
336.14	409.75
336.369	420.75
336.597	411.75
336.825	430.75
337.053	413.75
337.281	410.75
337.51	408.75
337.738	410.75
337.966	387.75
338.194	405.75
338.422	401.75
338.65	417.75
338.878	413.75
339.106	403.75
339.334	390.75
339.562	384.75
339.79	403.75
340.018	400.75
340.246	397.75
340.474	424.75
340.702	419.75
340.93	402.75
341.158	402.75
341.386	401.75
341.614	406.75
341.842	392.75
342.07	380.75
342.298	405.75
342.526	383.75
342.754	355.75
342.981	366.75
343.209	377.75
343.437	365.75
343.665	387.75
343.893	397.75
344.12	394.75
344.348	383.75
344.576	388.75
344.804	426.75
345.031	415.75
345.259	425.75
345.487	421.75
345.714	409.75
345.942	379.75
346.17	406.75
346.397	381.75
346.625	402.75
346.853	380.75
347.08	381.75
347.308	399.75
347.535	384.75
347.763	405.75
347.99	419.75
348.218	409.75
348.445	414.75
348.673	428.75
348.9	390.75
349.128	400.75
349.355	382.75
349.583	364.75
349.81	390.75
350.037	367.75
350.265	370.75
350.492	377.75
350.72	371.75
350.947	386.75
351.174	386.75
351.402	398.75
351.629	407.75
351.856	394.75
352.083	424.75
352.311	413.75
352.538	399.75
352.765	410.75
352.992	408.75
353.22	391.75
353.447	389.75
353.674	377.75
353.901	361.75
354.128	393.75
354.355	370.75
354.583	369.75
354.81	357.75
355.037	363.75
355.264	350.75
355.491	359.75
355.718	311.75
355.945	349.75
356.172	349.75
356.399	365.75
356.626	376.75
356.853	371.75
357.08	335.75
357.307	334.75
357.534	347.75
357.761	356.75
357.988	358.75
358.215	347.75
358.441	357.75
358.668	346.75
358.895	343.75
359.122	362.75
359.349	375.75
359.576	401.75
359.802	436.75
360.029	450.75
360.256	460.75
360.483	427.75
360.709	389.75
360.936	388.75
361.163	395.75
361.39	405.75
361.616	417.75
361.843	392.75
362.07	395.75
362.296	403.75
362.523	411.75
362.749	396.75
362.976	394.75
363.203	387.75
363.429	372.75
363.656	361.75
363.882	369.75
364.109	375.75
364.335	353.75
364.562	373.75
364.788	377.75
365.015	381.75
365.241	385.75
365.468	371.75
365.694	372.75
365.92	377.75
366.147	382.75
366.373	387.75
366.599	373.75
366.826	347.75
367.052	359.75
367.278	355.75
367.505	359.75
367.731	360.75
367.957	364.75
368.184	363.75
368.41	366.75
368.636	367.75
368.862	387.75
369.089	383.75
369.315	362.75
369.541	361.75
369.767	382.75
369.993	355.75
370.219	373.75
370.445	350.75
370.672	357.75
370.898	334.75
371.124	342.75
371.35	363.75
371.576	359.75
371.802	355.75
372.028	335.75
372.254	360.75
372.48	360.75
372.706	369.75
372.932	366.75
373.158	347.75
373.384	372.75
373.61	343.75
373.835	377.75
374.061	356.75
374.287	347.75
374.513	354.75
374.739	349.75
374.965	360.75
375.191	349.75
375.416	360.75
375.642	354.75
375.868	344.75
376.094	362.75
376.319	366.75
376.545	349.75
376.771	349.75
376.997	376.75
377.222	363.75
377.448	353.75
377.674	337.75
377.899	347.75
378.125	345.75
378.35	363.75
378.576	354.75
378.802	366.75
379.027	344.75
379.253	350.75
379.478	344.75
379.704	345.75
379.929	379.75
380.155	335.75
380.38	342.75
380.606	361.75
380.831	362.75
381.057	356.75
381.282	349.75
381.507	351.75
381.733	378.75
381.958	361.75
382.184	358.75
382.409	370.75
382.634	359.75
382.86	355.75
383.085	359.75
383.31	363.75
383.535	369.75
383.761	374.75
383.986	369.75
384.211	372.75
384.436	364.75
384.662	379.75
384.887	371.75
385.112	372.75
385.337	395.75
385.562	376.75
385.787	367.75
386.013	413.75
386.238	394.75
386.463	378.75
386.688	378.75
386.913	381.75
387.138	389.75
387.363	389.75
387.588	384.75
387.813	390.75
388.038	385.75
388.263	391.75
388.488	374.75
388.713	367.75
388.938	381.75
389.163	386.75
389.387	381.75
389.612	376.75
389.837	399.75
390.062	381.75
390.287	382.75
390.512	367.75
390.736	382.75
390.961	388.75
391.186	370.75
391.411	391.75
391.636	376.75
391.86	388.75
392.085	372.75
392.31	382.75
392.534	380.75
392.759	376.75
392.984	377.75
393.208	377.75
393.433	391.75
393.658	374.75
393.882	358.75
394.107	387.75
394.331	385.75
394.556	383.75
394.78	384.75
395.005	372.75
395.229	373.75
395.454	387.75
395.678	381.75
395.903	378.75
396.127	407.75
396.352	407.75
396.576	395.75
396.801	388.75
397.025	397.75
397.249	393.75
397.474	398.75
397.698	397.75
397.922	405.75
398.147	431.75
398.371	428.75
398.595	421.75
398.82	420.75
399.044	410.75
399.268	416.75
399.492	444.75
399.717	458.75
399.941	481.75
400.165	517.75
400.389	506.75
400.613	504.75
400.837	429.75
401.062	455.75
401.286	443.75
401.51	421.75
401.734	410.75
401.958	430.75
402.182	437.75
402.406	438.75
402.63	439.75
402.854	437.75
403.078	420.75
403.302	447.75
403.526	449.75
403.75	449.75
403.974	427.75
404.198	446.75
404.422	449.75
404.645	463.75
404.869	460.75
405.093	482.75
405.317	536.75
405.541	534.75
405.765	495.75
405.988	501.75
406.212	493.75
406.436	502.75
406.66	536.75
406.883	484.75
407.107	539.75
407.331	567.75
407.555	589.75
407.778	609.75
408.002	543.75
408.226	514.75
408.449	488.75
408.673	505.75
408.896	545.75
409.12	580.75
409.344	532.75
409.567	487.75
409.791	468.75
410.014	466.75
410.238	455.75
410.461	443.75
410.685	443.75
410.908	458.75
411.132	524.75
411.355	522.75
411.578	512.75
411.802	475.75
412.025	435.75
412.249	453.75
412.472	489.75
412.695	533.75
412.919	504.75
413.142	475.75
413.365	443.75
413.589	449.75
413.812	436.75
414.035	434.75
414.258	423.75
414.482	407.75
414.705	422.75
414.928	423.75
415.151	417.75
415.374	422.75
415.597	426.75
415.821	399.75
416.044	421.75
416.267	429.75
416.49	407.75
416.713	414.75
416.936	405.75
417.159	430.75
417.382	429.75
417.605	450.75
417.828	449.75
418.051	474.75
418.274	473.75
418.497	439.75
418.72	425.75
418.943	446.75
419.166	424.75
419.389	461.75
419.611	468.75
419.834	457.75
420.057	464.75
420.28	450.75
420.503	451.75
420.726	458.75
420.948	466.75
421.171	493.75
421.394	519.75
421.617	484.75
421.839	457.75
422.062	445.75
422.285	474.75
422.507	532.75
422.73	585.75
422.953	577.75
423.175	521.75
423.398	503.75
423.621	495.75
423.843	485.75
424.066	510.75
424.288	499.75
424.511	526.75
424.733	570.75
424.956	647.75
425.178	623.75
425.401	627.75
425.623	645.75
425.846	559.75
426.068	530.75
426.291	507.75
426.513	520.75
426.735	522.75
426.958	564.75
427.18	628.75
427.402	751.75
427.625	843.75
427.847	789.75
428.069	668.75
428.292	577.75
428.514	541.75
428.736	488.75
428.958	509.75
429.181	474.75
429.403	481.75
429.625	490.75
429.847	522.75
430.069	581.75
430.292	597.75
430.514	493.75
430.736	488.75
430.958	479.75
431.18	462.75
431.402	438.75
431.624	417.75
431.846	430.75
432.068	434.75
432.29	449.75
432.512	436.75
432.734	453.75
432.956	437.75
433.178	472.75
433.4	445.75
433.622	449.75
433.844	435.75
434.066	438.75
434.287	443.75
434.509	438.75
434.731	449.75
434.953	441.75
435.175	491.75
435.397	517.75
435.618	516.75
435.84	542.75
436.062	641.75
436.284	707.75
436.505	611.75
436.727	524.75
436.949	503.75
437.17	482.75
437.392	475.75
437.614	517.75
437.835	540.75
438.057	645.75
438.278	713.75
438.5	731.75
438.721	776.75
438.943	761.75
439.165	600.75
439.386	551.75
439.608	564.75
439.829	540.75
440.05	563.75
440.272	607.75
440.493	592.75
440.715	503.75
440.936	498.75
441.158	477.75
441.379	474.75
441.6	501.75
441.822	521.75
442.043	571.75
442.264	631.75
442.486	670.75
442.707	574.75
442.928	537.75
443.149	534.75
443.371	579.75
443.592	606.75
443.813	682.75
444.034	762.75
444.255	613.75
444.476	551.75
444.698	522.75
444.919	505.75
445.14	615.75
445.361	579.75
445.582	551.75
445.803	626.75
446.024	747.75
446.245	739.75
446.466	696.75
446.687	575.75
446.908	532.75
447.129	510.75
447.35	482.75
447.571	481.75
447.792	479.75
448.013	486.75
448.234	507.75
448.455	559.75
448.675	643.75
448.896	753.75
449.117	655.75
449.338	623.75
449.559	734.75
449.779	803.75
450	650.75
450.221	545.75
450.442	495.75
450.662	493.75
450.883	469.75
451.104	503.75
451.324	492.75
451.545	498.75
451.766	453.75
451.986	433.75
452.207	446.75
452.428	414.75
452.648	425.75
452.869	417.75
453.089	442.75
453.31	435.75
453.53	461.75
453.751	446.75
453.971	440.75
454.192	453.75
454.412	449.75
454.633	435.75
454.853	439.75
455.073	421.75
455.294	437.75
455.514	524.75
455.734	497.75
455.955	450.75
456.175	418.75
456.395	413.75
456.616	407.75
456.836	404.75
457.056	394.75
457.276	401.75
457.497	393.75
457.717	390.75
457.937	403.75
458.157	407.75
458.377	436.75
458.598	450.75
458.818	512.75
459.038	590.75
459.258	621.75
459.478	533.75
459.698	476.75
459.918	428.75
460.138	428.75
460.358	419.75
460.578	433.75
460.798	429.75
461.018	457.75
461.238	452.75
461.458	427.75
461.678	419.75
461.898	435.75
462.118	423.75
462.338	430.75
462.558	428.75
462.777	436.75
462.997	435.75
463.217	467.75
463.437	470.75
463.657	457.75
463.876	453.75
464.096	463.75
464.316	442.75
464.536	454.75
464.755	443.75
464.975	470.75
465.195	539.75
465.414	614.75
465.634	546.75
465.854	494.75
466.073	457.75
466.293	468.75
466.512	422.75
466.732	427.75
466.951	430.75
467.171	417.75
467.391	441.75
467.61	453.75
467.829	448.75
468.049	446.75
468.268	455.75
468.488	429.75
468.707	410.75
468.927	403.75
469.146	429.75
469.365	417.75
469.585	406.75
469.804	444.75
470.023	443.75
470.243	431.75
470.462	430.75
470.681	452.75
470.901	453.75
471.12	469.75
471.339	441.75
471.558	442.75
471.777	448.75
471.997	443.75
472.216	458.75
472.435	469.75
472.654	474.75
472.873	423.75
473.092	435.75
473.311	449.75
473.53	440.75
473.749	470.75
473.968	482.75
474.187	618.75
474.406	645.75
474.625	522.75
474.844	461.75
475.063	447.75
475.282	438.75
475.501	460.75
475.72	443.75
475.939	447.75
476.158	450.75
476.377	441.75
476.596	438.75
476.814	461.75
477.033	457.75
477.252	475.75
477.471	469.75
477.69	460.75
477.908	467.75
478.127	471.75
478.346	459.75
478.564	467.75
478.783	463.75
479.002	486.75
479.22	523.75
479.439	531.75
479.658	531.75
479.876	541.75
480.095	535.75
480.313	548.75
480.532	531.75
480.751	527.75
480.969	566.75
481.188	622.75
481.406	674.75
481.624	573.75
481.843	569.75
482.061	524.75
482.28	530.75
482.498	521.75
482.717	498.75
482.935	518.75
483.153	513.75
483.372	532.75
483.59	513.75
483.808	515.75
484.027	488.75
484.245	517.75
484.463	515.75
484.681	524.75
484.9	542.75
485.118	547.75
485.336	524.75
485.554	526.75
485.772	564.75
485.99	533.75
486.209	522.75
486.427	543.75
486.645	552.75
486.863	591.75
487.081	569.75
487.299	559.75
487.517	541.75
487.735	531.75
487.953	555.75
488.171	571.75
488.389	555.75
488.607	586.75
488.825	558.75
489.043	551.75
489.261	551.75
489.479	584.75
489.696	559.75
489.914	561.75
490.132	599.75
490.35	597.75
490.568	591.75
490.786	596.75
491.003	639.75
491.221	608.75
491.439	627.75
491.657	613.75
491.874	643.75
492.092	637.75
492.31	663.75
492.527	665.75
492.745	647.75
492.963	655.75
493.18	661.75
493.398	667.75
493.615	665.75
493.833	684.75
494.05	668.75
494.268	691.75
494.485	681.75
494.703	659.75
494.92	674.75
495.138	654.75
495.355	674.75
495.573	714.75
495.79	671.75
496.008	705.75
496.225	682.75
496.442	677.75
496.66	673.75
496.877	665.75
497.094	685.75
497.312	684.75
497.529	684.75
497.746	668.75
497.963	680.75
498.181	709.75
498.398	667.75
498.615	715.75
498.832	701.75
499.049	693.75
499.267	716.75
499.484	738.75
499.701	747.75
499.918	748.75
500.135	783.75
500.352	772.75
500.569	837.75
500.786	793.75
501.003	843.75
501.22	810.75
501.437	781.75
501.654	784.75
501.871	810.75
