Data from 1980.PennyLincolnUp.Lamp.En5.5.200Scan.071819.P1_HRD10591_16-38-18-957.txt Node
Date: Thu Jul 18 16:38:18 EDT 2019
User: cochatt
Spectrometer: HR+D1059
Trigger mode: 1
Integration Time (sec): 1.000000E-1
Scans to average: 1
Electric dark correction enabled: true
Nonlinearity correction enabled: false
Boxcar width: 0
XAxis mode: Wavelengths
Number of Pixels in Spectrum: 2048
>>>>>Begin Spectral Data<<<<<
223.165	-14.12
223.4	-14.12
223.635	-14.12
223.869	-20.12
224.104	-17.12
224.338	-11.12
224.573	-19.12
224.808	-27.12
225.042	0.88
225.277	-3.12
225.511	-4.12
225.746	13.88
225.98	11.88
226.215	7.88
226.449	27.88
226.683	10.88
226.918	21.88
227.152	20.88
227.387	14.88
227.621	43.88
227.856	43.88
228.09	45.88
228.324	51.88
228.559	59.88
228.793	66.88
229.027	100.88
229.262	121.88
229.496	129.88
229.73	149.88
229.964	155.88
230.199	137.88
230.433	118.88
230.667	122.88
230.901	122.88
231.136	122.88
231.37	121.88
231.604	124.88
231.838	121.88
232.072	113.88
232.306	117.88
232.541	113.88
232.775	89.88
233.009	106.88
233.243	106.88
233.477	104.88
233.711	121.88
233.945	118.88
234.179	125.88
234.413	129.88
234.647	126.88
234.881	124.88
235.115	119.88
235.349	122.88
235.583	115.88
235.817	127.88
236.051	129.88
236.285	125.88
236.519	136.88
236.753	137.88
236.987	157.88
237.221	187.88
237.455	249.88
237.689	180.88
237.922	150.88
238.156	139.88
238.39	149.88
238.624	127.88
238.858	123.88
239.091	116.88
239.325	128.88
239.559	122.88
239.793	128.88
240.027	130.88
240.26	148.88
240.494	169.88
240.728	154.88
240.961	158.88
241.195	136.88
241.429	134.88
241.662	147.88
241.896	123.88
242.13	139.88
242.363	118.88
242.597	140.88
242.83	142.88
243.064	128.88
243.298	133.88
243.531	145.88
243.765	137.88
243.998	141.88
244.232	132.88
244.465	134.88
244.699	154.88
244.932	140.88
245.166	168.88
245.399	126.88
245.633	128.88
245.866	150.88
246.099	152.88
246.333	147.88
246.566	144.88
246.8	145.88
247.033	158.88
247.266	169.88
247.5	157.88
247.733	157.88
247.966	181.88
248.2	189.88
248.433	173.88
248.666	178.88
248.899	170.88
249.133	184.88
249.366	232.88
249.599	195.88
249.832	182.88
250.066	186.88
250.299	181.88
250.532	190.88
250.765	206.88
250.998	241.88
251.231	214.88
251.465	225.88
251.698	234.88
251.931	211.88
252.164	205.88
252.397	209.88
252.63	206.88
252.863	216.88
253.096	222.88
253.329	225.88
253.562	240.88
253.795	225.88
254.028	237.88
254.261	224.88
254.494	235.88
254.727	268.88
254.96	296.88
255.193	293.88
255.426	266.88
255.659	237.88
255.892	244.88
256.124	229.88
256.357	243.88
256.59	229.88
256.823	241.88
257.056	223.88
257.289	219.88
257.521	199.88
257.754	218.88
257.987	223.88
258.22	212.88
258.452	213.88
258.685	217.88
258.918	207.88
259.151	221.88
259.383	217.88
259.616	213.88
259.849	216.88
260.081	237.88
260.314	262.88
260.547	268.88
260.779	252.88
261.012	238.88
261.244	231.88
261.477	229.88
261.71	223.88
261.942	223.88
262.175	230.88
262.407	224.88
262.64	223.88
262.872	234.88
263.105	209.88
263.337	211.88
263.57	220.88
263.802	202.88
264.035	221.88
264.267	218.88
264.499	211.88
264.732	224.88
264.964	212.88
265.197	207.88
265.429	201.88
265.661	217.88
265.894	224.88
266.126	204.88
266.358	216.88
266.591	210.88
266.823	229.88
267.055	215.88
267.287	212.88
267.52	225.88
267.752	220.88
267.984	213.88
268.216	229.88
268.448	226.88
268.681	234.88
268.913	241.88
269.145	258.88
269.377	298.88
269.609	269.88
269.841	273.88
270.073	271.88
270.306	266.88
270.538	306.88
270.77	329.88
271.002	309.88
271.234	306.88
271.466	300.88
271.698	314.88
271.93	295.88
272.162	320.88
272.394	309.88
272.626	298.88
272.858	305.88
273.09	282.88
273.322	262.88
273.553	266.88
273.785	284.88
274.017	264.88
274.249	256.88
274.481	266.88
274.713	248.88
274.945	269.88
275.176	290.88
275.408	256.88
275.64	251.88
275.872	254.88
276.104	259.88
276.335	262.88
276.567	256.88
276.799	296.88
277.031	288.88
277.262	310.88
277.494	322.88
277.726	300.88
277.957	282.88
278.189	267.88
278.421	261.88
278.652	283.88
278.884	256.88
279.115	257.88
279.347	278.88
279.579	272.88
279.81	268.88
280.042	253.88
280.273	253.88
280.505	266.88
280.736	249.88
280.968	265.88
281.199	255.88
281.431	267.88
281.662	238.88
281.894	248.88
282.125	251.88
282.356	273.88
282.588	293.88
282.819	290.88
283.051	267.88
283.282	251.88
283.513	269.88
283.745	278.88
283.976	277.88
284.207	271.88
284.439	265.88
284.67	276.88
284.901	248.88
285.132	243.88
285.364	261.88
285.595	242.88
285.826	271.88
286.057	251.88
286.288	241.88
286.52	260.88
286.751	256.88
286.982	249.88
287.213	261.88
287.444	290.88
287.675	255.88
287.906	270.88
288.138	283.88
288.369	279.88
288.6	295.88
288.831	298.88
289.062	281.88
289.293	283.88
289.524	284.88
289.755	269.88
289.986	256.88
290.217	270.88
290.448	248.88
290.679	259.88
290.91	260.88
291.141	275.88
291.371	270.88
291.602	260.88
291.833	258.88
292.064	265.88
292.295	271.88
292.526	265.88
292.757	262.88
292.987	263.88
293.218	246.88
293.449	279.88
293.68	260.88
293.91	260.88
294.141	282.88
294.372	282.88
294.603	273.88
294.833	278.88
295.064	264.88
295.295	288.88
295.525	267.88
295.756	292.88
295.987	278.88
296.217	300.88
296.448	329.88
296.679	281.88
296.909	295.88
297.14	295.88
297.37	282.88
297.601	256.88
297.831	277.88
298.062	277.88
298.292	283.88
298.523	268.88
298.753	285.88
298.984	276.88
299.214	270.88
299.445	280.88
299.675	266.88
299.905	279.88
300.136	294.88
300.366	280.88
300.597	289.88
300.827	290.88
301.057	301.88
301.288	317.88
301.518	304.88
301.748	292.88
301.979	281.88
302.209	293.88
302.439	292.88
302.669	312.88
302.9	301.88
303.13	307.88
303.36	282.88
303.59	316.88
303.82	312.88
304.051	306.88
304.281	327.88
304.511	289.88
304.741	311.88
304.971	287.88
305.201	291.88
305.431	294.88
305.661	293.88
305.891	286.88
306.121	298.88
306.352	301.88
306.582	298.88
306.812	301.88
307.042	310.88
307.272	288.88
307.502	328.88
307.731	312.88
307.961	316.88
308.191	326.88
308.421	325.88
308.651	317.88
308.881	322.88
309.111	334.88
309.341	337.88
309.571	347.88
309.8	339.88
310.03	336.88
310.26	367.88
310.49	360.88
310.72	360.88
310.949	371.88
311.179	380.88
311.409	387.88
311.639	358.88
311.868	346.88
312.098	372.88
312.328	392.88
312.557	402.88
312.787	396.88
313.017	393.88
313.246	389.88
313.476	348.88
313.706	361.88
313.935	357.88
314.165	365.88
314.394	383.88
314.624	376.88
314.853	370.88
315.083	380.88
315.312	368.88
315.542	332.88
315.771	349.88
316.001	340.88
316.23	327.88
316.46	336.88
316.689	358.88
316.919	352.88
317.148	363.88
317.377	368.88
317.607	368.88
317.836	365.88
318.065	363.88
318.295	361.88
318.524	359.88
318.753	370.88
318.983	336.88
319.212	354.88
319.441	358.88
319.67	363.88
319.9	381.88
320.129	366.88
320.358	353.88
320.587	354.88
320.816	361.88
321.046	374.88
321.275	403.88
321.504	388.88
321.733	385.88
321.962	404.88
322.191	414.88
322.42	420.88
322.649	453.88
322.878	461.88
323.108	473.88
323.337	484.88
323.566	520.88
323.795	564.88
324.024	615.88
324.253	727.88
324.482	1062.88
324.71	1601.88
324.939	2345.88
325.168	2054.88
325.397	1096.88
325.626	731.88
325.855	587.88
326.084	537.88
326.313	532.88
326.542	518.88
326.77	601.88
326.999	683.88
327.228	912.88
327.457	1413.88
327.686	1780.88
327.914	1233.88
328.143	804.88
328.372	673.88
328.6	636.88
328.829	610.88
329.058	619.88
329.287	635.88
329.515	581.88
329.744	526.88
329.972	536.88
330.201	537.88
330.43	571.88
330.658	624.88
330.887	647.88
331.115	633.88
331.344	534.88
331.572	496.88
331.801	499.88
332.03	479.88
332.258	450.88
332.486	438.88
332.715	439.88
332.943	446.88
333.172	428.88
333.4	439.88
333.629	444.88
333.857	450.88
334.085	464.88
334.314	497.88
334.542	525.88
334.771	544.88
334.999	489.88
335.227	453.88
335.455	434.88
335.684	436.88
335.912	390.88
336.14	402.88
336.369	409.88
336.597	428.88
336.825	428.88
337.053	445.88
337.281	411.88
337.51	405.88
337.738	395.88
337.966	407.88
338.194	432.88
338.422	404.88
338.65	401.88
338.878	394.88
339.106	398.88
339.334	392.88
339.562	393.88
339.79	378.88
340.018	406.88
340.246	400.88
340.474	406.88
340.702	412.88
340.93	396.88
341.158	395.88
341.386	388.88
341.614	404.88
341.842	393.88
342.07	385.88
342.298	390.88
342.526	392.88
342.754	376.88
342.981	387.88
343.209	375.88
343.437	369.88
343.665	374.88
343.893	378.88
344.12	376.88
344.348	388.88
344.576	388.88
344.804	410.88
345.031	424.88
345.259	437.88
345.487	422.88
345.714	402.88
345.942	401.88
346.17	399.88
346.397	410.88
346.625	386.88
346.853	385.88
347.08	375.88
347.308	400.88
347.535	403.88
347.763	411.88
347.99	400.88
348.218	400.88
348.445	420.88
348.673	396.88
348.9	402.88
349.128	392.88
349.355	374.88
349.583	365.88
349.81	355.88
350.037	384.88
350.265	382.88
350.492	380.88
350.72	379.88
350.947	393.88
351.174	378.88
351.402	412.88
351.629	394.88
351.856	404.88
352.083	398.88
352.311	421.88
352.538	417.88
352.765	425.88
352.992	380.88
353.22	397.88
353.447	398.88
353.674	389.88
353.901	380.88
354.128	371.88
354.355	344.88
354.583	366.88
354.81	372.88
355.037	358.88
355.264	360.88
355.491	354.88
355.718	354.88
355.945	357.88
356.172	351.88
356.399	346.88
356.626	352.88
356.853	341.88
357.08	348.88
357.307	353.88
357.534	348.88
357.761	343.88
357.988	350.88
358.215	352.88
358.441	363.88
358.668	372.88
358.895	361.88
359.122	368.88
359.349	390.88
359.576	388.88
359.802	405.88
360.029	455.88
360.256	480.88
360.483	436.88
360.709	409.88
360.936	410.88
361.163	399.88
361.39	385.88
361.616	408.88
361.843	386.88
362.07	398.88
362.296	408.88
362.523	376.88
362.749	391.88
362.976	376.88
363.203	385.88
363.429	368.88
363.656	398.88
363.882	368.88
364.109	352.88
364.335	370.88
364.562	360.88
364.788	366.88
365.015	369.88
365.241	378.88
365.468	371.88
365.694	364.88
365.92	368.88
366.147	358.88
366.373	369.88
366.599	361.88
366.826	357.88
367.052	365.88
367.278	345.88
367.505	356.88
367.731	357.88
367.957	364.88
368.184	380.88
368.41	382.88
368.636	366.88
368.862	384.88
369.089	376.88
369.315	361.88
369.541	365.88
369.767	360.88
369.993	356.88
370.219	362.88
370.445	376.88
370.672	368.88
370.898	344.88
371.124	366.88
371.35	352.88
371.576	340.88
371.802	343.88
372.028	363.88
372.254	352.88
372.48	353.88
372.706	360.88
372.932	342.88
373.158	351.88
373.384	358.88
373.61	372.88
373.835	342.88
374.061	362.88
374.287	340.88
374.513	344.88
374.739	349.88
374.965	353.88
375.191	374.88
375.416	349.88
375.642	355.88
375.868	361.88
376.094	345.88
376.319	361.88
376.545	350.88
376.771	351.88
376.997	344.88
377.222	361.88
377.448	358.88
377.674	342.88
377.899	330.88
378.125	331.88
378.35	351.88
378.576	347.88
378.802	348.88
379.027	365.88
379.253	361.88
379.478	357.88
379.704	343.88
379.929	355.88
380.155	361.88
380.38	362.88
380.606	370.88
380.831	365.88
381.057	361.88
381.282	349.88
381.507	364.88
381.733	364.88
381.958	354.88
382.184	366.88
382.409	353.88
382.634	362.88
382.86	364.88
383.085	389.88
383.31	363.88
383.535	359.88
383.761	378.88
383.986	370.88
384.211	362.88
384.436	355.88
384.662	380.88
384.887	372.88
385.112	379.88
385.337	371.88
385.562	379.88
385.787	362.88
386.013	390.88
386.238	366.88
386.463	381.88
386.688	377.88
386.913	368.88
387.138	377.88
387.363	396.88
387.588	388.88
387.813	375.88
388.038	364.88
388.263	359.88
388.488	374.88
388.713	388.88
388.938	385.88
389.163	394.88
389.387	361.88
389.612	367.88
389.837	381.88
390.062	383.88
390.287	378.88
390.512	392.88
390.736	378.88
390.961	369.88
391.186	389.88
391.411	398.88
391.636	372.88
391.86	382.88
392.085	377.88
392.31	398.88
392.534	385.88
392.759	396.88
392.984	395.88
393.208	380.88
393.433	380.88
393.658	394.88
393.882	372.88
394.107	376.88
394.331	403.88
394.556	374.88
394.78	374.88
395.005	373.88
395.229	373.88
395.454	383.88
395.678	372.88
395.903	405.88
396.127	432.88
396.352	440.88
396.576	412.88
396.801	381.88
397.025	414.88
397.249	373.88
397.474	378.88
397.698	400.88
397.922	429.88
398.147	449.88
398.371	462.88
398.595	391.88
398.82	428.88
399.044	436.88
399.268	415.88
399.492	439.88
399.717	462.88
399.941	499.88
400.165	527.88
400.389	541.88
400.613	499.88
400.837	473.88
401.062	450.88
401.286	442.88
401.51	439.88
401.734	425.88
401.958	421.88
402.182	431.88
402.406	437.88
402.63	456.88
402.854	434.88
403.078	447.88
403.302	460.88
403.526	427.88
403.75	464.88
403.974	456.88
404.198	426.88
404.422	434.88
404.645	453.88
404.869	475.88
405.093	482.88
405.317	501.88
405.541	560.88
405.765	509.88
405.988	481.88
406.212	487.88
406.436	512.88
406.66	536.88
406.883	518.88
407.107	511.88
407.331	543.88
407.555	607.88
407.778	622.88
408.002	532.88
408.226	519.88
408.449	520.88
408.673	497.88
408.896	514.88
409.12	568.88
409.344	563.88
409.567	492.88
409.791	468.88
410.014	465.88
410.238	452.88
410.461	468.88
410.685	485.88
410.908	475.88
411.132	498.88
411.355	550.88
411.578	498.88
411.802	488.88
412.025	459.88
412.249	456.88
412.472	470.88
412.695	505.88
412.919	521.88
413.142	464.88
413.365	438.88
413.589	450.88
413.812	457.88
414.035	419.88
414.258	437.88
414.482	410.88
414.705	406.88
414.928	415.88
415.151	418.88
415.374	426.88
415.597	412.88
415.821	412.88
416.044	410.88
416.267	428.88
416.49	423.88
416.713	420.88
416.936	430.88
417.159	414.88
417.382	418.88
417.605	451.88
417.828	445.88
418.051	450.88
418.274	441.88
418.497	449.88
418.72	429.88
418.943	432.88
419.166	440.88
419.389	466.88
419.611	463.88
419.834	475.88
420.057	468.88
420.28	464.88
420.503	467.88
420.726	473.88
420.948	477.88
421.171	520.88
421.394	550.88
421.617	488.88
421.839	462.88
422.062	498.88
422.285	470.88
422.507	515.88
422.73	610.88
422.953	598.88
423.175	498.88
423.398	477.88
423.621	491.88
423.843	518.88
424.066	500.88
424.288	504.88
424.511	517.88
424.733	581.88
424.956	649.88
425.178	603.88
425.401	637.88
425.623	642.88
425.846	532.88
426.068	538.88
426.291	500.88
426.513	491.88
426.735	528.88
426.958	561.88
427.18	641.88
427.402	755.88
427.625	821.88
427.847	768.88
428.069	642.88
428.292	586.88
428.514	532.88
428.736	490.88
428.958	480.88
429.181	478.88
429.403	461.88
429.625	488.88
429.847	516.88
430.069	580.88
430.292	565.88
430.514	509.88
430.736	483.88
430.958	477.88
431.18	462.88
431.402	459.88
431.624	443.88
431.846	418.88
432.068	448.88
432.29	440.88
432.512	443.88
432.734	453.88
432.956	436.88
433.178	463.88
433.4	455.88
433.622	463.88
433.844	442.88
434.066	453.88
434.287	444.88
434.509	430.88
434.731	452.88
434.953	444.88
435.175	468.88
435.397	527.88
435.618	508.88
435.84	546.88
436.062	621.88
436.284	731.88
436.505	596.88
436.727	538.88
436.949	491.88
437.17	479.88
437.392	483.88
437.614	498.88
437.835	534.88
438.057	637.88
438.278	741.88
438.5	709.88
438.721	774.88
438.943	753.88
439.165	609.88
439.386	536.88
439.608	548.88
439.829	541.88
440.05	568.88
440.272	618.88
440.493	574.88
440.715	537.88
440.936	491.88
441.158	465.88
441.379	486.88
441.6	485.88
441.822	532.88
442.043	567.88
442.264	668.88
442.486	678.88
442.707	573.88
442.928	542.88
443.149	548.88
443.371	568.88
443.592	587.88
443.813	692.88
444.034	728.88
444.255	612.88
444.476	519.88
444.698	520.88
444.919	524.88
445.14	576.88
445.361	563.88
445.582	597.88
445.803	609.88
446.024	724.88
446.245	725.88
446.466	680.88
446.687	568.88
446.908	554.88
447.129	498.88
447.35	496.88
447.571	491.88
447.792	454.88
448.013	491.88
448.234	516.88
448.455	556.88
448.675	653.88
448.896	772.88
449.117	661.88
449.338	619.88
449.559	726.88
449.779	801.88
450	665.88
450.221	573.88
450.442	492.88
450.662	510.88
450.883	497.88
451.104	522.88
451.324	487.88
451.545	467.88
451.766	463.88
451.986	456.88
452.207	422.88
452.428	426.88
452.648	433.88
452.869	432.88
453.089	439.88
453.31	467.88
453.53	438.88
453.751	430.88
453.971	454.88
454.192	463.88
454.412	444.88
454.633	436.88
454.853	437.88
455.073	454.88
455.294	464.88
455.514	534.88
455.734	499.88
455.955	451.88
456.175	410.88
456.395	388.88
456.616	404.88
456.836	390.88
457.056	404.88
457.276	384.88
457.497	389.88
457.717	381.88
457.937	404.88
458.157	412.88
458.377	408.88
458.598	437.88
458.818	528.88
459.038	568.88
459.258	590.88
459.478	508.88
459.698	448.88
459.918	438.88
460.138	412.88
460.358	437.88
460.578	413.88
460.798	438.88
461.018	429.88
461.238	425.88
461.458	399.88
461.678	410.88
461.898	438.88
462.118	419.88
462.338	416.88
462.558	444.88
462.777	430.88
462.997	438.88
463.217	436.88
463.437	436.88
463.657	436.88
463.876	453.88
464.096	459.88
464.316	453.88
464.536	469.88
464.755	474.88
464.975	458.88
465.195	514.88
465.414	612.88
465.634	542.88
465.854	524.88
466.073	467.88
466.293	457.88
466.512	429.88
466.732	430.88
466.951	425.88
467.171	424.88
467.391	422.88
467.61	458.88
467.829	475.88
468.049	472.88
468.268	448.88
468.488	438.88
468.707	423.88
468.927	431.88
469.146	421.88
469.365	408.88
469.585	412.88
469.804	438.88
470.023	453.88
470.243	446.88
470.462	429.88
470.681	456.88
470.901	448.88
471.12	422.88
471.339	434.88
471.558	437.88
471.777	415.88
471.997	437.88
472.216	434.88
472.435	483.88
472.654	484.88
472.873	448.88
473.092	443.88
473.311	433.88
473.53	448.88
473.749	466.88
473.968	496.88
474.187	588.88
474.406	635.88
474.625	518.88
474.844	484.88
475.063	465.88
475.282	457.88
475.501	442.88
475.72	449.88
475.939	451.88
476.158	446.88
476.377	434.88
476.596	456.88
476.814	468.88
477.033	467.88
477.252	463.88
477.471	474.88
477.69	482.88
477.908	482.88
478.127	468.88
478.346	483.88
478.564	468.88
478.783	475.88
479.002	494.88
479.22	491.88
479.439	497.88
479.658	521.88
479.876	526.88
480.095	522.88
480.313	560.88
480.532	522.88
480.751	532.88
480.969	548.88
481.188	621.88
481.406	659.88
481.624	610.88
481.843	545.88
482.061	548.88
482.28	533.88
482.498	524.88
482.717	530.88
482.935	501.88
483.153	520.88
483.372	529.88
483.59	503.88
483.808	503.88
484.027	508.88
484.245	511.88
484.463	506.88
484.681	520.88
484.9	510.88
485.118	533.88
485.336	524.88
485.554	524.88
485.772	519.88
485.99	531.88
486.209	544.88
486.427	562.88
486.645	558.88
486.863	576.88
487.081	584.88
487.299	566.88
487.517	558.88
487.735	581.88
487.953	575.88
488.171	583.88
488.389	560.88
488.607	586.88
488.825	554.88
489.043	561.88
489.261	556.88
489.479	586.88
489.696	560.88
489.914	595.88
490.132	589.88
490.35	578.88
490.568	581.88
490.786	595.88
491.003	609.88
491.221	633.88
491.439	654.88
491.657	634.88
491.874	658.88
492.092	636.88
492.31	654.88
492.527	655.88
492.745	656.88
492.963	670.88
493.18	672.88
493.398	653.88
493.615	696.88
493.833	692.88
494.05	689.88
494.268	678.88
494.485	671.88
494.703	677.88
494.92	670.88
495.138	689.88
495.355	676.88
495.573	671.88
495.79	693.88
496.008	698.88
496.225	710.88
496.442	682.88
496.66	679.88
496.877	653.88
497.094	666.88
497.312	689.88
497.529	658.88
497.746	684.88
497.963	707.88
498.181	709.88
498.398	713.88
498.615	724.88
498.832	721.88
499.049	723.88
499.267	721.88
499.484	751.88
499.701	762.88
499.918	772.88
500.135	808.88
500.352	809.88
500.569	775.88
500.786	818.88
501.003	844.88
501.22	832.88
501.437	813.88
501.654	806.88
501.871	789.88
