Data from 1980.PennyLincolnUp.Lamp.En5.5.200Scan.071819.P1_HRD10591_16-39-14-957.txt Node
Date: Thu Jul 18 16:39:14 EDT 2019
User: cochatt
Spectrometer: HR+D1059
Trigger mode: 1
Integration Time (sec): 1.000000E-1
Scans to average: 1
Electric dark correction enabled: true
Nonlinearity correction enabled: false
Boxcar width: 0
XAxis mode: Wavelengths
Number of Pixels in Spectrum: 2048
>>>>>Begin Spectral Data<<<<<
223.165	-23.5
223.4	-23.5
223.635	-23.5
223.869	-4.5
224.104	-13.5
224.338	-9.5
224.573	-23.5
224.808	-15.5
225.042	-7.5
225.277	6.5
225.511	-0.5
225.746	5.5
225.98	17.5
226.215	-4.5
226.449	7.5
226.683	3.5
226.918	32.5
227.152	29.5
227.387	40.5
227.621	40.5
227.856	29.5
228.09	36.5
228.324	34.5
228.559	47.5
228.793	64.5
229.027	107.5
229.262	115.5
229.496	117.5
229.73	130.5
229.964	185.5
230.199	151.5
230.433	113.5
230.667	116.5
230.901	101.5
231.136	115.5
231.37	119.5
231.604	107.5
231.838	109.5
232.072	105.5
232.306	112.5
232.541	102.5
232.775	118.5
233.009	114.5
233.243	118.5
233.477	123.5
233.711	110.5
233.945	115.5
234.179	116.5
234.413	118.5
234.647	114.5
234.881	95.5
235.115	109.5
235.349	123.5
235.583	116.5
235.817	115.5
236.051	136.5
236.285	119.5
236.519	137.5
236.753	136.5
236.987	145.5
237.221	197.5
237.455	238.5
237.689	193.5
237.922	149.5
238.156	139.5
238.39	131.5
238.624	134.5
238.858	136.5
239.091	118.5
239.325	123.5
239.559	121.5
239.793	128.5
240.027	137.5
240.26	149.5
240.494	161.5
240.728	165.5
240.961	158.5
241.195	152.5
241.429	141.5
241.662	127.5
241.896	127.5
242.13	125.5
242.363	146.5
242.597	120.5
242.83	138.5
243.064	140.5
243.298	131.5
243.531	135.5
243.765	156.5
243.998	143.5
244.232	127.5
244.465	136.5
244.699	136.5
244.932	131.5
245.166	135.5
245.399	155.5
245.633	144.5
245.866	135.5
246.099	158.5
246.333	149.5
246.566	136.5
246.8	151.5
247.033	146.5
247.266	161.5
247.5	161.5
247.733	174.5
247.966	173.5
248.2	171.5
248.433	179.5
248.666	188.5
248.899	202.5
249.133	194.5
249.366	236.5
249.599	213.5
249.832	182.5
250.066	184.5
250.299	191.5
250.532	189.5
250.765	225.5
250.998	242.5
251.231	237.5
251.465	229.5
251.698	216.5
251.931	207.5
252.164	204.5
252.397	204.5
252.63	211.5
252.863	213.5
253.096	231.5
253.329	257.5
253.562	235.5
253.795	232.5
254.028	226.5
254.261	225.5
254.494	260.5
254.727	255.5
254.96	308.5
255.193	312.5
255.426	276.5
255.659	253.5
255.892	259.5
256.124	256.5
256.357	253.5
256.59	256.5
256.823	236.5
257.056	214.5
257.289	212.5
257.521	206.5
257.754	220.5
257.987	226.5
258.22	209.5
258.452	209.5
258.685	221.5
258.918	217.5
259.151	212.5
259.383	223.5
259.616	217.5
259.849	206.5
260.081	253.5
260.314	254.5
260.547	269.5
260.779	273.5
261.012	256.5
261.244	248.5
261.477	233.5
261.71	238.5
261.942	235.5
262.175	265.5
262.407	223.5
262.64	226.5
262.872	229.5
263.105	201.5
263.337	204.5
263.57	231.5
263.802	226.5
264.035	224.5
264.267	221.5
264.499	218.5
264.732	208.5
264.964	202.5
265.197	217.5
265.429	222.5
265.661	226.5
265.894	211.5
266.126	219.5
266.358	212.5
266.591	227.5
266.823	242.5
267.055	232.5
267.287	225.5
267.52	230.5
267.752	235.5
267.984	221.5
268.216	226.5
268.448	235.5
268.681	232.5
268.913	245.5
269.145	253.5
269.377	292.5
269.609	286.5
269.841	273.5
270.073	283.5
270.306	305.5
270.538	328.5
270.77	337.5
271.002	323.5
271.234	331.5
271.466	320.5
271.698	340.5
271.93	332.5
272.162	328.5
272.394	335.5
272.626	327.5
272.858	303.5
273.09	285.5
273.322	277.5
273.553	300.5
273.785	273.5
274.017	285.5
274.249	273.5
274.481	244.5
274.713	257.5
274.945	258.5
275.176	271.5
275.408	270.5
275.64	273.5
275.872	281.5
276.104	273.5
276.335	277.5
276.567	281.5
276.799	288.5
277.031	316.5
277.262	317.5
277.494	334.5
277.726	336.5
277.957	294.5
278.189	308.5
278.421	285.5
278.652	278.5
278.884	274.5
279.115	289.5
279.347	275.5
279.579	275.5
279.81	265.5
280.042	258.5
280.273	264.5
280.505	264.5
280.736	280.5
280.968	245.5
281.199	270.5
281.431	241.5
281.662	252.5
281.894	251.5
282.125	255.5
282.356	292.5
282.588	303.5
282.819	319.5
283.051	280.5
283.282	275.5
283.513	268.5
283.745	264.5
283.976	264.5
284.207	285.5
284.439	288.5
284.67	281.5
284.901	248.5
285.132	230.5
285.364	264.5
285.595	295.5
285.826	280.5
286.057	261.5
286.288	266.5
286.52	260.5
286.751	271.5
286.982	278.5
287.213	266.5
287.444	286.5
287.675	294.5
287.906	279.5
288.138	288.5
288.369	287.5
288.6	296.5
288.831	278.5
289.062	281.5
289.293	292.5
289.524	284.5
289.755	262.5
289.986	271.5
290.217	284.5
290.448	257.5
290.679	269.5
290.91	268.5
291.141	287.5
291.371	265.5
291.602	264.5
291.833	272.5
292.064	299.5
292.295	267.5
292.526	280.5
292.757	277.5
292.987	271.5
293.218	273.5
293.449	263.5
293.68	276.5
293.91	271.5
294.141	266.5
294.372	279.5
294.603	274.5
294.833	288.5
295.064	288.5
295.295	286.5
295.525	284.5
295.756	292.5
295.987	299.5
296.217	323.5
296.448	332.5
296.679	301.5
296.909	294.5
297.14	291.5
297.37	301.5
297.601	280.5
297.831	278.5
298.062	295.5
298.292	299.5
298.523	284.5
298.753	271.5
298.984	280.5
299.214	288.5
299.445	307.5
299.675	299.5
299.905	310.5
300.136	295.5
300.366	288.5
300.597	304.5
300.827	306.5
301.057	311.5
301.288	321.5
301.518	329.5
301.748	307.5
301.979	317.5
302.209	295.5
302.439	315.5
302.669	325.5
302.9	323.5
303.13	310.5
303.36	303.5
303.59	299.5
303.82	309.5
304.051	314.5
304.281	319.5
304.511	305.5
304.741	313.5
304.971	283.5
305.201	292.5
305.431	322.5
305.661	310.5
305.891	310.5
306.121	308.5
306.352	324.5
306.582	335.5
306.812	306.5
307.042	327.5
307.272	328.5
307.502	321.5
307.731	326.5
307.961	307.5
308.191	297.5
308.421	299.5
308.651	327.5
308.881	327.5
309.111	335.5
309.341	342.5
309.571	342.5
309.8	379.5
310.03	377.5
310.26	367.5
310.49	381.5
310.72	385.5
310.949	417.5
311.179	410.5
311.409	386.5
311.639	373.5
311.868	373.5
312.098	405.5
312.328	391.5
312.557	422.5
312.787	418.5
313.017	428.5
313.246	412.5
313.476	384.5
313.706	388.5
313.935	383.5
314.165	394.5
314.394	390.5
314.624	415.5
314.853	368.5
315.083	387.5
315.312	368.5
315.542	363.5
315.771	360.5
316.001	365.5
316.23	375.5
316.46	370.5
316.689	376.5
316.919	391.5
317.148	406.5
317.377	390.5
317.607	377.5
317.836	379.5
318.065	388.5
318.295	347.5
318.524	370.5
318.753	348.5
318.983	379.5
319.212	379.5
319.441	393.5
319.67	384.5
319.9	392.5
320.129	370.5
320.358	397.5
320.587	398.5
320.816	382.5
321.046	402.5
321.275	404.5
321.504	420.5
321.733	384.5
321.962	439.5
322.191	423.5
322.42	428.5
322.649	475.5
322.878	505.5
323.108	507.5
323.337	518.5
323.566	545.5
323.795	586.5
324.024	655.5
324.253	812.5
324.482	1193.5
324.71	1872.5
324.939	2653.5
325.168	2343.5
325.397	1189.5
325.626	792.5
325.855	658.5
326.084	567.5
326.313	546.5
326.542	547.5
326.77	590.5
326.999	713.5
327.228	1049.5
327.457	1623.5
327.686	2001.5
327.914	1348.5
328.143	875.5
328.372	771.5
328.6	681.5
328.829	633.5
329.058	673.5
329.287	659.5
329.515	614.5
329.744	565.5
329.972	572.5
330.201	574.5
330.43	644.5
330.658	681.5
330.887	717.5
331.115	680.5
331.344	561.5
331.572	523.5
331.801	516.5
332.03	521.5
332.258	475.5
332.486	447.5
332.715	460.5
332.943	462.5
333.172	446.5
333.4	473.5
333.629	479.5
333.857	498.5
334.085	482.5
334.314	483.5
334.542	561.5
334.771	587.5
334.999	518.5
335.227	462.5
335.455	445.5
335.684	435.5
335.912	436.5
336.14	435.5
336.369	420.5
336.597	437.5
336.825	453.5
337.053	433.5
337.281	422.5
337.51	421.5
337.738	431.5
337.966	432.5
338.194	442.5
338.422	443.5
338.65	434.5
338.878	403.5
339.106	419.5
339.334	431.5
339.562	405.5
339.79	401.5
340.018	408.5
340.246	404.5
340.474	441.5
340.702	424.5
340.93	421.5
341.158	418.5
341.386	413.5
341.614	434.5
341.842	427.5
342.07	400.5
342.298	402.5
342.526	415.5
342.754	389.5
342.981	408.5
343.209	399.5
343.437	398.5
343.665	417.5
343.893	384.5
344.12	403.5
344.348	409.5
344.576	407.5
344.804	443.5
345.031	429.5
345.259	444.5
345.487	442.5
345.714	435.5
345.942	414.5
346.17	425.5
346.397	417.5
346.625	407.5
346.853	408.5
347.08	397.5
347.308	430.5
347.535	418.5
347.763	458.5
347.99	452.5
348.218	429.5
348.445	436.5
348.673	431.5
348.9	421.5
349.128	412.5
349.355	412.5
349.583	368.5
349.81	402.5
350.037	403.5
350.265	386.5
350.492	393.5
350.72	383.5
350.947	396.5
351.174	417.5
351.402	429.5
351.629	430.5
351.856	424.5
352.083	439.5
352.311	455.5
352.538	447.5
352.765	459.5
352.992	411.5
353.22	429.5
353.447	411.5
353.674	397.5
353.901	399.5
354.128	387.5
354.355	376.5
354.583	378.5
354.81	374.5
355.037	376.5
355.264	376.5
355.491	370.5
355.718	357.5
355.945	366.5
356.172	355.5
356.399	373.5
356.626	363.5
356.853	376.5
357.08	391.5
357.307	380.5
357.534	368.5
357.761	359.5
357.988	389.5
358.215	373.5
358.441	366.5
358.668	388.5
358.895	389.5
359.122	386.5
359.349	383.5
359.576	426.5
359.802	450.5
360.029	476.5
360.256	514.5
360.483	457.5
360.709	420.5
360.936	397.5
361.163	413.5
361.39	412.5
361.616	422.5
361.843	393.5
362.07	402.5
362.296	415.5
362.523	413.5
362.749	411.5
362.976	423.5
363.203	407.5
363.429	404.5
363.656	384.5
363.882	380.5
364.109	383.5
364.335	401.5
364.562	378.5
364.788	371.5
365.015	389.5
365.241	398.5
365.468	375.5
365.694	411.5
365.92	389.5
366.147	380.5
366.373	397.5
366.599	392.5
366.826	380.5
367.052	377.5
367.278	356.5
367.505	371.5
367.731	390.5
367.957	383.5
368.184	377.5
368.41	380.5
368.636	400.5
368.862	404.5
369.089	415.5
369.315	396.5
369.541	400.5
369.767	381.5
369.993	367.5
370.219	386.5
370.445	372.5
370.672	363.5
370.898	373.5
371.124	376.5
371.35	378.5
371.576	359.5
371.802	360.5
372.028	365.5
372.254	363.5
372.48	361.5
372.706	375.5
372.932	369.5
373.158	370.5
373.384	376.5
373.61	364.5
373.835	391.5
374.061	373.5
374.287	375.5
374.513	360.5
374.739	358.5
374.965	368.5
375.191	351.5
375.416	371.5
375.642	359.5
375.868	377.5
376.094	367.5
376.319	361.5
376.545	361.5
376.771	355.5
376.997	366.5
377.222	372.5
377.448	356.5
377.674	366.5
377.899	359.5
378.125	383.5
378.35	363.5
378.576	367.5
378.802	356.5
379.027	363.5
379.253	360.5
379.478	351.5
379.704	373.5
379.929	372.5
380.155	361.5
380.38	373.5
380.606	377.5
380.831	374.5
381.057	372.5
381.282	365.5
381.507	373.5
381.733	365.5
381.958	382.5
382.184	371.5
382.409	383.5
382.634	371.5
382.86	371.5
383.085	358.5
383.31	353.5
383.535	379.5
383.761	392.5
383.986	389.5
384.211	391.5
384.436	375.5
384.662	379.5
384.887	395.5
385.112	387.5
385.337	380.5
385.562	398.5
385.787	397.5
386.013	392.5
386.238	394.5
386.463	403.5
386.688	396.5
386.913	387.5
387.138	383.5
387.363	386.5
387.588	401.5
387.813	389.5
388.038	383.5
388.263	393.5
388.488	367.5
388.713	393.5
388.938	393.5
389.163	399.5
389.387	384.5
389.612	369.5
389.837	401.5
390.062	383.5
390.287	386.5
390.512	376.5
390.736	381.5
390.961	372.5
391.186	375.5
391.411	402.5
391.636	401.5
391.86	387.5
392.085	419.5
392.31	400.5
392.534	382.5
392.759	390.5
392.984	392.5
393.208	380.5
393.433	389.5
393.658	380.5
393.882	391.5
394.107	386.5
394.331	401.5
394.556	397.5
394.78	398.5
395.005	390.5
395.229	381.5
395.454	410.5
395.678	416.5
395.903	434.5
396.127	447.5
396.352	432.5
396.576	411.5
396.801	405.5
397.025	405.5
397.249	393.5
397.474	393.5
397.698	399.5
397.922	424.5
398.147	455.5
398.371	436.5
398.595	425.5
398.82	425.5
399.044	429.5
399.268	435.5
399.492	468.5
399.717	475.5
399.941	508.5
400.165	540.5
400.389	553.5
400.613	498.5
400.837	469.5
401.062	467.5
401.286	446.5
401.51	457.5
401.734	445.5
401.958	438.5
402.182	452.5
402.406	464.5
402.63	474.5
402.854	460.5
403.078	422.5
403.302	473.5
403.526	452.5
403.75	447.5
403.974	472.5
404.198	457.5
404.422	474.5
404.645	487.5
404.869	483.5
405.093	507.5
405.317	562.5
405.541	581.5
405.765	533.5
405.988	499.5
406.212	508.5
406.436	548.5
406.66	540.5
406.883	503.5
407.107	519.5
407.331	574.5
407.555	649.5
407.778	625.5
408.002	565.5
408.226	517.5
408.449	520.5
408.673	520.5
408.896	553.5
409.12	585.5
409.344	556.5
409.567	507.5
409.791	489.5
410.014	468.5
410.238	476.5
410.461	484.5
410.685	511.5
410.908	503.5
411.132	548.5
411.355	553.5
411.578	517.5
411.802	491.5
412.025	489.5
412.249	472.5
412.472	511.5
412.695	557.5
412.919	519.5
413.142	501.5
413.365	480.5
413.589	462.5
413.812	450.5
414.035	454.5
414.258	457.5
414.482	437.5
414.705	439.5
414.928	456.5
415.151	427.5
415.374	445.5
415.597	442.5
415.821	438.5
416.044	444.5
416.267	424.5
416.49	443.5
416.713	436.5
416.936	447.5
417.159	441.5
417.382	460.5
417.605	477.5
417.828	479.5
418.051	464.5
418.274	470.5
418.497	425.5
418.72	451.5
418.943	436.5
419.166	441.5
419.389	481.5
419.611	478.5
419.834	464.5
420.057	463.5
420.28	478.5
420.503	449.5
420.726	476.5
420.948	484.5
421.171	551.5
421.394	554.5
421.617	520.5
421.839	469.5
422.062	479.5
422.285	508.5
422.507	535.5
422.73	607.5
422.953	627.5
423.175	547.5
423.398	489.5
423.621	508.5
423.843	539.5
424.066	519.5
424.288	532.5
424.511	511.5
424.733	603.5
424.956	676.5
425.178	675.5
425.401	677.5
425.623	711.5
425.846	576.5
426.068	545.5
426.291	530.5
426.513	559.5
426.735	527.5
426.958	590.5
427.18	661.5
427.402	811.5
427.625	895.5
427.847	814.5
428.069	678.5
428.292	599.5
428.514	561.5
428.736	528.5
428.958	508.5
429.181	502.5
429.403	477.5
429.625	503.5
429.847	531.5
430.069	597.5
430.292	605.5
430.514	532.5
430.736	479.5
430.958	495.5
431.18	471.5
431.402	454.5
431.624	440.5
431.846	454.5
432.068	427.5
432.29	432.5
432.512	445.5
432.734	460.5
432.956	476.5
433.178	468.5
433.4	481.5
433.622	454.5
433.844	449.5
434.066	449.5
434.287	460.5
434.509	474.5
434.731	469.5
434.953	489.5
435.175	484.5
435.397	518.5
435.618	549.5
435.84	564.5
436.062	673.5
436.284	729.5
436.505	606.5
436.727	572.5
436.949	543.5
437.17	491.5
437.392	499.5
437.614	519.5
437.835	557.5
438.057	657.5
438.278	751.5
438.5	735.5
438.721	807.5
438.943	791.5
439.165	619.5
439.386	589.5
439.608	564.5
439.829	559.5
440.05	601.5
440.272	640.5
440.493	604.5
440.715	546.5
440.936	509.5
441.158	513.5
441.379	483.5
441.6	511.5
441.822	536.5
442.043	599.5
442.264	680.5
442.486	701.5
442.707	603.5
442.928	568.5
443.149	572.5
443.371	584.5
443.592	604.5
443.813	699.5
444.034	783.5
444.255	652.5
444.476	545.5
444.698	527.5
444.919	534.5
445.14	620.5
445.361	603.5
445.582	596.5
445.803	680.5
446.024	790.5
446.245	797.5
446.466	703.5
446.687	612.5
446.908	546.5
447.129	523.5
447.35	517.5
447.571	498.5
447.792	478.5
448.013	514.5
448.234	542.5
448.455	604.5
448.675	692.5
448.896	791.5
449.117	690.5
449.338	648.5
449.559	768.5
449.779	833.5
450	691.5
450.221	583.5
450.442	526.5
450.662	527.5
450.883	512.5
451.104	537.5
451.324	519.5
451.545	481.5
451.766	475.5
451.986	443.5
452.207	461.5
452.428	462.5
452.648	452.5
452.869	456.5
453.089	453.5
453.31	486.5
453.53	463.5
453.751	446.5
453.971	465.5
454.192	477.5
454.412	486.5
454.633	467.5
454.853	443.5
455.073	454.5
455.294	483.5
455.514	537.5
455.734	528.5
455.955	447.5
456.175	431.5
456.395	417.5
456.616	384.5
456.836	399.5
457.056	416.5
457.276	400.5
457.497	406.5
457.717	420.5
457.937	413.5
458.157	429.5
458.377	431.5
458.598	476.5
458.818	534.5
459.038	624.5
459.258	643.5
459.478	527.5
459.698	494.5
459.918	462.5
460.138	458.5
460.358	462.5
460.578	443.5
460.798	449.5
461.018	454.5
461.238	435.5
461.458	443.5
461.678	433.5
461.898	436.5
462.118	439.5
462.338	453.5
462.558	454.5
462.777	448.5
462.997	466.5
463.217	478.5
463.437	471.5
463.657	465.5
463.876	461.5
464.096	458.5
464.316	462.5
464.536	476.5
464.755	489.5
464.975	497.5
465.195	551.5
465.414	672.5
465.634	578.5
465.854	525.5
466.073	485.5
466.293	463.5
466.512	455.5
466.732	446.5
466.951	447.5
467.171	436.5
467.391	464.5
467.61	492.5
467.829	475.5
468.049	454.5
468.268	462.5
468.488	454.5
468.707	437.5
468.927	413.5
469.146	401.5
469.365	437.5
469.585	423.5
469.804	439.5
470.023	471.5
470.243	475.5
470.462	447.5
470.681	487.5
470.901	469.5
471.12	468.5
471.339	434.5
471.558	445.5
471.777	454.5
471.997	442.5
472.216	463.5
472.435	515.5
472.654	486.5
472.873	463.5
473.092	456.5
473.311	441.5
473.53	454.5
473.749	465.5
473.968	526.5
474.187	640.5
474.406	653.5
474.625	519.5
474.844	447.5
475.063	468.5
475.282	451.5
475.501	463.5
475.72	464.5
475.939	474.5
476.158	476.5
476.377	480.5
476.596	476.5
476.814	472.5
477.033	491.5
477.252	489.5
477.471	473.5
477.69	470.5
477.908	491.5
478.127	485.5
478.346	485.5
478.564	473.5
478.783	494.5
479.002	498.5
479.22	497.5
479.439	540.5
479.658	567.5
479.876	527.5
480.095	545.5
480.313	578.5
480.532	567.5
480.751	539.5
480.969	568.5
481.188	667.5
481.406	721.5
481.624	632.5
481.843	583.5
482.061	560.5
482.28	571.5
482.498	541.5
482.717	542.5
482.935	533.5
483.153	532.5
483.372	553.5
483.59	533.5
483.808	535.5
484.027	539.5
484.245	541.5
484.463	553.5
484.681	547.5
484.9	531.5
485.118	558.5
485.336	551.5
485.554	547.5
485.772	569.5
485.99	557.5
486.209	565.5
486.427	572.5
486.645	573.5
486.863	601.5
487.081	590.5
487.299	609.5
487.517	599.5
487.735	556.5
487.953	580.5
488.171	581.5
488.389	569.5
488.607	593.5
488.825	617.5
489.043	568.5
489.261	580.5
489.479	573.5
489.696	588.5
489.914	598.5
490.132	582.5
490.35	602.5
490.568	622.5
490.786	628.5
491.003	629.5
491.221	652.5
491.439	671.5
491.657	652.5
491.874	677.5
492.092	702.5
492.31	690.5
492.527	683.5
492.745	685.5
492.963	711.5
493.18	685.5
493.398	673.5
493.615	722.5
493.833	695.5
494.05	685.5
494.268	691.5
494.485	703.5
494.703	690.5
494.92	701.5
495.138	703.5
495.355	718.5
495.573	726.5
495.79	712.5
496.008	733.5
496.225	711.5
496.442	687.5
496.66	705.5
496.877	693.5
497.094	696.5
497.312	717.5
497.529	710.5
497.746	744.5
497.963	735.5
498.181	752.5
498.398	758.5
498.615	764.5
498.832	754.5
499.049	771.5
499.267	752.5
499.484	760.5
499.701	784.5
499.918	816.5
500.135	812.5
500.352	827.5
500.569	841.5
500.786	855.5
501.003	852.5
501.22	815.5
501.437	827.5
501.654	833.5
501.871	850.5
502.088	797.5
502.305	788.5
502.522	748.5
502.739	754.5
502.956	693.5
503.172	690.5
503.389	713.5
503.606	698.5
503.823	750.5
504.04	717.5
504.256	703.5
504.473	703.5
504.69	689.5
504.907	681.5
505.123	678.5
505.34	696.5
505.557	685.5
505.773	676.5
505.99	693.5
506.207	693.5
506.423	703.5
506.64	681.5
506.856	664.5
507.073	717.5
507.289	693.5
507.506	690.5
507.722	674.5
507.939	745.5
508.155	701.5
508.372	677.5
508.588	658.5
508.805	660.5
509.021	652.5
509.238	673.5
509.454	697.5
509.67	676.5
509.887	673.5
510.103	654.5
510.319	663.5
510.536	786.5
510.752	1448.5
510.968	1119.5
511.184	707.5
511.401	677.5
511.617	672.5
511.833	649.5
512.049	638.5
512.265	627.5
512.481	622.5
512.698	608.5
512.914	658.5
513.13	619.5
513.346	623.5
513.562	619.5
513.778	636.5
513.994	632.5
514.21	661.5
514.426	715.5
514.642	755.5
514.858	811.5
515.074	863.5
515.29	1047.5
515.506	1628.5
515.721	1301.5
515.937	822.5
516.153	719.5
516.369	685.5
516.585	642.5
516.801	659.5
517.016	653.5
517.232	642.5
517.448	647.5
517.664	645.5
517.879	632.5
518.095	620.5
518.311	631.5
518.527	603.5
518.742	631.5
518.958	617.5
519.173	612.5
519.389	617.5
519.605	632.5
519.82	664.5
