Data from 1980.PennyLincolnUp.Lamp.En5.5.200Scan.071819.P1_HRD10591_16-38-28-957.txt Node
Date: Thu Jul 18 16:38:28 EDT 2019
User: cochatt
Spectrometer: HR+D1059
Trigger mode: 1
Integration Time (sec): 1.000000E-1
Scans to average: 1
Electric dark correction enabled: true
Nonlinearity correction enabled: false
Boxcar width: 0
XAxis mode: Wavelengths
Number of Pixels in Spectrum: 2048
>>>>>Begin Spectral Data<<<<<
223.165	-26.88
223.4	-26.88
223.635	-26.88
223.869	-25.88
224.104	-4.88
224.338	-4.88
224.573	-21.88
224.808	-6.88
225.042	-4.88
225.277	-19.88
225.511	-4.88
225.746	5.12
225.98	2.12
226.215	21.12
226.449	10.12
226.683	19.12
226.918	27.12
227.152	36.12
227.387	28.12
227.621	33.12
227.856	40.12
228.09	50.12
228.324	49.12
228.559	58.12
228.793	65.12
229.027	83.12
229.262	98.12
229.496	125.12
229.73	147.12
229.964	167.12
230.199	141.12
230.433	122.12
230.667	131.12
230.901	113.12
231.136	120.12
231.37	103.12
231.604	110.12
231.838	121.12
232.072	101.12
232.306	121.12
232.541	113.12
232.775	99.12
233.009	111.12
233.243	113.12
233.477	112.12
233.711	134.12
233.945	112.12
234.179	112.12
234.413	120.12
234.647	105.12
234.881	117.12
235.115	123.12
235.349	135.12
235.583	122.12
235.817	125.12
236.051	128.12
236.285	131.12
236.519	117.12
236.753	146.12
236.987	152.12
237.221	206.12
237.455	261.12
237.689	218.12
237.922	165.12
238.156	145.12
238.39	132.12
238.624	127.12
238.858	121.12
239.091	133.12
239.325	125.12
239.559	132.12
239.793	134.12
240.027	148.12
240.26	146.12
240.494	166.12
240.728	167.12
240.961	153.12
241.195	138.12
241.429	142.12
241.662	139.12
241.896	123.12
242.13	133.12
242.363	116.12
242.597	117.12
242.83	139.12
243.064	156.12
243.298	145.12
243.531	155.12
243.765	139.12
243.998	135.12
244.232	137.12
244.465	131.12
244.699	136.12
244.932	141.12
245.166	144.12
245.399	137.12
245.633	153.12
245.866	141.12
246.099	142.12
246.333	147.12
246.566	150.12
246.8	139.12
247.033	147.12
247.266	149.12
247.5	165.12
247.733	172.12
247.966	170.12
248.2	179.12
248.433	172.12
248.666	204.12
248.899	179.12
249.133	205.12
249.366	225.12
249.599	216.12
249.832	213.12
250.066	200.12
250.299	201.12
250.532	197.12
250.765	204.12
250.998	220.12
251.231	236.12
251.465	214.12
251.698	232.12
251.931	200.12
252.164	202.12
252.397	213.12
252.63	210.12
252.863	191.12
253.096	205.12
253.329	241.12
253.562	241.12
253.795	225.12
254.028	237.12
254.261	228.12
254.494	229.12
254.727	269.12
254.96	298.12
255.193	308.12
255.426	266.12
255.659	258.12
255.892	255.12
256.124	254.12
256.357	242.12
256.59	247.12
256.823	232.12
257.056	218.12
257.289	210.12
257.521	218.12
257.754	227.12
257.987	192.12
258.22	232.12
258.452	229.12
258.685	210.12
258.918	226.12
259.151	222.12
259.383	228.12
259.616	231.12
259.849	239.12
260.081	236.12
260.314	255.12
260.547	255.12
260.779	255.12
261.012	240.12
261.244	239.12
261.477	233.12
261.71	235.12
261.942	243.12
262.175	243.12
262.407	223.12
262.64	226.12
262.872	223.12
263.105	228.12
263.337	216.12
263.57	208.12
263.802	223.12
264.035	209.12
264.267	224.12
264.499	211.12
264.732	203.12
264.964	200.12
265.197	211.12
265.429	211.12
265.661	221.12
265.894	216.12
266.126	236.12
266.358	224.12
266.591	210.12
266.823	218.12
267.055	234.12
267.287	229.12
267.52	214.12
267.752	228.12
267.984	235.12
268.216	230.12
268.448	243.12
268.681	255.12
268.913	235.12
269.145	273.12
269.377	253.12
269.609	285.12
269.841	282.12
270.073	275.12
270.306	325.12
270.538	340.12
270.77	331.12
271.002	324.12
271.234	299.12
271.466	307.12
271.698	330.12
271.93	323.12
272.162	341.12
272.394	347.12
272.626	339.12
272.858	316.12
273.09	301.12
273.322	275.12
273.553	276.12
273.785	267.12
274.017	260.12
274.249	268.12
274.481	273.12
274.713	267.12
274.945	270.12
275.176	268.12
275.408	263.12
275.64	282.12
275.872	280.12
276.104	244.12
276.335	270.12
276.567	277.12
276.799	283.12
277.031	311.12
277.262	342.12
277.494	352.12
277.726	318.12
277.957	309.12
278.189	278.12
278.421	273.12
278.652	260.12
278.884	265.12
279.115	266.12
279.347	260.12
279.579	260.12
279.81	264.12
280.042	269.12
280.273	270.12
280.505	255.12
280.736	255.12
280.968	269.12
281.199	275.12
281.431	265.12
281.662	259.12
281.894	266.12
282.125	260.12
282.356	279.12
282.588	304.12
282.819	305.12
283.051	256.12
283.282	278.12
283.513	273.12
283.745	259.12
283.976	269.12
284.207	298.12
284.439	273.12
284.67	258.12
284.901	281.12
285.132	281.12
285.364	244.12
285.595	247.12
285.826	248.12
286.057	268.12
286.288	254.12
286.52	274.12
286.751	267.12
286.982	264.12
287.213	252.12
287.444	279.12
287.675	276.12
287.906	285.12
288.138	306.12
288.369	297.12
288.6	291.12
288.831	285.12
289.062	289.12
289.293	279.12
289.524	280.12
289.755	281.12
289.986	279.12
290.217	274.12
290.448	271.12
290.679	285.12
290.91	281.12
291.141	262.12
291.371	281.12
291.602	262.12
291.833	263.12
292.064	270.12
292.295	280.12
292.526	260.12
292.757	270.12
292.987	275.12
293.218	252.12
293.449	268.12
293.68	279.12
293.91	266.12
294.141	275.12
294.372	260.12
294.603	273.12
294.833	272.12
295.064	279.12
295.295	273.12
295.525	288.12
295.756	277.12
295.987	290.12
296.217	327.12
296.448	332.12
296.679	281.12
296.909	275.12
297.14	277.12
297.37	277.12
297.601	290.12
297.831	271.12
298.062	281.12
298.292	275.12
298.523	270.12
298.753	290.12
298.984	301.12
299.214	283.12
299.445	287.12
299.675	277.12
299.905	290.12
300.136	292.12
300.366	288.12
300.597	288.12
300.827	323.12
301.057	309.12
301.288	309.12
301.518	310.12
301.748	290.12
301.979	305.12
302.209	303.12
302.439	323.12
302.669	316.12
302.9	308.12
303.13	289.12
303.36	311.12
303.59	323.12
303.82	334.12
304.051	304.12
304.281	316.12
304.511	314.12
304.741	311.12
304.971	290.12
305.201	313.12
305.431	318.12
305.661	323.12
305.891	310.12
306.121	316.12
306.352	335.12
306.582	317.12
306.812	319.12
307.042	324.12
307.272	322.12
307.502	305.12
307.731	315.12
307.961	300.12
308.191	309.12
308.421	311.12
308.651	347.12
308.881	313.12
309.111	332.12
309.341	333.12
309.571	323.12
309.8	357.12
310.03	348.12
310.26	347.12
310.49	373.12
310.72	383.12
310.949	397.12
311.179	425.12
311.409	378.12
311.639	379.12
311.868	372.12
312.098	367.12
312.328	381.12
312.557	411.12
312.787	407.12
313.017	417.12
313.246	384.12
313.476	367.12
313.706	370.12
313.935	388.12
314.165	409.12
314.394	401.12
314.624	379.12
314.853	374.12
315.083	373.12
315.312	365.12
315.542	371.12
315.771	358.12
316.001	363.12
316.23	352.12
316.46	354.12
316.689	368.12
316.919	373.12
317.148	361.12
317.377	371.12
317.607	349.12
317.836	371.12
318.065	376.12
318.295	362.12
318.524	372.12
318.753	353.12
318.983	370.12
319.212	374.12
319.441	368.12
319.67	351.12
319.9	360.12
320.129	370.12
320.358	362.12
320.587	374.12
320.816	391.12
321.046	386.12
321.275	403.12
321.504	393.12
321.733	407.12
321.962	393.12
322.191	403.12
322.42	421.12
322.649	459.12
322.878	461.12
323.108	498.12
323.337	518.12
323.566	528.12
323.795	583.12
324.024	650.12
324.253	765.12
324.482	1125.12
324.71	1761.12
324.939	2583.12
325.168	2258.12
325.397	1167.12
325.626	786.12
325.855	640.12
326.084	547.12
326.313	531.12
326.542	561.12
326.77	593.12
326.999	714.12
327.228	1002.12
327.457	1575.12
327.686	1971.12
327.914	1337.12
328.143	848.12
328.372	739.12
328.6	641.12
328.829	636.12
329.058	645.12
329.287	664.12
329.515	597.12
329.744	537.12
329.972	537.12
330.201	547.12
330.43	625.12
330.658	659.12
330.887	664.12
331.115	667.12
331.344	568.12
331.572	499.12
331.801	509.12
332.03	523.12
332.258	476.12
332.486	461.12
332.715	442.12
332.943	461.12
333.172	438.12
333.4	435.12
333.629	445.12
333.857	479.12
334.085	469.12
334.314	511.12
334.542	511.12
334.771	543.12
334.999	510.12
335.227	459.12
335.455	421.12
335.684	419.12
335.912	407.12
336.14	415.12
336.369	408.12
336.597	416.12
336.825	426.12
337.053	408.12
337.281	433.12
337.51	400.12
337.738	417.12
337.966	436.12
338.194	415.12
338.422	425.12
338.65	412.12
338.878	423.12
339.106	412.12
339.334	387.12
339.562	401.12
339.79	417.12
340.018	420.12
340.246	405.12
340.474	408.12
340.702	410.12
340.93	391.12
341.158	395.12
341.386	395.12
341.614	399.12
341.842	417.12
342.07	403.12
342.298	403.12
342.526	397.12
342.754	387.12
342.981	380.12
343.209	394.12
343.437	387.12
343.665	384.12
343.893	379.12
344.12	386.12
344.348	391.12
344.576	401.12
344.804	413.12
345.031	439.12
345.259	452.12
345.487	423.12
345.714	415.12
345.942	404.12
346.17	417.12
346.397	395.12
346.625	391.12
346.853	401.12
347.08	409.12
347.308	386.12
347.535	427.12
347.763	427.12
347.99	426.12
348.218	438.12
348.445	404.12
348.673	420.12
348.9	387.12
349.128	397.12
349.355	373.12
349.583	390.12
349.81	369.12
350.037	371.12
350.265	387.12
350.492	403.12
350.72	385.12
350.947	411.12
351.174	423.12
351.402	434.12
351.629	408.12
351.856	412.12
352.083	416.12
352.311	428.12
352.538	406.12
352.765	427.12
352.992	426.12
353.22	415.12
353.447	396.12
353.674	409.12
353.901	396.12
354.128	388.12
354.355	362.12
354.583	364.12
354.81	366.12
355.037	351.12
355.264	354.12
355.491	359.12
355.718	356.12
355.945	370.12
356.172	365.12
356.399	351.12
356.626	372.12
356.853	359.12
357.08	350.12
357.307	382.12
357.534	370.12
357.761	369.12
357.988	368.12
358.215	371.12
358.441	356.12
358.668	370.12
358.895	369.12
359.122	384.12
359.349	389.12
359.576	409.12
359.802	420.12
360.029	441.12
360.256	491.12
360.483	458.12
360.709	420.12
360.936	417.12
361.163	407.12
361.39	402.12
361.616	401.12
361.843	401.12
362.07	397.12
362.296	409.12
362.523	395.12
362.749	414.12
362.976	380.12
363.203	381.12
363.429	385.12
363.656	377.12
363.882	378.12
364.109	387.12
364.335	366.12
364.562	364.12
364.788	382.12
365.015	362.12
365.241	389.12
365.468	383.12
365.694	391.12
365.92	419.12
366.147	376.12
366.373	376.12
366.599	353.12
366.826	371.12
367.052	373.12
367.278	351.12
367.505	378.12
367.731	363.12
367.957	375.12
368.184	381.12
368.41	372.12
368.636	381.12
368.862	384.12
369.089	371.12
369.315	392.12
369.541	362.12
369.767	343.12
369.993	363.12
370.219	376.12
370.445	367.12
370.672	359.12
370.898	349.12
371.124	370.12
371.35	356.12
371.576	368.12
371.802	374.12
372.028	362.12
372.254	360.12
372.48	369.12
372.706	351.12
372.932	362.12
373.158	363.12
373.384	387.12
373.61	344.12
373.835	363.12
374.061	352.12
374.287	367.12
374.513	352.12
374.739	361.12
374.965	387.12
375.191	350.12
375.416	361.12
375.642	369.12
375.868	356.12
376.094	359.12
376.319	354.12
376.545	368.12
376.771	367.12
376.997	355.12
377.222	350.12
377.448	357.12
377.674	357.12
377.899	333.12
378.125	351.12
378.35	358.12
378.576	377.12
378.802	375.12
379.027	348.12
379.253	370.12
379.478	355.12
379.704	359.12
379.929	366.12
380.155	363.12
380.38	357.12
380.606	359.12
380.831	353.12
381.057	355.12
381.282	377.12
381.507	383.12
381.733	367.12
381.958	360.12
382.184	356.12
382.409	379.12
382.634	375.12
382.86	365.12
383.085	371.12
383.31	358.12
383.535	351.12
383.761	379.12
383.986	381.12
384.211	347.12
384.436	368.12
384.662	357.12
384.887	356.12
385.112	383.12
385.337	379.12
385.562	383.12
385.787	378.12
386.013	383.12
386.238	394.12
386.463	390.12
386.688	365.12
386.913	377.12
387.138	364.12
387.363	373.12
387.588	369.12
387.813	381.12
388.038	373.12
388.263	379.12
388.488	383.12
388.713	391.12
388.938	387.12
389.163	392.12
389.387	389.12
389.612	388.12
389.837	365.12
390.062	371.12
390.287	376.12
390.512	366.12
390.736	361.12
390.961	385.12
391.186	381.12
391.411	375.12
391.636	375.12
391.86	388.12
392.085	410.12
392.31	392.12
392.534	383.12
392.759	369.12
392.984	397.12
393.208	377.12
393.433	373.12
393.658	381.12
393.882	389.12
394.107	382.12
394.331	383.12
394.556	375.12
394.78	383.12
395.005	367.12
395.229	377.12
395.454	385.12
395.678	380.12
395.903	398.12
396.127	444.12
396.352	441.12
396.576	405.12
396.801	388.12
397.025	397.12
397.249	392.12
397.474	391.12
397.698	391.12
397.922	424.12
398.147	441.12
398.371	427.12
398.595	432.12
398.82	431.12
399.044	428.12
399.268	431.12
399.492	442.12
399.717	489.12
399.941	496.12
400.165	509.12
400.389	530.12
400.613	519.12
400.837	471.12
401.062	463.12
401.286	435.12
401.51	441.12
401.734	436.12
401.958	435.12
402.182	448.12
402.406	448.12
402.63	449.12
402.854	438.12
403.078	450.12
403.302	438.12
403.526	460.12
403.75	470.12
403.974	447.12
404.198	440.12
404.422	460.12
404.645	484.12
404.869	478.12
405.093	512.12
405.317	545.12
405.541	554.12
405.765	516.12
405.988	490.12
406.212	492.12
406.436	527.12
406.66	529.12
406.883	490.12
407.107	531.12
407.331	561.12
407.555	625.12
407.778	625.12
408.002	560.12
408.226	516.12
408.449	504.12
408.673	514.12
408.896	535.12
409.12	579.12
409.344	547.12
409.567	481.12
409.791	479.12
410.014	448.12
410.238	436.12
410.461	470.12
410.685	465.12
410.908	478.12
411.132	504.12
411.355	556.12
411.578	518.12
411.802	464.12
412.025	459.12
412.249	460.12
412.472	500.12
412.695	532.12
412.919	550.12
413.142	489.12
413.365	452.12
413.589	445.12
413.812	438.12
414.035	427.12
414.258	418.12
414.482	415.12
414.705	430.12
414.928	424.12
415.151	411.12
415.374	431.12
415.597	433.12
415.821	427.12
416.044	422.12
416.267	423.12
416.49	426.12
416.713	446.12
416.936	431.12
417.159	444.12
417.382	452.12
417.605	405.12
417.828	443.12
418.051	459.12
418.274	456.12
418.497	427.12
418.72	431.12
418.943	442.12
419.166	448.12
419.389	444.12
419.611	444.12
419.834	462.12
420.057	461.12
420.28	489.12
420.503	450.12
420.726	455.12
420.948	478.12
421.171	536.12
421.394	566.12
421.617	505.12
421.839	474.12
422.062	483.12
422.285	453.12
422.507	573.12
422.73	617.12
422.953	600.12
423.175	517.12
423.398	494.12
423.621	479.12
423.843	505.12
424.066	522.12
424.288	503.12
424.511	540.12
424.733	591.12
424.956	640.12
425.178	651.12
425.401	636.12
425.623	663.12
425.846	571.12
426.068	503.12
426.291	518.12
426.513	521.12
426.735	523.12
426.958	564.12
427.18	623.12
427.402	771.12
427.625	879.12
427.847	794.12
428.069	683.12
428.292	593.12
428.514	529.12
428.736	500.12
428.958	506.12
429.181	471.12
429.403	485.12
429.625	499.12
429.847	535.12
430.069	589.12
430.292	600.12
430.514	510.12
430.736	489.12
430.958	482.12
431.18	447.12
431.402	444.12
431.624	443.12
431.846	429.12
432.068	434.12
432.29	420.12
432.512	423.12
432.734	439.12
432.956	457.12
433.178	448.12
433.4	464.12
433.622	434.12
433.844	446.12
434.066	424.12
434.287	418.12
434.509	456.12
434.731	456.12
434.953	468.12
435.175	467.12
435.397	513.12
435.618	521.12
435.84	589.12
436.062	634.12
436.284	706.12
436.505	600.12
436.727	545.12
436.949	518.12
437.17	489.12
437.392	502.12
437.614	512.12
437.835	554.12
438.057	659.12
438.278	758.12
438.5	754.12
438.721	784.12
438.943	760.12
439.165	626.12
439.386	557.12
439.608	569.12
439.829	551.12
440.05	565.12
440.272	620.12
440.493	579.12
440.715	546.12
440.936	508.12
441.158	492.12
441.379	480.12
441.6	497.12
441.822	518.12
442.043	579.12
442.264	648.12
442.486	694.12
442.707	581.12
442.928	535.12
443.149	565.12
443.371	571.12
443.592	615.12
443.813	718.12
444.034	771.12
444.255	612.12
444.476	536.12
444.698	531.12
444.919	515.12
445.14	623.12
445.361	583.12
445.582	571.12
445.803	644.12
446.024	757.12
446.245	754.12
446.466	708.12
446.687	581.12
446.908	544.12
447.129	508.12
447.35	503.12
447.571	484.12
447.792	479.12
448.013	502.12
448.234	524.12
448.455	563.12
448.675	703.12
448.896	831.12
449.117	687.12
449.338	646.12
449.559	711.12
449.779	788.12
450	661.12
450.221	544.12
450.442	507.12
450.662	493.12
450.883	495.12
451.104	517.12
451.324	504.12
451.545	473.12
451.766	457.12
451.986	460.12
452.207	447.12
452.428	447.12
452.648	445.12
452.869	441.12
453.089	465.12
453.31	457.12
453.53	463.12
453.751	453.12
453.971	437.12
454.192	487.12
454.412	474.12
454.633	466.12
454.853	426.12
455.073	439.12
455.294	472.12
455.514	525.12
455.734	546.12
455.955	444.12
456.175	437.12
456.395	424.12
456.616	399.12
456.836	421.12
457.056	400.12
457.276	383.12
457.497	382.12
457.717	383.12
457.937	412.12
458.157	405.12
458.377	405.12
458.598	459.12
458.818	519.12
459.038	622.12
459.258	628.12
459.478	538.12
459.698	461.12
459.918	455.12
460.138	438.12
460.358	439.12
460.578	432.12
460.798	442.12
461.018	458.12
461.238	421.12
461.458	407.12
461.678	449.12
461.898	436.12
462.118	446.12
462.338	435.12
462.558	438.12
462.777	420.12
462.997	443.12
463.217	458.12
463.437	474.12
463.657	447.12
463.876	449.12
464.096	462.12
464.316	464.12
464.536	455.12
464.755	452.12
464.975	483.12
465.195	533.12
465.414	647.12
465.634	555.12
465.854	499.12
466.073	470.12
466.293	429.12
466.512	435.12
466.732	443.12
466.951	434.12
467.171	438.12
467.391	430.12
467.61	470.12
467.829	462.12
468.049	480.12
468.268	463.12
468.488	437.12
468.707	428.12
468.927	423.12
469.146	419.12
469.365	424.12
469.585	416.12
469.804	450.12
470.023	455.12
470.243	437.12
470.462	446.12
470.681	482.12
470.901	471.12
471.12	468.12
471.339	455.12
471.558	440.12
471.777	455.12
471.997	449.12
472.216	442.12
472.435	492.12
472.654	477.12
472.873	462.12
473.092	440.12
473.311	432.12
473.53	463.12
473.749	461.12
473.968	520.12
474.187	616.12
474.406	645.12
474.625	505.12
474.844	471.12
475.063	446.12
475.282	441.12
475.501	457.12
475.72	456.12
475.939	448.12
476.158	452.12
476.377	469.12
476.596	443.12
476.814	454.12
477.033	490.12
477.252	463.12
477.471	472.12
477.69	469.12
477.908	478.12
478.127	477.12
478.346	476.12
478.564	483.12
478.783	482.12
479.002	472.12
479.22	486.12
479.439	522.12
479.658	524.12
479.876	549.12
480.095	526.12
480.313	543.12
480.532	546.12
480.751	553.12
480.969	553.12
481.188	627.12
481.406	682.12
481.624	579.12
481.843	575.12
482.061	556.12
482.28	533.12
482.498	525.12
482.717	514.12
482.935	528.12
483.153	536.12
483.372	529.12
483.59	515.12
483.808	517.12
484.027	525.12
484.245	510.12
484.463	536.12
484.681	537.12
484.9	537.12
485.118	547.12
485.336	523.12
485.554	552.12
485.772	556.12
485.99	557.12
486.209	552.12
486.427	559.12
486.645	563.12
486.863	582.12
487.081	580.12
487.299	560.12
487.517	573.12
487.735	571.12
487.953	576.12
488.171	571.12
488.389	551.12
488.607	579.12
488.825	589.12
489.043	570.12
489.261	566.12
489.479	595.12
489.696	584.12
489.914	572.12
490.132	607.12
490.35	596.12
490.568	608.12
490.786	598.12
491.003	609.12
491.221	665.12
491.439	644.12
491.657	643.12
491.874	685.12
492.092	682.12
492.31	671.12
492.527	672.12
492.745	670.12
492.963	663.12
493.18	700.12
493.398	684.12
493.615	702.12
493.833	676.12
494.05	679.12
494.268	679.12
494.485	666.12
494.703	676.12
494.92	694.12
495.138	676.12
495.355	701.12
495.573	694.12
495.79	708.12
496.008	704.12
496.225	682.12
496.442	675.12
496.66	663.12
496.877	688.12
497.094	684.12
497.312	691.12
497.529	685.12
497.746	676.12
497.963	705.12
498.181	720.12
498.398	708.12
498.615	722.12
498.832	729.12
499.049	707.12
499.267	740.12
499.484	741.12
499.701	792.12
499.918	768.12
500.135	830.12
500.352	807.12
500.569	808.12
500.786	832.12
501.003	832.12
501.22	800.12
501.437	811.12
501.654	818.12
501.871	833.12
