Data from 1980.PennyLincolnUp.Lamp.En5.5.200Scan.071819.P1_HRD10591_16-39-08-957.txt Node
Date: Thu Jul 18 16:39:08 EDT 2019
User: cochatt
Spectrometer: HR+D1059
Trigger mode: 1
Integration Time (sec): 1.000000E-1
Scans to average: 1
Electric dark correction enabled: true
Nonlinearity correction enabled: false
Boxcar width: 0
XAxis mode: Wavelengths
Number of Pixels in Spectrum: 2048
>>>>>Begin Spectral Data<<<<<
223.165	-10.19
223.4	-10.19
223.635	-10.19
223.869	-0.19
224.104	-19.19
224.338	-19.19
224.573	-5.19
224.808	-25.19
225.042	-15.19
225.277	-3.19
225.511	4.81
225.746	0.81
225.98	4.81
226.215	10.81
226.449	6.81
226.683	12.81
226.918	21.81
227.152	34.81
227.387	29.81
227.621	42.81
227.856	27.81
228.09	58.81
228.324	49.81
228.559	57.81
228.793	60.81
229.027	101.81
229.262	115.81
229.496	121.81
229.73	134.81
229.964	173.81
230.199	123.81
230.433	129.81
230.667	127.81
230.901	123.81
231.136	106.81
231.37	109.81
231.604	111.81
231.838	114.81
232.072	104.81
232.306	113.81
232.541	111.81
232.775	117.81
233.009	110.81
233.243	108.81
233.477	114.81
233.711	131.81
233.945	109.81
234.179	121.81
234.413	117.81
234.647	116.81
234.881	117.81
235.115	115.81
235.349	128.81
235.583	122.81
235.817	117.81
236.051	133.81
236.285	125.81
236.519	124.81
236.753	135.81
236.987	137.81
237.221	188.81
237.455	262.81
237.689	204.81
237.922	149.81
238.156	149.81
238.39	123.81
238.624	137.81
238.858	131.81
239.091	121.81
239.325	140.81
239.559	131.81
239.793	140.81
240.027	140.81
240.26	154.81
240.494	170.81
240.728	162.81
240.961	157.81
241.195	145.81
241.429	144.81
241.662	156.81
241.896	151.81
242.13	155.81
242.363	136.81
242.597	155.81
242.83	151.81
243.064	137.81
243.298	155.81
243.531	141.81
243.765	137.81
243.998	145.81
244.232	141.81
244.465	140.81
244.699	145.81
244.932	155.81
245.166	141.81
245.399	155.81
245.633	145.81
245.866	143.81
246.099	148.81
246.333	151.81
246.566	151.81
246.8	147.81
247.033	155.81
247.266	154.81
247.5	173.81
247.733	178.81
247.966	181.81
248.2	162.81
248.433	165.81
248.666	175.81
248.899	187.81
249.133	213.81
249.366	224.81
249.599	214.81
249.832	197.81
250.066	199.81
250.299	203.81
250.532	208.81
250.765	216.81
250.998	235.81
251.231	243.81
251.465	245.81
251.698	227.81
251.931	217.81
252.164	227.81
252.397	214.81
252.63	201.81
252.863	205.81
253.096	228.81
253.329	238.81
253.562	245.81
253.795	231.81
254.028	233.81
254.261	231.81
254.494	250.81
254.727	283.81
254.96	312.81
255.193	291.81
255.426	275.81
255.659	246.81
255.892	261.81
256.124	252.81
256.357	243.81
256.59	235.81
256.823	238.81
257.056	238.81
257.289	239.81
257.521	230.81
257.754	218.81
257.987	215.81
258.22	226.81
258.452	206.81
258.685	212.81
258.918	224.81
259.151	206.81
259.383	233.81
259.616	228.81
259.849	228.81
260.081	233.81
260.314	247.81
260.547	277.81
260.779	279.81
261.012	260.81
261.244	263.81
261.477	250.81
261.71	228.81
261.942	234.81
262.175	245.81
262.407	238.81
262.64	234.81
262.872	234.81
263.105	206.81
263.337	203.81
263.57	207.81
263.802	217.81
264.035	224.81
264.267	208.81
264.499	205.81
264.732	203.81
264.964	225.81
265.197	194.81
265.429	213.81
265.661	221.81
265.894	216.81
266.126	208.81
266.358	221.81
266.591	211.81
266.823	220.81
267.055	228.81
267.287	226.81
267.52	244.81
267.752	233.81
267.984	223.81
268.216	239.81
268.448	249.81
268.681	240.81
268.913	253.81
269.145	264.81
269.377	292.81
269.609	297.81
269.841	276.81
270.073	293.81
270.306	311.81
270.538	322.81
270.77	335.81
271.002	316.81
271.234	311.81
271.466	317.81
271.698	333.81
271.93	355.81
272.162	352.81
272.394	353.81
272.626	326.81
272.858	310.81
273.09	287.81
273.322	284.81
273.553	268.81
273.785	285.81
274.017	260.81
274.249	267.81
274.481	276.81
274.713	269.81
274.945	271.81
275.176	277.81
275.408	266.81
275.64	261.81
275.872	257.81
276.104	285.81
276.335	279.81
276.567	293.81
276.799	294.81
277.031	324.81
277.262	330.81
277.494	332.81
277.726	341.81
277.957	300.81
278.189	290.81
278.421	286.81
278.652	281.81
278.884	285.81
279.115	271.81
279.347	278.81
279.579	267.81
279.81	257.81
280.042	279.81
280.273	273.81
280.505	270.81
280.736	261.81
280.968	266.81
281.199	262.81
281.431	287.81
281.662	263.81
281.894	267.81
282.125	272.81
282.356	296.81
282.588	327.81
282.819	342.81
283.051	257.81
283.282	250.81
283.513	262.81
283.745	260.81
283.976	263.81
284.207	271.81
284.439	269.81
284.67	278.81
284.901	271.81
285.132	276.81
285.364	260.81
285.595	288.81
285.826	264.81
286.057	259.81
286.288	267.81
286.52	276.81
286.751	276.81
286.982	250.81
287.213	251.81
287.444	282.81
287.675	287.81
287.906	288.81
288.138	302.81
288.369	291.81
288.6	306.81
288.831	277.81
289.062	304.81
289.293	296.81
289.524	269.81
289.755	266.81
289.986	255.81
290.217	278.81
290.448	270.81
290.679	282.81
290.91	270.81
291.141	265.81
291.371	289.81
291.602	278.81
291.833	277.81
292.064	277.81
292.295	274.81
292.526	292.81
292.757	275.81
292.987	267.81
293.218	289.81
293.449	260.81
293.68	275.81
293.91	267.81
294.141	282.81
294.372	254.81
294.603	281.81
294.833	297.81
295.064	281.81
295.295	279.81
295.525	282.81
295.756	292.81
295.987	294.81
296.217	323.81
296.448	344.81
296.679	298.81
296.909	281.81
297.14	276.81
297.37	280.81
297.601	279.81
297.831	281.81
298.062	298.81
298.292	294.81
298.523	289.81
298.753	279.81
298.984	283.81
299.214	279.81
299.445	292.81
299.675	299.81
299.905	291.81
300.136	297.81
300.366	292.81
300.597	290.81
300.827	283.81
301.057	293.81
301.288	310.81
301.518	307.81
301.748	301.81
301.979	317.81
302.209	305.81
302.439	318.81
302.669	312.81
302.9	298.81
303.13	311.81
303.36	306.81
303.59	306.81
303.82	315.81
304.051	324.81
304.281	321.81
304.511	302.81
304.741	309.81
304.971	296.81
305.201	313.81
305.431	297.81
305.661	283.81
305.891	313.81
306.121	310.81
306.352	332.81
306.582	319.81
306.812	328.81
307.042	314.81
307.272	292.81
307.502	316.81
307.731	304.81
307.961	307.81
308.191	296.81
308.421	318.81
308.651	326.81
308.881	319.81
309.111	321.81
309.341	351.81
309.571	340.81
309.8	348.81
310.03	363.81
310.26	389.81
310.49	389.81
310.72	398.81
310.949	414.81
311.179	425.81
311.409	390.81
311.639	351.81
311.868	380.81
312.098	376.81
312.328	402.81
312.557	394.81
312.787	406.81
313.017	406.81
313.246	388.81
313.476	378.81
313.706	372.81
313.935	413.81
314.165	401.81
314.394	395.81
314.624	397.81
314.853	383.81
315.083	381.81
315.312	355.81
315.542	359.81
315.771	358.81
316.001	351.81
316.23	358.81
316.46	363.81
316.689	379.81
316.919	348.81
317.148	400.81
317.377	382.81
317.607	377.81
317.836	375.81
318.065	378.81
318.295	358.81
318.524	364.81
318.753	366.81
318.983	375.81
319.212	395.81
319.441	397.81
319.67	386.81
319.9	382.81
320.129	372.81
320.358	371.81
320.587	377.81
320.816	387.81
321.046	403.81
321.275	391.81
321.504	382.81
321.733	385.81
321.962	411.81
322.191	437.81
322.42	444.81
322.649	471.81
322.878	461.81
323.108	478.81
323.337	527.81
323.566	537.81
323.795	587.81
324.024	641.81
324.253	837.81
324.482	1146.81
324.71	1798.81
324.939	2632.81
325.168	2251.81
325.397	1172.81
325.626	799.81
325.855	649.81
326.084	567.81
326.313	543.81
326.542	562.81
326.77	622.81
326.999	749.81
327.228	1022.81
327.457	1557.81
327.686	1966.81
327.914	1350.81
328.143	851.81
328.372	737.81
328.6	686.81
328.829	640.81
329.058	639.81
329.287	675.81
329.515	615.81
329.744	565.81
329.972	557.81
330.201	564.81
330.43	628.81
330.658	670.81
330.887	715.81
331.115	678.81
331.344	551.81
331.572	511.81
331.801	530.81
332.03	512.81
332.258	476.81
332.486	443.81
332.715	448.81
332.943	459.81
333.172	429.81
333.4	437.81
333.629	444.81
333.857	467.81
334.085	494.81
334.314	510.81
334.542	546.81
334.771	581.81
334.999	516.81
335.227	487.81
335.455	449.81
335.684	438.81
335.912	413.81
336.14	428.81
336.369	429.81
336.597	438.81
336.825	445.81
337.053	421.81
337.281	425.81
337.51	408.81
337.738	414.81
337.966	425.81
338.194	434.81
338.422	421.81
338.65	437.81
338.878	417.81
339.106	420.81
339.334	422.81
339.562	409.81
339.79	396.81
340.018	399.81
340.246	422.81
340.474	403.81
340.702	417.81
340.93	428.81
341.158	387.81
341.386	425.81
341.614	417.81
341.842	405.81
342.07	406.81
342.298	387.81
342.526	413.81
342.754	373.81
342.981	402.81
343.209	373.81
343.437	413.81
343.665	399.81
343.893	407.81
344.12	402.81
344.348	411.81
344.576	423.81
344.804	420.81
345.031	450.81
345.259	456.81
345.487	438.81
345.714	422.81
345.942	419.81
346.17	399.81
346.397	410.81
346.625	406.81
346.853	412.81
347.08	399.81
347.308	426.81
347.535	419.81
347.763	423.81
347.99	421.81
348.218	433.81
348.445	439.81
348.673	438.81
348.9	415.81
349.128	405.81
349.355	381.81
349.583	386.81
349.81	389.81
350.037	392.81
350.265	376.81
350.492	387.81
350.72	377.81
350.947	390.81
351.174	385.81
351.402	422.81
351.629	409.81
351.856	431.81
352.083	434.81
352.311	419.81
352.538	447.81
352.765	437.81
352.992	419.81
353.22	419.81
353.447	385.81
353.674	409.81
353.901	377.81
354.128	387.81
354.355	377.81
354.583	377.81
354.81	382.81
355.037	367.81
355.264	371.81
355.491	375.81
355.718	346.81
355.945	365.81
356.172	371.81
356.399	361.81
356.626	365.81
356.853	369.81
357.08	374.81
357.307	385.81
357.534	362.81
357.761	374.81
357.988	361.81
358.215	348.81
358.441	351.81
358.668	376.81
358.895	384.81
359.122	390.81
359.349	373.81
359.576	406.81
359.802	445.81
360.029	490.81
360.256	501.81
360.483	451.81
360.709	405.81
360.936	414.81
361.163	387.81
361.39	414.81
361.616	437.81
361.843	399.81
362.07	412.81
362.296	434.81
362.523	393.81
362.749	401.81
362.976	412.81
363.203	385.81
363.429	381.81
363.656	410.81
363.882	402.81
364.109	394.81
364.335	393.81
364.562	374.81
364.788	372.81
365.015	386.81
365.241	394.81
365.468	364.81
365.694	389.81
365.92	385.81
366.147	390.81
366.373	383.81
366.599	390.81
366.826	378.81
367.052	359.81
367.278	376.81
367.505	378.81
367.731	385.81
367.957	372.81
368.184	370.81
368.41	381.81
368.636	414.81
368.862	395.81
369.089	397.81
369.315	369.81
369.541	359.81
369.767	377.81
369.993	377.81
370.219	381.81
370.445	378.81
370.672	371.81
370.898	371.81
371.124	361.81
371.35	369.81
371.576	371.81
371.802	362.81
372.028	366.81
372.254	353.81
372.48	374.81
372.706	349.81
372.932	366.81
373.158	380.81
373.384	366.81
373.61	376.81
373.835	371.81
374.061	355.81
374.287	358.81
374.513	374.81
374.739	381.81
374.965	385.81
375.191	382.81
375.416	377.81
375.642	345.81
375.868	366.81
376.094	339.81
376.319	371.81
376.545	377.81
376.771	353.81
376.997	369.81
377.222	381.81
377.448	379.81
377.674	378.81
377.899	381.81
378.125	370.81
378.35	351.81
378.576	371.81
378.802	348.81
379.027	357.81
379.253	356.81
379.478	373.81
379.704	347.81
379.929	377.81
380.155	355.81
380.38	360.81
380.606	383.81
380.831	349.81
381.057	358.81
381.282	370.81
381.507	365.81
381.733	371.81
381.958	377.81
382.184	365.81
382.409	377.81
382.634	381.81
382.86	362.81
383.085	373.81
383.31	373.81
383.535	372.81
383.761	386.81
383.986	377.81
384.211	358.81
384.436	371.81
384.662	379.81
384.887	397.81
385.112	358.81
385.337	375.81
385.562	371.81
385.787	387.81
386.013	385.81
386.238	395.81
386.463	392.81
386.688	386.81
386.913	381.81
387.138	387.81
387.363	402.81
387.588	379.81
387.813	379.81
388.038	380.81
388.263	378.81
388.488	397.81
388.713	379.81
388.938	378.81
389.163	374.81
389.387	397.81
389.612	375.81
389.837	364.81
390.062	381.81
390.287	395.81
390.512	381.81
390.736	395.81
390.961	392.81
391.186	378.81
391.411	393.81
391.636	383.81
391.86	407.81
392.085	394.81
392.31	396.81
392.534	390.81
392.759	390.81
392.984	395.81
393.208	382.81
393.433	363.81
393.658	366.81
393.882	382.81
394.107	386.81
394.331	373.81
394.556	398.81
394.78	393.81
395.005	395.81
395.229	378.81
395.454	403.81
395.678	402.81
395.903	415.81
396.127	456.81
396.352	428.81
396.576	405.81
396.801	405.81
397.025	412.81
397.249	417.81
397.474	415.81
397.698	397.81
397.922	403.81
398.147	473.81
398.371	449.81
398.595	403.81
398.82	419.81
399.044	427.81
399.268	443.81
399.492	453.81
399.717	473.81
399.941	492.81
400.165	520.81
400.389	534.81
400.613	488.81
400.837	471.81
401.062	448.81
401.286	456.81
401.51	452.81
401.734	443.81
401.958	450.81
402.182	464.81
402.406	454.81
402.63	446.81
402.854	453.81
403.078	447.81
403.302	448.81
403.526	466.81
403.75	469.81
403.974	449.81
404.198	446.81
404.422	445.81
404.645	472.81
404.869	480.81
405.093	500.81
405.317	579.81
405.541	587.81
405.765	501.81
405.988	515.81
406.212	520.81
406.436	539.81
406.66	537.81
406.883	530.81
407.107	533.81
407.331	564.81
407.555	607.81
407.778	633.81
408.002	599.81
408.226	524.81
408.449	519.81
408.673	522.81
408.896	525.81
409.12	586.81
409.344	550.81
409.567	466.81
409.791	485.81
410.014	463.81
410.238	472.81
410.461	463.81
410.685	466.81
410.908	490.81
411.132	522.81
411.355	563.81
411.578	536.81
411.802	473.81
412.025	477.81
412.249	487.81
412.472	505.81
412.695	547.81
412.919	538.81
413.142	490.81
413.365	473.81
413.589	462.81
413.812	454.81
414.035	423.81
414.258	451.81
414.482	447.81
414.705	445.81
414.928	416.81
415.151	456.81
415.374	437.81
415.597	438.81
415.821	446.81
416.044	409.81
416.267	433.81
416.49	418.81
416.713	453.81
416.936	431.81
417.159	429.81
417.382	451.81
417.605	448.81
417.828	463.81
418.051	465.81
418.274	449.81
418.497	438.81
418.72	425.81
418.943	447.81
419.166	453.81
419.389	471.81
419.611	474.81
419.834	460.81
420.057	463.81
420.28	462.81
420.503	451.81
420.726	481.81
420.948	477.81
421.171	550.81
421.394	564.81
421.617	489.81
421.839	472.81
422.062	456.81
422.285	473.81
422.507	543.81
422.73	608.81
422.953	603.81
423.175	543.81
423.398	503.81
423.621	483.81
423.843	504.81
424.066	517.81
424.288	511.81
424.511	540.81
424.733	577.81
424.956	678.81
425.178	649.81
425.401	633.81
425.623	666.81
425.846	574.81
426.068	550.81
426.291	515.81
426.513	527.81
426.735	526.81
426.958	577.81
427.18	654.81
427.402	785.81
427.625	897.81
427.847	819.81
428.069	690.81
428.292	581.81
428.514	556.81
428.736	500.81
428.958	510.81
429.181	482.81
429.403	484.81
429.625	495.81
429.847	535.81
430.069	600.81
430.292	583.81
430.514	514.81
430.736	483.81
430.958	471.81
431.18	467.81
431.402	441.81
431.624	446.81
431.846	440.81
432.068	456.81
432.29	455.81
432.512	452.81
432.734	461.81
432.956	459.81
433.178	477.81
433.4	469.81
433.622	454.81
433.844	441.81
434.066	458.81
434.287	441.81
434.509	437.81
434.731	445.81
434.953	461.81
435.175	474.81
435.397	517.81
435.618	503.81
435.84	590.81
436.062	661.81
436.284	726.81
436.505	613.81
436.727	557.81
436.949	494.81
437.17	495.81
437.392	476.81
437.614	503.81
437.835	533.81
438.057	649.81
438.278	766.81
438.5	755.81
438.721	813.81
438.943	783.81
439.165	631.81
439.386	555.81
439.608	561.81
439.829	559.81
440.05	570.81
440.272	620.81
440.493	586.81
440.715	533.81
440.936	516.81
441.158	502.81
441.379	496.81
441.6	510.81
441.822	545.81
442.043	591.81
442.264	659.81
442.486	692.81
442.707	606.81
442.928	534.81
443.149	542.81
443.371	599.81
443.592	610.81
443.813	722.81
444.034	774.81
444.255	618.81
444.476	537.81
444.698	531.81
444.919	511.81
445.14	591.81
445.361	563.81
445.582	588.81
445.803	661.81
446.024	755.81
446.245	743.81
446.466	700.81
446.687	603.81
446.908	543.81
447.129	521.81
447.35	509.81
447.571	499.81
447.792	478.81
448.013	537.81
448.234	500.81
448.455	579.81
448.675	665.81
448.896	784.81
449.117	674.81
449.338	649.81
449.559	725.81
449.779	796.81
450	673.81
450.221	575.81
450.442	511.81
450.662	501.81
450.883	507.81
451.104	540.81
451.324	493.81
451.545	496.81
451.766	457.81
451.986	456.81
452.207	433.81
452.428	449.81
452.648	425.81
452.869	421.81
453.089	447.81
453.31	469.81
453.53	446.81
453.751	439.81
453.971	451.81
454.192	486.81
454.412	477.81
454.633	441.81
454.853	447.81
455.073	442.81
455.294	467.81
455.514	551.81
455.734	511.81
455.955	432.81
456.175	415.81
456.395	410.81
456.616	411.81
456.836	399.81
457.056	408.81
457.276	397.81
457.497	404.81
457.717	392.81
457.937	422.81
458.157	417.81
458.377	421.81
458.598	457.81
458.818	536.81
459.038	633.81
459.258	642.81
459.478	540.81
459.698	439.81
459.918	459.81
460.138	440.81
460.358	426.81
460.578	450.81
460.798	428.81
461.018	453.81
461.238	441.81
461.458	427.81
461.678	415.81
461.898	438.81
462.118	443.81
462.338	433.81
462.558	436.81
462.777	449.81
462.997	453.81
463.217	445.81
463.437	464.81
463.657	458.81
463.876	463.81
464.096	464.81
464.316	441.81
464.536	473.81
464.755	466.81
464.975	482.81
465.195	545.81
465.414	680.81
465.634	575.81
465.854	517.81
466.073	462.81
466.293	468.81
466.512	452.81
466.732	444.81
466.951	446.81
467.171	431.81
467.391	450.81
467.61	440.81
467.829	467.81
468.049	463.81
468.268	470.81
468.488	447.81
468.707	436.81
468.927	447.81
469.146	424.81
469.365	423.81
469.585	430.81
469.804	441.81
470.023	442.81
470.243	431.81
470.462	430.81
470.681	474.81
470.901	472.81
471.12	454.81
471.339	455.81
471.558	450.81
471.777	468.81
471.997	450.81
472.216	462.81
472.435	507.81
472.654	492.81
472.873	460.81
473.092	436.81
473.311	431.81
473.53	443.81
473.749	448.81
473.968	515.81
474.187	627.81
474.406	663.81
474.625	521.81
474.844	482.81
475.063	462.81
475.282	450.81
475.501	462.81
475.72	461.81
475.939	462.81
476.158	455.81
476.377	469.81
476.596	439.81
476.814	466.81
477.033	472.81
477.252	467.81
477.471	471.81
477.69	485.81
477.908	485.81
478.127	498.81
478.346	461.81
478.564	471.81
478.783	475.81
479.002	489.81
479.22	513.81
479.439	497.81
479.658	544.81
479.876	538.81
480.095	549.81
480.313	569.81
480.532	541.81
480.751	538.81
480.969	582.81
481.188	649.81
481.406	691.81
481.624	581.81
481.843	570.81
482.061	537.81
482.28	571.81
482.498	554.81
482.717	522.81
482.935	545.81
483.153	555.81
483.372	534.81
483.59	533.81
483.808	536.81
484.027	524.81
484.245	545.81
484.463	531.81
484.681	550.81
484.9	558.81
485.118	542.81
485.336	535.81
485.554	572.81
485.772	537.81
485.99	512.81
486.209	548.81
486.427	562.81
486.645	559.81
486.863	584.81
487.081	589.81
487.299	572.81
487.517	595.81
487.735	557.81
487.953	569.81
488.171	579.81
488.389	562.81
488.607	580.81
488.825	541.81
489.043	570.81
489.261	582.81
489.479	569.81
489.696	571.81
489.914	597.81
490.132	620.81
490.35	582.81
490.568	609.81
490.786	631.81
491.003	632.81
491.221	636.81
491.439	646.81
491.657	662.81
491.874	679.81
492.092	666.81
492.31	665.81
492.527	662.81
492.745	660.81
492.963	675.81
493.18	665.81
493.398	672.81
493.615	663.81
493.833	680.81
494.05	723.81
494.268	683.81
494.485	668.81
494.703	691.81
494.92	684.81
495.138	678.81
495.355	687.81
495.573	687.81
495.79	682.81
496.008	702.81
496.225	683.81
496.442	709.81
496.66	693.81
496.877	709.81
497.094	681.81
497.312	693.81
497.529	708.81
497.746	691.81
497.963	702.81
498.181	724.81
498.398	722.81
498.615	729.81
498.832	762.81
499.049	721.81
499.267	737.81
499.484	733.81
499.701	737.81
499.918	744.81
500.135	783.81
500.352	789.81
500.569	799.81
500.786	781.81
501.003	814.81
501.22	827.81
501.437	809.81
501.654	775.81
501.871	815.81
