Data from 1980.PennyLincolnUp.Lamp.En5.5.200Scan.071819.P1_HRD10591_16-36-15-955.txt Node
Date: Thu Jul 18 16:36:15 EDT 2019
User: cochatt
Spectrometer: HR+D1059
Trigger mode: 1
Integration Time (sec): 1.000000E-1
Scans to average: 1
Electric dark correction enabled: true
Nonlinearity correction enabled: false
Boxcar width: 0
XAxis mode: Wavelengths
Number of Pixels in Spectrum: 2048
>>>>>Begin Spectral Data<<<<<
223.165	-27.88
223.4	-27.88
223.635	-27.88
223.869	-15.88
224.104	-10.88
224.338	-3.88
224.573	-22.88
224.808	1.12
225.042	-8.88
225.277	-4.88
225.511	3.12
225.746	0.12
225.98	19.12
226.215	14.12
226.449	16.12
226.683	-1.88
226.918	22.12
227.152	21.12
227.387	26.12
227.621	41.12
227.856	18.12
228.09	37.12
228.324	56.12
228.559	47.12
228.793	76.12
229.027	105.12
229.262	81.12
229.496	105.12
229.73	110.12
229.964	128.12
230.199	116.12
230.433	115.12
230.667	93.12
230.901	99.12
231.136	92.12
231.37	118.12
231.604	106.12
231.838	110.12
232.072	112.12
232.306	109.12
232.541	101.12
232.775	96.12
233.009	97.12
233.243	97.12
233.477	102.12
233.711	114.12
233.945	92.12
234.179	115.12
234.413	100.12
234.647	103.12
234.881	102.12
235.115	105.12
235.349	111.12
235.583	111.12
235.817	119.12
236.051	115.12
236.285	117.12
236.519	120.12
236.753	112.12
236.987	138.12
237.221	162.12
237.455	209.12
237.689	161.12
237.922	119.12
238.156	117.12
238.39	107.12
238.624	114.12
238.858	98.12
239.091	110.12
239.325	102.12
239.559	118.12
239.793	113.12
240.027	121.12
240.26	134.12
240.494	137.12
240.728	129.12
240.961	129.12
241.195	130.12
241.429	130.12
241.662	125.12
241.896	111.12
242.13	126.12
242.363	118.12
242.597	124.12
242.83	122.12
243.064	134.12
243.298	134.12
243.531	127.12
243.765	122.12
243.998	114.12
244.232	121.12
244.465	133.12
244.699	135.12
244.932	135.12
245.166	121.12
245.399	114.12
245.633	123.12
245.866	120.12
246.099	129.12
246.333	137.12
246.566	152.12
246.8	136.12
247.033	145.12
247.266	158.12
247.5	165.12
247.733	149.12
247.966	141.12
248.2	166.12
248.433	158.12
248.666	146.12
248.899	174.12
249.133	160.12
249.366	172.12
249.599	188.12
249.832	165.12
250.066	159.12
250.299	162.12
250.532	159.12
250.765	174.12
250.998	193.12
251.231	188.12
251.465	195.12
251.698	190.12
251.931	179.12
252.164	193.12
252.397	182.12
252.63	179.12
252.863	183.12
253.096	181.12
253.329	196.12
253.562	204.12
253.795	188.12
254.028	196.12
254.261	206.12
254.494	215.12
254.727	206.12
254.96	248.12
255.193	238.12
255.426	220.12
255.659	190.12
255.892	205.12
256.124	182.12
256.357	180.12
256.59	195.12
256.823	196.12
257.056	192.12
257.289	179.12
257.521	201.12
257.754	184.12
257.987	186.12
258.22	191.12
258.452	192.12
258.685	184.12
258.918	186.12
259.151	192.12
259.383	194.12
259.616	195.12
259.849	196.12
260.081	195.12
260.314	210.12
260.547	213.12
260.779	221.12
261.012	206.12
261.244	209.12
261.477	175.12
261.71	181.12
261.942	185.12
262.175	209.12
262.407	204.12
262.64	182.12
262.872	183.12
263.105	180.12
263.337	194.12
263.57	179.12
263.802	195.12
264.035	201.12
264.267	168.12
264.499	177.12
264.732	185.12
264.964	198.12
265.197	175.12
265.429	182.12
265.661	185.12
265.894	191.12
266.126	191.12
266.358	190.12
266.591	177.12
266.823	182.12
267.055	183.12
267.287	182.12
267.52	198.12
267.752	184.12
267.984	201.12
268.216	195.12
268.448	196.12
268.681	212.12
268.913	206.12
269.145	201.12
269.377	230.12
269.609	233.12
269.841	228.12
270.073	239.12
270.306	263.12
270.538	252.12
270.77	270.12
271.002	263.12
271.234	258.12
271.466	234.12
271.698	243.12
271.93	270.12
272.162	259.12
272.394	247.12
272.626	237.12
272.858	238.12
273.09	224.12
273.322	230.12
273.553	234.12
273.785	201.12
274.017	210.12
274.249	228.12
274.481	210.12
274.713	212.12
274.945	218.12
275.176	217.12
275.408	208.12
275.64	209.12
275.872	221.12
276.104	213.12
276.335	232.12
276.567	223.12
276.799	241.12
277.031	246.12
277.262	249.12
277.494	257.12
277.726	241.12
277.957	226.12
278.189	219.12
278.421	199.12
278.652	224.12
278.884	198.12
279.115	211.12
279.347	221.12
279.579	213.12
279.81	217.12
280.042	219.12
280.273	236.12
280.505	221.12
280.736	225.12
280.968	230.12
281.199	225.12
281.431	223.12
281.662	193.12
281.894	228.12
282.125	215.12
282.356	225.12
282.588	239.12
282.819	235.12
283.051	233.12
283.282	195.12
283.513	209.12
283.745	211.12
283.976	212.12
284.207	228.12
284.439	227.12
284.67	219.12
284.901	208.12
285.132	213.12
285.364	205.12
285.595	212.12
285.826	205.12
286.057	219.12
286.288	237.12
286.52	220.12
286.751	214.12
286.982	216.12
287.213	222.12
287.444	243.12
287.675	242.12
287.906	221.12
288.138	218.12
288.369	234.12
288.6	253.12
288.831	233.12
289.062	235.12
289.293	254.12
289.524	235.12
289.755	218.12
289.986	229.12
290.217	247.12
290.448	241.12
290.679	225.12
290.91	213.12
291.141	215.12
291.371	213.12
291.602	236.12
291.833	230.12
292.064	235.12
292.295	217.12
292.526	213.12
292.757	229.12
292.987	235.12
293.218	242.12
293.449	221.12
293.68	230.12
293.91	231.12
294.141	235.12
294.372	215.12
294.603	221.12
294.833	205.12
295.064	218.12
295.295	221.12
295.525	227.12
295.756	239.12
295.987	217.12
296.217	240.12
296.448	255.12
296.679	207.12
296.909	228.12
297.14	221.12
297.37	229.12
297.601	220.12
297.831	226.12
298.062	230.12
298.292	244.12
298.523	252.12
298.753	255.12
298.984	233.12
299.214	235.12
299.445	239.12
299.675	238.12
299.905	250.12
300.136	247.12
300.366	258.12
300.597	236.12
300.827	229.12
301.057	238.12
301.288	252.12
301.518	243.12
301.748	242.12
301.979	262.12
302.209	249.12
302.439	260.12
302.669	253.12
302.9	244.12
303.13	234.12
303.36	261.12
303.59	270.12
303.82	255.12
304.051	257.12
304.281	244.12
304.511	244.12
304.741	262.12
304.971	253.12
305.201	234.12
305.431	251.12
305.661	246.12
305.891	241.12
306.121	257.12
306.352	265.12
306.582	249.12
306.812	255.12
307.042	263.12
307.272	258.12
307.502	263.12
307.731	251.12
307.961	263.12
308.191	256.12
308.421	264.12
308.651	257.12
308.881	258.12
309.111	262.12
309.341	264.12
309.571	271.12
309.8	273.12
310.03	298.12
310.26	278.12
310.49	277.12
310.72	279.12
310.949	285.12
311.179	277.12
311.409	297.12
311.639	288.12
311.868	283.12
312.098	304.12
312.328	290.12
312.557	293.12
312.787	302.12
313.017	300.12
313.246	307.12
313.476	296.12
313.706	295.12
313.935	290.12
314.165	314.12
314.394	299.12
314.624	321.12
314.853	302.12
315.083	301.12
315.312	289.12
315.542	302.12
315.771	281.12
316.001	280.12
316.23	278.12
316.46	284.12
316.689	315.12
316.919	290.12
317.148	305.12
317.377	305.12
317.607	298.12
317.836	302.12
318.065	282.12
318.295	286.12
318.524	295.12
318.753	305.12
318.983	271.12
319.212	294.12
319.441	297.12
319.67	305.12
319.9	302.12
320.129	289.12
320.358	299.12
320.587	294.12
320.816	297.12
321.046	305.12
321.275	295.12
321.504	309.12
321.733	324.12
321.962	316.12
322.191	313.12
322.42	335.12
322.649	342.12
322.878	337.12
323.108	354.12
323.337	373.12
323.566	362.12
323.795	407.12
324.024	447.12
324.253	510.12
324.482	750.12
324.71	1127.12
324.939	1609.12
325.168	1443.12
325.397	741.12
325.626	489.12
325.855	420.12
326.084	386.12
326.313	378.12
326.542	376.12
326.77	412.12
326.999	490.12
327.228	641.12
327.457	992.12
327.686	1188.12
327.914	829.12
328.143	511.12
328.372	476.12
328.6	437.12
328.829	414.12
329.058	438.12
329.287	438.12
329.515	446.12
329.744	395.12
329.972	392.12
330.201	378.12
330.43	401.12
330.658	437.12
330.887	468.12
331.115	441.12
331.344	412.12
331.572	393.12
331.801	374.12
332.03	367.12
332.258	339.12
332.486	351.12
332.715	330.12
332.943	326.12
333.172	342.12
333.4	350.12
333.629	363.12
333.857	352.12
334.085	353.12
334.314	362.12
334.542	376.12
334.771	363.12
334.999	376.12
335.227	351.12
335.455	354.12
335.684	343.12
335.912	338.12
336.14	353.12
336.369	338.12
336.597	334.12
336.825	333.12
337.053	322.12
337.281	324.12
337.51	333.12
337.738	346.12
337.966	325.12
338.194	332.12
338.422	332.12
338.65	335.12
338.878	338.12
339.106	323.12
339.334	332.12
339.562	332.12
339.79	309.12
340.018	317.12
340.246	330.12
340.474	293.12
340.702	323.12
340.93	322.12
341.158	320.12
341.386	299.12
341.614	309.12
341.842	306.12
342.07	312.12
342.298	334.12
342.526	322.12
342.754	309.12
342.981	313.12
343.209	325.12
343.437	331.12
343.665	325.12
343.893	325.12
344.12	330.12
344.348	348.12
344.576	328.12
344.804	335.12
345.031	344.12
345.259	354.12
345.487	339.12
345.714	331.12
345.942	309.12
346.17	310.12
346.397	326.12
346.625	315.12
346.853	325.12
347.08	325.12
347.308	321.12
347.535	312.12
347.763	310.12
347.99	339.12
348.218	315.12
348.445	327.12
348.673	321.12
348.9	333.12
349.128	308.12
349.355	321.12
349.583	304.12
349.81	303.12
350.037	323.12
350.265	317.12
350.492	297.12
350.72	318.12
350.947	337.12
351.174	318.12
351.402	349.12
351.629	322.12
351.856	323.12
352.083	336.12
352.311	350.12
352.538	329.12
352.765	333.12
352.992	342.12
353.22	331.12
353.447	313.12
353.674	329.12
353.901	312.12
354.128	309.12
354.355	292.12
354.583	316.12
354.81	313.12
355.037	310.12
355.264	307.12
355.491	323.12
355.718	296.12
355.945	320.12
356.172	281.12
356.399	294.12
356.626	306.12
356.853	295.12
357.08	318.12
357.307	276.12
357.534	294.12
357.761	297.12
357.988	300.12
358.215	307.12
358.441	293.12
358.668	310.12
358.895	295.12
359.122	305.12
359.349	327.12
359.576	319.12
359.802	331.12
360.029	371.12
360.256	367.12
360.483	344.12
360.709	330.12
360.936	317.12
361.163	310.12
361.39	314.12
361.616	328.12
361.843	324.12
362.07	342.12
362.296	328.12
362.523	346.12
362.749	318.12
362.976	303.12
363.203	305.12
363.429	315.12
363.656	329.12
363.882	307.12
364.109	300.12
364.335	309.12
364.562	306.12
364.788	305.12
365.015	322.12
365.241	298.12
365.468	312.12
365.694	310.12
365.92	315.12
366.147	311.12
366.373	301.12
366.599	321.12
366.826	308.12
367.052	293.12
367.278	309.12
367.505	318.12
367.731	325.12
367.957	315.12
368.184	313.12
368.41	314.12
368.636	326.12
368.862	335.12
369.089	333.12
369.315	295.12
369.541	309.12
369.767	314.12
369.993	319.12
370.219	303.12
370.445	314.12
370.672	293.12
370.898	305.12
371.124	312.12
371.35	318.12
371.576	315.12
371.802	302.12
372.028	317.12
372.254	300.12
372.48	310.12
372.706	317.12
372.932	322.12
373.158	317.12
373.384	332.12
373.61	317.12
373.835	314.12
374.061	321.12
374.287	325.12
374.513	315.12
374.739	316.12
374.965	310.12
375.191	310.12
375.416	326.12
375.642	319.12
375.868	329.12
376.094	309.12
376.319	305.12
376.545	312.12
376.771	317.12
376.997	285.12
377.222	297.12
377.448	317.12
377.674	318.12
377.899	306.12
378.125	315.12
378.35	313.12
378.576	306.12
378.802	285.12
379.027	309.12
379.253	299.12
379.478	292.12
379.704	299.12
379.929	317.12
380.155	319.12
380.38	309.12
380.606	327.12
380.831	332.12
381.057	308.12
381.282	318.12
381.507	317.12
381.733	311.12
381.958	306.12
382.184	292.12
382.409	311.12
382.634	299.12
382.86	298.12
383.085	327.12
383.31	340.12
383.535	330.12
383.761	315.12
383.986	333.12
384.211	335.12
384.436	340.12
384.662	330.12
384.887	310.12
385.112	311.12
385.337	326.12
385.562	339.12
385.787	337.12
386.013	345.12
386.238	342.12
386.463	333.12
386.688	352.12
386.913	335.12
387.138	326.12
387.363	321.12
387.588	309.12
387.813	354.12
388.038	335.12
388.263	347.12
388.488	333.12
388.713	326.12
388.938	327.12
389.163	337.12
389.387	327.12
389.612	332.12
389.837	349.12
390.062	319.12
390.287	335.12
390.512	334.12
390.736	324.12
390.961	343.12
391.186	353.12
391.411	341.12
391.636	326.12
391.86	347.12
392.085	326.12
392.31	330.12
392.534	345.12
392.759	348.12
392.984	355.12
393.208	349.12
393.433	352.12
393.658	340.12
393.882	341.12
394.107	314.12
394.331	321.12
394.556	333.12
394.78	323.12
395.005	344.12
395.229	333.12
395.454	336.12
395.678	346.12
395.903	346.12
396.127	348.12
396.352	365.12
396.576	370.12
396.801	357.12
397.025	350.12
397.249	342.12
397.474	335.12
397.698	361.12
397.922	355.12
398.147	360.12
398.371	365.12
398.595	349.12
398.82	367.12
399.044	363.12
399.268	389.12
399.492	381.12
399.717	408.12
399.941	436.12
400.165	442.12
400.389	441.12
400.613	390.12
400.837	383.12
401.062	379.12
401.286	408.12
401.51	383.12
401.734	382.12
401.958	364.12
402.182	377.12
402.406	398.12
402.63	383.12
402.854	363.12
403.078	384.12
403.302	378.12
403.526	367.12
403.75	371.12
403.974	377.12
404.198	392.12
404.422	363.12
404.645	395.12
404.869	391.12
405.093	402.12
405.317	439.12
405.541	455.12
405.765	448.12
405.988	394.12
406.212	402.12
406.436	423.12
406.66	434.12
406.883	427.12
407.107	449.12
407.331	459.12
407.555	524.12
407.778	481.12
408.002	463.12
408.226	441.12
408.449	419.12
408.673	435.12
408.896	460.12
409.12	486.12
409.344	459.12
409.567	400.12
409.791	407.12
410.014	395.12
410.238	399.12
410.461	399.12
410.685	384.12
410.908	417.12
411.132	425.12
411.355	460.12
411.578	435.12
411.802	411.12
412.025	373.12
412.249	393.12
412.472	410.12
412.695	441.12
412.919	426.12
413.142	401.12
413.365	385.12
413.589	369.12
413.812	369.12
414.035	375.12
414.258	352.12
414.482	371.12
414.705	367.12
414.928	398.12
415.151	389.12
415.374	363.12
415.597	367.12
415.821	347.12
416.044	344.12
416.267	394.12
416.49	355.12
416.713	377.12
416.936	380.12
417.159	350.12
417.382	364.12
417.605	383.12
417.828	375.12
418.051	386.12
418.274	378.12
418.497	362.12
418.72	373.12
418.943	379.12
419.166	365.12
419.389	379.12
419.611	386.12
419.834	390.12
420.057	376.12
420.28	397.12
420.503	394.12
420.726	386.12
420.948	404.12
421.171	435.12
421.394	464.12
421.617	417.12
421.839	417.12
422.062	398.12
422.285	383.12
422.507	419.12
422.73	508.12
422.953	502.12
423.175	430.12
423.398	425.12
423.621	393.12
423.843	412.12
424.066	436.12
424.288	430.12
424.511	423.12
424.733	466.12
424.956	561.12
425.178	541.12
425.401	542.12
425.623	537.12
425.846	467.12
426.068	429.12
426.291	443.12
426.513	437.12
426.735	431.12
426.958	472.12
427.18	523.12
427.402	629.12
427.625	693.12
427.847	640.12
428.069	513.12
428.292	466.12
428.514	422.12
428.736	411.12
428.958	410.12
429.181	379.12
429.403	389.12
429.625	385.12
429.847	415.12
430.069	473.12
430.292	477.12
430.514	418.12
430.736	407.12
430.958	394.12
431.18	366.12
431.402	352.12
431.624	385.12
431.846	385.12
432.068	373.12
432.29	351.12
432.512	415.12
432.734	382.12
432.956	377.12
433.178	380.12
433.4	382.12
433.622	389.12
433.844	363.12
434.066	397.12
434.287	383.12
434.509	365.12
434.731	391.12
434.953	381.12
435.175	383.12
435.397	417.12
435.618	447.12
435.84	464.12
436.062	527.12
436.284	592.12
436.505	473.12
436.727	434.12
436.949	438.12
437.17	405.12
437.392	395.12
437.614	417.12
437.835	437.12
438.057	533.12
438.278	625.12
438.5	594.12
438.721	664.12
438.943	651.12
439.165	509.12
439.386	464.12
439.608	436.12
439.829	446.12
440.05	462.12
440.272	516.12
440.493	441.12
440.715	428.12
440.936	402.12
441.158	428.12
441.379	403.12
441.6	415.12
441.822	416.12
442.043	473.12
442.264	518.12
442.486	544.12
442.707	489.12
442.928	423.12
443.149	453.12
443.371	461.12
443.592	498.12
443.813	569.12
444.034	628.12
444.255	512.12
444.476	449.12
444.698	419.12
444.919	436.12
445.14	484.12
445.361	472.12
445.582	477.12
445.803	522.12
446.024	597.12
446.245	597.12
446.466	543.12
446.687	475.12
446.908	430.12
447.129	425.12
447.35	405.12
447.571	397.12
447.792	380.12
448.013	407.12
448.234	422.12
448.455	464.12
448.675	537.12
448.896	641.12
449.117	565.12
449.338	527.12
449.559	596.12
449.779	663.12
450	527.12
450.221	458.12
450.442	410.12
450.662	401.12
450.883	393.12
451.104	397.12
451.324	392.12
451.545	397.12
451.766	382.12
451.986	366.12
452.207	357.12
452.428	349.12
452.648	355.12
452.869	345.12
453.089	371.12
453.31	368.12
453.53	361.12
453.751	345.12
453.971	343.12
454.192	376.12
454.412	362.12
454.633	362.12
454.853	360.12
455.073	341.12
455.294	381.12
455.514	426.12
455.734	426.12
455.955	358.12
456.175	348.12
456.395	328.12
456.616	345.12
456.836	335.12
457.056	328.12
457.276	326.12
457.497	335.12
457.717	341.12
457.937	344.12
458.157	335.12
458.377	362.12
458.598	383.12
458.818	409.12
459.038	464.12
459.258	486.12
459.478	409.12
459.698	366.12
459.918	374.12
460.138	353.12
460.358	379.12
460.578	369.12
460.798	378.12
461.018	380.12
461.238	359.12
461.458	374.12
461.678	365.12
461.898	369.12
462.118	378.12
462.338	355.12
462.558	389.12
462.777	403.12
462.997	372.12
463.217	397.12
463.437	405.12
463.657	403.12
463.876	376.12
464.096	400.12
464.316	385.12
464.536	389.12
464.755	395.12
464.975	395.12
465.195	447.12
465.414	485.12
465.634	433.12
465.854	389.12
466.073	377.12
466.293	336.12
466.512	341.12
466.732	341.12
466.951	361.12
467.171	362.12
467.391	353.12
467.61	369.12
467.829	387.12
468.049	359.12
468.268	367.12
468.488	355.12
468.707	343.12
468.927	345.12
469.146	361.12
469.365	346.12
469.585	360.12
469.804	355.12
470.023	368.12
470.243	361.12
470.462	363.12
470.681	386.12
470.901	381.12
471.12	384.12
471.339	377.12
471.558	367.12
471.777	383.12
471.997	371.12
472.216	370.12
472.435	391.12
472.654	378.12
472.873	377.12
473.092	361.12
473.311	374.12
473.53	367.12
473.749	378.12
473.968	390.12
474.187	488.12
474.406	505.12
474.625	433.12
474.844	379.12
475.063	395.12
475.282	375.12
475.501	357.12
475.72	379.12
475.939	387.12
476.158	393.12
476.377	381.12
476.596	383.12
476.814	395.12
477.033	387.12
477.252	382.12
477.471	378.12
477.69	363.12
477.908	385.12
478.127	385.12
478.346	392.12
478.564	413.12
478.783	418.12
479.002	407.12
479.22	412.12
479.439	443.12
479.658	445.12
479.876	450.12
480.095	440.12
480.313	445.12
480.532	439.12
480.751	438.12
480.969	468.12
481.188	484.12
481.406	489.12
481.624	424.12
481.843	446.12
482.061	428.12
482.28	421.12
482.498	433.12
482.717	425.12
482.935	428.12
483.153	428.12
483.372	439.12
483.59	437.12
483.808	438.12
484.027	430.12
484.245	442.12
484.463	451.12
484.681	449.12
484.9	441.12
485.118	456.12
485.336	477.12
485.554	439.12
485.772	446.12
485.99	435.12
486.209	433.12
486.427	446.12
486.645	458.12
486.863	486.12
487.081	485.12
487.299	463.12
487.517	477.12
487.735	458.12
487.953	483.12
488.171	466.12
488.389	469.12
488.607	477.12
488.825	472.12
489.043	469.12
489.261	478.12
489.479	473.12
489.696	475.12
489.914	492.12
490.132	468.12
490.35	481.12
490.568	502.12
490.786	507.12
491.003	481.12
491.221	489.12
491.439	537.12
491.657	516.12
491.874	524.12
492.092	513.12
492.31	533.12
492.527	535.12
492.745	519.12
492.963	537.12
493.18	546.12
493.398	547.12
493.615	558.12
493.833	571.12
494.05	553.12
494.268	528.12
494.485	562.12
494.703	542.12
494.92	553.12
495.138	531.12
495.355	527.12
495.573	552.12
495.79	562.12
496.008	581.12
496.225	568.12
496.442	563.12
496.66	565.12
496.877	559.12
497.094	578.12
497.312	547.12
497.529	571.12
497.746	576.12
497.963	585.12
498.181	575.12
498.398	598.12
498.615	609.12
498.832	603.12
499.049	585.12
499.267	617.12
499.484	618.12
499.701	640.12
499.918	649.12
500.135	684.12
500.352	686.12
500.569	703.12
500.786	718.12
501.003	685.12
501.22	696.12
501.437	677.12
501.654	672.12
501.871	663.12
502.088	647.12
