Data from 1980.PennyLincolnUp.Lamp.En5.5.200Scan.071819.P1_HRD10591_16-36-14-956.txt Node
Date: Thu Jul 18 16:36:14 EDT 2019
User: cochatt
Spectrometer: HR+D1059
Trigger mode: 1
Integration Time (sec): 1.000000E-1
Scans to average: 1
Electric dark correction enabled: true
Nonlinearity correction enabled: false
Boxcar width: 0
XAxis mode: Wavelengths
Number of Pixels in Spectrum: 2048
>>>>>Begin Spectral Data<<<<<
223.165	-15.31
223.4	-15.31
223.635	-15.31
223.869	-6.31
224.104	-9.31
224.338	-11.31
224.573	-23.31
224.808	-12.31
225.042	2.69
225.277	2.69
225.511	-3.31
225.746	-10.31
225.98	-2.31
226.215	16.69
226.449	8.69
226.683	10.69
226.918	28.69
227.152	23.69
227.387	36.69
227.621	41.69
227.856	25.69
228.09	31.69
228.324	38.69
228.559	43.69
228.793	59.69
229.027	88.69
229.262	92.69
229.496	92.69
229.73	97.69
229.964	128.69
230.199	106.69
230.433	103.69
230.667	106.69
230.901	104.69
231.136	106.69
231.37	105.69
231.604	99.69
231.838	98.69
232.072	88.69
232.306	94.69
232.541	102.69
232.775	96.69
233.009	100.69
233.243	105.69
233.477	99.69
233.711	106.69
233.945	115.69
234.179	114.69
234.413	106.69
234.647	107.69
234.881	123.69
235.115	104.69
235.349	107.69
235.583	97.69
235.817	115.69
236.051	106.69
236.285	114.69
236.519	104.69
236.753	110.69
236.987	119.69
237.221	156.69
237.455	198.69
237.689	138.69
237.922	124.69
238.156	114.69
238.39	127.69
238.624	102.69
238.858	99.69
239.091	103.69
239.325	109.69
239.559	115.69
239.793	100.69
240.027	110.69
240.26	113.69
240.494	124.69
240.728	133.69
240.961	139.69
241.195	127.69
241.429	131.69
241.662	124.69
241.896	123.69
242.13	122.69
242.363	117.69
242.597	118.69
242.83	122.69
243.064	126.69
243.298	113.69
243.531	118.69
243.765	116.69
243.998	122.69
244.232	111.69
244.465	116.69
244.699	123.69
244.932	120.69
245.166	123.69
245.399	123.69
245.633	118.69
245.866	138.69
246.099	134.69
246.333	131.69
246.566	125.69
246.8	115.69
247.033	152.69
247.266	146.69
247.5	149.69
247.733	141.69
247.966	149.69
248.2	159.69
248.433	152.69
248.666	155.69
248.899	167.69
249.133	165.69
249.366	170.69
249.599	176.69
249.832	157.69
250.066	158.69
250.299	166.69
250.532	158.69
250.765	175.69
250.998	179.69
251.231	183.69
251.465	179.69
251.698	183.69
251.931	159.69
252.164	175.69
252.397	161.69
252.63	167.69
252.863	188.69
253.096	177.69
253.329	176.69
253.562	190.69
253.795	195.69
254.028	177.69
254.261	181.69
254.494	186.69
254.727	195.69
254.96	223.69
255.193	226.69
255.426	202.69
255.659	200.69
255.892	200.69
256.124	179.69
256.357	192.69
256.59	204.69
256.823	180.69
257.056	176.69
257.289	167.69
257.521	192.69
257.754	164.69
257.987	182.69
258.22	173.69
258.452	161.69
258.685	192.69
258.918	168.69
259.151	181.69
259.383	167.69
259.616	175.69
259.849	177.69
260.081	199.69
260.314	204.69
260.547	215.69
260.779	210.69
261.012	184.69
261.244	187.69
261.477	195.69
261.71	168.69
261.942	181.69
262.175	203.69
262.407	181.69
262.64	171.69
262.872	169.69
263.105	175.69
263.337	167.69
263.57	171.69
263.802	171.69
264.035	190.69
264.267	177.69
264.499	181.69
264.732	192.69
264.964	187.69
265.197	170.69
265.429	167.69
265.661	160.69
265.894	155.69
266.126	187.69
266.358	185.69
266.591	182.69
266.823	174.69
267.055	164.69
267.287	188.69
267.52	191.69
267.752	177.69
267.984	192.69
268.216	179.69
268.448	161.69
268.681	187.69
268.913	202.69
269.145	193.69
269.377	207.69
269.609	215.69
269.841	198.69
270.073	212.69
270.306	233.69
270.538	241.69
270.77	246.69
271.002	249.69
271.234	233.69
271.466	231.69
271.698	230.69
271.93	244.69
272.162	240.69
272.394	250.69
272.626	252.69
272.858	216.69
273.09	227.69
273.322	205.69
273.553	224.69
273.785	213.69
274.017	210.69
274.249	199.69
274.481	212.69
274.713	202.69
274.945	203.69
275.176	207.69
275.408	201.69
275.64	205.69
275.872	211.69
276.104	196.69
276.335	209.69
276.567	210.69
276.799	228.69
277.031	246.69
277.262	248.69
277.494	241.69
277.726	219.69
277.957	233.69
278.189	213.69
278.421	216.69
278.652	204.69
278.884	217.69
279.115	201.69
279.347	208.69
279.579	219.69
279.81	202.69
280.042	201.69
280.273	211.69
280.505	215.69
280.736	200.69
280.968	210.69
281.199	204.69
281.431	201.69
281.662	197.69
281.894	213.69
282.125	217.69
282.356	227.69
282.588	219.69
282.819	231.69
283.051	194.69
283.282	214.69
283.513	212.69
283.745	204.69
283.976	215.69
284.207	216.69
284.439	225.69
284.67	226.69
284.901	221.69
285.132	205.69
285.364	209.69
285.595	202.69
285.826	210.69
286.057	200.69
286.288	222.69
286.52	204.69
286.751	196.69
286.982	216.69
287.213	210.69
287.444	215.69
287.675	221.69
287.906	223.69
288.138	227.69
288.369	222.69
288.6	220.69
288.831	229.69
289.062	230.69
289.293	214.69
289.524	224.69
289.755	225.69
289.986	235.69
290.217	217.69
290.448	210.69
290.679	224.69
290.91	209.69
291.141	209.69
291.371	219.69
291.602	216.69
291.833	217.69
292.064	209.69
292.295	218.69
292.526	219.69
292.757	216.69
292.987	209.69
293.218	202.69
293.449	214.69
293.68	210.69
293.91	217.69
294.141	222.69
294.372	204.69
294.603	221.69
294.833	239.69
295.064	226.69
295.295	232.69
295.525	212.69
295.756	231.69
295.987	227.69
296.217	227.69
296.448	245.69
296.679	229.69
296.909	234.69
297.14	217.69
297.37	229.69
297.601	225.69
297.831	222.69
298.062	212.69
298.292	222.69
298.523	227.69
298.753	228.69
298.984	225.69
299.214	235.69
299.445	232.69
299.675	226.69
299.905	235.69
300.136	245.69
300.366	213.69
300.597	215.69
300.827	238.69
301.057	246.69
301.288	241.69
301.518	243.69
301.748	249.69
301.979	246.69
302.209	233.69
302.439	229.69
302.669	226.69
302.9	234.69
303.13	239.69
303.36	258.69
303.59	262.69
303.82	243.69
304.051	238.69
304.281	252.69
304.511	252.69
304.741	249.69
304.971	240.69
305.201	227.69
305.431	254.69
305.661	244.69
305.891	235.69
306.121	244.69
306.352	244.69
306.582	247.69
306.812	253.69
307.042	239.69
307.272	244.69
307.502	253.69
307.731	241.69
307.961	239.69
308.191	252.69
308.421	260.69
308.651	247.69
308.881	260.69
309.111	241.69
309.341	261.69
309.571	260.69
309.8	277.69
310.03	242.69
310.26	258.69
310.49	274.69
310.72	257.69
310.949	292.69
311.179	298.69
311.409	256.69
311.639	274.69
311.868	274.69
312.098	283.69
312.328	273.69
312.557	297.69
312.787	303.69
313.017	288.69
313.246	310.69
313.476	261.69
313.706	290.69
313.935	287.69
314.165	278.69
314.394	288.69
314.624	284.69
314.853	277.69
315.083	278.69
315.312	279.69
315.542	274.69
315.771	271.69
316.001	274.69
316.23	270.69
316.46	257.69
316.689	295.69
316.919	281.69
317.148	286.69
317.377	277.69
317.607	288.69
317.836	274.69
318.065	270.69
318.295	293.69
318.524	278.69
318.753	260.69
318.983	288.69
319.212	274.69
319.441	263.69
319.67	281.69
319.9	281.69
320.129	261.69
320.358	263.69
320.587	272.69
320.816	289.69
321.046	294.69
321.275	304.69
321.504	286.69
321.733	290.69
321.962	282.69
322.191	302.69
322.42	295.69
322.649	322.69
322.878	332.69
323.108	335.69
323.337	353.69
323.566	354.69
323.795	355.69
324.024	384.69
324.253	500.69
324.482	702.69
324.71	1059.69
324.939	1548.69
325.168	1398.69
325.397	737.69
325.626	491.69
325.855	398.69
326.084	375.69
326.313	333.69
326.542	344.69
326.77	403.69
326.999	469.69
327.228	647.69
327.457	940.69
327.686	1170.69
327.914	796.69
328.143	534.69
328.372	457.69
328.6	417.69
328.829	406.69
329.058	438.69
329.287	428.69
329.515	387.69
329.744	373.69
329.972	375.69
330.201	348.69
330.43	394.69
330.658	420.69
330.887	420.69
331.115	446.69
331.344	371.69
331.572	352.69
331.801	348.69
332.03	355.69
332.258	342.69
332.486	344.69
332.715	328.69
332.943	320.69
333.172	342.69
333.4	337.69
333.629	325.69
333.857	325.69
334.085	329.69
334.314	308.69
334.542	353.69
334.771	366.69
334.999	344.69
335.227	334.69
335.455	324.69
335.684	317.69
335.912	312.69
336.14	323.69
336.369	320.69
336.597	316.69
336.825	317.69
337.053	312.69
337.281	310.69
337.51	314.69
337.738	313.69
337.966	322.69
338.194	314.69
338.422	315.69
338.65	304.69
338.878	321.69
339.106	319.69
339.334	313.69
339.562	315.69
339.79	300.69
340.018	303.69
340.246	313.69
340.474	310.69
340.702	293.69
340.93	305.69
341.158	289.69
341.386	311.69
341.614	316.69
341.842	316.69
342.07	315.69
342.298	305.69
342.526	302.69
342.754	285.69
342.981	321.69
343.209	300.69
343.437	306.69
343.665	291.69
343.893	321.69
344.12	314.69
344.348	320.69
344.576	308.69
344.804	323.69
345.031	316.69
345.259	332.69
345.487	328.69
345.714	320.69
345.942	311.69
346.17	315.69
346.397	311.69
346.625	326.69
346.853	331.69
347.08	289.69
347.308	299.69
347.535	324.69
347.763	300.69
347.99	317.69
348.218	304.69
348.445	322.69
348.673	321.69
348.9	304.69
349.128	303.69
349.355	310.69
349.583	291.69
349.81	274.69
350.037	326.69
350.265	305.69
350.492	305.69
350.72	305.69
350.947	294.69
351.174	303.69
351.402	320.69
351.629	300.69
351.856	330.69
352.083	313.69
352.311	330.69
352.538	317.69
352.765	311.69
352.992	332.69
353.22	306.69
353.447	314.69
353.674	305.69
353.901	290.69
354.128	315.69
354.355	303.69
354.583	275.69
354.81	294.69
355.037	292.69
355.264	296.69
355.491	265.69
355.718	294.69
355.945	296.69
356.172	289.69
356.399	263.69
356.626	282.69
356.853	269.69
357.08	269.69
357.307	280.69
357.534	300.69
357.761	286.69
357.988	293.69
358.215	282.69
358.441	278.69
358.668	287.69
358.895	299.69
359.122	300.69
359.349	298.69
359.576	296.69
359.802	314.69
360.029	340.69
360.256	347.69
360.483	330.69
360.709	320.69
360.936	307.69
361.163	326.69
361.39	328.69
361.616	337.69
361.843	301.69
362.07	302.69
362.296	296.69
362.523	289.69
362.749	289.69
362.976	291.69
363.203	283.69
363.429	310.69
363.656	300.69
363.882	289.69
364.109	288.69
364.335	295.69
364.562	298.69
364.788	304.69
365.015	297.69
365.241	293.69
365.468	287.69
365.694	287.69
365.92	304.69
366.147	273.69
366.373	303.69
366.599	280.69
366.826	294.69
367.052	282.69
367.278	302.69
367.505	262.69
367.731	291.69
367.957	314.69
368.184	284.69
368.41	295.69
368.636	310.69
368.862	291.69
369.089	298.69
369.315	294.69
369.541	307.69
369.767	302.69
369.993	312.69
370.219	308.69
370.445	291.69
370.672	282.69
370.898	288.69
371.124	295.69
371.35	287.69
371.576	289.69
371.802	282.69
372.028	299.69
372.254	292.69
372.48	293.69
372.706	297.69
372.932	303.69
373.158	304.69
373.384	307.69
373.61	295.69
373.835	310.69
374.061	313.69
374.287	309.69
374.513	300.69
374.739	293.69
374.965	296.69
375.191	297.69
375.416	292.69
375.642	313.69
375.868	309.69
376.094	306.69
376.319	292.69
376.545	296.69
376.771	296.69
376.997	297.69
377.222	292.69
377.448	291.69
377.674	299.69
377.899	297.69
378.125	295.69
378.35	303.69
378.576	300.69
378.802	286.69
379.027	287.69
379.253	297.69
379.478	300.69
379.704	304.69
379.929	302.69
380.155	316.69
380.38	287.69
380.606	306.69
380.831	311.69
381.057	293.69
381.282	294.69
381.507	306.69
381.733	301.69
381.958	277.69
382.184	296.69
382.409	290.69
382.634	323.69
382.86	318.69
383.085	302.69
383.31	319.69
383.535	313.69
383.761	304.69
383.986	303.69
384.211	311.69
384.436	308.69
384.662	294.69
384.887	302.69
385.112	319.69
385.337	319.69
385.562	295.69
385.787	318.69
386.013	317.69
386.238	316.69
386.463	319.69
386.688	319.69
386.913	326.69
387.138	307.69
387.363	338.69
387.588	315.69
387.813	306.69
388.038	327.69
388.263	294.69
388.488	338.69
388.713	323.69
388.938	351.69
389.163	307.69
389.387	312.69
389.612	331.69
389.837	320.69
390.062	304.69
390.287	322.69
390.512	324.69
390.736	324.69
390.961	318.69
391.186	308.69
391.411	315.69
391.636	327.69
391.86	335.69
392.085	321.69
392.31	322.69
392.534	333.69
392.759	306.69
392.984	311.69
393.208	314.69
393.433	320.69
393.658	339.69
393.882	315.69
394.107	318.69
394.331	307.69
394.556	312.69
394.78	313.69
395.005	287.69
395.229	299.69
395.454	325.69
395.678	333.69
395.903	342.69
396.127	346.69
396.352	354.69
396.576	329.69
396.801	329.69
397.025	339.69
397.249	337.69
397.474	331.69
397.698	312.69
397.922	347.69
398.147	362.69
398.371	353.69
398.595	362.69
398.82	350.69
399.044	356.69
399.268	363.69
399.492	386.69
399.717	389.69
399.941	389.69
400.165	419.69
400.389	438.69
400.613	398.69
400.837	379.69
401.062	360.69
401.286	354.69
401.51	360.69
401.734	352.69
401.958	340.69
402.182	358.69
402.406	348.69
402.63	375.69
402.854	348.69
403.078	374.69
403.302	376.69
403.526	381.69
403.75	348.69
403.974	367.69
404.198	382.69
404.422	370.69
404.645	369.69
404.869	356.69
405.093	386.69
405.317	406.69
405.541	439.69
405.765	380.69
405.988	370.69
406.212	400.69
406.436	394.69
406.66	405.69
406.883	413.69
407.107	409.69
407.331	428.69
407.555	497.69
407.778	487.69
408.002	457.69
408.226	417.69
408.449	418.69
408.673	407.69
408.896	414.69
409.12	460.69
409.344	448.69
409.567	403.69
409.791	392.69
410.014	388.69
410.238	366.69
410.461	378.69
410.685	371.69
410.908	374.69
411.132	406.69
411.355	449.69
411.578	412.69
411.802	370.69
412.025	360.69
412.249	386.69
412.472	408.69
412.695	399.69
412.919	408.69
413.142	373.69
413.365	383.69
413.589	352.69
413.812	376.69
414.035	368.69
414.258	354.69
414.482	325.69
414.705	357.69
414.928	345.69
415.151	350.69
415.374	358.69
415.597	352.69
415.821	336.69
416.044	339.69
416.267	344.69
416.49	344.69
416.713	356.69
416.936	349.69
417.159	350.69
417.382	362.69
417.605	353.69
417.828	383.69
418.051	378.69
418.274	375.69
418.497	352.69
418.72	347.69
418.943	348.69
419.166	353.69
419.389	379.69
419.611	370.69
419.834	369.69
420.057	360.69
420.28	370.69
420.503	374.69
420.726	387.69
420.948	376.69
421.171	404.69
421.394	444.69
421.617	408.69
421.839	387.69
422.062	379.69
422.285	365.69
422.507	418.69
422.73	496.69
422.953	474.69
423.175	411.69
423.398	395.69
423.621	374.69
423.843	409.69
424.066	420.69
424.288	414.69
424.511	397.69
424.733	435.69
424.956	511.69
425.178	499.69
425.401	506.69
425.623	497.69
425.846	448.69
426.068	446.69
426.291	384.69
426.513	409.69
426.735	434.69
426.958	455.69
427.18	507.69
427.402	592.69
427.625	653.69
427.847	606.69
428.069	512.69
428.292	455.69
428.514	420.69
428.736	391.69
428.958	386.69
429.181	382.69
429.403	367.69
429.625	376.69
429.847	400.69
430.069	482.69
430.292	470.69
430.514	409.69
430.736	394.69
430.958	366.69
431.18	373.69
431.402	352.69
431.624	358.69
431.846	379.69
432.068	344.69
432.29	377.69
432.512	370.69
432.734	354.69
432.956	358.69
433.178	367.69
433.4	375.69
433.622	364.69
433.844	351.69
434.066	353.69
434.287	344.69
434.509	347.69
434.731	353.69
434.953	372.69
435.175	374.69
435.397	379.69
435.618	410.69
435.84	436.69
436.062	509.69
436.284	540.69
436.505	492.69
436.727	436.69
436.949	383.69
437.17	376.69
437.392	377.69
437.614	394.69
437.835	422.69
438.057	496.69
438.278	574.69
438.5	578.69
438.721	594.69
438.943	588.69
439.165	476.69
439.386	438.69
439.608	423.69
439.829	406.69
440.05	436.69
440.272	475.69
440.493	455.69
440.715	423.69
440.936	407.69
441.158	397.69
441.379	382.69
441.6	384.69
441.822	403.69
442.043	444.69
442.264	502.69
442.486	545.69
442.707	469.69
442.928	428.69
443.149	442.69
443.371	454.69
443.592	464.69
443.813	540.69
444.034	596.69
444.255	488.69
444.476	434.69
444.698	413.69
444.919	423.69
445.14	479.69
445.361	456.69
445.582	442.69
445.803	506.69
446.024	559.69
446.245	548.69
446.466	529.69
446.687	464.69
446.908	426.69
447.129	382.69
447.35	383.69
447.571	379.69
447.792	383.69
448.013	400.69
448.234	407.69
448.455	461.69
448.675	517.69
448.896	612.69
449.117	523.69
449.338	492.69
449.559	584.69
449.779	643.69
450	524.69
450.221	451.69
450.442	398.69
450.662	380.69
450.883	370.69
451.104	381.69
451.324	390.69
451.545	359.69
451.766	355.69
451.986	352.69
452.207	343.69
452.428	341.69
452.648	327.69
452.869	341.69
453.089	322.69
453.31	365.69
453.53	354.69
453.751	343.69
453.971	342.69
454.192	364.69
454.412	347.69
454.633	331.69
454.853	336.69
455.073	337.69
455.294	355.69
455.514	411.69
455.734	394.69
455.955	352.69
456.175	351.69
456.395	315.69
456.616	315.69
456.836	342.69
457.056	326.69
457.276	303.69
457.497	312.69
457.717	307.69
457.937	326.69
458.157	323.69
458.377	329.69
458.598	342.69
458.818	386.69
459.038	427.69
459.258	459.69
459.478	392.69
459.698	347.69
459.918	359.69
460.138	346.69
460.358	370.69
460.578	342.69
460.798	345.69
461.018	336.69
461.238	365.69
461.458	354.69
461.678	343.69
461.898	338.69
462.118	363.69
462.338	375.69
462.558	355.69
462.777	378.69
462.997	360.69
463.217	369.69
463.437	366.69
463.657	386.69
463.876	384.69
464.096	366.69
464.316	345.69
464.536	374.69
464.755	379.69
464.975	385.69
465.195	394.69
465.414	461.69
465.634	416.69
465.854	377.69
466.073	363.69
466.293	353.69
466.512	345.69
466.732	339.69
466.951	347.69
467.171	344.69
467.391	355.69
467.61	342.69
467.829	361.69
468.049	346.69
468.268	357.69
468.488	328.69
468.707	336.69
468.927	359.69
469.146	356.69
469.365	351.69
469.585	343.69
469.804	332.69
470.023	336.69
470.243	338.69
470.462	347.69
470.681	364.69
470.901	344.69
471.12	345.69
471.339	343.69
471.558	369.69
471.777	363.69
471.997	348.69
472.216	348.69
472.435	356.69
472.654	342.69
472.873	357.69
473.092	345.69
473.311	346.69
473.53	363.69
473.749	355.69
473.968	390.69
474.187	450.69
474.406	483.69
474.625	404.69
474.844	377.69
475.063	358.69
475.282	351.69
475.501	370.69
475.72	366.69
475.939	358.69
476.158	370.69
476.377	358.69
476.596	353.69
476.814	383.69
477.033	368.69
477.252	374.69
477.471	361.69
477.69	370.69
477.908	364.69
478.127	395.69
478.346	366.69
478.564	360.69
478.783	369.69
479.002	402.69
479.22	402.69
479.439	416.69
479.658	401.69
479.876	421.69
480.095	414.69
480.313	458.69
480.532	419.69
480.751	411.69
480.969	437.69
481.188	452.69
481.406	467.69
481.624	426.69
481.843	429.69
482.061	426.69
482.28	426.69
482.498	407.69
482.717	402.69
482.935	433.69
483.153	402.69
483.372	407.69
483.59	406.69
483.808	439.69
484.027	411.69
484.245	416.69
484.463	418.69
484.681	447.69
484.9	418.69
485.118	411.69
485.336	420.69
485.554	415.69
485.772	460.69
485.99	423.69
486.209	430.69
486.427	419.69
486.645	434.69
486.863	472.69
487.081	448.69
487.299	440.69
487.517	455.69
487.735	427.69
487.953	440.69
488.171	435.69
488.389	461.69
488.607	451.69
488.825	453.69
489.043	452.69
489.261	442.69
489.479	456.69
489.696	464.69
489.914	464.69
490.132	449.69
490.35	479.69
490.568	457.69
490.786	469.69
491.003	481.69
491.221	478.69
491.439	516.69
491.657	504.69
491.874	514.69
492.092	494.69
492.31	521.69
492.527	510.69
492.745	532.69
492.963	507.69
493.18	526.69
493.398	506.69
493.615	519.69
493.833	536.69
494.05	514.69
494.268	528.69
494.485	517.69
494.703	513.69
494.92	554.69
495.138	555.69
495.355	523.69
495.573	527.69
495.79	541.69
496.008	530.69
496.225	520.69
496.442	514.69
496.66	547.69
496.877	525.69
497.094	545.69
497.312	542.69
497.529	572.69
497.746	544.69
497.963	560.69
498.181	564.69
498.398	578.69
498.615	568.69
498.832	568.69
499.049	584.69
499.267	582.69
499.484	612.69
499.701	609.69
499.918	638.69
500.135	641.69
500.352	670.69
500.569	673.69
500.786	664.69
501.003	674.69
501.22	661.69
501.437	631.69
501.654	655.69
501.871	632.69
502.088	623.69
