Data from 1980.PennyLincolnUp.Lamp.En5.5.200Scan.071819.P1_HRD10591_16-38-12-958.txt Node
Date: Thu Jul 18 16:38:12 EDT 2019
User: cochatt
Spectrometer: HR+D1059
Trigger mode: 1
Integration Time (sec): 1.000000E-1
Scans to average: 1
Electric dark correction enabled: true
Nonlinearity correction enabled: false
Boxcar width: 0
XAxis mode: Wavelengths
Number of Pixels in Spectrum: 2048
>>>>>Begin Spectral Data<<<<<
223.165	-15.19
223.4	-15.19
223.635	-15.19
223.869	-24.19
224.104	-14.19
224.338	-0.19
224.573	-19.19
224.808	-0.19
225.042	-17.19
225.277	1.81
225.511	7.81
225.746	1.81
225.98	-14.19
226.215	4.81
226.449	19.81
226.683	6.81
226.918	29.81
227.152	31.81
227.387	45.81
227.621	49.81
227.856	45.81
228.09	58.81
228.324	43.81
228.559	60.81
228.793	83.81
229.027	112.81
229.262	136.81
229.496	121.81
229.73	148.81
229.964	156.81
230.199	140.81
230.433	116.81
230.667	123.81
230.901	125.81
231.136	117.81
231.37	110.81
231.604	109.81
231.838	130.81
232.072	113.81
232.306	114.81
232.541	124.81
232.775	100.81
233.009	104.81
233.243	130.81
233.477	132.81
233.711	116.81
233.945	115.81
234.179	113.81
234.413	116.81
234.647	129.81
234.881	107.81
235.115	118.81
235.349	121.81
235.583	121.81
235.817	130.81
236.051	114.81
236.285	113.81
236.519	137.81
236.753	137.81
236.987	144.81
237.221	181.81
237.455	258.81
237.689	194.81
237.922	145.81
238.156	144.81
238.39	140.81
238.624	122.81
238.858	123.81
239.091	115.81
239.325	124.81
239.559	142.81
239.793	138.81
240.027	127.81
240.26	166.81
240.494	185.81
240.728	165.81
240.961	159.81
241.195	160.81
241.429	158.81
241.662	144.81
241.896	146.81
242.13	127.81
242.363	136.81
242.597	129.81
242.83	134.81
243.064	130.81
243.298	147.81
243.531	137.81
243.765	149.81
243.998	147.81
244.232	154.81
244.465	135.81
244.699	144.81
244.932	143.81
245.166	156.81
245.399	150.81
245.633	151.81
245.866	140.81
246.099	137.81
246.333	163.81
246.566	163.81
246.8	162.81
247.033	162.81
247.266	164.81
247.5	152.81
247.733	162.81
247.966	183.81
248.2	173.81
248.433	177.81
248.666	199.81
248.899	203.81
249.133	215.81
249.366	237.81
249.599	226.81
249.832	195.81
250.066	182.81
250.299	194.81
250.532	207.81
250.765	213.81
250.998	224.81
251.231	242.81
251.465	251.81
251.698	201.81
251.931	219.81
252.164	218.81
252.397	203.81
252.63	213.81
252.863	206.81
253.096	231.81
253.329	245.81
253.562	249.81
253.795	238.81
254.028	228.81
254.261	239.81
254.494	253.81
254.727	258.81
254.96	309.81
255.193	300.81
255.426	276.81
255.659	247.81
255.892	251.81
256.124	247.81
256.357	267.81
256.59	260.81
256.823	235.81
257.056	242.81
257.289	239.81
257.521	222.81
257.754	218.81
257.987	218.81
258.22	205.81
258.452	224.81
258.685	225.81
258.918	217.81
259.151	214.81
259.383	221.81
259.616	242.81
259.849	233.81
260.081	246.81
260.314	268.81
260.547	283.81
260.779	271.81
261.012	254.81
261.244	249.81
261.477	242.81
261.71	229.81
261.942	255.81
262.175	242.81
262.407	237.81
262.64	233.81
262.872	210.81
263.105	211.81
263.337	230.81
263.57	227.81
263.802	213.81
264.035	206.81
264.267	217.81
264.499	217.81
264.732	206.81
264.964	214.81
265.197	207.81
265.429	227.81
265.661	219.81
265.894	227.81
266.126	217.81
266.358	213.81
266.591	221.81
266.823	241.81
267.055	248.81
267.287	233.81
267.52	219.81
267.752	224.81
267.984	231.81
268.216	235.81
268.448	233.81
268.681	244.81
268.913	234.81
269.145	263.81
269.377	303.81
269.609	274.81
269.841	292.81
270.073	299.81
270.306	318.81
270.538	341.81
270.77	326.81
271.002	328.81
271.234	327.81
271.466	324.81
271.698	328.81
271.93	339.81
272.162	355.81
272.394	343.81
272.626	325.81
272.858	302.81
273.09	293.81
273.322	299.81
273.553	278.81
273.785	299.81
274.017	300.81
274.249	267.81
274.481	289.81
274.713	276.81
274.945	280.81
275.176	292.81
275.408	272.81
275.64	273.81
275.872	268.81
276.104	277.81
276.335	275.81
276.567	282.81
276.799	295.81
277.031	319.81
277.262	334.81
277.494	351.81
277.726	314.81
277.957	287.81
278.189	273.81
278.421	305.81
278.652	277.81
278.884	281.81
279.115	271.81
279.347	258.81
279.579	264.81
279.81	276.81
280.042	263.81
280.273	262.81
280.505	278.81
280.736	271.81
280.968	275.81
281.199	267.81
281.431	249.81
281.662	285.81
281.894	275.81
282.125	245.81
282.356	281.81
282.588	305.81
282.819	303.81
283.051	289.81
283.282	272.81
283.513	253.81
283.745	266.81
283.976	264.81
284.207	277.81
284.439	275.81
284.67	286.81
284.901	274.81
285.132	276.81
285.364	285.81
285.595	275.81
285.826	271.81
286.057	275.81
286.288	275.81
286.52	307.81
286.751	274.81
286.982	279.81
287.213	263.81
287.444	272.81
287.675	275.81
287.906	292.81
288.138	297.81
288.369	277.81
288.6	300.81
288.831	297.81
289.062	289.81
289.293	288.81
289.524	292.81
289.755	274.81
289.986	263.81
290.217	296.81
290.448	292.81
290.679	285.81
290.91	281.81
291.141	298.81
291.371	257.81
291.602	280.81
291.833	276.81
292.064	294.81
292.295	295.81
292.526	272.81
292.757	278.81
292.987	283.81
293.218	285.81
293.449	293.81
293.68	275.81
293.91	265.81
294.141	286.81
294.372	275.81
294.603	270.81
294.833	278.81
295.064	266.81
295.295	285.81
295.525	290.81
295.756	296.81
295.987	286.81
296.217	322.81
296.448	342.81
296.679	297.81
296.909	277.81
297.14	281.81
297.37	294.81
297.601	289.81
297.831	283.81
298.062	267.81
298.292	300.81
298.523	288.81
298.753	283.81
298.984	284.81
299.214	305.81
299.445	297.81
299.675	291.81
299.905	318.81
300.136	297.81
300.366	298.81
300.597	311.81
300.827	307.81
301.057	309.81
301.288	316.81
301.518	305.81
301.748	309.81
301.979	301.81
302.209	317.81
302.439	311.81
302.669	308.81
302.9	324.81
303.13	320.81
303.36	326.81
303.59	325.81
303.82	314.81
304.051	323.81
304.281	332.81
304.511	309.81
304.741	303.81
304.971	323.81
305.201	301.81
305.431	297.81
305.661	309.81
305.891	323.81
306.121	303.81
306.352	319.81
306.582	317.81
306.812	325.81
307.042	327.81
307.272	339.81
307.502	307.81
307.731	323.81
307.961	325.81
308.191	325.81
308.421	298.81
308.651	330.81
308.881	332.81
309.111	345.81
309.341	332.81
309.571	358.81
309.8	357.81
310.03	374.81
310.26	375.81
310.49	389.81
310.72	374.81
310.949	408.81
311.179	424.81
311.409	373.81
311.639	385.81
311.868	381.81
312.098	370.81
312.328	389.81
312.557	408.81
312.787	429.81
313.017	398.81
313.246	398.81
313.476	380.81
313.706	371.81
313.935	395.81
314.165	396.81
314.394	403.81
314.624	405.81
314.853	377.81
315.083	366.81
315.312	371.81
315.542	365.81
315.771	378.81
316.001	366.81
316.23	375.81
316.46	387.81
316.689	379.81
316.919	381.81
317.148	372.81
317.377	389.81
317.607	383.81
317.836	366.81
318.065	378.81
318.295	354.81
318.524	371.81
318.753	370.81
318.983	364.81
319.212	371.81
319.441	393.81
319.67	387.81
319.9	358.81
320.129	375.81
320.358	372.81
320.587	378.81
320.816	374.81
321.046	419.81
321.275	416.81
321.504	386.81
321.733	391.81
321.962	420.81
322.191	421.81
322.42	457.81
322.649	473.81
322.878	473.81
323.108	481.81
323.337	527.81
323.566	553.81
323.795	563.81
324.024	632.81
324.253	808.81
324.482	1163.81
324.71	1765.81
324.939	2545.81
325.168	2201.81
325.397	1180.81
325.626	745.81
325.855	602.81
326.084	587.81
326.313	545.81
326.542	556.81
326.77	613.81
326.999	725.81
327.228	1013.81
327.457	1541.81
327.686	1930.81
327.914	1315.81
328.143	838.81
328.372	719.81
328.6	675.81
328.829	629.81
329.058	645.81
329.287	646.81
329.515	602.81
329.744	555.81
329.972	555.81
330.201	570.81
330.43	626.81
330.658	659.81
330.887	683.81
331.115	651.81
331.344	573.81
331.572	516.81
331.801	520.81
332.03	504.81
332.258	475.81
332.486	460.81
332.715	429.81
332.943	458.81
333.172	429.81
333.4	464.81
333.629	460.81
333.857	505.81
334.085	482.81
334.314	515.81
334.542	531.81
334.771	559.81
334.999	488.81
335.227	482.81
335.455	463.81
335.684	435.81
335.912	413.81
336.14	413.81
336.369	425.81
336.597	458.81
336.825	440.81
337.053	429.81
337.281	418.81
337.51	402.81
337.738	425.81
337.966	426.81
338.194	425.81
338.422	439.81
338.65	417.81
338.878	408.81
339.106	400.81
339.334	423.81
339.562	397.81
339.79	411.81
340.018	422.81
340.246	417.81
340.474	430.81
340.702	423.81
340.93	417.81
341.158	408.81
341.386	396.81
341.614	417.81
341.842	417.81
342.07	398.81
342.298	405.81
342.526	391.81
342.754	382.81
342.981	395.81
343.209	387.81
343.437	389.81
343.665	404.81
343.893	411.81
344.12	423.81
344.348	418.81
344.576	412.81
344.804	417.81
345.031	445.81
345.259	439.81
345.487	442.81
345.714	439.81
345.942	422.81
346.17	415.81
346.397	407.81
346.625	398.81
346.853	396.81
347.08	409.81
347.308	408.81
347.535	401.81
347.763	437.81
347.99	408.81
348.218	438.81
348.445	428.81
348.673	439.81
348.9	417.81
349.128	407.81
349.355	391.81
349.583	377.81
349.81	394.81
350.037	382.81
350.265	406.81
350.492	388.81
350.72	396.81
350.947	394.81
351.174	410.81
351.402	400.81
351.629	418.81
351.856	429.81
352.083	426.81
352.311	440.81
352.538	433.81
352.765	450.81
352.992	424.81
353.22	430.81
353.447	404.81
353.674	402.81
353.901	392.81
354.128	403.81
354.355	381.81
354.583	364.81
354.81	363.81
355.037	378.81
355.264	380.81
355.491	389.81
355.718	357.81
355.945	367.81
356.172	360.81
356.399	356.81
356.626	376.81
356.853	371.81
357.08	353.81
357.307	371.81
357.534	351.81
357.761	369.81
357.988	371.81
358.215	385.81
358.441	362.81
358.668	357.81
358.895	377.81
359.122	385.81
359.349	398.81
359.576	411.81
359.802	418.81
360.029	475.81
360.256	488.81
360.483	462.81
360.709	441.81
360.936	413.81
361.163	426.81
361.39	414.81
361.616	433.81
361.843	405.81
362.07	407.81
362.296	405.81
362.523	420.81
362.749	396.81
362.976	411.81
363.203	398.81
363.429	379.81
363.656	381.81
363.882	397.81
364.109	385.81
364.335	386.81
364.562	390.81
364.788	395.81
365.015	381.81
365.241	397.81
365.468	377.81
365.694	413.81
365.92	398.81
366.147	373.81
366.373	359.81
366.599	379.81
366.826	385.81
367.052	396.81
367.278	361.81
367.505	395.81
367.731	379.81
367.957	372.81
368.184	380.81
368.41	397.81
368.636	392.81
368.862	398.81
369.089	395.81
369.315	389.81
369.541	384.81
369.767	393.81
369.993	400.81
370.219	383.81
370.445	376.81
370.672	378.81
370.898	371.81
371.124	383.81
371.35	355.81
371.576	354.81
371.802	368.81
372.028	378.81
372.254	373.81
372.48	385.81
372.706	382.81
372.932	367.81
373.158	369.81
373.384	360.81
373.61	370.81
373.835	379.81
374.061	372.81
374.287	373.81
374.513	387.81
374.739	380.81
374.965	392.81
375.191	382.81
375.416	373.81
375.642	367.81
375.868	377.81
376.094	363.81
376.319	376.81
376.545	358.81
376.771	357.81
376.997	358.81
377.222	383.81
377.448	376.81
377.674	370.81
377.899	363.81
378.125	375.81
378.35	368.81
378.576	383.81
378.802	375.81
379.027	366.81
379.253	365.81
379.478	372.81
379.704	373.81
379.929	377.81
380.155	359.81
380.38	359.81
380.606	373.81
380.831	370.81
381.057	378.81
381.282	392.81
381.507	387.81
381.733	358.81
381.958	366.81
382.184	378.81
382.409	385.81
382.634	384.81
382.86	377.81
383.085	378.81
383.31	407.81
383.535	371.81
383.761	389.81
383.986	381.81
384.211	369.81
384.436	395.81
384.662	397.81
384.887	385.81
385.112	386.81
385.337	407.81
385.562	394.81
385.787	375.81
386.013	389.81
386.238	426.81
386.463	400.81
386.688	410.81
386.913	380.81
387.138	402.81
387.363	392.81
387.588	394.81
387.813	396.81
388.038	386.81
388.263	381.81
388.488	397.81
388.713	398.81
388.938	395.81
389.163	424.81
389.387	409.81
389.612	381.81
389.837	393.81
390.062	360.81
390.287	395.81
390.512	372.81
390.736	405.81
390.961	395.81
391.186	395.81
391.411	412.81
391.636	391.81
391.86	402.81
392.085	421.81
392.31	424.81
392.534	383.81
392.759	404.81
392.984	394.81
393.208	391.81
393.433	383.81
393.658	399.81
393.882	391.81
394.107	393.81
394.331	411.81
394.556	394.81
394.78	393.81
395.005	376.81
395.229	384.81
395.454	395.81
395.678	404.81
395.903	414.81
396.127	452.81
396.352	437.81
396.576	396.81
396.801	409.81
397.025	424.81
397.249	401.81
397.474	407.81
397.698	428.81
397.922	435.81
398.147	446.81
398.371	449.81
398.595	464.81
398.82	443.81
399.044	469.81
399.268	440.81
399.492	470.81
399.717	471.81
399.941	499.81
400.165	547.81
400.389	548.81
400.613	514.81
400.837	482.81
401.062	440.81
401.286	474.81
401.51	435.81
401.734	449.81
401.958	458.81
402.182	463.81
402.406	464.81
402.63	485.81
402.854	465.81
403.078	450.81
403.302	450.81
403.526	481.81
403.75	455.81
403.974	466.81
404.198	464.81
404.422	481.81
404.645	478.81
404.869	484.81
405.093	489.81
405.317	544.81
405.541	568.81
405.765	544.81
405.988	515.81
406.212	522.81
406.436	521.81
406.66	545.81
406.883	519.81
407.107	527.81
407.331	558.81
407.555	645.81
407.778	634.81
408.002	563.81
408.226	540.81
408.449	551.81
408.673	514.81
408.896	551.81
409.12	602.81
409.344	559.81
409.567	521.81
409.791	484.81
410.014	453.81
410.238	467.81
410.461	477.81
410.685	486.81
410.908	499.81
411.132	494.81
411.355	565.81
411.578	527.81
411.802	519.81
412.025	489.81
412.249	475.81
412.472	492.81
412.695	541.81
412.919	534.81
413.142	479.81
413.365	458.81
413.589	453.81
413.812	445.81
414.035	457.81
414.258	450.81
414.482	445.81
414.705	454.81
414.928	457.81
415.151	435.81
415.374	445.81
415.597	441.81
415.821	444.81
416.044	449.81
416.267	441.81
416.49	443.81
416.713	443.81
416.936	443.81
417.159	456.81
417.382	436.81
417.605	454.81
417.828	497.81
418.051	451.81
418.274	469.81
418.497	439.81
418.72	443.81
418.943	455.81
419.166	484.81
419.389	476.81
419.611	481.81
419.834	494.81
420.057	484.81
420.28	477.81
420.503	468.81
420.726	487.81
420.948	502.81
421.171	540.81
421.394	590.81
421.617	487.81
421.839	460.81
422.062	475.81
422.285	501.81
422.507	559.81
422.73	636.81
422.953	606.81
423.175	554.81
423.398	511.81
423.621	515.81
423.843	525.81
424.066	549.81
424.288	535.81
424.511	554.81
424.733	597.81
424.956	666.81
425.178	639.81
425.401	627.81
425.623	668.81
425.846	585.81
426.068	545.81
426.291	544.81
426.513	503.81
426.735	548.81
426.958	599.81
427.18	673.81
427.402	783.81
427.625	871.81
427.847	782.81
428.069	678.81
428.292	619.81
428.514	535.81
428.736	518.81
428.958	504.81
429.181	500.81
429.403	510.81
429.625	519.81
429.847	529.81
430.069	625.81
430.292	610.81
430.514	517.81
430.736	486.81
430.958	493.81
431.18	466.81
431.402	471.81
431.624	462.81
431.846	457.81
432.068	447.81
432.29	455.81
432.512	460.81
432.734	480.81
432.956	489.81
433.178	474.81
433.4	477.81
433.622	482.81
433.844	448.81
434.066	450.81
434.287	433.81
434.509	440.81
434.731	473.81
434.953	466.81
435.175	488.81
435.397	530.81
435.618	519.81
435.84	567.81
436.062	678.81
436.284	761.81
436.505	635.81
436.727	550.81
436.949	519.81
437.17	518.81
437.392	527.81
437.614	502.81
437.835	557.81
438.057	654.81
438.278	774.81
438.5	756.81
438.721	813.81
438.943	801.81
439.165	629.81
439.386	602.81
439.608	546.81
439.829	550.81
440.05	584.81
440.272	652.81
440.493	612.81
440.715	525.81
440.936	515.81
441.158	527.81
441.379	512.81
441.6	519.81
441.822	546.81
442.043	557.81
442.264	684.81
442.486	721.81
442.707	586.81
442.928	577.81
443.149	573.81
443.371	598.81
443.592	625.81
443.813	709.81
444.034	744.81
444.255	648.81
444.476	575.81
444.698	516.81
444.919	529.81
445.14	595.81
445.361	590.81
445.582	569.81
445.803	652.81
446.024	745.81
446.245	759.81
446.466	703.81
446.687	593.81
446.908	521.81
447.129	513.81
447.35	497.81
447.571	475.81
447.792	475.81
448.013	516.81
448.234	525.81
448.455	579.81
448.675	716.81
448.896	760.81
449.117	684.81
449.338	623.81
449.559	726.81
449.779	829.81
450	689.81
450.221	580.81
450.442	527.81
450.662	518.81
450.883	513.81
451.104	524.81
451.324	522.81
451.545	479.81
451.766	449.81
451.986	454.81
452.207	442.81
452.428	441.81
452.648	465.81
452.869	439.81
453.089	455.81
453.31	474.81
453.53	457.81
453.751	441.81
453.971	455.81
454.192	469.81
454.412	467.81
454.633	439.81
454.853	460.81
455.073	463.81
455.294	471.81
455.514	566.81
455.734	535.81
455.955	439.81
456.175	426.81
456.395	426.81
456.616	422.81
456.836	412.81
457.056	401.81
457.276	409.81
457.497	391.81
457.717	403.81
457.937	416.81
458.157	429.81
458.377	420.81
458.598	435.81
458.818	530.81
459.038	636.81
459.258	629.81
459.478	551.81
459.698	501.81
459.918	471.81
460.138	461.81
460.358	444.81
460.578	453.81
460.798	457.81
461.018	451.81
461.238	450.81
461.458	436.81
461.678	437.81
461.898	423.81
462.118	457.81
462.338	437.81
462.558	476.81
462.777	453.81
462.997	457.81
463.217	467.81
463.437	475.81
463.657	473.81
463.876	460.81
464.096	457.81
464.316	477.81
464.536	486.81
464.755	471.81
464.975	482.81
465.195	558.81
465.414	644.81
465.634	552.81
465.854	523.81
466.073	468.81
466.293	451.81
466.512	440.81
466.732	452.81
466.951	433.81
467.171	421.81
467.391	442.81
467.61	468.81
467.829	476.81
468.049	473.81
468.268	462.81
468.488	438.81
468.707	452.81
468.927	455.81
469.146	432.81
469.365	462.81
469.585	417.81
469.804	435.81
470.023	464.81
470.243	449.81
470.462	462.81
470.681	477.81
470.901	451.81
471.12	451.81
471.339	465.81
471.558	455.81
471.777	449.81
471.997	457.81
472.216	458.81
472.435	495.81
472.654	491.81
472.873	450.81
473.092	453.81
473.311	453.81
473.53	446.81
473.749	477.81
473.968	507.81
474.187	627.81
474.406	664.81
474.625	545.81
474.844	481.81
475.063	456.81
475.282	470.81
475.501	463.81
475.72	456.81
475.939	461.81
476.158	477.81
476.377	454.81
476.596	465.81
476.814	497.81
477.033	489.81
477.252	484.81
477.471	502.81
477.69	470.81
477.908	475.81
478.127	493.81
478.346	480.81
478.564	477.81
478.783	490.81
479.002	513.81
479.22	525.81
479.439	550.81
479.658	554.81
479.876	539.81
480.095	553.81
480.313	597.81
480.532	565.81
480.751	568.81
480.969	571.81
481.188	636.81
481.406	710.81
481.624	607.81
481.843	583.81
482.061	561.81
482.28	535.81
482.498	538.81
482.717	551.81
482.935	548.81
483.153	544.81
483.372	518.81
483.59	540.81
483.808	548.81
484.027	542.81
484.245	537.81
484.463	539.81
484.681	552.81
484.9	566.81
485.118	522.81
485.336	558.81
485.554	552.81
485.772	548.81
485.99	545.81
486.209	580.81
486.427	567.81
486.645	577.81
486.863	582.81
487.081	598.81
487.299	594.81
487.517	598.81
487.735	588.81
487.953	598.81
488.171	589.81
488.389	596.81
488.607	584.81
488.825	583.81
489.043	581.81
489.261	598.81
489.479	591.81
489.696	590.81
489.914	601.81
490.132	591.81
490.35	622.81
490.568	613.81
490.786	614.81
491.003	625.81
491.221	651.81
491.439	644.81
491.657	689.81
491.874	673.81
492.092	669.81
492.31	678.81
492.527	695.81
492.745	699.81
492.963	659.81
493.18	694.81
493.398	713.81
493.615	692.81
493.833	674.81
494.05	725.81
494.268	707.81
494.485	709.81
494.703	674.81
494.92	696.81
495.138	700.81
495.355	686.81
495.573	725.81
495.79	699.81
496.008	697.81
496.225	709.81
496.442	684.81
496.66	693.81
496.877	668.81
497.094	706.81
497.312	677.81
497.529	690.81
497.746	721.81
497.963	711.81
498.181	725.81
498.398	738.81
498.615	739.81
498.832	760.81
499.049	749.81
499.267	770.81
499.484	768.81
499.701	798.81
499.918	842.81
500.135	823.81
500.352	846.81
500.569	827.81
500.786	854.81
501.003	834.81
501.22	830.81
501.437	830.81
501.654	843.81
501.871	849.81
