Data from 1980.PennyLincolnUp.Lamp.En5.5.200Scan.071819.P1_HRD10591_16-35-46-956.txt Node
Date: Thu Jul 18 16:35:46 EDT 2019
User: cochatt
Spectrometer: HR+D1059
Trigger mode: 1
Integration Time (sec): 1.000000E-1
Scans to average: 1
Electric dark correction enabled: true
Nonlinearity correction enabled: false
Boxcar width: 0
XAxis mode: Wavelengths
Number of Pixels in Spectrum: 2048
>>>>>Begin Spectral Data<<<<<
223.165	-16
223.4	-16
223.635	-16
223.869	-15
224.104	-23
224.338	-17
224.573	-11
224.808	-8
225.042	-8
225.277	5
225.511	-7
225.746	3
225.98	8
226.215	15
226.449	13
226.683	16
226.918	21
227.152	24
227.387	44
227.621	37
227.856	60
228.09	42
228.324	52
228.559	59
228.793	63
229.027	83
229.262	89
229.496	93
229.73	127
229.964	139
230.199	118
230.433	98
230.667	82
230.901	84
231.136	100
231.37	91
231.604	103
231.838	97
232.072	98
232.306	101
232.541	108
232.775	112
233.009	114
233.243	105
233.477	81
233.711	100
233.945	104
234.179	118
234.413	114
234.647	107
234.881	90
235.115	107
235.349	112
235.583	83
235.817	108
236.051	104
236.285	103
236.519	122
236.753	115
236.987	132
237.221	159
237.455	194
237.689	169
237.922	127
238.156	118
238.39	108
238.624	104
238.858	115
239.091	109
239.325	106
239.559	113
239.793	103
240.027	114
240.26	132
240.494	125
240.728	127
240.961	127
241.195	112
241.429	144
241.662	123
241.896	136
242.13	122
242.363	127
242.597	129
242.83	113
243.064	121
243.298	117
243.531	112
243.765	134
243.998	131
244.232	120
244.465	129
244.699	127
244.932	132
245.166	140
245.399	123
245.633	138
245.866	128
246.099	137
246.333	140
246.566	140
246.8	137
247.033	128
247.266	139
247.5	127
247.733	163
247.966	161
248.2	141
248.433	162
248.666	161
248.899	174
249.133	172
249.366	185
249.599	184
249.832	171
250.066	172
250.299	161
250.532	165
250.765	179
250.998	201
251.231	210
251.465	208
251.698	173
251.931	179
252.164	185
252.397	188
252.63	184
252.863	194
253.096	178
253.329	211
253.562	213
253.795	201
254.028	196
254.261	200
254.494	209
254.727	215
254.96	241
255.193	252
255.426	212
255.659	204
255.892	201
256.124	204
256.357	198
256.59	184
256.823	187
257.056	191
257.289	188
257.521	199
257.754	187
257.987	176
258.22	196
258.452	177
258.685	202
258.918	184
259.151	186
259.383	169
259.616	186
259.849	199
260.081	178
260.314	213
260.547	227
260.779	211
261.012	194
261.244	189
261.477	205
261.71	187
261.942	200
262.175	187
262.407	181
262.64	183
262.872	187
263.105	176
263.337	167
263.57	185
263.802	178
264.035	184
264.267	160
264.499	174
264.732	193
264.964	183
265.197	195
265.429	177
265.661	191
265.894	174
266.126	170
266.358	164
266.591	182
266.823	195
267.055	177
267.287	179
267.52	186
267.752	189
267.984	195
268.216	191
268.448	193
268.681	207
268.913	215
269.145	210
269.377	228
269.609	232
269.841	220
270.073	206
270.306	235
270.538	243
270.77	245
271.002	263
271.234	248
271.466	255
271.698	256
271.93	253
272.162	251
272.394	270
272.626	239
272.858	216
273.09	232
273.322	231
273.553	213
273.785	222
274.017	212
274.249	209
274.481	205
274.713	218
274.945	205
275.176	195
275.408	234
275.64	209
275.872	202
276.104	214
276.335	201
276.567	212
276.799	222
277.031	234
277.262	265
277.494	246
277.726	252
277.957	239
278.189	211
278.421	214
278.652	224
278.884	198
279.115	197
279.347	207
279.579	205
279.81	222
280.042	225
280.273	223
280.505	219
280.736	217
280.968	217
281.199	206
281.431	196
281.662	217
281.894	224
282.125	212
282.356	229
282.588	218
282.819	231
283.051	212
283.282	204
283.513	209
283.745	203
283.976	200
284.207	217
284.439	211
284.67	215
284.901	230
285.132	220
285.364	201
285.595	206
285.826	225
286.057	225
286.288	217
286.52	205
286.751	212
286.982	213
287.213	223
287.444	223
287.675	201
287.906	236
288.138	212
288.369	235
288.6	216
288.831	224
289.062	229
289.293	210
289.524	231
289.755	233
289.986	210
290.217	228
290.448	219
290.679	209
290.91	204
291.141	220
291.371	205
291.602	216
291.833	207
292.064	204
292.295	205
292.526	208
292.757	215
292.987	217
293.218	205
293.449	203
293.68	209
293.91	210
294.141	216
294.372	223
294.603	207
294.833	204
295.064	214
295.295	216
295.525	217
295.756	208
295.987	215
296.217	260
296.448	239
296.679	232
296.909	218
297.14	220
297.37	232
297.601	223
297.831	223
298.062	217
298.292	213
298.523	214
298.753	226
298.984	221
299.214	223
299.445	221
299.675	227
299.905	241
300.136	230
300.366	228
300.597	214
300.827	227
301.057	228
301.288	245
301.518	247
301.748	220
301.979	246
302.209	249
302.439	235
302.669	235
302.9	241
303.13	235
303.36	226
303.59	241
303.82	241
304.051	256
304.281	239
304.511	221
304.741	255
304.971	241
305.201	257
305.431	234
305.661	234
305.891	251
306.121	255
306.352	258
306.582	254
306.812	242
307.042	249
307.272	228
307.502	221
307.731	228
307.961	248
308.191	255
308.421	239
308.651	240
308.881	276
309.111	257
309.341	278
309.571	285
309.8	248
310.03	273
310.26	272
310.49	286
310.72	268
310.949	297
311.179	284
311.409	254
311.639	291
311.868	278
312.098	265
312.328	279
312.557	280
312.787	320
313.017	299
313.246	295
313.476	264
313.706	256
313.935	247
314.165	295
314.394	297
314.624	292
314.853	279
315.083	290
315.312	277
315.542	281
315.771	269
316.001	268
316.23	270
316.46	281
316.689	272
316.919	279
317.148	278
317.377	292
317.607	278
317.836	267
318.065	278
318.295	294
318.524	268
318.753	268
318.983	260
319.212	267
319.441	291
319.67	276
319.9	289
320.129	279
320.358	284
320.587	277
320.816	275
321.046	288
321.275	303
321.504	284
321.733	303
321.962	298
322.191	321
322.42	338
322.649	330
322.878	312
323.108	329
323.337	362
323.566	387
323.795	413
324.024	424
324.253	520
324.482	722
324.71	1067
324.939	1483
325.168	1292
325.397	722
325.626	495
325.855	415
326.084	377
326.313	388
326.542	359
326.77	431
326.999	477
327.228	619
327.457	908
327.686	1127
327.914	803
328.143	535
328.372	465
328.6	433
328.829	427
329.058	425
329.287	416
329.515	400
329.744	369
329.972	371
330.201	362
330.43	403
330.658	411
330.887	461
331.115	421
331.344	372
331.572	359
331.801	349
332.03	345
332.258	321
332.486	337
332.715	319
332.943	335
333.172	331
333.4	320
333.629	323
333.857	301
334.085	327
334.314	315
334.542	352
334.771	364
334.999	329
335.227	330
335.455	332
335.684	320
335.912	324
336.14	336
336.369	316
336.597	327
336.825	326
337.053	316
337.281	316
337.51	324
337.738	334
337.966	315
338.194	323
338.422	320
338.65	300
338.878	295
339.106	317
339.334	298
339.562	287
339.79	306
340.018	300
340.246	300
340.474	312
340.702	319
340.93	296
341.158	306
341.386	291
341.614	302
341.842	305
342.07	319
342.298	291
342.526	291
342.754	296
342.981	290
343.209	296
343.437	298
343.665	299
343.893	299
344.12	299
344.348	311
344.576	319
344.804	303
345.031	307
345.259	327
345.487	312
345.714	306
345.942	296
346.17	298
346.397	302
346.625	305
346.853	304
347.08	320
347.308	309
347.535	293
347.763	314
347.99	307
348.218	306
348.445	324
348.673	310
348.9	305
349.128	289
349.355	286
349.583	285
349.81	279
350.037	292
350.265	280
350.492	280
350.72	275
350.947	283
351.174	307
351.402	316
351.629	336
351.856	304
352.083	293
352.311	304
352.538	313
352.765	330
352.992	309
353.22	305
353.447	292
353.674	300
353.901	293
354.128	288
354.355	274
354.583	280
354.81	275
355.037	267
355.264	276
355.491	265
355.718	267
355.945	290
356.172	281
356.399	278
356.626	279
356.853	283
357.08	274
357.307	292
357.534	271
357.761	261
357.988	293
358.215	267
358.441	282
358.668	272
358.895	268
359.122	300
359.349	284
359.576	297
359.802	317
360.029	327
360.256	338
360.483	330
360.709	301
360.936	305
361.163	294
361.39	301
361.616	299
361.843	285
362.07	306
362.296	289
362.523	297
362.749	287
362.976	282
363.203	281
363.429	289
363.656	295
363.882	291
364.109	270
364.335	292
364.562	299
364.788	288
365.015	284
365.241	280
365.468	265
365.694	297
365.92	298
366.147	286
366.373	274
366.599	268
366.826	275
367.052	263
367.278	272
367.505	290
367.731	278
367.957	267
368.184	266
368.41	285
368.636	301
368.862	301
369.089	286
369.315	268
369.541	264
369.767	285
369.993	289
370.219	292
370.445	287
370.672	294
370.898	267
371.124	271
371.35	277
371.576	286
371.802	271
372.028	272
372.254	256
372.48	279
372.706	269
372.932	280
373.158	277
373.384	276
373.61	307
373.835	284
374.061	301
374.287	297
374.513	268
374.739	304
374.965	292
375.191	290
375.416	274
375.642	284
375.868	284
376.094	292
376.319	288
376.545	283
376.771	277
376.997	276
377.222	261
377.448	287
377.674	278
377.899	271
378.125	271
378.35	281
378.576	294
378.802	290
379.027	290
379.253	298
379.478	282
379.704	276
379.929	274
380.155	284
380.38	283
380.606	282
380.831	294
381.057	285
381.282	275
381.507	292
381.733	270
381.958	284
382.184	265
382.409	288
382.634	286
382.86	281
383.085	285
383.31	266
383.535	279
383.761	291
383.986	289
384.211	297
384.436	284
384.662	294
384.887	303
385.112	321
385.337	289
385.562	282
385.787	300
386.013	315
386.238	303
386.463	298
386.688	316
386.913	293
387.138	288
387.363	321
387.588	295
387.813	306
388.038	283
388.263	282
388.488	292
388.713	292
388.938	284
389.163	299
389.387	297
389.612	293
389.837	276
390.062	279
390.287	299
390.512	283
390.736	300
390.961	289
391.186	295
391.411	288
391.636	290
391.86	281
392.085	296
392.31	280
392.534	296
392.759	296
392.984	287
393.208	291
393.433	324
393.658	335
393.882	295
394.107	297
394.331	261
394.556	299
394.78	283
395.005	301
395.229	287
395.454	284
395.678	287
395.903	307
396.127	309
396.352	325
396.576	315
396.801	324
397.025	309
397.249	292
397.474	303
397.698	310
397.922	299
398.147	305
398.371	326
398.595	316
398.82	308
399.044	319
399.268	330
399.492	324
399.717	330
399.941	355
400.165	375
400.389	370
400.613	368
400.837	344
401.062	319
401.286	327
401.51	319
401.734	311
401.958	306
402.182	335
402.406	324
402.63	309
402.854	311
403.078	300
403.302	319
403.526	317
403.75	322
403.974	316
404.198	333
404.422	315
404.645	311
404.869	327
405.093	353
405.317	357
405.541	376
405.765	376
405.988	345
406.212	358
406.436	374
406.66	361
406.883	348
407.107	399
407.331	395
407.555	435
407.778	448
408.002	388
408.226	355
408.449	359
408.673	356
408.896	387
409.12	401
409.344	386
409.567	351
409.791	359
410.014	323
410.238	325
410.461	320
410.685	328
410.908	346
411.132	382
411.355	409
411.578	389
411.802	368
412.025	341
412.249	327
412.472	351
412.695	354
412.919	353
413.142	330
413.365	313
413.589	326
413.812	298
414.035	321
414.258	337
414.482	305
414.705	317
414.928	309
415.151	312
415.374	307
415.597	310
415.821	326
416.044	308
416.267	321
416.49	318
416.713	339
416.936	326
417.159	304
417.382	317
417.605	328
417.828	321
418.051	329
418.274	324
418.497	319
418.72	315
418.943	300
419.166	323
419.389	342
419.611	313
419.834	340
420.057	327
420.28	321
420.503	354
420.726	361
420.948	351
421.171	388
421.394	399
421.617	367
421.839	326
422.062	321
422.285	350
422.507	389
422.73	456
422.953	431
423.175	389
423.398	367
423.621	363
423.843	351
424.066	357
424.288	372
424.511	368
424.733	419
424.956	472
425.178	451
425.401	471
425.623	455
425.846	416
426.068	387
426.291	381
426.513	362
426.735	393
426.958	412
427.18	459
427.402	533
427.625	589
427.847	554
428.069	468
428.292	406
428.514	380
428.736	352
428.958	361
429.181	344
429.403	339
429.625	365
429.847	386
430.069	406
430.292	422
430.514	370
430.736	360
430.958	353
431.18	322
431.402	320
431.624	330
431.846	329
432.068	348
432.29	327
432.512	339
432.734	320
432.956	333
433.178	339
433.4	331
433.622	333
433.844	316
434.066	323
434.287	335
434.509	342
434.731	325
434.953	325
435.175	339
435.397	368
435.618	370
435.84	391
436.062	467
436.284	519
436.505	422
436.727	378
436.949	357
437.17	355
437.392	346
437.614	364
437.835	388
438.057	452
438.278	510
438.5	521
438.721	551
438.943	537
439.165	459
439.386	409
439.608	401
439.829	391
440.05	411
440.272	416
440.493	395
440.715	381
440.936	378
441.158	347
441.379	354
441.6	354
441.822	385
442.043	408
442.264	460
442.486	477
442.707	420
442.928	386
443.149	390
443.371	395
443.592	423
443.813	499
444.034	527
444.255	456
444.476	393
444.698	389
444.919	384
445.14	468
445.361	419
445.582	414
445.803	449
446.024	507
446.245	512
446.466	481
446.687	413
446.908	391
447.129	377
447.35	356
447.571	361
447.792	353
448.013	353
448.234	360
448.455	409
448.675	489
448.896	571
449.117	484
449.338	451
449.559	507
449.779	564
450	480
450.221	398
450.442	342
450.662	354
450.883	350
451.104	362
451.324	346
451.545	328
451.766	326
451.986	305
452.207	308
452.428	311
452.648	327
452.869	325
453.089	331
453.31	329
453.53	318
453.751	314
453.971	309
454.192	329
454.412	326
454.633	321
454.853	311
455.073	307
455.294	315
455.514	406
455.734	387
455.955	337
456.175	300
456.395	296
456.616	265
456.836	292
457.056	286
457.276	288
457.497	314
457.717	309
457.937	302
458.157	296
458.377	303
458.598	311
458.818	347
459.038	396
459.258	433
459.478	362
459.698	319
459.918	317
460.138	311
460.358	312
460.578	314
460.798	320
461.018	328
461.238	312
461.458	318
461.678	326
461.898	307
462.118	308
462.338	330
462.558	334
462.777	327
462.997	335
463.217	316
463.437	333
463.657	329
463.876	349
464.096	332
464.316	333
464.536	336
464.755	331
464.975	358
465.195	358
465.414	417
465.634	393
465.854	331
466.073	336
466.293	307
466.512	328
466.732	303
466.951	310
467.171	307
467.391	314
467.61	328
467.829	328
468.049	313
468.268	317
468.488	300
468.707	303
468.927	307
469.146	308
469.365	321
469.585	304
469.804	295
470.023	326
470.243	315
470.462	330
470.681	339
470.901	335
471.12	312
471.339	326
471.558	305
471.777	305
471.997	323
472.216	322
472.435	325
472.654	329
472.873	305
473.092	319
473.311	314
473.53	346
473.749	324
473.968	377
474.187	437
474.406	458
474.625	383
474.844	356
475.063	337
475.282	317
475.501	312
475.72	339
475.939	318
476.158	322
476.377	325
476.596	327
476.814	361
477.033	330
477.252	350
477.471	340
477.69	346
477.908	335
478.127	340
478.346	350
478.564	359
478.783	344
479.002	351
479.22	374
479.439	367
479.658	367
479.876	397
480.095	400
480.313	428
480.532	375
480.751	373
480.969	387
481.188	416
481.406	399
481.624	404
481.843	397
482.061	374
482.28	379
482.498	367
482.717	365
482.935	373
483.153	359
483.372	382
483.59	371
483.808	379
484.027	382
484.245	389
484.463	388
484.681	387
484.9	388
485.118	390
485.336	378
485.554	389
485.772	389
485.99	392
486.209	394
486.427	402
486.645	377
486.863	405
487.081	421
487.299	426
487.517	403
487.735	411
487.953	418
488.171	407
488.389	393
488.607	383
488.825	425
489.043	430
489.261	416
489.479	425
489.696	400
489.914	420
490.132	424
490.35	445
490.568	456
490.786	445
491.003	437
491.221	449
491.439	472
491.657	421
491.874	453
492.092	474
492.31	483
492.527	457
492.745	454
492.963	485
493.18	478
493.398	473
493.615	495
493.833	485
494.05	498
494.268	483
494.485	471
494.703	487
494.92	485
495.138	512
495.355	471
495.573	485
495.79	475
496.008	498
496.225	506
496.442	510
496.66	489
496.877	497
497.094	497
497.312	481
497.529	516
497.746	513
497.963	504
498.181	519
498.398	495
498.615	537
498.832	513
499.049	560
499.267	547
499.484	543
499.701	555
499.918	552
500.135	565
500.352	599
500.569	593
500.786	585
501.003	614
501.22	585
501.437	565
501.654	569
501.871	592
502.088	576
502.305	558
502.522	547
502.739	535
502.956	530
503.172	529
503.389	511
503.606	519
503.823	509
504.04	517
504.256	496
504.473	487
504.69	499
504.907	501
505.123	488
505.34	483
505.557	477
505.773	482
505.99	483
506.207	473
506.423	480
506.64	487
506.856	485
507.073	456
507.289	459
507.506	469
507.722	495
507.939	474
508.155	477
508.372	443
508.588	456
508.805	475
509.021	478
509.238	459
509.454	466
509.67	462
509.887	481
510.103	493
510.319	468
510.536	553
510.752	868
510.968	700
511.184	473
511.401	465
511.617	427
511.833	456
512.049	449
512.265	451
512.481	451
512.698	440
512.914	451
513.13	415
513.346	437
513.562	443
513.778	445
513.994	448
514.21	459
514.426	470
514.642	496
514.858	513
515.074	542
515.29	649
515.506	946
515.721	790
515.937	561
516.153	503
516.369	468
516.585	447
516.801	443
517.016	430
517.232	451
517.448	432
517.664	453
517.879	443
518.095	432
518.311	426
518.527	443
518.742	414
518.958	441
519.173	433
519.389	423
519.605	435
519.82	457
520.036	459
520.251	458
520.467	463
520.682	470
520.898	481
521.113	497
521.329	525
521.544	599
521.76	748
521.975	1184
522.19	1207
522.406	661
522.621	511
522.836	445
523.052	435
523.267	427
523.482	413
523.698	404
523.913	401
524.128	416
524.343	391
524.559	395
524.774	399
524.989	373
525.204	376
525.419	394
525.634	376
525.849	359
526.064	375
526.28	356
526.495	356
526.71	368
526.925	361
527.14	349
527.355	360
527.57	346
527.785	353
527.999	325
528.214	340
528.429	344
528.644	359
528.859	358
529.074	362
529.289	379
529.503	425
529.718	419
529.933	391
530.148	342
530.363	361
530.577	352
530.792	362
531.007	336
531.221	344
531.436	344
531.651	333
531.865	337
532.08	340
532.295	345
532.509	325
532.724	344
532.938	323
533.153	339
533.367	346
533.582	336
533.796	333
534.011	331
534.225	332
534.44	317
534.654	320
534.868	329
535.083	332
535.297	332
535.511	349
535.726	343
535.94	357
536.154	355
536.369	327
536.583	341
536.797	323
537.011	321
537.225	328
537.44	323
537.654	326
537.868	316
538.082	338
538.296	333
538.51	343
538.724	336
538.938	322
539.153	312
539.367	334
539.581	353
539.795	331
540.009	322
540.222	322
540.436	340
540.65	326
540.864	338
541.078	343
541.292	319
541.506	322
541.72	342
541.934	313
542.147	336
542.361	323
542.575	327
542.789	315
543.002	327
543.216	324
543.43	334
543.644	326
543.857	308
544.071	322
544.285	331
544.498	298
544.712	325
544.925	301
545.139	307
545.352	309
545.566	318
545.779	327
545.993	311
546.206	328
546.42	319
546.633	300
546.847	299
547.06	342
547.274	313
547.487	304
547.7	317
547.914	304
548.127	304
548.34	307
548.554	291
548.767	280
548.98	309
549.193	301
549.407	295
549.62	315
549.833	300
550.046	306
550.259	303
550.473	299
550.686	312
550.899	293
551.112	303
551.325	296
551.538	284
551.751	289
551.964	307
552.177	297
552.39	299
552.603	308
552.816	294
553.029	300
553.242	301
553.455	317
553.667	323
553.88	320
554.093	314
554.306	300
554.519	305
554.732	301
554.944	306
555.157	300
555.37	290
555.583	288
555.795	305
556.008	308
556.221	296
556.433	295
556.646	292
556.859	282
557.071	277
557.284	272
557.496	274
557.709	267
557.921	289
558.134	282
558.346	294
558.559	290
558.771	282
558.984	266
559.196	275
559.409	281
559.621	279
559.833	267
560.046	248
560.258	293
560.47	266
560.683	279
560.895	283
561.107	283
561.32	284
561.532	270
561.744	292
561.956	270
562.168	253
562.381	269
562.593	280
562.805	275
563.017	261
563.229	262
563.441	270
563.653	284
563.865	281
