Data from 1980.PennyLincolnUp.Lamp.En5.5.200Scan.071819.P1_HRD10591_16-36-17-956.txt Node
Date: Thu Jul 18 16:36:17 EDT 2019
User: cochatt
Spectrometer: HR+D1059
Trigger mode: 1
Integration Time (sec): 1.000000E-1
Scans to average: 1
Electric dark correction enabled: true
Nonlinearity correction enabled: false
Boxcar width: 0
XAxis mode: Wavelengths
Number of Pixels in Spectrum: 2048
>>>>>Begin Spectral Data<<<<<
223.165	-21.62
223.4	-21.62
223.635	-21.62
223.869	-12.62
224.104	-17.62
224.338	4.38
224.573	-5.62
224.808	-13.62
225.042	-2.62
225.277	-8.62
225.511	-3.62
225.746	-0.62
225.98	1.38
226.215	20.38
226.449	9.38
226.683	8.38
226.918	20.38
227.152	22.38
227.387	38.38
227.621	26.38
227.856	48.38
228.09	47.38
228.324	44.38
228.559	62.38
228.793	67.38
229.027	89.38
229.262	98.38
229.496	99.38
229.73	115.38
229.964	152.38
230.199	127.38
230.433	107.38
230.667	120.38
230.901	102.38
231.136	102.38
231.37	115.38
231.604	118.38
231.838	105.38
232.072	112.38
232.306	96.38
232.541	109.38
232.775	108.38
233.009	108.38
233.243	104.38
233.477	106.38
233.711	83.38
233.945	95.38
234.179	120.38
234.413	122.38
234.647	92.38
234.881	114.38
235.115	102.38
235.349	116.38
235.583	116.38
235.817	113.38
236.051	125.38
236.285	116.38
236.519	114.38
236.753	102.38
236.987	117.38
237.221	170.38
237.455	196.38
237.689	160.38
237.922	125.38
238.156	124.38
238.39	116.38
238.624	134.38
238.858	130.38
239.091	130.38
239.325	114.38
239.559	115.38
239.793	111.38
240.027	128.38
240.26	118.38
240.494	141.38
240.728	145.38
240.961	120.38
241.195	137.38
241.429	139.38
241.662	106.38
241.896	128.38
242.13	110.38
242.363	114.38
242.597	119.38
242.83	122.38
243.064	115.38
243.298	105.38
243.531	130.38
243.765	119.38
243.998	122.38
244.232	117.38
244.465	123.38
244.699	137.38
244.932	132.38
245.166	128.38
245.399	115.38
245.633	139.38
245.866	145.38
246.099	128.38
246.333	129.38
246.566	151.38
246.8	127.38
247.033	136.38
247.266	144.38
247.5	130.38
247.733	132.38
247.966	160.38
248.2	153.38
248.433	137.38
248.666	151.38
248.899	173.38
249.133	186.38
249.366	204.38
249.599	176.38
249.832	175.38
250.066	164.38
250.299	165.38
250.532	170.38
250.765	188.38
250.998	176.38
251.231	194.38
251.465	194.38
251.698	180.38
251.931	185.38
252.164	176.38
252.397	176.38
252.63	187.38
252.863	178.38
253.096	192.38
253.329	202.38
253.562	198.38
253.795	197.38
254.028	197.38
254.261	218.38
254.494	192.38
254.727	226.38
254.96	244.38
255.193	221.38
255.426	211.38
255.659	195.38
255.892	195.38
256.124	196.38
256.357	199.38
256.59	199.38
256.823	197.38
257.056	208.38
257.289	184.38
257.521	191.38
257.754	194.38
257.987	203.38
258.22	197.38
258.452	200.38
258.685	185.38
258.918	188.38
259.151	193.38
259.383	200.38
259.616	193.38
259.849	189.38
260.081	213.38
260.314	198.38
260.547	223.38
260.779	201.38
261.012	198.38
261.244	198.38
261.477	188.38
261.71	188.38
261.942	195.38
262.175	195.38
262.407	199.38
262.64	186.38
262.872	193.38
263.105	179.38
263.337	202.38
263.57	180.38
263.802	203.38
264.035	198.38
264.267	179.38
264.499	193.38
264.732	189.38
264.964	184.38
265.197	181.38
265.429	190.38
265.661	185.38
265.894	188.38
266.126	184.38
266.358	165.38
266.591	180.38
266.823	178.38
267.055	193.38
267.287	205.38
267.52	206.38
267.752	192.38
267.984	199.38
268.216	188.38
268.448	186.38
268.681	187.38
268.913	210.38
269.145	215.38
269.377	233.38
269.609	215.38
269.841	232.38
270.073	214.38
270.306	241.38
270.538	256.38
270.77	274.38
271.002	253.38
271.234	231.38
271.466	248.38
271.698	242.38
271.93	252.38
272.162	260.38
272.394	255.38
272.626	265.38
272.858	253.38
273.09	226.38
273.322	219.38
273.553	218.38
273.785	224.38
274.017	232.38
274.249	219.38
274.481	218.38
274.713	213.38
274.945	223.38
275.176	221.38
275.408	221.38
275.64	231.38
275.872	218.38
276.104	221.38
276.335	215.38
276.567	223.38
276.799	229.38
277.031	228.38
277.262	260.38
277.494	267.38
277.726	258.38
277.957	228.38
278.189	230.38
278.421	236.38
278.652	232.38
278.884	228.38
279.115	228.38
279.347	220.38
279.579	211.38
279.81	235.38
280.042	221.38
280.273	205.38
280.505	205.38
280.736	218.38
280.968	213.38
281.199	187.38
281.431	204.38
281.662	221.38
281.894	206.38
282.125	212.38
282.356	224.38
282.588	243.38
282.819	246.38
283.051	234.38
283.282	224.38
283.513	209.38
283.745	216.38
283.976	231.38
284.207	216.38
284.439	215.38
284.67	213.38
284.901	215.38
285.132	219.38
285.364	229.38
285.595	216.38
285.826	215.38
286.057	226.38
286.288	216.38
286.52	196.38
286.751	234.38
286.982	211.38
287.213	232.38
287.444	238.38
287.675	233.38
287.906	242.38
288.138	233.38
288.369	241.38
288.6	245.38
288.831	232.38
289.062	234.38
289.293	224.38
289.524	256.38
289.755	238.38
289.986	236.38
290.217	225.38
290.448	222.38
290.679	231.38
290.91	228.38
291.141	238.38
291.371	233.38
291.602	234.38
291.833	217.38
292.064	229.38
292.295	228.38
292.526	221.38
292.757	244.38
292.987	240.38
293.218	221.38
293.449	246.38
293.68	231.38
293.91	229.38
294.141	248.38
294.372	225.38
294.603	230.38
294.833	227.38
295.064	233.38
295.295	244.38
295.525	226.38
295.756	232.38
295.987	234.38
296.217	267.38
296.448	270.38
296.679	241.38
296.909	227.38
297.14	247.38
297.37	227.38
297.601	254.38
297.831	249.38
298.062	241.38
298.292	245.38
298.523	249.38
298.753	238.38
298.984	226.38
299.214	237.38
299.445	240.38
299.675	246.38
299.905	241.38
300.136	246.38
300.366	240.38
300.597	269.38
300.827	257.38
301.057	247.38
301.288	256.38
301.518	243.38
301.748	242.38
301.979	256.38
302.209	261.38
302.439	268.38
302.669	252.38
302.9	246.38
303.13	265.38
303.36	270.38
303.59	257.38
303.82	270.38
304.051	264.38
304.281	245.38
304.511	270.38
304.741	237.38
304.971	264.38
305.201	253.38
305.431	258.38
305.661	256.38
305.891	244.38
306.121	265.38
306.352	264.38
306.582	258.38
306.812	271.38
307.042	247.38
307.272	258.38
307.502	260.38
307.731	267.38
307.961	259.38
308.191	249.38
308.421	274.38
308.651	258.38
308.881	266.38
309.111	270.38
309.341	258.38
309.571	268.38
309.8	280.38
310.03	300.38
310.26	280.38
310.49	297.38
310.72	282.38
310.949	310.38
311.179	322.38
311.409	304.38
311.639	307.38
311.868	297.38
312.098	297.38
312.328	295.38
312.557	301.38
312.787	309.38
313.017	309.38
313.246	298.38
313.476	273.38
313.706	289.38
313.935	316.38
314.165	306.38
314.394	300.38
314.624	314.38
314.853	295.38
315.083	299.38
315.312	281.38
315.542	295.38
315.771	289.38
316.001	295.38
316.23	297.38
316.46	275.38
316.689	298.38
316.919	301.38
317.148	305.38
317.377	300.38
317.607	301.38
317.836	290.38
318.065	288.38
318.295	291.38
318.524	300.38
318.753	288.38
318.983	300.38
319.212	311.38
319.441	299.38
319.67	308.38
319.9	303.38
320.129	299.38
320.358	290.38
320.587	301.38
320.816	306.38
321.046	306.38
321.275	309.38
321.504	288.38
321.733	313.38
321.962	305.38
322.191	326.38
322.42	332.38
322.649	348.38
322.878	348.38
323.108	360.38
323.337	380.38
323.566	380.38
323.795	422.38
324.024	438.38
324.253	524.38
324.482	732.38
324.71	1144.38
324.939	1674.38
325.168	1487.38
325.397	771.38
325.626	509.38
325.855	430.38
326.084	415.38
326.313	410.38
326.542	396.38
326.77	420.38
326.999	509.38
327.228	682.38
327.457	1017.38
327.686	1246.38
327.914	843.38
328.143	546.38
328.372	500.38
328.6	460.38
328.829	452.38
329.058	452.38
329.287	450.38
329.515	419.38
329.744	394.38
329.972	380.38
330.201	408.38
330.43	408.38
330.658	446.38
330.887	468.38
331.115	452.38
331.344	398.38
331.572	378.38
331.801	380.38
332.03	382.38
332.258	354.38
332.486	345.38
332.715	349.38
332.943	337.38
333.172	334.38
333.4	342.38
333.629	344.38
333.857	365.38
334.085	364.38
334.314	350.38
334.542	389.38
334.771	380.38
334.999	371.38
335.227	370.38
335.455	350.38
335.684	356.38
335.912	342.38
336.14	344.38
336.369	340.38
336.597	339.38
336.825	337.38
337.053	323.38
337.281	330.38
337.51	346.38
337.738	345.38
337.966	348.38
338.194	333.38
338.422	348.38
338.65	340.38
338.878	328.38
339.106	330.38
339.334	344.38
339.562	310.38
339.79	333.38
340.018	334.38
340.246	335.38
340.474	338.38
340.702	336.38
340.93	338.38
341.158	322.38
341.386	325.38
341.614	337.38
341.842	334.38
342.07	341.38
342.298	308.38
342.526	317.38
342.754	325.38
342.981	312.38
343.209	322.38
343.437	328.38
343.665	306.38
343.893	324.38
344.12	344.38
344.348	335.38
344.576	338.38
344.804	342.38
345.031	351.38
345.259	338.38
345.487	358.38
345.714	335.38
345.942	314.38
346.17	340.38
346.397	334.38
346.625	322.38
346.853	326.38
347.08	338.38
347.308	330.38
347.535	314.38
347.763	332.38
347.99	336.38
348.218	340.38
348.445	323.38
348.673	330.38
348.9	327.38
349.128	322.38
349.355	292.38
349.583	321.38
349.81	333.38
350.037	309.38
350.265	325.38
350.492	332.38
350.72	325.38
350.947	318.38
351.174	331.38
351.402	335.38
351.629	325.38
351.856	336.38
352.083	340.38
352.311	343.38
352.538	350.38
352.765	345.38
352.992	331.38
353.22	339.38
353.447	347.38
353.674	334.38
353.901	302.38
354.128	306.38
354.355	290.38
354.583	312.38
354.81	294.38
355.037	314.38
355.264	300.38
355.491	314.38
355.718	306.38
355.945	313.38
356.172	295.38
356.399	316.38
356.626	320.38
356.853	316.38
357.08	294.38
357.307	295.38
357.534	309.38
357.761	294.38
357.988	297.38
358.215	296.38
358.441	294.38
358.668	314.38
358.895	331.38
359.122	314.38
359.349	301.38
359.576	319.38
359.802	347.38
360.029	347.38
360.256	378.38
360.483	350.38
360.709	335.38
360.936	314.38
361.163	340.38
361.39	332.38
361.616	333.38
361.843	325.38
362.07	334.38
362.296	334.38
362.523	328.38
362.749	332.38
362.976	321.38
363.203	321.38
363.429	321.38
363.656	328.38
363.882	316.38
364.109	313.38
364.335	297.38
364.562	316.38
364.788	322.38
365.015	310.38
365.241	305.38
365.468	313.38
365.694	316.38
365.92	314.38
366.147	302.38
366.373	315.38
366.599	315.38
366.826	313.38
367.052	301.38
367.278	315.38
367.505	309.38
367.731	302.38
367.957	315.38
368.184	318.38
368.41	307.38
368.636	324.38
368.862	340.38
369.089	320.38
369.315	310.38
369.541	308.38
369.767	321.38
369.993	308.38
370.219	308.38
370.445	322.38
370.672	292.38
370.898	310.38
371.124	311.38
371.35	293.38
371.576	309.38
371.802	326.38
372.028	299.38
372.254	319.38
372.48	326.38
372.706	328.38
372.932	296.38
373.158	313.38
373.384	328.38
373.61	330.38
373.835	329.38
374.061	314.38
374.287	315.38
374.513	318.38
374.739	307.38
374.965	300.38
375.191	306.38
375.416	314.38
375.642	312.38
375.868	319.38
376.094	312.38
376.319	313.38
376.545	310.38
376.771	317.38
376.997	307.38
377.222	322.38
377.448	312.38
377.674	305.38
377.899	315.38
378.125	317.38
378.35	313.38
378.576	310.38
378.802	319.38
379.027	304.38
379.253	301.38
379.478	294.38
379.704	320.38
379.929	290.38
380.155	323.38
380.38	327.38
380.606	325.38
380.831	326.38
381.057	325.38
381.282	325.38
381.507	333.38
381.733	325.38
381.958	316.38
382.184	307.38
382.409	348.38
382.634	330.38
382.86	322.38
383.085	325.38
383.31	306.38
383.535	334.38
383.761	333.38
383.986	337.38
384.211	333.38
384.436	310.38
384.662	326.38
384.887	332.38
385.112	344.38
385.337	345.38
385.562	344.38
385.787	333.38
386.013	362.38
386.238	336.38
386.463	339.38
386.688	332.38
386.913	327.38
387.138	339.38
387.363	341.38
387.588	334.38
387.813	336.38
388.038	346.38
388.263	359.38
388.488	329.38
388.713	336.38
388.938	343.38
389.163	357.38
389.387	362.38
389.612	337.38
389.837	322.38
390.062	344.38
390.287	338.38
390.512	331.38
390.736	340.38
390.961	338.38
391.186	326.38
391.411	322.38
391.636	329.38
391.86	342.38
392.085	346.38
392.31	347.38
392.534	361.38
392.759	353.38
392.984	349.38
393.208	334.38
393.433	342.38
393.658	352.38
393.882	330.38
394.107	340.38
394.331	339.38
394.556	341.38
394.78	326.38
395.005	326.38
395.229	341.38
395.454	368.38
395.678	340.38
395.903	350.38
396.127	376.38
396.352	380.38
396.576	357.38
396.801	352.38
397.025	376.38
397.249	360.38
397.474	342.38
397.698	362.38
397.922	373.38
398.147	394.38
398.371	378.38
398.595	362.38
398.82	372.38
399.044	363.38
399.268	389.38
399.492	391.38
399.717	435.38
399.941	444.38
400.165	446.38
400.389	469.38
400.613	422.38
400.837	411.38
401.062	385.38
401.286	389.38
401.51	392.38
401.734	356.38
401.958	372.38
402.182	394.38
402.406	386.38
402.63	381.38
402.854	385.38
403.078	374.38
403.302	394.38
403.526	388.38
403.75	392.38
403.974	414.38
404.198	396.38
404.422	381.38
404.645	391.38
404.869	390.38
405.093	410.38
405.317	444.38
405.541	470.38
405.765	420.38
405.988	434.38
406.212	423.38
406.436	432.38
406.66	467.38
406.883	435.38
407.107	440.38
407.331	457.38
407.555	539.38
407.778	534.38
408.002	482.38
408.226	428.38
408.449	429.38
408.673	450.38
408.896	460.38
409.12	518.38
409.344	472.38
409.567	410.38
409.791	406.38
410.014	404.38
410.238	388.38
410.461	397.38
410.685	405.38
410.908	415.38
411.132	427.38
411.355	461.38
411.578	443.38
411.802	387.38
412.025	421.38
412.249	406.38
412.472	419.38
412.695	448.38
412.919	426.38
413.142	396.38
413.365	387.38
413.589	379.38
413.812	370.38
414.035	385.38
414.258	377.38
414.482	376.38
414.705	378.38
414.928	356.38
415.151	368.38
415.374	373.38
415.597	366.38
415.821	368.38
416.044	380.38
416.267	377.38
416.49	372.38
416.713	390.38
416.936	384.38
417.159	379.38
417.382	380.38
417.605	386.38
417.828	392.38
418.051	392.38
418.274	398.38
418.497	384.38
418.72	369.38
418.943	385.38
419.166	390.38
419.389	404.38
419.611	401.38
419.834	400.38
420.057	406.38
420.28	397.38
420.503	395.38
420.726	387.38
420.948	416.38
421.171	437.38
421.394	461.38
421.617	429.38
421.839	405.38
422.062	390.38
422.285	426.38
422.507	447.38
422.73	544.38
422.953	490.38
423.175	438.38
423.398	420.38
423.621	410.38
423.843	434.38
424.066	424.38
424.288	423.38
424.511	434.38
424.733	502.38
424.956	551.38
425.178	538.38
425.401	517.38
425.623	566.38
425.846	463.38
426.068	454.38
426.291	434.38
426.513	436.38
426.735	423.38
426.958	496.38
427.18	564.38
427.402	643.38
427.625	692.38
427.847	597.38
428.069	532.38
428.292	472.38
428.514	436.38
428.736	429.38
428.958	416.38
429.181	400.38
429.403	398.38
429.625	424.38
429.847	445.38
430.069	498.38
430.292	484.38
430.514	414.38
430.736	418.38
430.958	399.38
431.18	366.38
431.402	380.38
431.624	373.38
431.846	345.38
432.068	376.38
432.29	371.38
432.512	377.38
432.734	389.38
432.956	387.38
433.178	400.38
433.4	412.38
433.622	372.38
433.844	391.38
434.066	390.38
434.287	374.38
434.509	385.38
434.731	393.38
434.953	392.38
435.175	412.38
435.397	419.38
435.618	425.38
435.84	444.38
436.062	536.38
436.284	618.38
436.505	504.38
436.727	461.38
436.949	424.38
437.17	412.38
437.392	403.38
437.614	440.38
437.835	442.38
438.057	501.38
438.278	606.38
438.5	614.38
438.721	666.38
438.943	638.38
439.165	497.38
439.386	459.38
439.608	450.38
439.829	454.38
440.05	473.38
440.272	491.38
440.493	464.38
440.715	433.38
440.936	434.38
441.158	395.38
441.379	404.38
441.6	410.38
441.822	445.38
442.043	465.38
442.264	526.38
442.486	572.38
442.707	486.38
442.928	465.38
443.149	450.38
443.371	485.38
443.592	498.38
443.813	602.38
444.034	630.38
444.255	531.38
444.476	476.38
444.698	429.38
444.919	426.38
445.14	539.38
445.361	505.38
445.582	467.38
445.803	542.38
446.024	595.38
446.245	609.38
446.466	554.38
446.687	470.38
446.908	456.38
447.129	412.38
447.35	406.38
447.571	421.38
447.792	401.38
448.013	399.38
448.234	439.38
448.455	459.38
448.675	573.38
448.896	668.38
449.117	566.38
449.338	522.38
449.559	612.38
449.779	682.38
450	554.38
450.221	468.38
450.442	416.38
450.662	400.38
450.883	410.38
451.104	422.38
451.324	440.38
451.545	392.38
451.766	370.38
451.986	377.38
452.207	389.38
452.428	357.38
452.648	380.38
452.869	350.38
453.089	378.38
453.31	375.38
453.53	363.38
453.751	360.38
453.971	383.38
454.192	380.38
454.412	348.38
454.633	375.38
454.853	368.38
455.073	373.38
455.294	372.38
455.514	419.38
455.734	417.38
455.955	358.38
456.175	352.38
456.395	342.38
456.616	328.38
456.836	345.38
457.056	357.38
457.276	342.38
457.497	344.38
457.717	361.38
457.937	338.38
458.157	353.38
458.377	371.38
458.598	358.38
458.818	428.38
459.038	474.38
459.258	497.38
459.478	434.38
459.698	382.38
459.918	374.38
460.138	360.38
460.358	368.38
460.578	371.38
460.798	397.38
461.018	407.38
461.238	370.38
461.458	354.38
461.678	370.38
461.898	364.38
462.118	377.38
462.338	382.38
462.558	382.38
462.777	411.38
462.997	408.38
463.217	389.38
463.437	392.38
463.657	404.38
463.876	406.38
464.096	397.38
464.316	373.38
464.536	406.38
464.755	411.38
464.975	407.38
465.195	433.38
465.414	505.38
465.634	451.38
465.854	402.38
466.073	398.38
466.293	367.38
466.512	376.38
466.732	361.38
466.951	363.38
467.171	350.38
467.391	394.38
467.61	386.38
467.829	377.38
468.049	377.38
468.268	374.38
468.488	355.38
468.707	344.38
468.927	367.38
469.146	337.38
469.365	358.38
469.585	328.38
469.804	350.38
470.023	395.38
470.243	380.38
470.462	366.38
470.681	404.38
470.901	410.38
471.12	370.38
471.339	398.38
471.558	377.38
471.777	366.38
471.997	376.38
472.216	368.38
472.435	403.38
472.654	372.38
472.873	381.38
473.092	375.38
473.311	378.38
473.53	372.38
473.749	372.38
473.968	418.38
474.187	499.38
474.406	500.38
474.625	411.38
474.844	390.38
475.063	367.38
475.282	388.38
475.501	361.38
475.72	398.38
475.939	382.38
476.158	384.38
476.377	385.38
476.596	403.38
476.814	401.38
477.033	398.38
477.252	407.38
477.471	392.38
477.69	397.38
477.908	384.38
478.127	398.38
478.346	407.38
478.564	410.38
478.783	395.38
479.002	406.38
479.22	429.38
479.439	449.38
479.658	439.38
479.876	426.38
480.095	436.38
480.313	453.38
480.532	437.38
480.751	451.38
480.969	451.38
481.188	474.38
481.406	490.38
481.624	461.38
481.843	455.38
482.061	465.38
482.28	435.38
482.498	432.38
482.717	434.38
482.935	441.38
483.153	440.38
483.372	442.38
483.59	446.38
483.808	437.38
484.027	461.38
484.245	448.38
484.463	467.38
484.681	442.38
484.9	448.38
485.118	447.38
485.336	442.38
485.554	460.38
485.772	462.38
485.99	463.38
486.209	473.38
486.427	471.38
486.645	462.38
486.863	477.38
487.081	481.38
487.299	480.38
487.517	488.38
487.735	497.38
487.953	479.38
488.171	489.38
488.389	494.38
488.607	468.38
488.825	481.38
489.043	480.38
489.261	472.38
489.479	473.38
489.696	493.38
489.914	477.38
490.132	496.38
490.35	516.38
490.568	498.38
490.786	501.38
491.003	510.38
491.221	522.38
491.439	532.38
491.657	544.38
491.874	549.38
492.092	517.38
492.31	539.38
492.527	528.38
492.745	536.38
492.963	545.38
493.18	562.38
493.398	557.38
493.615	557.38
493.833	566.38
494.05	574.38
494.268	570.38
494.485	569.38
494.703	556.38
494.92	547.38
495.138	577.38
495.355	563.38
495.573	547.38
495.79	579.38
496.008	556.38
496.225	553.38
496.442	554.38
496.66	571.38
496.877	545.38
497.094	548.38
497.312	566.38
497.529	592.38
497.746	590.38
497.963	597.38
498.181	585.38
498.398	593.38
498.615	622.38
498.832	628.38
499.049	640.38
499.267	661.38
499.484	630.38
499.701	658.38
499.918	678.38
500.135	708.38
500.352	712.38
500.569	718.38
500.786	717.38
501.003	726.38
501.22	712.38
501.437	684.38
501.654	695.38
501.871	675.38
502.088	677.38
