Data from 1980.PennyLincolnUp.Lamp.En5.5.200Scan.071819.P1_HRD10591_16-36-58-956.txt Node
Date: Thu Jul 18 16:36:58 EDT 2019
User: cochatt
Spectrometer: HR+D1059
Trigger mode: 1
Integration Time (sec): 1.000000E-1
Scans to average: 1
Electric dark correction enabled: true
Nonlinearity correction enabled: false
Boxcar width: 0
XAxis mode: Wavelengths
Number of Pixels in Spectrum: 2048
>>>>>Begin Spectral Data<<<<<
223.165	-2.19
223.4	-2.19
223.635	-2.19
223.869	-15.19
224.104	-20.19
224.338	-6.19
224.573	-23.19
224.808	-8.19
225.042	-15.19
225.277	-13.19
225.511	4.81
225.746	1.81
225.98	11.81
226.215	6.81
226.449	21.81
226.683	16.81
226.918	16.81
227.152	22.81
227.387	28.81
227.621	42.81
227.856	43.81
228.09	58.81
228.324	61.81
228.559	66.81
228.793	69.81
229.027	82.81
229.262	106.81
229.496	124.81
229.73	129.81
229.964	149.81
230.199	125.81
230.433	113.81
230.667	125.81
230.901	110.81
231.136	119.81
231.37	107.81
231.604	111.81
231.838	107.81
232.072	116.81
232.306	119.81
232.541	118.81
232.775	120.81
233.009	104.81
233.243	111.81
233.477	106.81
233.711	127.81
233.945	120.81
234.179	113.81
234.413	115.81
234.647	121.81
234.881	111.81
235.115	114.81
235.349	125.81
235.583	119.81
235.817	121.81
236.051	120.81
236.285	108.81
236.519	117.81
236.753	121.81
236.987	159.81
237.221	184.81
237.455	229.81
237.689	193.81
237.922	147.81
238.156	129.81
238.39	124.81
238.624	127.81
238.858	117.81
239.091	122.81
239.325	131.81
239.559	127.81
239.793	129.81
240.027	122.81
240.26	143.81
240.494	155.81
240.728	141.81
240.961	160.81
241.195	130.81
241.429	145.81
241.662	145.81
241.896	136.81
242.13	124.81
242.363	122.81
242.597	138.81
242.83	135.81
243.064	121.81
243.298	150.81
243.531	139.81
243.765	147.81
243.998	143.81
244.232	137.81
244.465	134.81
244.699	145.81
244.932	153.81
245.166	139.81
245.399	139.81
245.633	139.81
245.866	140.81
246.099	136.81
246.333	152.81
246.566	144.81
246.8	160.81
247.033	151.81
247.266	147.81
247.5	165.81
247.733	178.81
247.966	153.81
248.2	159.81
248.433	163.81
248.666	178.81
248.899	185.81
249.133	192.81
249.366	211.81
249.599	198.81
249.832	209.81
250.066	197.81
250.299	176.81
250.532	176.81
250.765	213.81
250.998	218.81
251.231	217.81
251.465	209.81
251.698	222.81
251.931	211.81
252.164	187.81
252.397	197.81
252.63	208.81
252.863	216.81
253.096	220.81
253.329	252.81
253.562	229.81
253.795	236.81
254.028	224.81
254.261	220.81
254.494	246.81
254.727	263.81
254.96	292.81
255.193	279.81
255.426	249.81
255.659	229.81
255.892	232.81
256.124	231.81
256.357	242.81
256.59	222.81
256.823	206.81
257.056	226.81
257.289	196.81
257.521	218.81
257.754	201.81
257.987	204.81
258.22	217.81
258.452	223.81
258.685	207.81
258.918	204.81
259.151	215.81
259.383	228.81
259.616	205.81
259.849	204.81
260.081	233.81
260.314	263.81
260.547	244.81
260.779	242.81
261.012	224.81
261.244	249.81
261.477	220.81
261.71	216.81
261.942	216.81
262.175	235.81
262.407	210.81
262.64	212.81
262.872	210.81
263.105	204.81
263.337	210.81
263.57	211.81
263.802	197.81
264.035	205.81
264.267	194.81
264.499	209.81
264.732	197.81
264.964	212.81
265.197	185.81
265.429	188.81
265.661	194.81
265.894	186.81
266.126	204.81
266.358	186.81
266.591	210.81
266.823	230.81
267.055	214.81
267.287	214.81
267.52	226.81
267.752	219.81
267.984	226.81
268.216	222.81
268.448	218.81
268.681	239.81
268.913	211.81
269.145	251.81
269.377	271.81
269.609	264.81
269.841	262.81
270.073	256.81
270.306	287.81
270.538	315.81
270.77	322.81
271.002	305.81
271.234	284.81
271.466	295.81
271.698	320.81
271.93	305.81
272.162	296.81
272.394	303.81
272.626	302.81
272.858	283.81
273.09	242.81
273.322	244.81
273.553	259.81
273.785	273.81
274.017	253.81
274.249	236.81
274.481	247.81
274.713	249.81
274.945	246.81
275.176	274.81
275.408	269.81
275.64	255.81
275.872	244.81
276.104	254.81
276.335	252.81
276.567	245.81
276.799	269.81
277.031	306.81
277.262	305.81
277.494	304.81
277.726	277.81
277.957	273.81
278.189	277.81
278.421	260.81
278.652	260.81
278.884	269.81
279.115	254.81
279.347	244.81
279.579	248.81
279.81	251.81
280.042	241.81
280.273	260.81
280.505	234.81
280.736	228.81
280.968	265.81
281.199	262.81
281.431	255.81
281.662	231.81
281.894	236.81
282.125	251.81
282.356	253.81
282.588	294.81
282.819	291.81
283.051	255.81
283.282	256.81
283.513	251.81
283.745	229.81
283.976	259.81
284.207	272.81
284.439	274.81
284.67	275.81
284.901	248.81
285.132	265.81
285.364	265.81
285.595	254.81
285.826	242.81
286.057	252.81
286.288	258.81
286.52	255.81
286.751	255.81
286.982	256.81
287.213	239.81
287.444	262.81
287.675	266.81
287.906	288.81
288.138	265.81
288.369	287.81
288.6	276.81
288.831	283.81
289.062	255.81
289.293	266.81
289.524	265.81
289.755	263.81
289.986	265.81
290.217	262.81
290.448	258.81
290.679	244.81
290.91	260.81
291.141	255.81
291.371	259.81
291.602	256.81
291.833	253.81
292.064	273.81
292.295	252.81
292.526	280.81
292.757	276.81
292.987	244.81
293.218	275.81
293.449	263.81
293.68	273.81
293.91	252.81
294.141	266.81
294.372	272.81
294.603	260.81
294.833	254.81
295.064	248.81
295.295	288.81
295.525	246.81
295.756	252.81
295.987	281.81
296.217	292.81
296.448	308.81
296.679	288.81
296.909	266.81
297.14	254.81
297.37	269.81
297.601	252.81
297.831	265.81
298.062	275.81
298.292	278.81
298.523	272.81
298.753	265.81
298.984	267.81
299.214	267.81
299.445	257.81
299.675	281.81
299.905	281.81
300.136	281.81
300.366	275.81
300.597	282.81
300.827	280.81
301.057	295.81
301.288	291.81
301.518	274.81
301.748	293.81
301.979	289.81
302.209	288.81
302.439	299.81
302.669	295.81
302.9	274.81
303.13	282.81
303.36	311.81
303.59	282.81
303.82	303.81
304.051	318.81
304.281	271.81
304.511	295.81
304.741	312.81
304.971	294.81
305.201	291.81
305.431	294.81
305.661	296.81
305.891	283.81
306.121	301.81
306.352	291.81
306.582	309.81
306.812	308.81
307.042	305.81
307.272	293.81
307.502	279.81
307.731	301.81
307.961	312.81
308.191	290.81
308.421	303.81
308.651	307.81
308.881	297.81
309.111	306.81
309.341	316.81
309.571	310.81
309.8	326.81
310.03	336.81
310.26	333.81
310.49	344.81
310.72	346.81
310.949	362.81
311.179	356.81
311.409	327.81
311.639	328.81
311.868	344.81
312.098	343.81
312.328	373.81
312.557	374.81
312.787	395.81
313.017	389.81
313.246	354.81
313.476	328.81
313.706	339.81
313.935	376.81
314.165	348.81
314.394	369.81
314.624	360.81
314.853	359.81
315.083	331.81
315.312	341.81
315.542	337.81
315.771	347.81
316.001	316.81
316.23	347.81
316.46	322.81
316.689	339.81
316.919	343.81
317.148	345.81
317.377	376.81
317.607	346.81
317.836	340.81
318.065	337.81
318.295	347.81
318.524	349.81
318.753	328.81
318.983	327.81
319.212	364.81
319.441	346.81
319.67	346.81
319.9	362.81
320.129	364.81
320.358	348.81
320.587	337.81
320.816	367.81
321.046	348.81
321.275	352.81
321.504	361.81
321.733	376.81
321.962	374.81
322.191	396.81
322.42	405.81
322.649	403.81
322.878	433.81
323.108	431.81
323.337	456.81
323.566	484.81
323.795	508.81
324.024	561.81
324.253	696.81
324.482	983.81
324.71	1556.81
324.939	2164.81
325.168	1951.81
325.397	1000.81
325.626	668.81
325.855	549.81
326.084	523.81
326.313	463.81
326.542	480.81
326.77	561.81
326.999	624.81
327.228	869.81
327.457	1349.81
327.686	1668.81
327.914	1121.81
328.143	752.81
328.372	653.81
328.6	580.81
328.829	561.81
329.058	572.81
329.287	577.81
329.515	520.81
329.744	488.81
329.972	505.81
330.201	506.81
330.43	548.81
330.658	592.81
330.887	610.81
331.115	602.81
331.344	498.81
331.572	454.81
331.801	448.81
332.03	458.81
332.258	439.81
332.486	420.81
332.715	407.81
332.943	400.81
333.172	393.81
333.4	401.81
333.629	416.81
333.857	419.81
334.085	454.81
334.314	428.81
334.542	471.81
334.771	499.81
334.999	431.81
335.227	420.81
335.455	394.81
335.684	413.81
335.912	391.81
336.14	373.81
336.369	383.81
336.597	407.81
336.825	408.81
337.053	396.81
337.281	377.81
337.51	369.81
337.738	387.81
337.966	395.81
338.194	396.81
338.422	391.81
338.65	377.81
338.878	401.81
339.106	392.81
339.334	375.81
339.562	379.81
339.79	379.81
340.018	361.81
340.246	405.81
340.474	381.81
340.702	387.81
340.93	357.81
341.158	371.81
341.386	372.81
341.614	413.81
341.842	388.81
342.07	379.81
342.298	377.81
342.526	379.81
342.754	357.81
342.981	379.81
343.209	363.81
343.437	363.81
343.665	363.81
343.893	376.81
344.12	379.81
344.348	383.81
344.576	389.81
344.804	383.81
345.031	383.81
345.259	415.81
345.487	389.81
345.714	376.81
345.942	379.81
346.17	374.81
346.397	369.81
346.625	376.81
346.853	375.81
347.08	376.81
347.308	387.81
347.535	393.81
347.763	395.81
347.99	397.81
348.218	393.81
348.445	403.81
348.673	388.81
348.9	370.81
349.128	364.81
349.355	375.81
349.583	360.81
349.81	351.81
350.037	358.81
350.265	360.81
350.492	365.81
350.72	367.81
350.947	371.81
351.174	399.81
351.402	394.81
351.629	386.81
351.856	394.81
352.083	383.81
352.311	402.81
352.538	378.81
352.765	409.81
352.992	385.81
353.22	394.81
353.447	385.81
353.674	385.81
353.901	354.81
354.128	340.81
354.355	341.81
354.583	355.81
354.81	345.81
355.037	361.81
355.264	337.81
355.491	352.81
355.718	353.81
355.945	333.81
356.172	324.81
356.399	329.81
356.626	340.81
356.853	357.81
357.08	345.81
357.307	340.81
357.534	339.81
357.761	349.81
357.988	350.81
358.215	349.81
358.441	360.81
358.668	357.81
358.895	354.81
359.122	375.81
359.349	349.81
359.576	357.81
359.802	407.81
360.029	424.81
360.256	435.81
360.483	407.81
360.709	378.81
360.936	384.81
361.163	411.81
361.39	375.81
361.616	367.81
361.843	371.81
362.07	369.81
362.296	375.81
362.523	398.81
362.749	391.81
362.976	376.81
363.203	377.81
363.429	368.81
363.656	376.81
363.882	342.81
364.109	353.81
364.335	338.81
364.562	339.81
364.788	337.81
365.015	365.81
365.241	347.81
365.468	356.81
365.694	381.81
365.92	351.81
366.147	373.81
366.373	341.81
366.599	363.81
366.826	358.81
367.052	348.81
367.278	352.81
367.505	356.81
367.731	358.81
367.957	347.81
368.184	357.81
368.41	355.81
368.636	367.81
368.862	376.81
369.089	371.81
369.315	361.81
369.541	354.81
369.767	375.81
369.993	340.81
370.219	345.81
370.445	354.81
370.672	355.81
370.898	340.81
371.124	352.81
371.35	345.81
371.576	374.81
371.802	355.81
372.028	333.81
372.254	352.81
372.48	331.81
372.706	350.81
372.932	332.81
373.158	342.81
373.384	339.81
373.61	327.81
373.835	357.81
374.061	360.81
374.287	354.81
374.513	356.81
374.739	358.81
374.965	370.81
375.191	351.81
375.416	358.81
375.642	328.81
375.868	341.81
376.094	339.81
376.319	354.81
376.545	358.81
376.771	340.81
376.997	360.81
377.222	368.81
377.448	341.81
377.674	358.81
377.899	343.81
378.125	351.81
378.35	347.81
378.576	335.81
378.802	329.81
379.027	356.81
379.253	364.81
379.478	342.81
379.704	333.81
379.929	336.81
380.155	345.81
380.38	363.81
380.606	344.81
380.831	355.81
381.057	354.81
381.282	360.81
381.507	346.81
381.733	347.81
381.958	347.81
382.184	364.81
382.409	348.81
382.634	361.81
382.86	359.81
383.085	361.81
383.31	376.81
383.535	348.81
383.761	357.81
383.986	359.81
384.211	368.81
384.436	351.81
384.662	362.81
384.887	364.81
385.112	352.81
385.337	351.81
385.562	354.81
385.787	382.81
386.013	356.81
386.238	375.81
386.463	358.81
386.688	379.81
386.913	369.81
387.138	377.81
387.363	379.81
387.588	379.81
387.813	361.81
388.038	379.81
388.263	344.81
388.488	372.81
388.713	362.81
388.938	372.81
389.163	359.81
389.387	364.81
389.612	380.81
389.837	363.81
390.062	355.81
390.287	338.81
390.512	408.81
390.736	370.81
390.961	342.81
391.186	375.81
391.411	364.81
391.636	369.81
391.86	393.81
392.085	362.81
392.31	367.81
392.534	377.81
392.759	371.81
392.984	345.81
393.208	379.81
393.433	372.81
393.658	386.81
393.882	377.81
394.107	364.81
394.331	361.81
394.556	364.81
394.78	366.81
395.005	364.81
395.229	377.81
395.454	364.81
395.678	359.81
395.903	382.81
396.127	407.81
396.352	402.81
396.576	396.81
396.801	389.81
397.025	379.81
397.249	383.81
397.474	376.81
397.698	387.81
397.922	411.81
398.147	412.81
398.371	438.81
398.595	407.81
398.82	409.81
399.044	413.81
399.268	427.81
399.492	435.81
399.717	450.81
399.941	460.81
400.165	500.81
400.389	535.81
400.613	465.81
400.837	448.81
401.062	444.81
401.286	429.81
401.51	425.81
401.734	404.81
401.958	405.81
402.182	416.81
402.406	429.81
402.63	425.81
402.854	425.81
403.078	423.81
403.302	444.81
403.526	446.81
403.75	442.81
403.974	432.81
404.198	400.81
404.422	433.81
404.645	441.81
404.869	439.81
405.093	460.81
405.317	515.81
405.541	511.81
405.765	478.81
405.988	477.81
406.212	463.81
406.436	492.81
406.66	521.81
406.883	488.81
407.107	488.81
407.331	520.81
407.555	599.81
407.778	586.81
408.002	544.81
408.226	511.81
408.449	501.81
408.673	485.81
408.896	510.81
409.12	556.81
409.344	519.81
409.567	471.81
409.791	468.81
410.014	432.81
410.238	428.81
410.461	426.81
410.685	443.81
410.908	460.81
411.132	474.81
411.355	516.81
411.578	497.81
411.802	451.81
412.025	423.81
412.249	437.81
412.472	443.81
412.695	503.81
412.919	487.81
413.142	456.81
413.365	415.81
413.589	414.81
413.812	414.81
414.035	416.81
414.258	414.81
414.482	396.81
414.705	406.81
414.928	413.81
415.151	403.81
415.374	415.81
415.597	396.81
415.821	391.81
416.044	387.81
416.267	398.81
416.49	424.81
416.713	408.81
416.936	407.81
417.159	408.81
417.382	422.81
417.605	405.81
417.828	409.81
418.051	451.81
418.274	452.81
418.497	417.81
418.72	413.81
418.943	421.81
419.166	439.81
419.389	445.81
419.611	434.81
419.834	429.81
420.057	455.81
420.28	440.81
420.503	457.81
420.726	460.81
420.948	462.81
421.171	484.81
421.394	535.81
421.617	486.81
421.839	453.81
422.062	463.81
422.285	465.81
422.507	516.81
422.73	577.81
422.953	571.81
423.175	480.81
423.398	503.81
423.621	476.81
423.843	500.81
424.066	484.81
424.288	481.81
424.511	511.81
424.733	535.81
424.956	624.81
425.178	622.81
425.401	603.81
425.623	610.81
425.846	538.81
426.068	511.81
426.291	484.81
426.513	487.81
426.735	500.81
426.958	542.81
427.18	582.81
427.402	706.81
427.625	799.81
427.847	721.81
428.069	612.81
428.292	561.81
428.514	514.81
428.736	465.81
428.958	466.81
429.181	458.81
429.403	478.81
429.625	468.81
429.847	492.81
430.069	564.81
430.292	584.81
430.514	474.81
430.736	451.81
430.958	448.81
431.18	441.81
431.402	426.81
431.624	398.81
431.846	425.81
432.068	427.81
432.29	401.81
432.512	404.81
432.734	448.81
432.956	439.81
433.178	427.81
433.4	442.81
433.622	429.81
433.844	425.81
434.066	409.81
434.287	426.81
434.509	418.81
434.731	432.81
434.953	428.81
435.175	447.81
435.397	457.81
435.618	492.81
435.84	546.81
436.062	634.81
436.284	680.81
436.505	569.81
436.727	511.81
436.949	480.81
437.17	449.81
437.392	472.81
437.614	465.81
437.835	490.81
438.057	605.81
438.278	704.81
438.5	703.81
438.721	733.81
438.943	727.81
439.165	586.81
439.386	564.81
439.608	502.81
439.829	516.81
440.05	537.81
440.272	585.81
440.493	554.81
440.715	503.81
440.936	485.81
441.158	459.81
441.379	468.81
441.6	481.81
441.822	503.81
442.043	545.81
442.264	629.81
442.486	647.81
442.707	546.81
442.928	501.81
443.149	536.81
443.371	538.81
443.592	596.81
443.813	658.81
444.034	719.81
444.255	588.81
444.476	526.81
444.698	503.81
444.919	484.81
445.14	575.81
445.361	543.81
445.582	537.81
445.803	605.81
446.024	692.81
446.245	707.81
446.466	650.81
446.687	554.81
446.908	501.81
447.129	487.81
447.35	467.81
447.571	465.81
447.792	474.81
448.013	469.81
448.234	497.81
448.455	532.81
448.675	640.81
448.896	742.81
449.117	650.81
449.338	589.81
449.559	687.81
449.779	784.81
450	629.81
450.221	535.81
450.442	471.81
450.662	471.81
450.883	455.81
451.104	490.81
451.324	489.81
451.545	469.81
451.766	413.81
451.986	424.81
452.207	405.81
452.428	396.81
452.648	418.81
452.869	400.81
453.089	418.81
453.31	431.81
453.53	422.81
453.751	428.81
453.971	411.81
454.192	447.81
454.412	436.81
454.633	427.81
454.853	418.81
455.073	406.81
455.294	451.81
455.514	488.81
455.734	503.81
455.955	407.81
456.175	391.81
456.395	392.81
456.616	367.81
456.836	354.81
457.056	383.81
457.276	372.81
457.497	378.81
457.717	399.81
457.937	396.81
458.157	405.81
458.377	396.81
458.598	422.81
458.818	479.81
459.038	568.81
459.258	573.81
459.478	497.81
459.698	437.81
459.918	405.81
460.138	395.81
460.358	412.81
460.578	407.81
460.798	409.81
461.018	422.81
461.238	413.81
461.458	410.81
461.678	396.81
461.898	423.81
462.118	405.81
462.338	418.81
462.558	405.81
462.777	431.81
462.997	411.81
463.217	420.81
463.437	447.81
463.657	431.81
463.876	426.81
464.096	412.81
464.316	433.81
464.536	439.81
464.755	437.81
464.975	447.81
465.195	501.81
465.414	597.81
465.634	503.81
465.854	473.81
466.073	448.81
466.293	428.81
466.512	426.81
466.732	400.81
466.951	399.81
467.171	421.81
467.391	418.81
467.61	437.81
467.829	428.81
468.049	419.81
468.268	408.81
468.488	409.81
468.707	393.81
468.927	402.81
469.146	397.81
469.365	387.81
469.585	401.81
469.804	416.81
470.023	415.81
470.243	420.81
470.462	420.81
470.681	445.81
470.901	422.81
471.12	427.81
471.339	433.81
471.558	423.81
471.777	437.81
471.997	429.81
472.216	417.81
472.435	436.81
472.654	446.81
472.873	402.81
473.092	406.81
473.311	407.81
473.53	436.81
473.749	428.81
473.968	487.81
474.187	569.81
474.406	623.81
474.625	487.81
474.844	438.81
475.063	429.81
475.282	427.81
475.501	438.81
475.72	426.81
475.939	427.81
476.158	431.81
476.377	431.81
476.596	416.81
476.814	427.81
477.033	444.81
477.252	433.81
477.471	437.81
477.69	474.81
477.908	444.81
478.127	458.81
478.346	460.81
478.564	453.81
478.783	470.81
479.002	483.81
479.22	479.81
479.439	495.81
479.658	475.81
479.876	516.81
480.095	511.81
480.313	546.81
480.532	541.81
480.751	504.81
480.969	524.81
481.188	586.81
481.406	633.81
481.624	555.81
481.843	526.81
482.061	520.81
482.28	498.81
482.498	513.81
482.717	504.81
482.935	488.81
483.153	498.81
483.372	492.81
483.59	490.81
483.808	459.81
484.027	507.81
484.245	516.81
484.463	519.81
484.681	510.81
484.9	526.81
485.118	523.81
485.336	505.81
485.554	495.81
485.772	495.81
485.99	495.81
486.209	497.81
486.427	528.81
486.645	540.81
486.863	542.81
487.081	541.81
487.299	549.81
487.517	546.81
487.735	535.81
487.953	544.81
488.171	535.81
488.389	521.81
488.607	539.81
488.825	542.81
489.043	544.81
489.261	552.81
489.479	561.81
489.696	556.81
489.914	532.81
490.132	595.81
490.35	575.81
490.568	592.81
490.786	589.81
491.003	586.81
491.221	608.81
491.439	619.81
491.657	619.81
491.874	613.81
492.092	633.81
492.31	633.81
492.527	660.81
492.745	650.81
492.963	652.81
493.18	646.81
493.398	644.81
493.615	642.81
493.833	642.81
494.05	653.81
494.268	653.81
494.485	646.81
494.703	626.81
494.92	649.81
495.138	643.81
495.355	640.81
495.573	654.81
495.79	653.81
496.008	655.81
496.225	635.81
496.442	643.81
496.66	662.81
496.877	648.81
497.094	649.81
497.312	664.81
497.529	633.81
497.746	657.81
497.963	686.81
498.181	690.81
498.398	683.81
498.615	680.81
498.832	729.81
499.049	708.81
499.267	697.81
499.484	731.81
499.701	742.81
499.918	738.81
500.135	786.81
500.352	782.81
500.569	782.81
500.786	818.81
501.003	793.81
501.22	765.81
501.437	768.81
501.654	755.81
501.871	783.81
