Data from 1980.PennyLincolnUp.Lamp.En5.5.200Scan.071819.P1_HRD10591_16-36-11-956.txt Node
Date: Thu Jul 18 16:36:11 EDT 2019
User: cochatt
Spectrometer: HR+D1059
Trigger mode: 1
Integration Time (sec): 1.000000E-1
Scans to average: 1
Electric dark correction enabled: true
Nonlinearity correction enabled: false
Boxcar width: 0
XAxis mode: Wavelengths
Number of Pixels in Spectrum: 2048
>>>>>Begin Spectral Data<<<<<
223.165	-6.69
223.4	-6.69
223.635	-6.69
223.869	-23.69
224.104	-14.69
224.338	-22.69
224.573	-22.69
224.808	-15.69
225.042	-5.69
225.277	-4.69
225.511	-14.69
225.746	-5.69
225.98	22.31
226.215	16.31
226.449	4.31
226.683	26.31
226.918	30.31
227.152	37.31
227.387	35.31
227.621	35.31
227.856	31.31
228.09	52.31
228.324	60.31
228.559	65.31
228.793	59.31
229.027	96.31
229.262	96.31
229.496	86.31
229.73	130.31
229.964	152.31
230.199	117.31
230.433	106.31
230.667	114.31
230.901	111.31
231.136	88.31
231.37	112.31
231.604	121.31
231.838	107.31
232.072	94.31
232.306	107.31
232.541	103.31
232.775	109.31
233.009	119.31
233.243	109.31
233.477	104.31
233.711	96.31
233.945	117.31
234.179	109.31
234.413	105.31
234.647	105.31
234.881	117.31
235.115	116.31
235.349	104.31
235.583	97.31
235.817	109.31
236.051	122.31
236.285	118.31
236.519	113.31
236.753	128.31
236.987	113.31
237.221	150.31
237.455	193.31
237.689	157.31
237.922	124.31
238.156	108.31
238.39	113.31
238.624	106.31
238.858	113.31
239.091	131.31
239.325	117.31
239.559	107.31
239.793	109.31
240.027	109.31
240.26	125.31
240.494	118.31
240.728	130.31
240.961	131.31
241.195	122.31
241.429	120.31
241.662	115.31
241.896	132.31
242.13	106.31
242.363	128.31
242.597	128.31
242.83	118.31
243.064	136.31
243.298	119.31
243.531	135.31
243.765	124.31
243.998	122.31
244.232	120.31
244.465	134.31
244.699	137.31
244.932	128.31
245.166	144.31
245.399	125.31
245.633	132.31
245.866	133.31
246.099	123.31
246.333	144.31
246.566	142.31
246.8	128.31
247.033	145.31
247.266	135.31
247.5	134.31
247.733	136.31
247.966	146.31
248.2	149.31
248.433	144.31
248.666	165.31
248.899	169.31
249.133	169.31
249.366	180.31
249.599	162.31
249.832	171.31
250.066	155.31
250.299	168.31
250.532	157.31
250.765	177.31
250.998	201.31
251.231	175.31
251.465	195.31
251.698	180.31
251.931	158.31
252.164	162.31
252.397	183.31
252.63	174.31
252.863	174.31
253.096	189.31
253.329	208.31
253.562	198.31
253.795	185.31
254.028	184.31
254.261	190.31
254.494	211.31
254.727	215.31
254.96	240.31
255.193	226.31
255.426	212.31
255.659	193.31
255.892	203.31
256.124	195.31
256.357	186.31
256.59	182.31
256.823	183.31
257.056	165.31
257.289	169.31
257.521	172.31
257.754	161.31
257.987	182.31
258.22	180.31
258.452	170.31
258.685	180.31
258.918	178.31
259.151	171.31
259.383	198.31
259.616	193.31
259.849	187.31
260.081	200.31
260.314	214.31
260.547	215.31
260.779	195.31
261.012	209.31
261.244	196.31
261.477	177.31
261.71	164.31
261.942	190.31
262.175	188.31
262.407	182.31
262.64	172.31
262.872	195.31
263.105	188.31
263.337	166.31
263.57	161.31
263.802	156.31
264.035	169.31
264.267	190.31
264.499	180.31
264.732	176.31
264.964	184.31
265.197	184.31
265.429	194.31
265.661	154.31
265.894	159.31
266.126	166.31
266.358	198.31
266.591	186.31
266.823	186.31
267.055	187.31
267.287	186.31
267.52	172.31
267.752	188.31
267.984	178.31
268.216	173.31
268.448	185.31
268.681	202.31
268.913	191.31
269.145	207.31
269.377	220.31
269.609	231.31
269.841	221.31
270.073	231.31
270.306	214.31
270.538	241.31
270.77	235.31
271.002	243.31
271.234	231.31
271.466	241.31
271.698	255.31
271.93	233.31
272.162	236.31
272.394	255.31
272.626	233.31
272.858	236.31
273.09	217.31
273.322	220.31
273.553	214.31
273.785	222.31
274.017	191.31
274.249	213.31
274.481	204.31
274.713	190.31
274.945	201.31
275.176	207.31
275.408	199.31
275.64	199.31
275.872	193.31
276.104	224.31
276.335	205.31
276.567	195.31
276.799	217.31
277.031	226.31
277.262	233.31
277.494	231.31
277.726	247.31
277.957	216.31
278.189	207.31
278.421	214.31
278.652	196.31
278.884	209.31
279.115	213.31
279.347	214.31
279.579	205.31
279.81	205.31
280.042	202.31
280.273	216.31
280.505	220.31
280.736	212.31
280.968	197.31
281.199	209.31
281.431	223.31
281.662	209.31
281.894	206.31
282.125	210.31
282.356	202.31
282.588	253.31
282.819	231.31
283.051	226.31
283.282	204.31
283.513	207.31
283.745	208.31
283.976	213.31
284.207	213.31
284.439	209.31
284.67	210.31
284.901	202.31
285.132	205.31
285.364	202.31
285.595	202.31
285.826	208.31
286.057	208.31
286.288	217.31
286.52	205.31
286.751	206.31
286.982	224.31
287.213	217.31
287.444	206.31
287.675	201.31
287.906	222.31
288.138	229.31
288.369	235.31
288.6	230.31
288.831	228.31
289.062	224.31
289.293	224.31
289.524	193.31
289.755	216.31
289.986	211.31
290.217	212.31
290.448	183.31
290.679	217.31
290.91	224.31
291.141	214.31
291.371	217.31
291.602	232.31
291.833	224.31
292.064	209.31
292.295	208.31
292.526	207.31
292.757	221.31
292.987	223.31
293.218	214.31
293.449	242.31
293.68	226.31
293.91	215.31
294.141	229.31
294.372	215.31
294.603	223.31
294.833	219.31
295.064	228.31
295.295	207.31
295.525	202.31
295.756	213.31
295.987	234.31
296.217	234.31
296.448	245.31
296.679	227.31
296.909	234.31
297.14	232.31
297.37	206.31
297.601	237.31
297.831	229.31
298.062	231.31
298.292	229.31
298.523	231.31
298.753	244.31
298.984	241.31
299.214	224.31
299.445	225.31
299.675	216.31
299.905	225.31
300.136	225.31
300.366	208.31
300.597	215.31
300.827	226.31
301.057	252.31
301.288	265.31
301.518	269.31
301.748	233.31
301.979	240.31
302.209	242.31
302.439	237.31
302.669	262.31
302.9	234.31
303.13	250.31
303.36	213.31
303.59	246.31
303.82	258.31
304.051	252.31
304.281	241.31
304.511	235.31
304.741	256.31
304.971	235.31
305.201	237.31
305.431	237.31
305.661	241.31
305.891	239.31
306.121	236.31
306.352	226.31
306.582	240.31
306.812	230.31
307.042	238.31
307.272	247.31
307.502	237.31
307.731	247.31
307.961	248.31
308.191	231.31
308.421	239.31
308.651	261.31
308.881	266.31
309.111	265.31
309.341	264.31
309.571	243.31
309.8	265.31
310.03	276.31
310.26	281.31
310.49	280.31
310.72	258.31
310.949	290.31
311.179	292.31
311.409	270.31
311.639	278.31
311.868	263.31
312.098	256.31
312.328	270.31
312.557	292.31
312.787	280.31
313.017	282.31
313.246	284.31
313.476	287.31
313.706	277.31
313.935	281.31
314.165	268.31
314.394	284.31
314.624	279.31
314.853	282.31
315.083	293.31
315.312	276.31
315.542	295.31
315.771	268.31
316.001	256.31
316.23	268.31
316.46	273.31
316.689	269.31
316.919	275.31
317.148	284.31
317.377	296.31
317.607	288.31
317.836	290.31
318.065	281.31
318.295	266.31
318.524	270.31
318.753	289.31
318.983	271.31
319.212	280.31
319.441	281.31
319.67	277.31
319.9	273.31
320.129	277.31
320.358	281.31
320.587	287.31
320.816	281.31
321.046	281.31
321.275	285.31
321.504	284.31
321.733	292.31
321.962	313.31
322.191	307.31
322.42	318.31
322.649	310.31
322.878	308.31
323.108	319.31
323.337	340.31
323.566	360.31
323.795	354.31
324.024	406.31
324.253	470.31
324.482	648.31
324.71	986.31
324.939	1443.31
325.168	1280.31
325.397	670.31
325.626	465.31
325.855	381.31
326.084	365.31
326.313	353.31
326.542	351.31
326.77	388.31
326.999	425.31
327.228	610.31
327.457	916.31
327.686	1118.31
327.914	737.31
328.143	505.31
328.372	448.31
328.6	415.31
328.829	403.31
329.058	406.31
329.287	389.31
329.515	383.31
329.744	356.31
329.972	347.31
330.201	347.31
330.43	379.31
330.658	413.31
330.887	419.31
331.115	420.31
331.344	377.31
331.572	346.31
331.801	344.31
332.03	344.31
332.258	334.31
332.486	336.31
332.715	348.31
332.943	320.31
333.172	320.31
333.4	328.31
333.629	337.31
333.857	323.31
334.085	336.31
334.314	328.31
334.542	352.31
334.771	361.31
334.999	351.31
335.227	327.31
335.455	340.31
335.684	317.31
335.912	309.31
336.14	315.31
336.369	317.31
336.597	319.31
336.825	334.31
337.053	305.31
337.281	308.31
337.51	325.31
337.738	326.31
337.966	323.31
338.194	329.31
338.422	339.31
338.65	313.31
338.878	314.31
339.106	319.31
339.334	315.31
339.562	306.31
339.79	298.31
340.018	313.31
340.246	328.31
340.474	305.31
340.702	314.31
340.93	317.31
341.158	314.31
341.386	315.31
341.614	316.31
341.842	325.31
342.07	300.31
342.298	316.31
342.526	305.31
342.754	315.31
342.981	312.31
343.209	287.31
343.437	303.31
343.665	299.31
343.893	313.31
344.12	324.31
344.348	314.31
344.576	319.31
344.804	318.31
345.031	301.31
345.259	304.31
345.487	322.31
345.714	318.31
345.942	315.31
346.17	301.31
346.397	276.31
346.625	295.31
346.853	302.31
347.08	307.31
347.308	303.31
347.535	321.31
347.763	295.31
347.99	296.31
348.218	313.31
348.445	312.31
348.673	317.31
348.9	310.31
349.128	298.31
349.355	295.31
349.583	291.31
349.81	309.31
350.037	297.31
350.265	293.31
350.492	285.31
350.72	302.31
350.947	297.31
351.174	289.31
351.402	320.31
351.629	308.31
351.856	303.31
352.083	304.31
352.311	319.31
352.538	316.31
352.765	328.31
352.992	308.31
353.22	312.31
353.447	314.31
353.674	289.31
353.901	305.31
354.128	301.31
354.355	269.31
354.583	277.31
354.81	283.31
355.037	271.31
355.264	276.31
355.491	298.31
355.718	283.31
355.945	282.31
356.172	299.31
356.399	280.31
356.626	299.31
356.853	286.31
357.08	278.31
357.307	287.31
357.534	266.31
357.761	276.31
357.988	277.31
358.215	268.31
358.441	285.31
358.668	294.31
358.895	285.31
359.122	298.31
359.349	295.31
359.576	300.31
359.802	298.31
360.029	322.31
360.256	358.31
360.483	330.31
360.709	312.31
360.936	303.31
361.163	288.31
361.39	308.31
361.616	312.31
361.843	303.31
362.07	296.31
362.296	330.31
362.523	310.31
362.749	299.31
362.976	300.31
363.203	280.31
363.429	278.31
363.656	305.31
363.882	301.31
364.109	288.31
364.335	294.31
364.562	317.31
364.788	294.31
365.015	300.31
365.241	293.31
365.468	289.31
365.694	313.31
365.92	311.31
366.147	302.31
366.373	312.31
366.599	288.31
366.826	298.31
367.052	298.31
367.278	287.31
367.505	298.31
367.731	305.31
367.957	299.31
368.184	306.31
368.41	300.31
368.636	305.31
368.862	308.31
369.089	288.31
369.315	314.31
369.541	294.31
369.767	292.31
369.993	301.31
370.219	298.31
370.445	289.31
370.672	300.31
370.898	298.31
371.124	291.31
371.35	292.31
371.576	280.31
371.802	313.31
372.028	285.31
372.254	318.31
372.48	279.31
372.706	274.31
372.932	285.31
373.158	297.31
373.384	296.31
373.61	289.31
373.835	305.31
374.061	313.31
374.287	313.31
374.513	305.31
374.739	312.31
374.965	310.31
375.191	304.31
375.416	315.31
375.642	295.31
375.868	303.31
376.094	310.31
376.319	297.31
376.545	296.31
376.771	299.31
376.997	289.31
377.222	310.31
377.448	301.31
377.674	293.31
377.899	303.31
378.125	297.31
378.35	295.31
378.576	293.31
378.802	300.31
379.027	284.31
379.253	308.31
379.478	296.31
379.704	288.31
379.929	281.31
380.155	297.31
380.38	301.31
380.606	322.31
380.831	294.31
381.057	302.31
381.282	293.31
381.507	291.31
381.733	301.31
381.958	295.31
382.184	296.31
382.409	286.31
382.634	309.31
382.86	292.31
383.085	316.31
383.31	309.31
383.535	298.31
383.761	317.31
383.986	304.31
384.211	317.31
384.436	317.31
384.662	311.31
384.887	323.31
385.112	324.31
385.337	320.31
385.562	308.31
385.787	314.31
386.013	328.31
386.238	321.31
386.463	330.31
386.688	349.31
386.913	330.31
387.138	327.31
387.363	305.31
387.588	326.31
387.813	308.31
388.038	322.31
388.263	328.31
388.488	334.31
388.713	316.31
388.938	328.31
389.163	326.31
389.387	320.31
389.612	316.31
389.837	318.31
390.062	320.31
390.287	322.31
390.512	318.31
390.736	341.31
390.961	334.31
391.186	314.31
391.411	316.31
391.636	316.31
391.86	315.31
392.085	324.31
392.31	318.31
392.534	333.31
392.759	323.31
392.984	332.31
393.208	322.31
393.433	337.31
393.658	349.31
393.882	308.31
394.107	305.31
394.331	308.31
394.556	301.31
394.78	332.31
395.005	325.31
395.229	324.31
395.454	337.31
395.678	332.31
395.903	333.31
396.127	359.31
396.352	353.31
396.576	328.31
396.801	326.31
397.025	331.31
397.249	337.31
397.474	341.31
397.698	319.31
397.922	358.31
398.147	366.31
398.371	345.31
398.595	360.31
398.82	348.31
399.044	361.31
399.268	358.31
399.492	364.31
399.717	379.31
399.941	411.31
400.165	431.31
400.389	441.31
400.613	382.31
400.837	381.31
401.062	377.31
401.286	353.31
401.51	370.31
401.734	365.31
401.958	364.31
402.182	360.31
402.406	357.31
402.63	357.31
402.854	354.31
403.078	359.31
403.302	366.31
403.526	368.31
403.75	374.31
403.974	360.31
404.198	368.31
404.422	383.31
404.645	376.31
404.869	381.31
405.093	394.31
405.317	414.31
405.541	425.31
405.765	398.31
405.988	372.31
406.212	382.31
406.436	402.31
406.66	402.31
406.883	403.31
407.107	422.31
407.331	446.31
407.555	504.31
407.778	488.31
408.002	470.31
408.226	414.31
408.449	410.31
408.673	409.31
408.896	441.31
409.12	475.31
409.344	444.31
409.567	386.31
409.791	390.31
410.014	373.31
410.238	369.31
410.461	372.31
410.685	390.31
410.908	378.31
411.132	400.31
411.355	429.31
411.578	427.31
411.802	386.31
412.025	387.31
412.249	372.31
412.472	367.31
412.695	406.31
412.919	401.31
413.142	389.31
413.365	386.31
413.589	367.31
413.812	340.31
414.035	360.31
414.258	340.31
414.482	356.31
414.705	342.31
414.928	360.31
415.151	356.31
415.374	329.31
415.597	321.31
415.821	353.31
416.044	352.31
416.267	363.31
416.49	354.31
416.713	362.31
416.936	344.31
417.159	365.31
417.382	361.31
417.605	373.31
417.828	363.31
418.051	376.31
418.274	378.31
418.497	373.31
418.72	365.31
418.943	359.31
419.166	369.31
419.389	374.31
419.611	386.31
419.834	378.31
420.057	398.31
420.28	389.31
420.503	398.31
420.726	374.31
420.948	384.31
421.171	408.31
421.394	439.31
421.617	397.31
421.839	378.31
422.062	373.31
422.285	381.31
422.507	425.31
422.73	487.31
422.953	465.31
423.175	406.31
423.398	399.31
423.621	372.31
423.843	400.31
424.066	390.31
424.288	397.31
424.511	413.31
424.733	453.31
424.956	518.31
425.178	502.31
425.401	491.31
425.623	524.31
425.846	462.31
426.068	416.31
426.291	414.31
426.513	396.31
426.735	406.31
426.958	471.31
427.18	498.31
427.402	582.31
427.625	653.31
427.847	564.31
428.069	484.31
428.292	423.31
428.514	420.31
428.736	402.31
428.958	386.31
429.181	386.31
429.403	362.31
429.625	388.31
429.847	403.31
430.069	454.31
430.292	470.31
430.514	411.31
430.736	388.31
430.958	366.31
431.18	346.31
431.402	351.31
431.624	349.31
431.846	358.31
432.068	372.31
432.29	336.31
432.512	357.31
432.734	368.31
432.956	371.31
433.178	362.31
433.4	384.31
433.622	360.31
433.844	373.31
434.066	342.31
434.287	370.31
434.509	368.31
434.731	367.31
434.953	378.31
435.175	376.31
435.397	403.31
435.618	411.31
435.84	434.31
436.062	505.31
436.284	561.31
436.505	478.31
436.727	386.31
436.949	388.31
437.17	382.31
437.392	385.31
437.614	383.31
437.835	428.31
438.057	472.31
438.278	562.31
438.5	562.31
438.721	586.31
438.943	590.31
439.165	486.31
439.386	428.31
439.608	412.31
439.829	406.31
440.05	427.31
440.272	463.31
440.493	440.31
440.715	415.31
440.936	394.31
441.158	394.31
441.379	384.31
441.6	386.31
441.822	415.31
442.043	440.31
442.264	495.31
442.486	555.31
442.707	471.31
442.928	413.31
443.149	403.31
443.371	438.31
443.592	471.31
443.813	524.31
444.034	601.31
444.255	475.31
444.476	438.31
444.698	420.31
444.919	401.31
445.14	475.31
445.361	466.31
445.582	435.31
445.803	474.31
446.024	538.31
446.245	565.31
446.466	506.31
446.687	444.31
446.908	413.31
447.129	386.31
447.35	380.31
447.571	372.31
447.792	367.31
448.013	390.31
448.234	374.31
448.455	422.31
448.675	514.31
448.896	590.31
449.117	510.31
449.338	503.31
449.559	578.31
449.779	636.31
450	524.31
450.221	441.31
450.442	385.31
450.662	380.31
450.883	366.31
451.104	380.31
451.324	354.31
451.545	365.31
451.766	356.31
451.986	368.31
452.207	351.31
452.428	332.31
452.648	349.31
452.869	350.31
453.089	347.31
453.31	345.31
453.53	340.31
453.751	343.31
453.971	348.31
454.192	353.31
454.412	335.31
454.633	338.31
454.853	328.31
455.073	348.31
455.294	353.31
455.514	422.31
455.734	402.31
455.955	343.31
456.175	329.31
456.395	316.31
456.616	329.31
456.836	338.31
457.056	305.31
457.276	334.31
457.497	326.31
457.717	333.31
457.937	350.31
458.157	315.31
458.377	324.31
458.598	332.31
458.818	389.31
459.038	435.31
459.258	466.31
459.478	390.31
459.698	360.31
459.918	354.31
460.138	355.31
460.358	352.31
460.578	364.31
460.798	381.31
461.018	348.31
461.238	360.31
461.458	369.31
461.678	335.31
461.898	366.31
462.118	345.31
462.338	353.31
462.558	363.31
462.777	377.31
462.997	374.31
463.217	369.31
463.437	400.31
463.657	377.31
463.876	397.31
464.096	369.31
464.316	382.31
464.536	384.31
464.755	392.31
464.975	390.31
465.195	402.31
465.414	477.31
465.634	415.31
465.854	377.31
466.073	345.31
466.293	338.31
466.512	363.31
466.732	336.31
466.951	354.31
467.171	342.31
467.391	342.31
467.61	325.31
467.829	370.31
468.049	349.31
468.268	342.31
468.488	351.31
468.707	352.31
468.927	330.31
469.146	327.31
469.365	338.31
469.585	345.31
469.804	352.31
470.023	349.31
470.243	358.31
470.462	347.31
470.681	360.31
470.901	352.31
471.12	352.31
471.339	360.31
471.558	361.31
471.777	365.31
471.997	348.31
472.216	343.31
472.435	344.31
472.654	358.31
472.873	362.31
473.092	341.31
473.311	334.31
473.53	341.31
473.749	360.31
473.968	382.31
474.187	467.31
474.406	478.31
474.625	400.31
474.844	369.31
475.063	384.31
475.282	369.31
475.501	356.31
475.72	372.31
475.939	358.31
476.158	376.31
476.377	350.31
476.596	365.31
476.814	354.31
477.033	369.31
477.252	372.31
477.471	384.31
477.69	363.31
477.908	374.31
478.127	378.31
478.346	384.31
478.564	376.31
478.783	392.31
479.002	406.31
479.22	382.31
479.439	398.31
479.658	412.31
479.876	425.31
480.095	423.31
480.313	428.31
480.532	423.31
480.751	424.31
480.969	430.31
481.188	448.31
481.406	467.31
481.624	420.31
481.843	432.31
482.061	402.31
482.28	389.31
482.498	419.31
482.717	421.31
482.935	422.31
483.153	424.31
483.372	428.31
483.59	402.31
483.808	398.31
484.027	405.31
484.245	433.31
484.463	433.31
484.681	432.31
484.9	438.31
485.118	422.31
485.336	429.31
485.554	430.31
485.772	437.31
485.99	423.31
486.209	408.31
486.427	445.31
486.645	465.31
486.863	441.31
487.081	443.31
487.299	439.31
487.517	414.31
487.735	462.31
487.953	458.31
488.171	431.31
488.389	457.31
488.607	462.31
488.825	442.31
489.043	432.31
489.261	458.31
489.479	444.31
489.696	447.31
489.914	460.31
490.132	450.31
490.35	460.31
490.568	476.31
490.786	484.31
491.003	473.31
491.221	488.31
491.439	490.31
491.657	498.31
491.874	494.31
492.092	514.31
492.31	493.31
492.527	500.31
492.745	506.31
492.963	503.31
493.18	501.31
493.398	509.31
493.615	514.31
493.833	527.31
494.05	519.31
494.268	524.31
494.485	523.31
494.703	514.31
494.92	507.31
495.138	549.31
495.355	538.31
495.573	534.31
495.79	549.31
496.008	529.31
496.225	529.31
496.442	527.31
496.66	517.31
496.877	531.31
497.094	531.31
497.312	530.31
497.529	509.31
497.746	545.31
497.963	563.31
498.181	568.31
498.398	535.31
498.615	551.31
498.832	581.31
499.049	566.31
499.267	586.31
499.484	595.31
499.701	622.31
499.918	634.31
500.135	620.31
500.352	688.31
500.569	679.31
500.786	661.31
501.003	676.31
501.22	658.31
501.437	642.31
501.654	617.31
501.871	634.31
502.088	624.31
