Data from 1980.PennyLincolnUp.Lamp.En5.5.200Scan.071819.P1_HRD10591_16-37-16-956.txt Node
Date: Thu Jul 18 16:37:16 EDT 2019
User: cochatt
Spectrometer: HR+D1059
Trigger mode: 1
Integration Time (sec): 1.000000E-1
Scans to average: 1
Electric dark correction enabled: true
Nonlinearity correction enabled: false
Boxcar width: 0
XAxis mode: Wavelengths
Number of Pixels in Spectrum: 2048
>>>>>Begin Spectral Data<<<<<
223.165	-16.56
223.4	-16.56
223.635	-16.56
223.869	-26.56
224.104	-16.56
224.338	-17.56
224.573	-1.56
224.808	-5.56
225.042	-6.56
225.277	-9.56
225.511	-1.56
225.746	9.44
225.98	14.44
226.215	-2.56
226.449	14.44
226.683	15.44
226.918	15.44
227.152	35.44
227.387	38.44
227.621	44.44
227.856	52.44
228.09	52.44
228.324	51.44
228.559	57.44
228.793	81.44
229.027	107.44
229.262	100.44
229.496	118.44
229.73	140.44
229.964	151.44
230.199	128.44
230.433	130.44
230.667	121.44
230.901	103.44
231.136	111.44
231.37	125.44
231.604	114.44
231.838	114.44
232.072	134.44
232.306	121.44
232.541	127.44
232.775	127.44
233.009	117.44
233.243	121.44
233.477	121.44
233.711	120.44
233.945	104.44
234.179	117.44
234.413	119.44
234.647	130.44
234.881	112.44
235.115	110.44
235.349	111.44
235.583	114.44
235.817	106.44
236.051	116.44
236.285	128.44
236.519	127.44
236.753	150.44
236.987	151.44
237.221	179.44
237.455	233.44
237.689	202.44
237.922	147.44
238.156	141.44
238.39	126.44
238.624	140.44
238.858	116.44
239.091	129.44
239.325	143.44
239.559	131.44
239.793	130.44
240.027	141.44
240.26	143.44
240.494	159.44
240.728	155.44
240.961	155.44
241.195	151.44
241.429	133.44
241.662	152.44
241.896	137.44
242.13	133.44
242.363	123.44
242.597	122.44
242.83	131.44
243.064	134.44
243.298	137.44
243.531	138.44
243.765	147.44
243.998	129.44
244.232	143.44
244.465	155.44
244.699	144.44
244.932	145.44
245.166	148.44
245.399	157.44
245.633	157.44
245.866	141.44
246.099	159.44
246.333	154.44
246.566	156.44
246.8	147.44
247.033	171.44
247.266	159.44
247.5	164.44
247.733	170.44
247.966	182.44
248.2	170.44
248.433	164.44
248.666	179.44
248.899	190.44
249.133	211.44
249.366	221.44
249.599	212.44
249.832	202.44
250.066	198.44
250.299	183.44
250.532	201.44
250.765	209.44
250.998	231.44
251.231	236.44
251.465	228.44
251.698	214.44
251.931	198.44
252.164	198.44
252.397	196.44
252.63	204.44
252.863	198.44
253.096	227.44
253.329	223.44
253.562	233.44
253.795	220.44
254.028	217.44
254.261	231.44
254.494	233.44
254.727	276.44
254.96	288.44
255.193	290.44
255.426	266.44
255.659	252.44
255.892	245.44
256.124	252.44
256.357	248.44
256.59	246.44
256.823	235.44
257.056	223.44
257.289	215.44
257.521	221.44
257.754	226.44
257.987	227.44
258.22	228.44
258.452	226.44
258.685	198.44
258.918	216.44
259.151	223.44
259.383	219.44
259.616	214.44
259.849	214.44
260.081	222.44
260.314	238.44
260.547	272.44
260.779	250.44
261.012	240.44
261.244	228.44
261.477	239.44
261.71	237.44
261.942	231.44
262.175	242.44
262.407	237.44
262.64	223.44
262.872	214.44
263.105	210.44
263.337	222.44
263.57	210.44
263.802	188.44
264.035	210.44
264.267	214.44
264.499	215.44
264.732	197.44
264.964	209.44
265.197	214.44
265.429	220.44
265.661	201.44
265.894	204.44
266.126	211.44
266.358	196.44
266.591	212.44
266.823	202.44
267.055	202.44
267.287	238.44
267.52	227.44
267.752	217.44
267.984	204.44
268.216	220.44
268.448	218.44
268.681	218.44
268.913	239.44
269.145	244.44
269.377	269.44
269.609	288.44
269.841	272.44
270.073	252.44
270.306	282.44
270.538	312.44
270.77	310.44
271.002	308.44
271.234	296.44
271.466	307.44
271.698	311.44
271.93	326.44
272.162	306.44
272.394	320.44
272.626	307.44
272.858	298.44
273.09	295.44
273.322	281.44
273.553	273.44
273.785	284.44
274.017	268.44
274.249	267.44
274.481	276.44
274.713	240.44
274.945	274.44
275.176	263.44
275.408	251.44
275.64	259.44
275.872	251.44
276.104	259.44
276.335	271.44
276.567	270.44
276.799	278.44
277.031	310.44
277.262	310.44
277.494	331.44
277.726	307.44
277.957	276.44
278.189	278.44
278.421	268.44
278.652	264.44
278.884	269.44
279.115	252.44
279.347	250.44
279.579	255.44
279.81	273.44
280.042	258.44
280.273	236.44
280.505	252.44
280.736	267.44
280.968	244.44
281.199	245.44
281.431	227.44
281.662	246.44
281.894	270.44
282.125	262.44
282.356	279.44
282.588	289.44
282.819	308.44
283.051	271.44
283.282	254.44
283.513	260.44
283.745	262.44
283.976	263.44
284.207	259.44
284.439	269.44
284.67	260.44
284.901	242.44
285.132	245.44
285.364	231.44
285.595	262.44
285.826	268.44
286.057	264.44
286.288	277.44
286.52	255.44
286.751	264.44
286.982	245.44
287.213	257.44
287.444	255.44
287.675	278.44
287.906	273.44
288.138	291.44
288.369	282.44
288.6	277.44
288.831	272.44
289.062	287.44
289.293	256.44
289.524	268.44
289.755	263.44
289.986	275.44
290.217	264.44
290.448	268.44
290.679	262.44
290.91	262.44
291.141	268.44
291.371	258.44
291.602	244.44
291.833	282.44
292.064	281.44
292.295	277.44
292.526	261.44
292.757	253.44
292.987	263.44
293.218	256.44
293.449	270.44
293.68	271.44
293.91	256.44
294.141	268.44
294.372	270.44
294.603	256.44
294.833	249.44
295.064	269.44
295.295	269.44
295.525	252.44
295.756	275.44
295.987	285.44
296.217	315.44
296.448	326.44
296.679	298.44
296.909	300.44
297.14	291.44
297.37	266.44
297.601	259.44
297.831	276.44
298.062	279.44
298.292	259.44
298.523	262.44
298.753	284.44
298.984	265.44
299.214	273.44
299.445	291.44
299.675	305.44
299.905	306.44
300.136	292.44
300.366	294.44
300.597	286.44
300.827	302.44
301.057	302.44
301.288	288.44
301.518	286.44
301.748	294.44
301.979	308.44
302.209	313.44
302.439	314.44
302.669	295.44
302.9	285.44
303.13	290.44
303.36	312.44
303.59	308.44
303.82	326.44
304.051	311.44
304.281	300.44
304.511	302.44
304.741	285.44
304.971	301.44
305.201	294.44
305.431	308.44
305.661	286.44
305.891	286.44
306.121	301.44
306.352	317.44
306.582	330.44
306.812	290.44
307.042	293.44
307.272	298.44
307.502	295.44
307.731	313.44
307.961	312.44
308.191	284.44
308.421	315.44
308.651	301.44
308.881	299.44
309.111	325.44
309.341	299.44
309.571	345.44
309.8	318.44
310.03	342.44
310.26	339.44
310.49	361.44
310.72	358.44
310.949	386.44
311.179	379.44
311.409	378.44
311.639	357.44
311.868	362.44
312.098	357.44
312.328	366.44
312.557	379.44
312.787	400.44
313.017	410.44
313.246	378.44
313.476	363.44
313.706	355.44
313.935	349.44
314.165	388.44
314.394	387.44
314.624	367.44
314.853	372.44
315.083	354.44
315.312	344.44
315.542	337.44
315.771	339.44
316.001	333.44
316.23	343.44
316.46	350.44
316.689	354.44
316.919	364.44
317.148	341.44
317.377	358.44
317.607	359.44
317.836	359.44
318.065	364.44
318.295	349.44
318.524	330.44
318.753	335.44
318.983	366.44
319.212	349.44
319.441	375.44
319.67	359.44
319.9	382.44
320.129	356.44
320.358	370.44
320.587	367.44
320.816	365.44
321.046	376.44
321.275	368.44
321.504	378.44
321.733	386.44
321.962	385.44
322.191	398.44
322.42	408.44
322.649	455.44
322.878	451.44
323.108	463.44
323.337	471.44
323.566	509.44
323.795	546.44
324.024	602.44
324.253	748.44
324.482	1044.44
324.71	1628.44
324.939	2371.44
325.168	2095.44
325.397	1104.44
325.626	733.44
325.855	582.44
326.084	548.44
326.313	497.44
326.542	523.44
326.77	577.44
326.999	670.44
327.228	958.44
327.457	1414.44
327.686	1822.44
327.914	1225.44
328.143	795.44
328.372	695.44
328.6	648.44
328.829	593.44
329.058	605.44
329.287	612.44
329.515	559.44
329.744	518.44
329.972	501.44
330.201	548.44
330.43	595.44
330.658	600.44
330.887	642.44
331.115	617.44
331.344	540.44
331.572	481.44
331.801	486.44
332.03	484.44
332.258	467.44
332.486	443.44
332.715	423.44
332.943	404.44
333.172	421.44
333.4	428.44
333.629	438.44
333.857	436.44
334.085	451.44
334.314	468.44
334.542	520.44
334.771	511.44
334.999	464.44
335.227	432.44
335.455	434.44
335.684	406.44
335.912	398.44
336.14	405.44
336.369	394.44
336.597	406.44
336.825	435.44
337.053	400.44
337.281	408.44
337.51	412.44
337.738	422.44
337.966	412.44
338.194	400.44
338.422	409.44
338.65	421.44
338.878	399.44
339.106	387.44
339.334	390.44
339.562	385.44
339.79	404.44
340.018	408.44
340.246	392.44
340.474	406.44
340.702	397.44
340.93	393.44
341.158	384.44
341.386	382.44
341.614	392.44
341.842	390.44
342.07	392.44
342.298	395.44
342.526	382.44
342.754	399.44
342.981	379.44
343.209	379.44
343.437	372.44
343.665	381.44
343.893	390.44
344.12	379.44
344.348	394.44
344.576	397.44
344.804	387.44
345.031	432.44
345.259	415.44
345.487	409.44
345.714	417.44
345.942	388.44
346.17	391.44
346.397	381.44
346.625	387.44
346.853	389.44
347.08	395.44
347.308	399.44
347.535	383.44
347.763	412.44
347.99	415.44
348.218	414.44
348.445	412.44
348.673	404.44
348.9	389.44
349.128	406.44
349.355	377.44
349.583	381.44
349.81	374.44
350.037	363.44
350.265	370.44
350.492	372.44
350.72	378.44
350.947	398.44
351.174	390.44
351.402	397.44
351.629	411.44
351.856	390.44
352.083	424.44
352.311	412.44
352.538	413.44
352.765	388.44
352.992	392.44
353.22	394.44
353.447	378.44
353.674	385.44
353.901	363.44
354.128	378.44
354.355	342.44
354.583	363.44
354.81	354.44
355.037	375.44
355.264	372.44
355.491	343.44
355.718	357.44
355.945	364.44
356.172	354.44
356.399	371.44
356.626	330.44
356.853	344.44
357.08	336.44
357.307	346.44
357.534	362.44
357.761	356.44
357.988	352.44
358.215	361.44
358.441	365.44
358.668	346.44
358.895	356.44
359.122	354.44
359.349	386.44
359.576	394.44
359.802	417.44
360.029	451.44
360.256	446.44
360.483	442.44
360.709	395.44
360.936	420.44
361.163	373.44
361.39	380.44
361.616	404.44
361.843	390.44
362.07	396.44
362.296	387.44
362.523	379.44
362.749	371.44
362.976	381.44
363.203	386.44
363.429	370.44
363.656	384.44
363.882	351.44
364.109	378.44
364.335	370.44
364.562	386.44
364.788	371.44
365.015	380.44
365.241	364.44
365.468	366.44
365.694	376.44
365.92	378.44
366.147	370.44
366.373	370.44
366.599	359.44
366.826	366.44
367.052	357.44
367.278	372.44
367.505	386.44
367.731	368.44
367.957	364.44
368.184	351.44
368.41	362.44
368.636	358.44
368.862	388.44
369.089	376.44
369.315	365.44
369.541	370.44
369.767	374.44
369.993	351.44
370.219	355.44
370.445	340.44
370.672	349.44
370.898	354.44
371.124	353.44
371.35	346.44
371.576	356.44
371.802	354.44
372.028	363.44
372.254	344.44
372.48	346.44
372.706	351.44
372.932	353.44
373.158	334.44
373.384	350.44
373.61	352.44
373.835	355.44
374.061	354.44
374.287	349.44
374.513	359.44
374.739	374.44
374.965	365.44
375.191	372.44
375.416	361.44
375.642	341.44
375.868	364.44
376.094	370.44
376.319	361.44
376.545	338.44
376.771	337.44
376.997	346.44
377.222	350.44
377.448	352.44
377.674	343.44
377.899	362.44
378.125	362.44
378.35	349.44
378.576	351.44
378.802	365.44
379.027	345.44
379.253	348.44
379.478	338.44
379.704	360.44
379.929	367.44
380.155	369.44
380.38	362.44
380.606	356.44
380.831	364.44
381.057	359.44
381.282	357.44
381.507	346.44
381.733	371.44
381.958	342.44
382.184	348.44
382.409	364.44
382.634	364.44
382.86	377.44
383.085	364.44
383.31	334.44
383.535	340.44
383.761	361.44
383.986	370.44
384.211	380.44
384.436	364.44
384.662	354.44
384.887	384.44
385.112	384.44
385.337	362.44
385.562	370.44
385.787	385.44
386.013	363.44
386.238	390.44
386.463	388.44
386.688	366.44
386.913	367.44
387.138	381.44
387.363	380.44
387.588	382.44
387.813	374.44
388.038	374.44
388.263	354.44
388.488	362.44
388.713	376.44
388.938	382.44
389.163	366.44
389.387	393.44
389.612	380.44
389.837	363.44
390.062	376.44
390.287	378.44
390.512	364.44
390.736	359.44
390.961	386.44
391.186	378.44
391.411	374.44
391.636	393.44
391.86	378.44
392.085	352.44
392.31	392.44
392.534	373.44
392.759	365.44
392.984	376.44
393.208	378.44
393.433	378.44
393.658	365.44
393.882	365.44
394.107	393.44
394.331	383.44
394.556	382.44
394.78	400.44
395.005	376.44
395.229	367.44
395.454	375.44
395.678	384.44
395.903	389.44
396.127	429.44
396.352	419.44
396.576	410.44
396.801	415.44
397.025	397.44
397.249	396.44
397.474	398.44
397.698	409.44
397.922	412.44
398.147	430.44
398.371	441.44
398.595	430.44
398.82	399.44
399.044	406.44
399.268	422.44
399.492	423.44
399.717	480.44
399.941	479.44
400.165	517.44
400.389	550.44
400.613	467.44
400.837	444.44
401.062	424.44
401.286	412.44
401.51	425.44
401.734	437.44
401.958	432.44
402.182	446.44
402.406	426.44
402.63	445.44
402.854	427.44
403.078	440.44
403.302	445.44
403.526	439.44
403.75	448.44
403.974	440.44
404.198	435.44
404.422	424.44
404.645	454.44
404.869	427.44
405.093	482.44
405.317	495.44
405.541	564.44
405.765	499.44
405.988	491.44
406.212	489.44
406.436	493.44
406.66	509.44
406.883	516.44
407.107	506.44
407.331	531.44
407.555	587.44
407.778	580.44
408.002	537.44
408.226	483.44
408.449	474.44
408.673	479.44
408.896	494.44
409.12	585.44
409.344	540.44
409.567	468.44
409.791	467.44
410.014	460.44
410.238	435.44
410.461	439.44
410.685	461.44
410.908	460.44
411.132	505.44
411.355	527.44
411.578	518.44
411.802	481.44
412.025	447.44
412.249	450.44
412.472	465.44
412.695	526.44
412.919	514.44
413.142	490.44
413.365	463.44
413.589	460.44
413.812	461.44
414.035	422.44
414.258	429.44
414.482	414.44
414.705	420.44
414.928	416.44
415.151	413.44
415.374	423.44
415.597	383.44
415.821	422.44
416.044	435.44
416.267	426.44
416.49	423.44
416.713	424.44
416.936	410.44
417.159	409.44
417.382	443.44
417.605	410.44
417.828	449.44
418.051	447.44
418.274	442.44
418.497	434.44
418.72	430.44
418.943	408.44
419.166	443.44
419.389	437.44
419.611	468.44
419.834	453.44
420.057	471.44
420.28	462.44
420.503	454.44
420.726	451.44
420.948	462.44
421.171	488.44
421.394	525.44
421.617	501.44
421.839	464.44
422.062	461.44
422.285	475.44
422.507	542.44
422.73	578.44
422.953	573.44
423.175	518.44
423.398	473.44
423.621	481.44
423.843	490.44
424.066	519.44
424.288	480.44
424.511	507.44
424.733	584.44
424.956	637.44
425.178	605.44
425.401	613.44
425.623	646.44
425.846	534.44
426.068	505.44
426.291	487.44
426.513	527.44
426.735	516.44
426.958	570.44
427.18	633.44
427.402	753.44
427.625	820.44
427.847	765.44
428.069	648.44
428.292	579.44
428.514	520.44
428.736	501.44
428.958	483.44
429.181	462.44
429.403	476.44
429.625	489.44
429.847	517.44
430.069	541.44
430.292	572.44
430.514	484.44
430.736	490.44
430.958	463.44
431.18	424.44
431.402	420.44
431.624	432.44
431.846	426.44
432.068	418.44
432.29	414.44
432.512	437.44
432.734	453.44
432.956	449.44
433.178	449.44
433.4	462.44
433.622	442.44
433.844	453.44
434.066	420.44
434.287	446.44
434.509	447.44
434.731	448.44
434.953	439.44
435.175	464.44
435.397	500.44
435.618	506.44
435.84	527.44
436.062	630.44
436.284	696.44
436.505	576.44
436.727	516.44
436.949	503.44
437.17	484.44
437.392	478.44
437.614	478.44
437.835	504.44
438.057	626.44
438.278	716.44
438.5	706.44
438.721	762.44
438.943	720.44
439.165	593.44
439.386	554.44
439.608	551.44
439.829	514.44
440.05	582.44
440.272	590.44
440.493	562.44
440.715	532.44
440.936	498.44
441.158	474.44
441.379	480.44
441.6	488.44
441.822	511.44
442.043	550.44
442.264	632.44
442.486	685.44
442.707	578.44
442.928	546.44
443.149	534.44
443.371	547.44
443.592	597.44
443.813	658.44
444.034	733.44
444.255	606.44
444.476	525.44
444.698	508.44
444.919	520.44
445.14	601.44
445.361	561.44
445.582	538.44
445.803	610.44
446.024	722.44
446.245	737.44
446.466	663.44
446.687	572.44
446.908	512.44
447.129	483.44
447.35	472.44
447.571	486.44
447.792	468.44
448.013	486.44
448.234	509.44
448.455	545.44
448.675	631.44
448.896	746.44
449.117	685.44
449.338	627.44
449.559	713.44
449.779	806.44
450	652.44
450.221	549.44
450.442	514.44
450.662	485.44
450.883	490.44
451.104	488.44
451.324	482.44
451.545	455.44
451.766	429.44
451.986	444.44
452.207	432.44
452.428	401.44
452.648	418.44
452.869	421.44
453.089	427.44
453.31	461.44
453.53	425.44
453.751	424.44
453.971	444.44
454.192	464.44
454.412	431.44
454.633	428.44
454.853	421.44
455.073	434.44
455.294	448.44
455.514	498.44
455.734	504.44
455.955	451.44
456.175	426.44
456.395	409.44
456.616	389.44
456.836	379.44
457.056	384.44
457.276	377.44
457.497	376.44
457.717	375.44
457.937	374.44
458.157	403.44
458.377	414.44
458.598	432.44
458.818	514.44
459.038	609.44
459.258	599.44
459.478	500.44
459.698	463.44
459.918	456.44
460.138	441.44
460.358	441.44
460.578	432.44
460.798	430.44
461.018	430.44
461.238	421.44
461.458	407.44
461.678	417.44
461.898	422.44
462.118	414.44
462.338	430.44
462.558	443.44
462.777	429.44
462.997	454.44
463.217	436.44
463.437	460.44
463.657	442.44
463.876	431.44
464.096	427.44
464.316	456.44
464.536	464.44
464.755	471.44
464.975	485.44
465.195	519.44
465.414	631.44
465.634	542.44
465.854	485.44
466.073	446.44
466.293	426.44
466.512	403.44
466.732	411.44
466.951	416.44
467.171	410.44
467.391	422.44
467.61	420.44
467.829	467.44
468.049	438.44
468.268	429.44
468.488	439.44
468.707	412.44
468.927	414.44
469.146	410.44
469.365	408.44
469.585	422.44
469.804	407.44
470.023	442.44
470.243	418.44
470.462	423.44
470.681	454.44
470.901	433.44
471.12	449.44
471.339	442.44
471.558	442.44
471.777	439.44
471.997	443.44
472.216	439.44
472.435	470.44
472.654	443.44
472.873	442.44
473.092	427.44
473.311	418.44
473.53	445.44
473.749	444.44
473.968	464.44
474.187	582.44
474.406	628.44
474.625	499.44
474.844	446.44
475.063	441.44
475.282	445.44
475.501	446.44
475.72	439.44
475.939	446.44
476.158	458.44
476.377	422.44
476.596	439.44
476.814	458.44
477.033	433.44
477.252	468.44
477.471	460.44
477.69	453.44
477.908	456.44
478.127	484.44
478.346	450.44
478.564	472.44
478.783	468.44
479.002	474.44
479.22	483.44
479.439	502.44
479.658	536.44
479.876	527.44
480.095	529.44
480.313	542.44
480.532	532.44
480.751	522.44
480.969	538.44
481.188	610.44
481.406	657.44
481.624	567.44
481.843	550.44
482.061	527.44
482.28	527.44
482.498	493.44
482.717	493.44
482.935	508.44
483.153	492.44
483.372	483.44
483.59	511.44
483.808	506.44
484.027	501.44
484.245	521.44
484.463	499.44
484.681	492.44
484.9	534.44
485.118	515.44
485.336	514.44
485.554	538.44
485.772	539.44
485.99	542.44
486.209	508.44
486.427	538.44
486.645	532.44
486.863	579.44
487.081	566.44
487.299	570.44
487.517	568.44
487.735	553.44
487.953	542.44
488.171	556.44
488.389	549.44
488.607	563.44
488.825	556.44
489.043	547.44
489.261	559.44
489.479	538.44
489.696	564.44
489.914	548.44
490.132	550.44
490.35	566.44
490.568	581.44
490.786	589.44
491.003	600.44
491.221	616.44
491.439	611.44
491.657	616.44
491.874	628.44
492.092	642.44
492.31	649.44
492.527	638.44
492.745	632.44
492.963	656.44
493.18	657.44
493.398	664.44
493.615	632.44
493.833	644.44
494.05	662.44
494.268	683.44
494.485	663.44
494.703	644.44
494.92	651.44
495.138	668.44
495.355	648.44
495.573	676.44
495.79	658.44
496.008	662.44
496.225	670.44
496.442	657.44
496.66	650.44
496.877	648.44
497.094	664.44
497.312	667.44
497.529	680.44
497.746	696.44
497.963	674.44
498.181	702.44
498.398	695.44
498.615	694.44
498.832	719.44
499.049	685.44
499.267	698.44
499.484	704.44
499.701	730.44
499.918	749.44
500.135	759.44
500.352	794.44
500.569	802.44
500.786	807.44
501.003	802.44
501.22	784.44
501.437	780.44
501.654	794.44
501.871	792.44
