Data from 1980.PennyLincolnUp.Lamp.En5.5.200Scan.071819.P1_HRD10591_16-36-20-956.txt Node
Date: Thu Jul 18 16:36:20 EDT 2019
User: cochatt
Spectrometer: HR+D1059
Trigger mode: 1
Integration Time (sec): 1.000000E-1
Scans to average: 1
Electric dark correction enabled: true
Nonlinearity correction enabled: false
Boxcar width: 0
XAxis mode: Wavelengths
Number of Pixels in Spectrum: 2048
>>>>>Begin Spectral Data<<<<<
223.165	-7.81
223.4	-7.81
223.635	-7.81
223.869	-11.81
224.104	-26.81
224.338	-8.81
224.573	-13.81
224.808	-13.81
225.042	-6.81
225.277	-7.81
225.511	-11.81
225.746	-10.81
225.98	9.19
226.215	10.19
226.449	18.19
226.683	7.19
226.918	31.19
227.152	44.19
227.387	47.19
227.621	46.19
227.856	52.19
228.09	58.19
228.324	43.19
228.559	54.19
228.793	72.19
229.027	82.19
229.262	88.19
229.496	94.19
229.73	119.19
229.964	130.19
230.199	133.19
230.433	103.19
230.667	90.19
230.901	105.19
231.136	105.19
231.37	109.19
231.604	103.19
231.838	114.19
232.072	102.19
232.306	109.19
232.541	106.19
232.775	104.19
233.009	88.19
233.243	107.19
233.477	102.19
233.711	106.19
233.945	107.19
234.179	98.19
234.413	102.19
234.647	115.19
234.881	97.19
235.115	115.19
235.349	101.19
235.583	99.19
235.817	100.19
236.051	128.19
236.285	114.19
236.519	108.19
236.753	124.19
236.987	137.19
237.221	157.19
237.455	185.19
237.689	168.19
237.922	123.19
238.156	131.19
238.39	121.19
238.624	110.19
238.858	103.19
239.091	99.19
239.325	108.19
239.559	116.19
239.793	122.19
240.027	114.19
240.26	126.19
240.494	135.19
240.728	141.19
240.961	150.19
241.195	118.19
241.429	146.19
241.662	122.19
241.896	126.19
242.13	132.19
242.363	124.19
242.597	119.19
242.83	126.19
243.064	106.19
243.298	126.19
243.531	124.19
243.765	119.19
243.998	130.19
244.232	138.19
244.465	133.19
244.699	141.19
244.932	131.19
245.166	131.19
245.399	141.19
245.633	140.19
245.866	141.19
246.099	126.19
246.333	134.19
246.566	134.19
246.8	149.19
247.033	142.19
247.266	147.19
247.5	159.19
247.733	142.19
247.966	160.19
248.2	156.19
248.433	157.19
248.666	152.19
248.899	162.19
249.133	173.19
249.366	171.19
249.599	185.19
249.832	176.19
250.066	158.19
250.299	147.19
250.532	173.19
250.765	176.19
250.998	217.19
251.231	201.19
251.465	199.19
251.698	195.19
251.931	170.19
252.164	166.19
252.397	178.19
252.63	201.19
252.863	184.19
253.096	180.19
253.329	209.19
253.562	205.19
253.795	197.19
254.028	197.19
254.261	199.19
254.494	207.19
254.727	219.19
254.96	245.19
255.193	234.19
255.426	221.19
255.659	219.19
255.892	204.19
256.124	176.19
256.357	196.19
256.59	185.19
256.823	185.19
257.056	200.19
257.289	203.19
257.521	176.19
257.754	174.19
257.987	194.19
258.22	180.19
258.452	191.19
258.685	174.19
258.918	187.19
259.151	180.19
259.383	187.19
259.616	183.19
259.849	181.19
260.081	191.19
260.314	237.19
260.547	216.19
260.779	216.19
261.012	219.19
261.244	210.19
261.477	189.19
261.71	202.19
261.942	221.19
262.175	219.19
262.407	192.19
262.64	185.19
262.872	183.19
263.105	173.19
263.337	175.19
263.57	198.19
263.802	181.19
264.035	184.19
264.267	187.19
264.499	188.19
264.732	182.19
264.964	182.19
265.197	171.19
265.429	174.19
265.661	181.19
265.894	180.19
266.126	174.19
266.358	196.19
266.591	193.19
266.823	197.19
267.055	196.19
267.287	197.19
267.52	199.19
267.752	189.19
267.984	188.19
268.216	208.19
268.448	201.19
268.681	208.19
268.913	191.19
269.145	222.19
269.377	233.19
269.609	225.19
269.841	210.19
270.073	222.19
270.306	239.19
270.538	268.19
270.77	262.19
271.002	248.19
271.234	254.19
271.466	240.19
271.698	249.19
271.93	254.19
272.162	269.19
272.394	264.19
272.626	256.19
272.858	240.19
273.09	244.19
273.322	217.19
273.553	213.19
273.785	235.19
274.017	223.19
274.249	219.19
274.481	215.19
274.713	217.19
274.945	226.19
275.176	208.19
275.408	203.19
275.64	214.19
275.872	210.19
276.104	227.19
276.335	212.19
276.567	213.19
276.799	231.19
277.031	236.19
277.262	263.19
277.494	258.19
277.726	242.19
277.957	236.19
278.189	222.19
278.421	232.19
278.652	210.19
278.884	235.19
279.115	211.19
279.347	216.19
279.579	219.19
279.81	211.19
280.042	205.19
280.273	212.19
280.505	221.19
280.736	213.19
280.968	194.19
281.199	206.19
281.431	214.19
281.662	219.19
281.894	204.19
282.125	218.19
282.356	222.19
282.588	245.19
282.819	248.19
283.051	243.19
283.282	200.19
283.513	216.19
283.745	207.19
283.976	201.19
284.207	212.19
284.439	237.19
284.67	226.19
284.901	223.19
285.132	216.19
285.364	210.19
285.595	218.19
285.826	216.19
286.057	199.19
286.288	214.19
286.52	202.19
286.751	231.19
286.982	215.19
287.213	208.19
287.444	220.19
287.675	207.19
287.906	225.19
288.138	223.19
288.369	234.19
288.6	231.19
288.831	232.19
289.062	235.19
289.293	218.19
289.524	222.19
289.755	238.19
289.986	215.19
290.217	228.19
290.448	220.19
290.679	215.19
290.91	223.19
291.141	226.19
291.371	238.19
291.602	229.19
291.833	234.19
292.064	223.19
292.295	242.19
292.526	218.19
292.757	206.19
292.987	216.19
293.218	226.19
293.449	203.19
293.68	226.19
293.91	226.19
294.141	228.19
294.372	228.19
294.603	216.19
294.833	223.19
295.064	226.19
295.295	226.19
295.525	235.19
295.756	235.19
295.987	238.19
296.217	225.19
296.448	258.19
296.679	252.19
296.909	242.19
297.14	213.19
297.37	228.19
297.601	223.19
297.831	228.19
298.062	218.19
298.292	242.19
298.523	243.19
298.753	226.19
298.984	232.19
299.214	227.19
299.445	246.19
299.675	240.19
299.905	244.19
300.136	253.19
300.366	222.19
300.597	247.19
300.827	237.19
301.057	239.19
301.288	240.19
301.518	238.19
301.748	257.19
301.979	248.19
302.209	246.19
302.439	265.19
302.669	242.19
302.9	251.19
303.13	250.19
303.36	248.19
303.59	236.19
303.82	251.19
304.051	263.19
304.281	254.19
304.511	248.19
304.741	248.19
304.971	253.19
305.201	250.19
305.431	247.19
305.661	258.19
305.891	253.19
306.121	261.19
306.352	254.19
306.582	238.19
306.812	242.19
307.042	254.19
307.272	253.19
307.502	263.19
307.731	248.19
307.961	250.19
308.191	260.19
308.421	256.19
308.651	250.19
308.881	270.19
309.111	263.19
309.341	258.19
309.571	275.19
309.8	271.19
310.03	268.19
310.26	288.19
310.49	292.19
310.72	295.19
310.949	298.19
311.179	318.19
311.409	312.19
311.639	287.19
311.868	307.19
312.098	274.19
312.328	295.19
312.557	314.19
312.787	315.19
313.017	311.19
313.246	320.19
313.476	301.19
313.706	286.19
313.935	283.19
314.165	298.19
314.394	301.19
314.624	311.19
314.853	298.19
315.083	283.19
315.312	281.19
315.542	287.19
315.771	274.19
316.001	276.19
316.23	284.19
316.46	298.19
316.689	300.19
316.919	303.19
317.148	307.19
317.377	316.19
317.607	296.19
317.836	290.19
318.065	302.19
318.295	269.19
318.524	286.19
318.753	297.19
318.983	271.19
319.212	293.19
319.441	293.19
319.67	308.19
319.9	293.19
320.129	300.19
320.358	292.19
320.587	302.19
320.816	296.19
321.046	291.19
321.275	323.19
321.504	307.19
321.733	323.19
321.962	320.19
322.191	312.19
322.42	315.19
322.649	338.19
322.878	333.19
323.108	360.19
323.337	388.19
323.566	391.19
323.795	423.19
324.024	453.19
324.253	529.19
324.482	752.19
324.71	1123.19
324.939	1655.19
325.168	1482.19
325.397	781.19
325.626	535.19
325.855	428.19
326.084	382.19
326.313	398.19
326.542	398.19
326.77	436.19
326.999	483.19
327.228	675.19
327.457	997.19
327.686	1237.19
327.914	873.19
328.143	555.19
328.372	494.19
328.6	474.19
328.829	452.19
329.058	459.19
329.287	454.19
329.515	418.19
329.744	418.19
329.972	373.19
330.201	378.19
330.43	435.19
330.658	438.19
330.887	440.19
331.115	446.19
331.344	397.19
331.572	372.19
331.801	382.19
332.03	381.19
332.258	354.19
332.486	345.19
332.715	355.19
332.943	336.19
333.172	338.19
333.4	342.19
333.629	348.19
333.857	351.19
334.085	345.19
334.314	370.19
334.542	372.19
334.771	384.19
334.999	362.19
335.227	340.19
335.455	315.19
335.684	335.19
335.912	346.19
336.14	326.19
336.369	318.19
336.597	362.19
336.825	331.19
337.053	342.19
337.281	311.19
337.51	324.19
337.738	342.19
337.966	327.19
338.194	342.19
338.422	329.19
338.65	328.19
338.878	320.19
339.106	312.19
339.334	326.19
339.562	344.19
339.79	339.19
340.018	327.19
340.246	324.19
340.474	342.19
340.702	308.19
340.93	314.19
341.158	329.19
341.386	338.19
341.614	337.19
341.842	318.19
342.07	318.19
342.298	329.19
342.526	312.19
342.754	319.19
342.981	311.19
343.209	293.19
343.437	311.19
343.665	314.19
343.893	323.19
344.12	334.19
344.348	318.19
344.576	320.19
344.804	341.19
345.031	333.19
345.259	328.19
345.487	338.19
345.714	326.19
345.942	323.19
346.17	328.19
346.397	322.19
346.625	328.19
346.853	320.19
347.08	291.19
347.308	301.19
347.535	337.19
347.763	328.19
347.99	330.19
348.218	321.19
348.445	340.19
348.673	334.19
348.9	308.19
349.128	310.19
349.355	312.19
349.583	307.19
349.81	307.19
350.037	320.19
350.265	311.19
350.492	324.19
350.72	316.19
350.947	299.19
351.174	328.19
351.402	326.19
351.629	335.19
351.856	339.19
352.083	329.19
352.311	319.19
352.538	317.19
352.765	317.19
352.992	315.19
353.22	321.19
353.447	316.19
353.674	316.19
353.901	328.19
354.128	320.19
354.355	308.19
354.583	319.19
354.81	294.19
355.037	302.19
355.264	299.19
355.491	279.19
355.718	283.19
355.945	299.19
356.172	296.19
356.399	290.19
356.626	294.19
356.853	285.19
357.08	295.19
357.307	306.19
357.534	295.19
357.761	295.19
357.988	295.19
358.215	288.19
358.441	302.19
358.668	299.19
358.895	297.19
359.122	306.19
359.349	326.19
359.576	311.19
359.802	341.19
360.029	359.19
360.256	355.19
360.483	352.19
360.709	345.19
360.936	347.19
361.163	341.19
361.39	329.19
361.616	318.19
361.843	327.19
362.07	345.19
362.296	314.19
362.523	331.19
362.749	322.19
362.976	318.19
363.203	307.19
363.429	302.19
363.656	317.19
363.882	316.19
364.109	318.19
364.335	307.19
364.562	320.19
364.788	292.19
365.015	314.19
365.241	312.19
365.468	321.19
365.694	320.19
365.92	322.19
366.147	326.19
366.373	313.19
366.599	298.19
366.826	295.19
367.052	309.19
367.278	314.19
367.505	322.19
367.731	311.19
367.957	290.19
368.184	292.19
368.41	316.19
368.636	308.19
368.862	323.19
369.089	314.19
369.315	302.19
369.541	300.19
369.767	310.19
369.993	310.19
370.219	324.19
370.445	299.19
370.672	314.19
370.898	312.19
371.124	309.19
371.35	302.19
371.576	308.19
371.802	300.19
372.028	308.19
372.254	299.19
372.48	306.19
372.706	310.19
372.932	309.19
373.158	309.19
373.384	303.19
373.61	316.19
373.835	308.19
374.061	313.19
374.287	310.19
374.513	299.19
374.739	291.19
374.965	311.19
375.191	300.19
375.416	315.19
375.642	298.19
375.868	310.19
376.094	312.19
376.319	327.19
376.545	321.19
376.771	303.19
376.997	280.19
377.222	314.19
377.448	308.19
377.674	306.19
377.899	292.19
378.125	295.19
378.35	312.19
378.576	310.19
378.802	303.19
379.027	290.19
379.253	308.19
379.478	291.19
379.704	290.19
379.929	314.19
380.155	321.19
380.38	318.19
380.606	289.19
380.831	304.19
381.057	325.19
381.282	312.19
381.507	312.19
381.733	310.19
381.958	302.19
382.184	306.19
382.409	318.19
382.634	311.19
382.86	299.19
383.085	330.19
383.31	336.19
383.535	278.19
383.761	302.19
383.986	314.19
384.211	307.19
384.436	326.19
384.662	312.19
384.887	318.19
385.112	320.19
385.337	331.19
385.562	329.19
385.787	316.19
386.013	336.19
386.238	337.19
386.463	338.19
386.688	330.19
386.913	319.19
387.138	323.19
387.363	326.19
387.588	330.19
387.813	349.19
388.038	317.19
388.263	307.19
388.488	317.19
388.713	321.19
388.938	311.19
389.163	331.19
389.387	318.19
389.612	323.19
389.837	318.19
390.062	332.19
390.287	313.19
390.512	299.19
390.736	322.19
390.961	336.19
391.186	310.19
391.411	331.19
391.636	336.19
391.86	335.19
392.085	330.19
392.31	334.19
392.534	335.19
392.759	319.19
392.984	303.19
393.208	335.19
393.433	335.19
393.658	330.19
393.882	310.19
394.107	344.19
394.331	316.19
394.556	332.19
394.78	335.19
395.005	324.19
395.229	306.19
395.454	334.19
395.678	341.19
395.903	343.19
396.127	364.19
396.352	363.19
396.576	334.19
396.801	344.19
397.025	337.19
397.249	347.19
397.474	336.19
397.698	355.19
397.922	358.19
398.147	365.19
398.371	384.19
398.595	377.19
398.82	349.19
399.044	365.19
399.268	357.19
399.492	386.19
399.717	401.19
399.941	417.19
400.165	433.19
400.389	444.19
400.613	414.19
400.837	379.19
401.062	390.19
401.286	388.19
401.51	351.19
401.734	370.19
401.958	380.19
402.182	389.19
402.406	383.19
402.63	367.19
402.854	356.19
403.078	376.19
403.302	363.19
403.526	388.19
403.75	382.19
403.974	379.19
404.198	383.19
404.422	374.19
404.645	394.19
404.869	383.19
405.093	412.19
405.317	435.19
405.541	475.19
405.765	426.19
405.988	391.19
406.212	394.19
406.436	422.19
406.66	430.19
406.883	412.19
407.107	430.19
407.331	461.19
407.555	501.19
407.778	502.19
408.002	468.19
408.226	416.19
408.449	432.19
408.673	415.19
408.896	437.19
409.12	471.19
409.344	458.19
409.567	414.19
409.791	397.19
410.014	380.19
410.238	375.19
410.461	374.19
410.685	390.19
410.908	406.19
411.132	432.19
411.355	445.19
411.578	432.19
411.802	372.19
412.025	396.19
412.249	384.19
412.472	398.19
412.695	426.19
412.919	397.19
413.142	419.19
413.365	359.19
413.589	382.19
413.812	363.19
414.035	364.19
414.258	371.19
414.482	364.19
414.705	350.19
414.928	348.19
415.151	366.19
415.374	365.19
415.597	343.19
415.821	347.19
416.044	364.19
416.267	367.19
416.49	352.19
416.713	348.19
416.936	383.19
417.159	379.19
417.382	345.19
417.605	365.19
417.828	379.19
418.051	380.19
418.274	380.19
418.497	362.19
418.72	377.19
418.943	368.19
419.166	372.19
419.389	388.19
419.611	384.19
419.834	362.19
420.057	374.19
420.28	383.19
420.503	362.19
420.726	381.19
420.948	402.19
421.171	436.19
421.394	455.19
421.617	411.19
421.839	403.19
422.062	398.19
422.285	388.19
422.507	432.19
422.73	502.19
422.953	478.19
423.175	442.19
423.398	390.19
423.621	407.19
423.843	423.19
424.066	423.19
424.288	428.19
424.511	440.19
424.733	480.19
424.956	565.19
425.178	526.19
425.401	512.19
425.623	545.19
425.846	455.19
426.068	419.19
426.291	413.19
426.513	431.19
426.735	437.19
426.958	473.19
427.18	532.19
427.402	634.19
427.625	677.19
427.847	601.19
428.069	516.19
428.292	456.19
428.514	417.19
428.736	407.19
428.958	412.19
429.181	382.19
429.403	382.19
429.625	390.19
429.847	435.19
430.069	486.19
430.292	483.19
430.514	420.19
430.736	395.19
430.958	378.19
431.18	376.19
431.402	360.19
431.624	376.19
431.846	361.19
432.068	370.19
432.29	374.19
432.512	379.19
432.734	365.19
432.956	380.19
433.178	374.19
433.4	394.19
433.622	398.19
433.844	373.19
434.066	379.19
434.287	348.19
434.509	362.19
434.731	388.19
434.953	386.19
435.175	383.19
435.397	418.19
435.618	431.19
435.84	456.19
436.062	532.19
436.284	571.19
436.505	507.19
436.727	442.19
436.949	423.19
437.17	396.19
437.392	400.19
437.614	407.19
437.835	447.19
438.057	549.19
438.278	605.19
438.5	581.19
438.721	643.19
438.943	613.19
439.165	476.19
439.386	438.19
439.608	455.19
439.829	452.19
440.05	443.19
440.272	498.19
440.493	476.19
440.715	432.19
440.936	410.19
441.158	398.19
441.379	385.19
441.6	399.19
441.822	407.19
442.043	459.19
442.264	528.19
442.486	569.19
442.707	477.19
442.928	437.19
443.149	426.19
443.371	471.19
443.592	508.19
443.813	583.19
444.034	596.19
444.255	512.19
444.476	431.19
444.698	429.19
444.919	439.19
445.14	485.19
445.361	463.19
445.582	451.19
445.803	518.19
446.024	587.19
446.245	584.19
446.466	559.19
446.687	457.19
446.908	452.19
447.129	423.19
447.35	402.19
447.571	394.19
447.792	390.19
448.013	397.19
448.234	430.19
448.455	450.19
448.675	537.19
448.896	628.19
449.117	543.19
449.338	521.19
449.559	601.19
449.779	662.19
450	530.19
450.221	451.19
450.442	386.19
450.662	389.19
450.883	403.19
451.104	423.19
451.324	398.19
451.545	379.19
451.766	366.19
451.986	356.19
452.207	351.19
452.428	347.19
452.648	366.19
452.869	362.19
453.089	360.19
453.31	382.19
453.53	396.19
453.751	355.19
453.971	350.19
454.192	374.19
454.412	356.19
454.633	351.19
454.853	355.19
455.073	341.19
455.294	382.19
455.514	455.19
455.734	402.19
455.955	370.19
456.175	367.19
456.395	337.19
456.616	328.19
456.836	336.19
457.056	332.19
457.276	331.19
457.497	343.19
457.717	362.19
457.937	345.19
458.157	344.19
458.377	346.19
458.598	343.19
458.818	407.19
459.038	479.19
459.258	481.19
459.478	414.19
459.698	381.19
459.918	375.19
460.138	337.19
460.358	357.19
460.578	365.19
460.798	333.19
461.018	378.19
461.238	374.19
461.458	346.19
461.678	363.19
461.898	362.19
462.118	355.19
462.338	373.19
462.558	372.19
462.777	378.19
462.997	376.19
463.217	376.19
463.437	382.19
463.657	365.19
463.876	375.19
464.096	388.19
464.316	382.19
464.536	386.19
464.755	386.19
464.975	387.19
465.195	423.19
465.414	490.19
465.634	443.19
465.854	402.19
466.073	357.19
466.293	366.19
466.512	353.19
466.732	360.19
466.951	348.19
467.171	349.19
467.391	352.19
467.61	360.19
467.829	362.19
468.049	366.19
468.268	354.19
468.488	339.19
468.707	355.19
468.927	340.19
469.146	338.19
469.365	340.19
469.585	331.19
469.804	351.19
470.023	362.19
470.243	366.19
470.462	390.19
470.681	381.19
470.901	374.19
471.12	359.19
471.339	367.19
471.558	372.19
471.777	374.19
471.997	351.19
472.216	354.19
472.435	372.19
472.654	352.19
472.873	358.19
473.092	367.19
473.311	367.19
473.53	363.19
473.749	349.19
473.968	366.19
474.187	491.19
474.406	479.19
474.625	418.19
474.844	388.19
475.063	366.19
475.282	368.19
475.501	375.19
475.72	382.19
475.939	376.19
476.158	366.19
476.377	370.19
476.596	367.19
476.814	377.19
477.033	387.19
477.252	386.19
477.471	367.19
477.69	385.19
477.908	397.19
478.127	399.19
478.346	384.19
478.564	406.19
478.783	403.19
479.002	409.19
479.22	403.19
479.439	422.19
479.658	428.19
479.876	423.19
480.095	420.19
480.313	438.19
480.532	438.19
480.751	422.19
480.969	439.19
481.188	466.19
481.406	487.19
481.624	470.19
481.843	440.19
482.061	430.19
482.28	420.19
482.498	425.19
482.717	439.19
482.935	424.19
483.153	411.19
483.372	434.19
483.59	410.19
483.808	420.19
484.027	414.19
484.245	427.19
484.463	429.19
484.681	436.19
484.9	420.19
485.118	443.19
485.336	424.19
485.554	447.19
485.772	431.19
485.99	442.19
486.209	430.19
486.427	448.19
486.645	446.19
486.863	467.19
487.081	466.19
487.299	457.19
487.517	463.19
487.735	439.19
487.953	460.19
488.171	477.19
488.389	444.19
488.607	477.19
488.825	468.19
489.043	464.19
489.261	462.19
489.479	479.19
489.696	484.19
489.914	470.19
490.132	474.19
490.35	485.19
490.568	485.19
490.786	506.19
491.003	506.19
491.221	501.19
491.439	510.19
491.657	525.19
491.874	517.19
492.092	526.19
492.31	537.19
492.527	526.19
492.745	532.19
492.963	530.19
493.18	544.19
493.398	542.19
493.615	532.19
493.833	533.19
494.05	559.19
494.268	532.19
494.485	538.19
494.703	541.19
494.92	550.19
495.138	543.19
495.355	564.19
495.573	558.19
495.79	546.19
496.008	543.19
496.225	575.19
496.442	563.19
496.66	537.19
496.877	563.19
497.094	538.19
497.312	579.19
497.529	555.19
497.746	562.19
497.963	564.19
498.181	580.19
498.398	582.19
498.615	602.19
498.832	568.19
499.049	584.19
499.267	583.19
499.484	619.19
499.701	640.19
499.918	644.19
500.135	662.19
500.352	655.19
500.569	694.19
500.786	716.19
501.003	679.19
501.22	686.19
501.437	676.19
501.654	669.19
501.871	662.19
502.088	634.19
