Data from 1980.PennyLincolnUp.Lamp.En5.5.200Scan.071819.P1_HRD10591_16-39-22-958.txt Node
Date: Thu Jul 18 16:39:22 EDT 2019
User: cochatt
Spectrometer: HR+D1059
Trigger mode: 1
Integration Time (sec): 1.000000E-1
Scans to average: 1
Electric dark correction enabled: true
Nonlinearity correction enabled: false
Boxcar width: 0
XAxis mode: Wavelengths
Number of Pixels in Spectrum: 2048
>>>>>Begin Spectral Data<<<<<
223.165	-20.88
223.4	-20.88
223.635	-20.88
223.869	-27.88
224.104	-22.88
224.338	-18.88
224.573	-24.88
224.808	2.12
225.042	-9.88
225.277	-6.88
225.511	9.12
225.746	12.12
225.98	16.12
226.215	14.12
226.449	23.12
226.683	10.12
226.918	19.12
227.152	26.12
227.387	34.12
227.621	46.12
227.856	35.12
228.09	52.12
228.324	49.12
228.559	57.12
228.793	69.12
229.027	108.12
229.262	106.12
229.496	115.12
229.73	146.12
229.964	183.12
230.199	146.12
230.433	130.12
230.667	114.12
230.901	124.12
231.136	107.12
231.37	118.12
231.604	109.12
231.838	102.12
232.072	128.12
232.306	131.12
232.541	122.12
232.775	100.12
233.009	114.12
233.243	131.12
233.477	118.12
233.711	112.12
233.945	114.12
234.179	132.12
234.413	123.12
234.647	109.12
234.881	116.12
235.115	131.12
235.349	125.12
235.583	109.12
235.817	110.12
236.051	119.12
236.285	128.12
236.519	127.12
236.753	142.12
236.987	155.12
237.221	192.12
237.455	240.12
237.689	219.12
237.922	152.12
238.156	148.12
238.39	139.12
238.624	119.12
238.858	139.12
239.091	125.12
239.325	130.12
239.559	126.12
239.793	125.12
240.027	136.12
240.26	160.12
240.494	176.12
240.728	180.12
240.961	157.12
241.195	145.12
241.429	132.12
241.662	134.12
241.896	137.12
242.13	140.12
242.363	126.12
242.597	131.12
242.83	141.12
243.064	140.12
243.298	151.12
243.531	145.12
243.765	164.12
243.998	132.12
244.232	149.12
244.465	156.12
244.699	164.12
244.932	152.12
245.166	153.12
245.399	158.12
245.633	142.12
245.866	137.12
246.099	161.12
246.333	153.12
246.566	150.12
246.8	146.12
247.033	151.12
247.266	149.12
247.5	165.12
247.733	168.12
247.966	189.12
248.2	161.12
248.433	188.12
248.666	188.12
248.899	193.12
249.133	214.12
249.366	221.12
249.599	206.12
249.832	192.12
250.066	196.12
250.299	186.12
250.532	212.12
250.765	216.12
250.998	237.12
251.231	247.12
251.465	238.12
251.698	210.12
251.931	206.12
252.164	202.12
252.397	209.12
252.63	205.12
252.863	218.12
253.096	234.12
253.329	239.12
253.562	241.12
253.795	234.12
254.028	228.12
254.261	222.12
254.494	237.12
254.727	274.12
254.96	314.12
255.193	299.12
255.426	264.12
255.659	235.12
255.892	242.12
256.124	246.12
256.357	245.12
256.59	255.12
256.823	240.12
257.056	216.12
257.289	218.12
257.521	210.12
257.754	232.12
257.987	222.12
258.22	208.12
258.452	201.12
258.685	205.12
258.918	206.12
259.151	195.12
259.383	227.12
259.616	206.12
259.849	233.12
260.081	245.12
260.314	264.12
260.547	292.12
260.779	279.12
261.012	242.12
261.244	241.12
261.477	245.12
261.71	220.12
261.942	244.12
262.175	256.12
262.407	248.12
262.64	229.12
262.872	227.12
263.105	237.12
263.337	210.12
263.57	219.12
263.802	209.12
264.035	219.12
264.267	225.12
264.499	214.12
264.732	225.12
264.964	210.12
265.197	222.12
265.429	208.12
265.661	197.12
265.894	203.12
266.126	218.12
266.358	221.12
266.591	215.12
266.823	218.12
267.055	219.12
267.287	234.12
267.52	230.12
267.752	227.12
267.984	232.12
268.216	234.12
268.448	235.12
268.681	247.12
268.913	241.12
269.145	265.12
269.377	284.12
269.609	290.12
269.841	276.12
270.073	286.12
270.306	316.12
270.538	342.12
270.77	332.12
271.002	326.12
271.234	312.12
271.466	313.12
271.698	348.12
271.93	333.12
272.162	344.12
272.394	338.12
272.626	318.12
272.858	298.12
273.09	290.12
273.322	279.12
273.553	280.12
273.785	268.12
274.017	273.12
274.249	275.12
274.481	258.12
274.713	283.12
274.945	260.12
275.176	275.12
275.408	273.12
275.64	268.12
275.872	266.12
276.104	262.12
276.335	273.12
276.567	277.12
276.799	305.12
277.031	312.12
277.262	321.12
277.494	305.12
277.726	324.12
277.957	291.12
278.189	278.12
278.421	275.12
278.652	263.12
278.884	270.12
279.115	271.12
279.347	268.12
279.579	268.12
279.81	262.12
280.042	253.12
280.273	277.12
280.505	288.12
280.736	262.12
280.968	269.12
281.199	237.12
281.431	258.12
281.662	263.12
281.894	267.12
282.125	257.12
282.356	282.12
282.588	306.12
282.819	322.12
283.051	259.12
283.282	250.12
283.513	266.12
283.745	245.12
283.976	270.12
284.207	292.12
284.439	284.12
284.67	260.12
284.901	265.12
285.132	285.12
285.364	260.12
285.595	269.12
285.826	292.12
286.057	271.12
286.288	278.12
286.52	264.12
286.751	263.12
286.982	266.12
287.213	274.12
287.444	267.12
287.675	280.12
287.906	301.12
288.138	288.12
288.369	308.12
288.6	302.12
288.831	308.12
289.062	273.12
289.293	269.12
289.524	265.12
289.755	264.12
289.986	262.12
290.217	291.12
290.448	282.12
290.679	294.12
290.91	270.12
291.141	265.12
291.371	276.12
291.602	266.12
291.833	271.12
292.064	289.12
292.295	270.12
292.526	277.12
292.757	266.12
292.987	282.12
293.218	261.12
293.449	273.12
293.68	280.12
293.91	281.12
294.141	278.12
294.372	280.12
294.603	272.12
294.833	281.12
295.064	280.12
295.295	280.12
295.525	278.12
295.756	301.12
295.987	290.12
296.217	313.12
296.448	317.12
296.679	294.12
296.909	274.12
297.14	286.12
297.37	271.12
297.601	282.12
297.831	285.12
298.062	270.12
298.292	268.12
298.523	308.12
298.753	293.12
298.984	291.12
299.214	276.12
299.445	290.12
299.675	284.12
299.905	291.12
300.136	309.12
300.366	283.12
300.597	290.12
300.827	277.12
301.057	290.12
301.288	305.12
301.518	324.12
301.748	330.12
301.979	298.12
302.209	318.12
302.439	325.12
302.669	298.12
302.9	288.12
303.13	326.12
303.36	330.12
303.59	304.12
303.82	337.12
304.051	330.12
304.281	319.12
304.511	319.12
304.741	304.12
304.971	300.12
305.201	314.12
305.431	293.12
305.661	314.12
305.891	301.12
306.121	304.12
306.352	309.12
306.582	315.12
306.812	346.12
307.042	337.12
307.272	317.12
307.502	323.12
307.731	313.12
307.961	315.12
308.191	295.12
308.421	312.12
308.651	328.12
308.881	325.12
309.111	318.12
309.341	346.12
309.571	349.12
309.8	356.12
310.03	361.12
310.26	378.12
310.49	380.12
310.72	380.12
310.949	407.12
311.179	409.12
311.409	370.12
311.639	362.12
311.868	375.12
312.098	357.12
312.328	370.12
312.557	399.12
312.787	420.12
313.017	417.12
313.246	396.12
313.476	364.12
313.706	380.12
313.935	391.12
314.165	380.12
314.394	381.12
314.624	401.12
314.853	404.12
315.083	364.12
315.312	372.12
315.542	359.12
315.771	348.12
316.001	348.12
316.23	355.12
316.46	353.12
316.689	372.12
316.919	373.12
317.148	371.12
317.377	389.12
317.607	393.12
317.836	358.12
318.065	376.12
318.295	365.12
318.524	343.12
318.753	366.12
318.983	366.12
319.212	370.12
319.441	374.12
319.67	369.12
319.9	365.12
320.129	364.12
320.358	369.12
320.587	376.12
320.816	385.12
321.046	385.12
321.275	389.12
321.504	398.12
321.733	413.12
321.962	427.12
322.191	432.12
322.42	442.12
322.649	438.12
322.878	464.12
323.108	478.12
323.337	519.12
323.566	528.12
323.795	581.12
324.024	656.12
324.253	798.12
324.482	1172.12
324.71	1806.12
324.939	2588.12
325.168	2266.12
325.397	1188.12
325.626	769.12
325.855	644.12
326.084	563.12
326.313	546.12
326.542	536.12
326.77	614.12
326.999	743.12
327.228	1022.12
327.457	1619.12
327.686	1950.12
327.914	1340.12
328.143	878.12
328.372	702.12
328.6	669.12
328.829	629.12
329.058	648.12
329.287	655.12
329.515	616.12
329.744	571.12
329.972	577.12
330.201	559.12
330.43	628.12
330.658	673.12
330.887	704.12
331.115	683.12
331.344	560.12
331.572	487.12
331.801	509.12
332.03	489.12
332.258	475.12
332.486	446.12
332.715	432.12
332.943	439.12
333.172	455.12
333.4	459.12
333.629	439.12
333.857	485.12
334.085	473.12
334.314	493.12
334.542	556.12
334.771	574.12
334.999	528.12
335.227	461.12
335.455	462.12
335.684	419.12
335.912	434.12
336.14	427.12
336.369	420.12
336.597	441.12
336.825	426.12
337.053	432.12
337.281	412.12
337.51	402.12
337.738	430.12
337.966	410.12
338.194	437.12
338.422	429.12
338.65	417.12
338.878	417.12
339.106	399.12
339.334	385.12
339.562	417.12
339.79	407.12
340.018	414.12
340.246	415.12
340.474	412.12
340.702	398.12
340.93	413.12
341.158	410.12
341.386	421.12
341.614	404.12
341.842	428.12
342.07	403.12
342.298	418.12
342.526	402.12
342.754	390.12
342.981	384.12
343.209	373.12
343.437	387.12
343.665	389.12
343.893	412.12
344.12	410.12
344.348	405.12
344.576	408.12
344.804	404.12
345.031	420.12
345.259	444.12
345.487	426.12
345.714	424.12
345.942	421.12
346.17	396.12
346.397	407.12
346.625	400.12
346.853	402.12
347.08	396.12
347.308	394.12
347.535	423.12
347.763	430.12
347.99	436.12
348.218	404.12
348.445	425.12
348.673	427.12
348.9	410.12
349.128	415.12
349.355	387.12
349.583	392.12
349.81	376.12
350.037	375.12
350.265	392.12
350.492	368.12
350.72	384.12
350.947	421.12
351.174	419.12
351.402	434.12
351.629	443.12
351.856	421.12
352.083	420.12
352.311	461.12
352.538	421.12
352.765	432.12
352.992	414.12
353.22	400.12
353.447	401.12
353.674	388.12
353.901	402.12
354.128	380.12
354.355	384.12
354.583	370.12
354.81	363.12
355.037	357.12
355.264	342.12
355.491	372.12
355.718	370.12
355.945	370.12
356.172	359.12
356.399	358.12
356.626	373.12
356.853	350.12
357.08	372.12
357.307	363.12
357.534	349.12
357.761	376.12
357.988	368.12
358.215	365.12
358.441	372.12
358.668	363.12
358.895	372.12
359.122	370.12
359.349	396.12
359.576	394.12
359.802	404.12
360.029	467.12
360.256	468.12
360.483	454.12
360.709	424.12
360.936	404.12
361.163	411.12
361.39	404.12
361.616	414.12
361.843	416.12
362.07	384.12
362.296	399.12
362.523	390.12
362.749	400.12
362.976	379.12
363.203	396.12
363.429	377.12
363.656	392.12
363.882	374.12
364.109	365.12
364.335	378.12
364.562	381.12
364.788	402.12
365.015	379.12
365.241	388.12
365.468	379.12
365.694	384.12
365.92	378.12
366.147	374.12
366.373	374.12
366.599	358.12
366.826	373.12
367.052	360.12
367.278	366.12
367.505	372.12
367.731	368.12
367.957	371.12
368.184	370.12
368.41	379.12
368.636	398.12
368.862	386.12
369.089	375.12
369.315	393.12
369.541	371.12
369.767	371.12
369.993	371.12
370.219	376.12
370.445	358.12
370.672	366.12
370.898	354.12
371.124	370.12
371.35	371.12
371.576	361.12
371.802	375.12
372.028	349.12
372.254	371.12
372.48	350.12
372.706	361.12
372.932	370.12
373.158	365.12
373.384	371.12
373.61	363.12
373.835	368.12
374.061	378.12
374.287	378.12
374.513	374.12
374.739	380.12
374.965	371.12
375.191	353.12
375.416	368.12
375.642	377.12
375.868	367.12
376.094	378.12
376.319	342.12
376.545	356.12
376.771	348.12
376.997	364.12
377.222	342.12
377.448	354.12
377.674	365.12
377.899	358.12
378.125	361.12
378.35	345.12
378.576	348.12
378.802	356.12
379.027	356.12
379.253	362.12
379.478	339.12
379.704	352.12
379.929	342.12
380.155	380.12
380.38	348.12
380.606	378.12
380.831	370.12
381.057	364.12
381.282	358.12
381.507	377.12
381.733	338.12
381.958	366.12
382.184	358.12
382.409	362.12
382.634	373.12
382.86	362.12
383.085	378.12
383.31	368.12
383.535	374.12
383.761	380.12
383.986	390.12
384.211	358.12
384.436	380.12
384.662	384.12
384.887	373.12
385.112	384.12
385.337	394.12
385.562	371.12
385.787	390.12
386.013	388.12
386.238	400.12
386.463	407.12
386.688	378.12
386.913	384.12
387.138	367.12
387.363	369.12
387.588	381.12
387.813	402.12
388.038	390.12
388.263	380.12
388.488	380.12
388.713	391.12
388.938	380.12
389.163	384.12
389.387	386.12
389.612	369.12
389.837	381.12
390.062	368.12
390.287	370.12
390.512	362.12
390.736	383.12
390.961	391.12
391.186	372.12
391.411	387.12
391.636	374.12
391.86	381.12
392.085	380.12
392.31	364.12
392.534	390.12
392.759	385.12
392.984	369.12
393.208	389.12
393.433	380.12
393.658	378.12
393.882	362.12
394.107	387.12
394.331	378.12
394.556	370.12
394.78	372.12
395.005	403.12
395.229	388.12
395.454	405.12
395.678	389.12
395.903	397.12
396.127	422.12
396.352	416.12
396.576	422.12
396.801	401.12
397.025	392.12
397.249	385.12
397.474	396.12
397.698	399.12
397.922	405.12
398.147	438.12
398.371	435.12
398.595	424.12
398.82	420.12
399.044	417.12
399.268	433.12
399.492	468.12
399.717	480.12
399.941	493.12
400.165	518.12
400.389	529.12
400.613	493.12
400.837	457.12
401.062	445.12
401.286	432.12
401.51	425.12
401.734	427.12
401.958	420.12
402.182	444.12
402.406	445.12
402.63	456.12
402.854	440.12
403.078	451.12
403.302	468.12
403.526	453.12
403.75	458.12
403.974	461.12
404.198	435.12
404.422	461.12
404.645	482.12
404.869	493.12
405.093	522.12
405.317	566.12
405.541	570.12
405.765	533.12
405.988	517.12
406.212	493.12
406.436	523.12
406.66	564.12
406.883	508.12
407.107	516.12
407.331	559.12
407.555	636.12
407.778	621.12
408.002	550.12
408.226	544.12
408.449	530.12
408.673	505.12
408.896	533.12
409.12	596.12
409.344	519.12
409.567	478.12
409.791	476.12
410.014	466.12
410.238	451.12
410.461	465.12
410.685	466.12
410.908	488.12
411.132	514.12
411.355	536.12
411.578	536.12
411.802	504.12
412.025	471.12
412.249	477.12
412.472	530.12
412.695	542.12
412.919	519.12
413.142	467.12
413.365	480.12
413.589	471.12
413.812	443.12
414.035	435.12
414.258	428.12
414.482	431.12
414.705	434.12
414.928	435.12
415.151	419.12
415.374	439.12
415.597	435.12
415.821	413.12
416.044	442.12
416.267	437.12
416.49	433.12
416.713	442.12
416.936	425.12
417.159	422.12
417.382	432.12
417.605	436.12
417.828	466.12
418.051	468.12
418.274	469.12
418.497	441.12
418.72	437.12
418.943	443.12
419.166	466.12
419.389	460.12
419.611	449.12
419.834	470.12
420.057	493.12
420.28	474.12
420.503	461.12
420.726	459.12
420.948	493.12
421.171	534.12
421.394	570.12
421.617	486.12
421.839	452.12
422.062	460.12
422.285	494.12
422.507	523.12
422.73	606.12
422.953	607.12
423.175	518.12
423.398	490.12
423.621	492.12
423.843	515.12
424.066	512.12
424.288	508.12
424.511	533.12
424.733	599.12
424.956	662.12
425.178	635.12
425.401	634.12
425.623	665.12
425.846	568.12
426.068	531.12
426.291	532.12
426.513	534.12
426.735	548.12
426.958	579.12
427.18	636.12
427.402	784.12
427.625	876.12
427.847	776.12
428.069	699.12
428.292	613.12
428.514	520.12
428.736	496.12
428.958	486.12
429.181	490.12
429.403	474.12
429.625	481.12
429.847	547.12
430.069	590.12
430.292	609.12
430.514	518.12
430.736	482.12
430.958	471.12
431.18	436.12
431.402	443.12
431.624	444.12
431.846	438.12
432.068	448.12
432.29	445.12
432.512	448.12
432.734	455.12
432.956	470.12
433.178	464.12
433.4	467.12
433.622	455.12
433.844	450.12
434.066	439.12
434.287	441.12
434.509	441.12
434.731	458.12
434.953	469.12
435.175	475.12
435.397	506.12
435.618	539.12
435.84	557.12
436.062	666.12
436.284	728.12
436.505	612.12
436.727	563.12
436.949	511.12
437.17	506.12
437.392	487.12
437.614	519.12
437.835	538.12
438.057	648.12
438.278	744.12
438.5	758.12
438.721	811.12
438.943	757.12
439.165	631.12
439.386	571.12
439.608	544.12
439.829	557.12
440.05	578.12
440.272	658.12
440.493	617.12
440.715	540.12
440.936	525.12
441.158	486.12
441.379	472.12
441.6	488.12
441.822	537.12
442.043	595.12
442.264	676.12
442.486	699.12
442.707	602.12
442.928	566.12
443.149	568.12
443.371	587.12
443.592	610.12
443.813	690.12
444.034	737.12
444.255	629.12
444.476	555.12
444.698	526.12
444.919	517.12
445.14	612.12
445.361	585.12
445.582	585.12
445.803	650.12
446.024	773.12
446.245	769.12
446.466	685.12
446.687	599.12
446.908	544.12
447.129	508.12
447.35	485.12
447.571	477.12
447.792	490.12
448.013	487.12
448.234	520.12
448.455	551.12
448.675	664.12
448.896	764.12
449.117	674.12
449.338	636.12
449.559	752.12
449.779	836.12
450	672.12
450.221	568.12
450.442	500.12
450.662	507.12
450.883	498.12
451.104	509.12
451.324	524.12
451.545	473.12
451.766	463.12
451.986	458.12
452.207	427.12
452.428	425.12
452.648	437.12
452.869	450.12
453.089	452.12
453.31	450.12
453.53	438.12
453.751	451.12
453.971	446.12
454.192	482.12
454.412	472.12
454.633	444.12
454.853	426.12
455.073	436.12
455.294	465.12
455.514	555.12
455.734	536.12
455.955	444.12
456.175	404.12
456.395	402.12
456.616	393.12
456.836	404.12
457.056	400.12
457.276	388.12
457.497	402.12
457.717	367.12
457.937	427.12
458.157	426.12
458.377	436.12
458.598	476.12
458.818	524.12
459.038	628.12
459.258	638.12
459.478	523.12
459.698	468.12
459.918	451.12
460.138	438.12
460.358	419.12
460.578	434.12
460.798	431.12
461.018	430.12
461.238	418.12
461.458	408.12
461.678	414.12
461.898	438.12
462.118	413.12
462.338	454.12
462.558	442.12
462.777	418.12
462.997	441.12
463.217	451.12
463.437	457.12
463.657	463.12
463.876	464.12
464.096	463.12
464.316	453.12
464.536	449.12
464.755	470.12
464.975	499.12
465.195	542.12
465.414	660.12
465.634	542.12
465.854	491.12
466.073	486.12
466.293	472.12
466.512	438.12
466.732	433.12
466.951	422.12
467.171	413.12
467.391	443.12
467.61	444.12
467.829	453.12
468.049	472.12
468.268	457.12
468.488	440.12
468.707	436.12
468.927	409.12
469.146	426.12
469.365	412.12
469.585	421.12
469.804	436.12
470.023	455.12
470.243	428.12
470.462	449.12
470.681	478.12
470.901	469.12
471.12	448.12
471.339	427.12
471.558	436.12
471.777	440.12
471.997	424.12
472.216	455.12
472.435	493.12
472.654	507.12
472.873	461.12
473.092	435.12
473.311	446.12
473.53	444.12
473.749	465.12
473.968	510.12
474.187	589.12
474.406	619.12
474.625	516.12
474.844	467.12
475.063	440.12
475.282	460.12
475.501	434.12
475.72	457.12
475.939	454.12
476.158	470.12
476.377	446.12
476.596	434.12
476.814	451.12
477.033	473.12
477.252	471.12
477.471	493.12
477.69	483.12
477.908	460.12
478.127	473.12
478.346	454.12
478.564	468.12
478.783	490.12
479.002	484.12
479.22	497.12
479.439	508.12
479.658	533.12
479.876	525.12
480.095	554.12
480.313	568.12
480.532	558.12
480.751	528.12
480.969	554.12
481.188	624.12
481.406	696.12
481.624	599.12
481.843	585.12
482.061	549.12
482.28	536.12
482.498	557.12
482.717	524.12
482.935	534.12
483.153	519.12
483.372	532.12
483.59	516.12
483.808	536.12
484.027	525.12
484.245	537.12
484.463	535.12
484.681	556.12
484.9	505.12
485.118	532.12
485.336	545.12
485.554	560.12
485.772	541.12
485.99	544.12
486.209	564.12
486.427	543.12
486.645	558.12
486.863	585.12
487.081	579.12
487.299	557.12
487.517	571.12
487.735	588.12
487.953	566.12
488.171	560.12
488.389	557.12
488.607	583.12
488.825	576.12
489.043	568.12
489.261	571.12
489.479	583.12
489.696	581.12
489.914	612.12
490.132	601.12
490.35	588.12
490.568	619.12
490.786	620.12
491.003	610.12
491.221	614.12
491.439	646.12
491.657	630.12
491.874	656.12
492.092	654.12
492.31	674.12
492.527	688.12
492.745	657.12
492.963	685.12
493.18	683.12
493.398	676.12
493.615	702.12
493.833	668.12
494.05	691.12
494.268	681.12
494.485	661.12
494.703	662.12
494.92	680.12
495.138	696.12
495.355	681.12
495.573	699.12
495.79	682.12
496.008	684.12
496.225	689.12
496.442	698.12
496.66	699.12
496.877	693.12
497.094	689.12
497.312	682.12
497.529	694.12
497.746	710.12
497.963	710.12
498.181	701.12
498.398	725.12
498.615	726.12
498.832	705.12
499.049	748.12
499.267	749.12
499.484	733.12
499.701	755.12
499.918	786.12
500.135	785.12
500.352	796.12
500.569	814.12
500.786	805.12
501.003	798.12
501.22	793.12
501.437	816.12
501.654	814.12
501.871	824.12
