Data from 1980.PennyLincolnUp.Lamp.En5.5.200Scan.071819.P1_HRD10591_16-36-59-956.txt Node
Date: Thu Jul 18 16:36:59 EDT 2019
User: cochatt
Spectrometer: HR+D1059
Trigger mode: 1
Integration Time (sec): 1.000000E-1
Scans to average: 1
Electric dark correction enabled: true
Nonlinearity correction enabled: false
Boxcar width: 0
XAxis mode: Wavelengths
Number of Pixels in Spectrum: 2048
>>>>>Begin Spectral Data<<<<<
223.165	-8.69
223.4	-8.69
223.635	-8.69
223.869	-31.69
224.104	-13.69
224.338	-19.69
224.573	-10.69
224.808	-3.69
225.042	-21.69
225.277	-4.69
225.511	-8.69
225.746	2.31
225.98	9.31
226.215	18.31
226.449	13.31
226.683	21.31
226.918	30.31
227.152	28.31
227.387	44.31
227.621	33.31
227.856	27.31
228.09	44.31
228.324	51.31
228.559	59.31
228.793	54.31
229.027	99.31
229.262	110.31
229.496	117.31
229.73	131.31
229.964	157.31
230.199	134.31
230.433	127.31
230.667	112.31
230.901	124.31
231.136	117.31
231.37	92.31
231.604	95.31
231.838	103.31
232.072	109.31
232.306	114.31
232.541	111.31
232.775	107.31
233.009	104.31
233.243	112.31
233.477	115.31
233.711	119.31
233.945	104.31
234.179	123.31
234.413	97.31
234.647	118.31
234.881	118.31
235.115	111.31
235.349	119.31
235.583	131.31
235.817	112.31
236.051	123.31
236.285	134.31
236.519	125.31
236.753	139.31
236.987	136.31
237.221	184.31
237.455	245.31
237.689	195.31
237.922	145.31
238.156	130.31
238.39	128.31
238.624	129.31
238.858	127.31
239.091	133.31
239.325	130.31
239.559	133.31
239.793	142.31
240.027	140.31
240.26	140.31
240.494	170.31
240.728	159.31
240.961	159.31
241.195	141.31
241.429	127.31
241.662	122.31
241.896	123.31
242.13	135.31
242.363	131.31
242.597	135.31
242.83	140.31
243.064	137.31
243.298	130.31
243.531	124.31
243.765	123.31
243.998	131.31
244.232	148.31
244.465	135.31
244.699	131.31
244.932	134.31
245.166	142.31
245.399	147.31
245.633	154.31
245.866	145.31
246.099	146.31
246.333	130.31
246.566	151.31
246.8	154.31
247.033	149.31
247.266	158.31
247.5	167.31
247.733	180.31
247.966	181.31
248.2	162.31
248.433	175.31
248.666	169.31
248.899	189.31
249.133	185.31
249.366	209.31
249.599	203.31
249.832	179.31
250.066	181.31
250.299	188.31
250.532	203.31
250.765	214.31
250.998	224.31
251.231	237.31
251.465	222.31
251.698	205.31
251.931	200.31
252.164	188.31
252.397	212.31
252.63	203.31
252.863	215.31
253.096	209.31
253.329	228.31
253.562	243.31
253.795	216.31
254.028	205.31
254.261	225.31
254.494	239.31
254.727	255.31
254.96	300.31
255.193	269.31
255.426	277.31
255.659	232.31
255.892	237.31
256.124	235.31
256.357	229.31
256.59	231.31
256.823	228.31
257.056	211.31
257.289	209.31
257.521	213.31
257.754	200.31
257.987	207.31
258.22	206.31
258.452	201.31
258.685	199.31
258.918	201.31
259.151	216.31
259.383	221.31
259.616	210.31
259.849	225.31
260.081	231.31
260.314	262.31
260.547	246.31
260.779	236.31
261.012	242.31
261.244	219.31
261.477	229.31
261.71	199.31
261.942	220.31
262.175	252.31
262.407	241.31
262.64	208.31
262.872	205.31
263.105	211.31
263.337	216.31
263.57	192.31
263.802	210.31
264.035	223.31
264.267	209.31
264.499	211.31
264.732	203.31
264.964	202.31
265.197	197.31
265.429	206.31
265.661	217.31
265.894	209.31
266.126	226.31
266.358	199.31
266.591	211.31
266.823	223.31
267.055	217.31
267.287	215.31
267.52	207.31
267.752	215.31
267.984	203.31
268.216	220.31
268.448	208.31
268.681	227.31
268.913	245.31
269.145	267.31
269.377	283.31
269.609	260.31
269.841	263.31
270.073	263.31
270.306	289.31
270.538	306.31
270.77	330.31
271.002	306.31
271.234	303.31
271.466	316.31
271.698	326.31
271.93	312.31
272.162	314.31
272.394	333.31
272.626	296.31
272.858	301.31
273.09	300.31
273.322	285.31
273.553	274.31
273.785	236.31
274.017	250.31
274.249	244.31
274.481	241.31
274.713	253.31
274.945	257.31
275.176	257.31
275.408	244.31
275.64	246.31
275.872	235.31
276.104	244.31
276.335	248.31
276.567	246.31
276.799	280.31
277.031	312.31
277.262	291.31
277.494	309.31
277.726	308.31
277.957	281.31
278.189	282.31
278.421	252.31
278.652	265.31
278.884	241.31
279.115	266.31
279.347	240.31
279.579	257.31
279.81	245.31
280.042	261.31
280.273	272.31
280.505	241.31
280.736	248.31
280.968	240.31
281.199	247.31
281.431	269.31
281.662	265.31
281.894	260.31
282.125	243.31
282.356	276.31
282.588	293.31
282.819	312.31
283.051	266.31
283.282	250.31
283.513	251.31
283.745	263.31
283.976	264.31
284.207	260.31
284.439	280.31
284.67	257.31
284.901	247.31
285.132	257.31
285.364	264.31
285.595	260.31
285.826	250.31
286.057	253.31
286.288	254.31
286.52	248.31
286.751	256.31
286.982	234.31
287.213	261.31
287.444	254.31
287.675	255.31
287.906	250.31
288.138	253.31
288.369	284.31
288.6	269.31
288.831	266.31
289.062	277.31
289.293	277.31
289.524	281.31
289.755	267.31
289.986	261.31
290.217	280.31
290.448	250.31
290.679	266.31
290.91	258.31
291.141	269.31
291.371	264.31
291.602	268.31
291.833	245.31
292.064	266.31
292.295	267.31
292.526	268.31
292.757	292.31
292.987	262.31
293.218	276.31
293.449	256.31
293.68	251.31
293.91	263.31
294.141	260.31
294.372	248.31
294.603	264.31
294.833	245.31
295.064	253.31
295.295	263.31
295.525	281.31
295.756	289.31
295.987	289.31
296.217	285.31
296.448	315.31
296.679	293.31
296.909	259.31
297.14	263.31
297.37	268.31
297.601	258.31
297.831	268.31
298.062	269.31
298.292	273.31
298.523	276.31
298.753	287.31
298.984	282.31
299.214	285.31
299.445	278.31
299.675	280.31
299.905	288.31
300.136	284.31
300.366	285.31
300.597	269.31
300.827	276.31
301.057	287.31
301.288	293.31
301.518	293.31
301.748	289.31
301.979	300.31
302.209	299.31
302.439	298.31
302.669	293.31
302.9	301.31
303.13	311.31
303.36	305.31
303.59	283.31
303.82	301.31
304.051	296.31
304.281	299.31
304.511	295.31
304.741	285.31
304.971	292.31
305.201	289.31
305.431	293.31
305.661	290.31
305.891	300.31
306.121	289.31
306.352	307.31
306.582	296.31
306.812	296.31
307.042	289.31
307.272	308.31
307.502	305.31
307.731	287.31
307.961	283.31
308.191	300.31
308.421	305.31
308.651	292.31
308.881	309.31
309.111	318.31
309.341	314.31
309.571	323.31
309.8	329.31
310.03	348.31
310.26	353.31
310.49	357.31
310.72	364.31
310.949	377.31
311.179	381.31
311.409	363.31
311.639	331.31
311.868	356.31
312.098	365.31
312.328	370.31
312.557	383.31
312.787	397.31
313.017	390.31
313.246	369.31
313.476	353.31
313.706	370.31
313.935	358.31
314.165	353.31
314.394	382.31
314.624	363.31
314.853	374.31
315.083	356.31
315.312	343.31
315.542	335.31
315.771	352.31
316.001	323.31
316.23	368.31
316.46	340.31
316.689	338.31
316.919	341.31
317.148	354.31
317.377	355.31
317.607	362.31
317.836	360.31
318.065	357.31
318.295	338.31
318.524	354.31
318.753	341.31
318.983	344.31
319.212	352.31
319.441	354.31
319.67	368.31
319.9	373.31
320.129	357.31
320.358	343.31
320.587	368.31
320.816	365.31
321.046	381.31
321.275	371.31
321.504	386.31
321.733	375.31
321.962	383.31
322.191	397.31
322.42	428.31
322.649	425.31
322.878	460.31
323.108	442.31
323.337	473.31
323.566	514.31
323.795	551.31
324.024	602.31
324.253	727.31
324.482	1062.31
324.71	1603.31
324.939	2322.31
325.168	2045.31
325.397	1083.31
325.626	680.31
325.855	579.31
326.084	524.31
326.313	492.31
326.542	523.31
326.77	574.31
326.999	671.31
327.228	920.31
327.457	1418.31
327.686	1789.31
327.914	1190.31
328.143	761.31
328.372	665.31
328.6	609.31
328.829	597.31
329.058	619.31
329.287	615.31
329.515	593.31
329.744	504.31
329.972	499.31
330.201	531.31
330.43	571.31
330.658	607.31
330.887	641.31
331.115	602.31
331.344	535.31
331.572	484.31
331.801	468.31
332.03	490.31
332.258	449.31
332.486	423.31
332.715	412.31
332.943	406.31
333.172	413.31
333.4	427.31
333.629	425.31
333.857	443.31
334.085	437.31
334.314	461.31
334.542	505.31
334.771	501.31
334.999	451.31
335.227	441.31
335.455	431.31
335.684	420.31
335.912	384.31
336.14	418.31
336.369	404.31
336.597	415.31
336.825	408.31
337.053	396.31
337.281	409.31
337.51	387.31
337.738	384.31
337.966	410.31
338.194	397.31
338.422	414.31
338.65	404.31
338.878	367.31
339.106	371.31
339.334	382.31
339.562	384.31
339.79	373.31
340.018	394.31
340.246	400.31
340.474	415.31
340.702	395.31
340.93	368.31
341.158	368.31
341.386	391.31
341.614	402.31
341.842	387.31
342.07	371.31
342.298	369.31
342.526	377.31
342.754	377.31
342.981	374.31
343.209	369.31
343.437	382.31
343.665	381.31
343.893	387.31
344.12	388.31
344.348	408.31
344.576	401.31
344.804	405.31
345.031	425.31
345.259	421.31
345.487	408.31
345.714	413.31
345.942	397.31
346.17	390.31
346.397	396.31
346.625	380.31
346.853	368.31
347.08	386.31
347.308	377.31
347.535	396.31
347.763	413.31
347.99	409.31
348.218	387.31
348.445	417.31
348.673	393.31
348.9	408.31
349.128	379.31
349.355	378.31
349.583	360.31
349.81	384.31
350.037	378.31
350.265	372.31
350.492	378.31
350.72	378.31
350.947	370.31
351.174	380.31
351.402	402.31
351.629	403.31
351.856	401.31
352.083	411.31
352.311	397.31
352.538	417.31
352.765	392.31
352.992	400.31
353.22	403.31
353.447	380.31
353.674	380.31
353.901	375.31
354.128	367.31
354.355	361.31
354.583	356.31
354.81	355.31
355.037	363.31
355.264	376.31
355.491	357.31
355.718	358.31
355.945	343.31
356.172	365.31
356.399	316.31
356.626	345.31
356.853	351.31
357.08	363.31
357.307	331.31
357.534	345.31
357.761	354.31
357.988	357.31
358.215	351.31
358.441	375.31
358.668	364.31
358.895	366.31
359.122	359.31
359.349	375.31
359.576	384.31
359.802	398.31
360.029	444.31
360.256	461.31
360.483	414.31
360.709	386.31
360.936	389.31
361.163	379.31
361.39	398.31
361.616	397.31
361.843	385.31
362.07	385.31
362.296	389.31
362.523	386.31
362.749	385.31
362.976	384.31
363.203	376.31
363.429	383.31
363.656	391.31
363.882	364.31
364.109	367.31
364.335	369.31
364.562	375.31
364.788	360.31
365.015	355.31
365.241	340.31
365.468	375.31
365.694	370.31
365.92	369.31
366.147	369.31
366.373	360.31
366.599	363.31
366.826	363.31
367.052	375.31
367.278	373.31
367.505	353.31
367.731	376.31
367.957	367.31
368.184	349.31
368.41	367.31
368.636	397.31
368.862	383.31
369.089	362.31
369.315	337.31
369.541	364.31
369.767	361.31
369.993	358.31
370.219	363.31
370.445	356.31
370.672	347.31
370.898	367.31
371.124	345.31
371.35	357.31
371.576	360.31
371.802	364.31
372.028	369.31
372.254	343.31
372.48	347.31
372.706	353.31
372.932	344.31
373.158	338.31
373.384	347.31
373.61	363.31
373.835	356.31
374.061	350.31
374.287	360.31
374.513	354.31
374.739	344.31
374.965	368.31
375.191	357.31
375.416	327.31
375.642	366.31
375.868	376.31
376.094	328.31
376.319	339.31
376.545	350.31
376.771	347.31
376.997	349.31
377.222	345.31
377.448	336.31
377.674	364.31
377.899	347.31
378.125	347.31
378.35	355.31
378.576	347.31
378.802	373.31
379.027	345.31
379.253	355.31
379.478	333.31
379.704	364.31
379.929	357.31
380.155	368.31
380.38	364.31
380.606	342.31
380.831	361.31
381.057	368.31
381.282	348.31
381.507	339.31
381.733	353.31
381.958	354.31
382.184	346.31
382.409	372.31
382.634	355.31
382.86	369.31
383.085	356.31
383.31	354.31
383.535	354.31
383.761	370.31
383.986	376.31
384.211	373.31
384.436	361.31
384.662	351.31
384.887	372.31
385.112	373.31
385.337	353.31
385.562	360.31
385.787	383.31
386.013	378.31
386.238	379.31
386.463	397.31
386.688	384.31
386.913	394.31
387.138	386.31
387.363	387.31
387.588	389.31
387.813	379.31
388.038	377.31
388.263	372.31
388.488	362.31
388.713	401.31
388.938	390.31
389.163	391.31
389.387	365.31
389.612	373.31
389.837	379.31
390.062	377.31
390.287	384.31
390.512	381.31
390.736	372.31
390.961	374.31
391.186	367.31
391.411	365.31
391.636	364.31
391.86	372.31
392.085	378.31
392.31	371.31
392.534	380.31
392.759	393.31
392.984	368.31
393.208	376.31
393.433	374.31
393.658	380.31
393.882	373.31
394.107	371.31
394.331	382.31
394.556	369.31
394.78	377.31
395.005	360.31
395.229	363.31
395.454	387.31
395.678	384.31
395.903	391.31
396.127	415.31
396.352	423.31
396.576	391.31
396.801	387.31
397.025	379.31
397.249	401.31
397.474	388.31
397.698	403.31
397.922	427.31
398.147	428.31
398.371	435.31
398.595	394.31
398.82	418.31
399.044	413.31
399.268	450.31
399.492	428.31
399.717	469.31
399.941	474.31
400.165	515.31
400.389	524.31
400.613	493.31
400.837	471.31
401.062	443.31
401.286	416.31
401.51	437.31
401.734	430.31
401.958	456.31
402.182	441.31
402.406	454.31
402.63	427.31
402.854	438.31
403.078	419.31
403.302	456.31
403.526	453.31
403.75	447.31
403.974	448.31
404.198	428.31
404.422	435.31
404.645	453.31
404.869	447.31
405.093	458.31
405.317	523.31
405.541	551.31
405.765	524.31
405.988	472.31
406.212	499.31
406.436	497.31
406.66	524.31
406.883	507.31
407.107	513.31
407.331	524.31
407.555	595.31
407.778	611.31
408.002	520.31
408.226	499.31
408.449	486.31
408.673	501.31
408.896	529.31
409.12	575.31
409.344	539.31
409.567	472.31
409.791	463.31
410.014	439.31
410.238	442.31
410.461	442.31
410.685	452.31
410.908	465.31
411.132	503.31
411.355	527.31
411.578	505.31
411.802	461.31
412.025	451.31
412.249	466.31
412.472	465.31
412.695	528.31
412.919	523.31
413.142	469.31
413.365	445.31
413.589	443.31
413.812	424.31
414.035	423.31
414.258	447.31
414.482	401.31
414.705	411.31
414.928	418.31
415.151	433.31
415.374	408.31
415.597	410.31
415.821	416.31
416.044	428.31
416.267	426.31
416.49	424.31
416.713	421.31
416.936	428.31
417.159	425.31
417.382	432.31
417.605	414.31
417.828	429.31
418.051	431.31
418.274	445.31
418.497	435.31
418.72	439.31
418.943	417.31
419.166	451.31
419.389	457.31
419.611	461.31
419.834	441.31
420.057	444.31
420.28	476.31
420.503	450.31
420.726	464.31
420.948	461.31
421.171	505.31
421.394	552.31
421.617	511.31
421.839	453.31
422.062	463.31
422.285	467.31
422.507	528.31
422.73	606.31
422.953	589.31
423.175	493.31
423.398	468.31
423.621	481.31
423.843	497.31
424.066	496.31
424.288	495.31
424.511	513.31
424.733	567.31
424.956	641.31
425.178	612.31
425.401	608.31
425.623	652.31
425.846	565.31
426.068	504.31
426.291	488.31
426.513	519.31
426.735	518.31
426.958	549.31
427.18	651.31
427.402	744.31
427.625	845.31
427.847	773.31
428.069	632.31
428.292	552.31
428.514	500.31
428.736	486.31
428.958	483.31
429.181	480.31
429.403	461.31
429.625	479.31
429.847	512.31
430.069	568.31
430.292	593.31
430.514	501.31
430.736	448.31
430.958	446.31
431.18	439.31
431.402	435.31
431.624	446.31
431.846	436.31
432.068	439.31
432.29	412.31
432.512	431.31
432.734	456.31
432.956	432.31
433.178	457.31
433.4	455.31
433.622	432.31
433.844	435.31
434.066	425.31
434.287	417.31
434.509	428.31
434.731	435.31
434.953	453.31
435.175	461.31
435.397	475.31
435.618	507.31
435.84	529.31
436.062	627.31
436.284	671.31
436.505	591.31
436.727	539.31
436.949	476.31
437.17	466.31
437.392	466.31
437.614	468.31
437.835	525.31
438.057	633.31
438.278	741.31
438.5	715.31
438.721	777.31
438.943	742.31
439.165	603.31
439.386	548.31
439.608	540.31
439.829	519.31
440.05	570.31
440.272	577.31
440.493	564.31
440.715	520.31
440.936	490.31
441.158	476.31
441.379	476.31
441.6	469.31
441.822	525.31
442.043	552.31
442.264	630.31
442.486	672.31
442.707	585.31
442.928	548.31
443.149	526.31
443.371	560.31
443.592	576.31
443.813	691.31
444.034	699.31
444.255	604.31
444.476	525.31
444.698	496.31
444.919	497.31
445.14	594.31
445.361	559.31
445.582	564.31
445.803	606.31
446.024	712.31
446.245	726.31
446.466	679.31
446.687	565.31
446.908	515.31
447.129	522.31
447.35	485.31
447.571	492.31
447.792	468.31
448.013	482.31
448.234	503.31
448.455	543.31
448.675	668.31
448.896	728.31
449.117	647.31
449.338	629.31
449.559	735.31
449.779	805.31
450	632.31
450.221	520.31
450.442	485.31
450.662	466.31
450.883	489.31
451.104	507.31
451.324	481.31
451.545	469.31
451.766	453.31
451.986	408.31
452.207	408.31
452.428	408.31
452.648	419.31
452.869	445.31
453.089	447.31
453.31	437.31
453.53	437.31
453.751	432.31
453.971	452.31
454.192	451.31
454.412	441.31
454.633	423.31
454.853	416.31
455.073	403.31
455.294	431.31
455.514	513.31
455.734	509.31
455.955	427.31
456.175	401.31
456.395	409.31
456.616	398.31
456.836	394.31
457.056	400.31
457.276	385.31
457.497	386.31
457.717	386.31
457.937	387.31
458.157	413.31
458.377	411.31
458.598	434.31
458.818	492.31
459.038	593.31
459.258	590.31
459.478	497.31
459.698	440.31
459.918	450.31
460.138	416.31
460.358	421.31
460.578	438.31
460.798	431.31
461.018	423.31
461.238	428.31
461.458	426.31
461.678	422.31
461.898	408.31
462.118	413.31
462.338	433.31
462.558	435.31
462.777	423.31
462.997	445.31
463.217	440.31
463.437	448.31
463.657	415.31
463.876	439.31
464.096	425.31
464.316	443.31
464.536	454.31
464.755	445.31
464.975	465.31
465.195	524.31
465.414	601.31
465.634	540.31
465.854	493.31
466.073	437.31
466.293	444.31
466.512	434.31
466.732	431.31
466.951	413.31
467.171	412.31
467.391	435.31
467.61	417.31
467.829	438.31
468.049	421.31
468.268	426.31
468.488	435.31
468.707	407.31
468.927	396.31
469.146	418.31
469.365	410.31
469.585	410.31
469.804	424.31
470.023	414.31
470.243	418.31
470.462	449.31
470.681	449.31
470.901	464.31
471.12	436.31
471.339	422.31
471.558	439.31
471.777	431.31
471.997	418.31
472.216	439.31
472.435	473.31
472.654	465.31
472.873	432.31
473.092	426.31
473.311	411.31
473.53	444.31
473.749	458.31
473.968	478.31
474.187	589.31
474.406	613.31
474.625	517.31
474.844	473.31
475.063	437.31
475.282	415.31
475.501	439.31
475.72	452.31
475.939	433.31
476.158	456.31
476.377	442.31
476.596	425.31
476.814	468.31
477.033	452.31
477.252	451.31
477.471	456.31
477.69	452.31
477.908	474.31
478.127	471.31
478.346	453.31
478.564	469.31
478.783	461.31
479.002	488.31
479.22	478.31
479.439	499.31
479.658	528.31
479.876	508.31
480.095	524.31
480.313	552.31
480.532	524.31
480.751	537.31
480.969	548.31
481.188	589.31
481.406	643.31
481.624	573.31
481.843	529.31
482.061	520.31
482.28	502.31
482.498	509.31
482.717	501.31
482.935	518.31
483.153	523.31
483.372	497.31
483.59	525.31
483.808	503.31
484.027	519.31
484.245	515.31
484.463	497.31
484.681	520.31
484.9	521.31
485.118	516.31
485.336	518.31
485.554	521.31
485.772	536.31
485.99	516.31
486.209	519.31
486.427	513.31
486.645	535.31
486.863	561.31
487.081	575.31
487.299	563.31
487.517	544.31
487.735	547.31
487.953	560.31
488.171	537.31
488.389	551.31
488.607	570.31
488.825	551.31
489.043	567.31
489.261	549.31
489.479	550.31
489.696	575.31
489.914	563.31
490.132	560.31
490.35	553.31
490.568	589.31
490.786	588.31
491.003	603.31
491.221	628.31
491.439	620.31
491.657	643.31
491.874	659.31
492.092	619.31
492.31	618.31
492.527	621.31
492.745	648.31
492.963	634.31
493.18	639.31
493.398	641.31
493.615	636.31
493.833	673.31
494.05	669.31
494.268	653.31
494.485	651.31
494.703	656.31
494.92	679.31
495.138	649.31
495.355	669.31
495.573	659.31
495.79	682.31
496.008	660.31
496.225	650.31
496.442	654.31
496.66	634.31
496.877	651.31
497.094	672.31
497.312	656.31
497.529	656.31
497.746	680.31
497.963	693.31
498.181	709.31
498.398	707.31
498.615	717.31
498.832	729.31
499.049	722.31
499.267	697.31
499.484	741.31
499.701	756.31
499.918	770.31
500.135	801.31
500.352	803.31
500.569	816.31
500.786	819.31
501.003	832.31
501.22	815.31
501.437	795.31
501.654	781.31
501.871	772.31
502.088	788.31
