Data from 1980.PennyLincolnUp.Lamp.En5.5.200Scan.071819.P1_HRD10591_16-38-08-957.txt Node
Date: Thu Jul 18 16:38:08 EDT 2019
User: cochatt
Spectrometer: HR+D1059
Trigger mode: 1
Integration Time (sec): 1.000000E-1
Scans to average: 1
Electric dark correction enabled: true
Nonlinearity correction enabled: false
Boxcar width: 0
XAxis mode: Wavelengths
Number of Pixels in Spectrum: 2048
>>>>>Begin Spectral Data<<<<<
223.165	-26.06
223.4	-26.06
223.635	-26.06
223.869	-14.06
224.104	-15.06
224.338	5.94
224.573	-3.06
224.808	-2.06
225.042	-26.06
225.277	-9.06
225.511	-3.06
225.746	-1.06
225.98	6.94
226.215	-1.06
226.449	28.94
226.683	18.94
226.918	19.94
227.152	19.94
227.387	27.94
227.621	34.94
227.856	38.94
228.09	44.94
228.324	47.94
228.559	54.94
228.793	74.94
229.027	93.94
229.262	112.94
229.496	125.94
229.73	144.94
229.964	174.94
230.199	132.94
230.433	108.94
230.667	124.94
230.901	120.94
231.136	121.94
231.37	119.94
231.604	124.94
231.838	106.94
232.072	100.94
232.306	105.94
232.541	116.94
232.775	114.94
233.009	100.94
233.243	101.94
233.477	122.94
233.711	122.94
233.945	118.94
234.179	122.94
234.413	124.94
234.647	120.94
234.881	120.94
235.115	133.94
235.349	122.94
235.583	128.94
235.817	123.94
236.051	138.94
236.285	130.94
236.519	133.94
236.753	130.94
236.987	143.94
237.221	206.94
237.455	256.94
237.689	201.94
237.922	149.94
238.156	152.94
238.39	125.94
238.624	133.94
238.858	123.94
239.091	112.94
239.325	125.94
239.559	119.94
239.793	141.94
240.027	134.94
240.26	160.94
240.494	187.94
240.728	168.94
240.961	164.94
241.195	152.94
241.429	133.94
241.662	134.94
241.896	141.94
242.13	137.94
242.363	132.94
242.597	142.94
242.83	142.94
243.064	132.94
243.298	146.94
243.531	129.94
243.765	142.94
243.998	153.94
244.232	130.94
244.465	147.94
244.699	146.94
244.932	141.94
245.166	154.94
245.399	149.94
245.633	162.94
245.866	142.94
246.099	160.94
246.333	142.94
246.566	154.94
246.8	148.94
247.033	170.94
247.266	165.94
247.5	164.94
247.733	173.94
247.966	174.94
248.2	169.94
248.433	181.94
248.666	176.94
248.899	193.94
249.133	221.94
249.366	220.94
249.599	204.94
249.832	188.94
250.066	202.94
250.299	194.94
250.532	205.94
250.765	201.94
250.998	243.94
251.231	241.94
251.465	240.94
251.698	210.94
251.931	209.94
252.164	218.94
252.397	203.94
252.63	211.94
252.863	211.94
253.096	242.94
253.329	258.94
253.562	230.94
253.795	233.94
254.028	243.94
254.261	235.94
254.494	247.94
254.727	272.94
254.96	288.94
255.193	293.94
255.426	267.94
255.659	247.94
255.892	258.94
256.124	267.94
256.357	237.94
256.59	250.94
256.823	228.94
257.056	228.94
257.289	241.94
257.521	212.94
257.754	203.94
257.987	208.94
258.22	209.94
258.452	219.94
258.685	218.94
258.918	228.94
259.151	225.94
259.383	220.94
259.616	247.94
259.849	229.94
260.081	242.94
260.314	262.94
260.547	272.94
260.779	266.94
261.012	261.94
261.244	236.94
261.477	240.94
261.71	244.94
261.942	241.94
262.175	257.94
262.407	233.94
262.64	219.94
262.872	233.94
263.105	219.94
263.337	216.94
263.57	224.94
263.802	221.94
264.035	226.94
264.267	226.94
264.499	216.94
264.732	211.94
264.964	217.94
265.197	228.94
265.429	227.94
265.661	205.94
265.894	218.94
266.126	233.94
266.358	204.94
266.591	209.94
266.823	231.94
267.055	219.94
267.287	234.94
267.52	242.94
267.752	236.94
267.984	233.94
268.216	228.94
268.448	250.94
268.681	229.94
268.913	237.94
269.145	271.94
269.377	284.94
269.609	281.94
269.841	280.94
270.073	296.94
270.306	306.94
270.538	327.94
270.77	331.94
271.002	333.94
271.234	326.94
271.466	326.94
271.698	337.94
271.93	334.94
272.162	314.94
272.394	350.94
272.626	323.94
272.858	300.94
273.09	295.94
273.322	268.94
273.553	298.94
273.785	289.94
274.017	276.94
274.249	272.94
274.481	284.94
274.713	275.94
274.945	272.94
275.176	262.94
275.408	279.94
275.64	277.94
275.872	253.94
276.104	262.94
276.335	270.94
276.567	274.94
276.799	297.94
277.031	321.94
277.262	311.94
277.494	333.94
277.726	319.94
277.957	297.94
278.189	285.94
278.421	280.94
278.652	271.94
278.884	280.94
279.115	269.94
279.347	259.94
279.579	266.94
279.81	276.94
280.042	276.94
280.273	269.94
280.505	245.94
280.736	270.94
280.968	275.94
281.199	272.94
281.431	277.94
281.662	278.94
281.894	280.94
282.125	263.94
282.356	301.94
282.588	301.94
282.819	330.94
283.051	261.94
283.282	270.94
283.513	266.94
283.745	284.94
283.976	277.94
284.207	276.94
284.439	270.94
284.67	292.94
284.901	269.94
285.132	266.94
285.364	271.94
285.595	284.94
285.826	273.94
286.057	280.94
286.288	271.94
286.52	274.94
286.751	262.94
286.982	280.94
287.213	280.94
287.444	288.94
287.675	297.94
287.906	299.94
288.138	285.94
288.369	298.94
288.6	311.94
288.831	294.94
289.062	296.94
289.293	288.94
289.524	285.94
289.755	278.94
289.986	290.94
290.217	274.94
290.448	272.94
290.679	264.94
290.91	296.94
291.141	276.94
291.371	269.94
291.602	272.94
291.833	266.94
292.064	277.94
292.295	272.94
292.526	274.94
292.757	274.94
292.987	274.94
293.218	291.94
293.449	305.94
293.68	268.94
293.91	288.94
294.141	281.94
294.372	279.94
294.603	276.94
294.833	281.94
295.064	273.94
295.295	291.94
295.525	284.94
295.756	304.94
295.987	324.94
296.217	325.94
296.448	332.94
296.679	311.94
296.909	283.94
297.14	280.94
297.37	300.94
297.601	298.94
297.831	284.94
298.062	285.94
298.292	287.94
298.523	310.94
298.753	296.94
298.984	286.94
299.214	292.94
299.445	305.94
299.675	311.94
299.905	298.94
300.136	301.94
300.366	307.94
300.597	291.94
300.827	294.94
301.057	323.94
301.288	325.94
301.518	331.94
301.748	308.94
301.979	321.94
302.209	308.94
302.439	303.94
302.669	310.94
302.9	301.94
303.13	300.94
303.36	302.94
303.59	342.94
303.82	324.94
304.051	315.94
304.281	308.94
304.511	309.94
304.741	309.94
304.971	312.94
305.201	293.94
305.431	311.94
305.661	306.94
305.891	305.94
306.121	325.94
306.352	322.94
306.582	364.94
306.812	308.94
307.042	316.94
307.272	328.94
307.502	312.94
307.731	322.94
307.961	310.94
308.191	316.94
308.421	322.94
308.651	333.94
308.881	321.94
309.111	349.94
309.341	352.94
309.571	355.94
309.8	368.94
310.03	375.94
310.26	365.94
310.49	384.94
310.72	387.94
310.949	398.94
311.179	383.94
311.409	375.94
311.639	397.94
311.868	368.94
312.098	382.94
312.328	380.94
312.557	416.94
312.787	421.94
313.017	422.94
313.246	403.94
313.476	376.94
313.706	371.94
313.935	371.94
314.165	378.94
314.394	405.94
314.624	397.94
314.853	386.94
315.083	383.94
315.312	383.94
315.542	372.94
315.771	359.94
316.001	352.94
316.23	350.94
316.46	377.94
316.689	379.94
316.919	372.94
317.148	401.94
317.377	404.94
317.607	389.94
317.836	380.94
318.065	363.94
318.295	370.94
318.524	355.94
318.753	365.94
318.983	356.94
319.212	408.94
319.441	384.94
319.67	416.94
319.9	371.94
320.129	378.94
320.358	389.94
320.587	392.94
320.816	373.94
321.046	402.94
321.275	408.94
321.504	393.94
321.733	402.94
321.962	433.94
322.191	436.94
322.42	465.94
322.649	465.94
322.878	466.94
323.108	461.94
323.337	505.94
323.566	538.94
323.795	569.94
324.024	632.94
324.253	764.94
324.482	1117.94
324.71	1733.94
324.939	2480.94
325.168	2214.94
325.397	1196.94
325.626	772.94
325.855	628.94
326.084	576.94
326.313	535.94
326.542	530.94
326.77	607.94
326.999	745.94
327.228	996.94
327.457	1543.94
327.686	1915.94
327.914	1305.94
328.143	845.94
328.372	720.94
328.6	640.94
328.829	628.94
329.058	625.94
329.287	653.94
329.515	632.94
329.744	563.94
329.972	568.94
330.201	568.94
330.43	618.94
330.658	652.94
330.887	688.94
331.115	673.94
331.344	589.94
331.572	538.94
331.801	501.94
332.03	528.94
332.258	486.94
332.486	459.94
332.715	430.94
332.943	431.94
333.172	442.94
333.4	461.94
333.629	446.94
333.857	477.94
334.085	480.94
334.314	489.94
334.542	541.94
334.771	568.94
334.999	497.94
335.227	455.94
335.455	457.94
335.684	442.94
335.912	440.94
336.14	432.94
336.369	424.94
336.597	437.94
336.825	456.94
337.053	439.94
337.281	430.94
337.51	399.94
337.738	434.94
337.966	416.94
338.194	401.94
338.422	437.94
338.65	421.94
338.878	434.94
339.106	416.94
339.334	422.94
339.562	419.94
339.79	418.94
340.018	429.94
340.246	420.94
340.474	427.94
340.702	418.94
340.93	422.94
341.158	420.94
341.386	437.94
341.614	430.94
341.842	404.94
342.07	429.94
342.298	428.94
342.526	403.94
342.754	418.94
342.981	412.94
343.209	411.94
343.437	397.94
343.665	404.94
343.893	408.94
344.12	412.94
344.348	429.94
344.576	418.94
344.804	436.94
345.031	454.94
345.259	442.94
345.487	426.94
345.714	440.94
345.942	410.94
346.17	413.94
346.397	410.94
346.625	410.94
346.853	407.94
347.08	406.94
347.308	404.94
347.535	411.94
347.763	452.94
347.99	443.94
348.218	435.94
348.445	436.94
348.673	428.94
348.9	419.94
349.128	409.94
349.355	382.94
349.583	402.94
349.81	397.94
350.037	410.94
350.265	396.94
350.492	397.94
350.72	401.94
350.947	402.94
351.174	424.94
351.402	427.94
351.629	418.94
351.856	426.94
352.083	406.94
352.311	429.94
352.538	444.94
352.765	448.94
352.992	423.94
353.22	408.94
353.447	413.94
353.674	405.94
353.901	392.94
354.128	384.94
354.355	377.94
354.583	386.94
354.81	403.94
355.037	379.94
355.264	396.94
355.491	374.94
355.718	375.94
355.945	363.94
356.172	356.94
356.399	380.94
356.626	388.94
356.853	375.94
357.08	352.94
357.307	384.94
357.534	348.94
357.761	373.94
357.988	376.94
358.215	373.94
358.441	363.94
358.668	385.94
358.895	386.94
359.122	393.94
359.349	410.94
359.576	420.94
359.802	455.94
360.029	480.94
360.256	496.94
360.483	458.94
360.709	411.94
360.936	400.94
361.163	398.94
361.39	411.94
361.616	424.94
361.843	411.94
362.07	415.94
362.296	410.94
362.523	407.94
362.749	392.94
362.976	394.94
363.203	385.94
363.429	372.94
363.656	406.94
363.882	416.94
364.109	381.94
364.335	393.94
364.562	369.94
364.788	399.94
365.015	406.94
365.241	379.94
365.468	395.94
365.694	409.94
365.92	404.94
366.147	386.94
366.373	398.94
366.599	373.94
366.826	358.94
367.052	384.94
367.278	373.94
367.505	384.94
367.731	378.94
367.957	390.94
368.184	381.94
368.41	370.94
368.636	386.94
368.862	387.94
369.089	372.94
369.315	378.94
369.541	357.94
369.767	370.94
369.993	394.94
370.219	385.94
370.445	391.94
370.672	383.94
370.898	399.94
371.124	373.94
371.35	378.94
371.576	353.94
371.802	360.94
372.028	375.94
372.254	380.94
372.48	366.94
372.706	395.94
372.932	364.94
373.158	376.94
373.384	375.94
373.61	362.94
373.835	375.94
374.061	390.94
374.287	372.94
374.513	378.94
374.739	374.94
374.965	379.94
375.191	385.94
375.416	376.94
375.642	362.94
375.868	370.94
376.094	362.94
376.319	382.94
376.545	384.94
376.771	361.94
376.997	386.94
377.222	384.94
377.448	366.94
377.674	348.94
377.899	359.94
378.125	384.94
378.35	371.94
378.576	366.94
378.802	366.94
379.027	368.94
379.253	371.94
379.478	348.94
379.704	362.94
379.929	359.94
380.155	382.94
380.38	377.94
380.606	372.94
380.831	356.94
381.057	402.94
381.282	373.94
381.507	376.94
381.733	382.94
381.958	357.94
382.184	356.94
382.409	388.94
382.634	372.94
382.86	365.94
383.085	392.94
383.31	376.94
383.535	369.94
383.761	375.94
383.986	386.94
384.211	387.94
384.436	393.94
384.662	388.94
384.887	387.94
385.112	389.94
385.337	374.94
385.562	399.94
385.787	392.94
386.013	411.94
386.238	402.94
386.463	413.94
386.688	386.94
386.913	401.94
387.138	386.94
387.363	394.94
387.588	403.94
387.813	396.94
388.038	396.94
388.263	405.94
388.488	382.94
388.713	400.94
388.938	401.94
389.163	408.94
389.387	413.94
389.612	396.94
389.837	388.94
390.062	401.94
390.287	398.94
390.512	407.94
390.736	397.94
390.961	400.94
391.186	415.94
391.411	393.94
391.636	390.94
391.86	379.94
392.085	399.94
392.31	407.94
392.534	409.94
392.759	409.94
392.984	398.94
393.208	405.94
393.433	375.94
393.658	386.94
393.882	393.94
394.107	381.94
394.331	409.94
394.556	381.94
394.78	408.94
395.005	398.94
395.229	390.94
395.454	403.94
395.678	396.94
395.903	397.94
396.127	437.94
396.352	437.94
396.576	417.94
396.801	403.94
397.025	419.94
397.249	412.94
397.474	433.94
397.698	446.94
397.922	416.94
398.147	475.94
398.371	433.94
398.595	444.94
398.82	444.94
399.044	429.94
399.268	454.94
399.492	467.94
399.717	496.94
399.941	500.94
400.165	540.94
400.389	584.94
400.613	532.94
400.837	455.94
401.062	498.94
401.286	457.94
401.51	460.94
401.734	459.94
401.958	467.94
402.182	466.94
402.406	469.94
402.63	471.94
402.854	468.94
403.078	451.94
403.302	454.94
403.526	475.94
403.75	472.94
403.974	458.94
404.198	455.94
404.422	464.94
404.645	476.94
404.869	490.94
405.093	521.94
405.317	560.94
405.541	581.94
405.765	536.94
405.988	510.94
406.212	508.94
406.436	552.94
406.66	576.94
406.883	500.94
407.107	540.94
407.331	584.94
407.555	645.94
407.778	637.94
408.002	579.94
408.226	526.94
408.449	517.94
408.673	520.94
408.896	557.94
409.12	613.94
409.344	578.94
409.567	515.94
409.791	474.94
410.014	474.94
410.238	468.94
410.461	489.94
410.685	479.94
410.908	515.94
411.132	536.94
411.355	580.94
411.578	516.94
411.802	504.94
412.025	472.94
412.249	477.94
412.472	500.94
412.695	555.94
412.919	527.94
413.142	502.94
413.365	477.94
413.589	475.94
413.812	456.94
414.035	454.94
414.258	453.94
414.482	442.94
414.705	466.94
414.928	429.94
415.151	446.94
415.374	442.94
415.597	447.94
415.821	449.94
416.044	432.94
416.267	453.94
416.49	445.94
416.713	438.94
416.936	458.94
417.159	457.94
417.382	469.94
417.605	462.94
417.828	480.94
418.051	459.94
418.274	470.94
418.497	454.94
418.72	449.94
418.943	460.94
419.166	480.94
419.389	494.94
419.611	510.94
419.834	479.94
420.057	476.94
420.28	466.94
420.503	477.94
420.726	478.94
420.948	481.94
421.171	530.94
421.394	588.94
421.617	498.94
421.839	484.94
422.062	472.94
422.285	484.94
422.507	570.94
422.73	618.94
422.953	602.94
423.175	518.94
423.398	533.94
423.621	509.94
423.843	531.94
424.066	548.94
424.288	532.94
424.511	572.94
424.733	599.94
424.956	668.94
425.178	667.94
425.401	643.94
425.623	664.94
425.846	587.94
426.068	545.94
426.291	552.94
426.513	536.94
426.735	566.94
426.958	598.94
427.18	665.94
427.402	798.94
427.625	897.94
427.847	842.94
428.069	689.94
428.292	612.94
428.514	570.94
428.736	525.94
428.958	525.94
429.181	506.94
429.403	494.94
429.625	499.94
429.847	539.94
430.069	609.94
430.292	597.94
430.514	530.94
430.736	501.94
430.958	493.94
431.18	461.94
431.402	456.94
431.624	458.94
431.846	449.94
432.068	471.94
432.29	451.94
432.512	465.94
432.734	457.94
432.956	496.94
433.178	485.94
433.4	488.94
433.622	462.94
433.844	444.94
434.066	461.94
434.287	454.94
434.509	465.94
434.731	467.94
434.953	457.94
435.175	489.94
435.397	521.94
435.618	560.94
435.84	565.94
436.062	663.94
436.284	735.94
436.505	603.94
436.727	567.94
436.949	513.94
437.17	501.94
437.392	499.94
437.614	509.94
437.835	563.94
438.057	665.94
438.278	782.94
438.5	776.94
438.721	817.94
438.943	784.94
439.165	634.94
439.386	560.94
439.608	560.94
439.829	550.94
440.05	574.94
440.272	637.94
440.493	606.94
440.715	552.94
440.936	526.94
441.158	489.94
441.379	477.94
441.6	485.94
441.822	530.94
442.043	580.94
442.264	655.94
442.486	714.94
442.707	595.94
442.928	578.94
443.149	601.94
443.371	585.94
443.592	615.94
443.813	693.94
444.034	782.94
444.255	631.94
444.476	565.94
444.698	566.94
444.919	546.94
445.14	604.94
445.361	586.94
445.582	579.94
445.803	640.94
446.024	757.94
446.245	781.94
446.466	724.94
446.687	617.94
446.908	562.94
447.129	526.94
447.35	524.94
447.571	511.94
447.792	505.94
448.013	498.94
448.234	521.94
448.455	595.94
448.675	685.94
448.896	792.94
449.117	696.94
449.338	627.94
449.559	759.94
449.779	840.94
450	674.94
450.221	558.94
450.442	534.94
450.662	497.94
450.883	522.94
451.104	519.94
451.324	544.94
451.545	512.94
451.766	471.94
451.986	430.94
452.207	465.94
452.428	436.94
452.648	438.94
452.869	463.94
453.089	493.94
453.31	453.94
453.53	472.94
453.751	457.94
453.971	468.94
454.192	475.94
454.412	466.94
454.633	442.94
454.853	446.94
455.073	444.94
455.294	507.94
455.514	563.94
455.734	563.94
455.955	445.94
456.175	425.94
456.395	403.94
456.616	424.94
456.836	450.94
457.056	420.94
457.276	391.94
457.497	403.94
457.717	398.94
457.937	434.94
458.157	416.94
458.377	423.94
458.598	456.94
458.818	522.94
459.038	598.94
459.258	645.94
459.478	532.94
459.698	462.94
459.918	440.94
460.138	444.94
460.358	437.94
460.578	452.94
460.798	453.94
461.018	471.94
461.238	469.94
461.458	449.94
461.678	425.94
461.898	456.94
462.118	453.94
462.338	453.94
462.558	450.94
462.777	472.94
462.997	483.94
463.217	465.94
463.437	465.94
463.657	446.94
463.876	469.94
464.096	472.94
464.316	450.94
464.536	469.94
464.755	476.94
464.975	480.94
465.195	544.94
465.414	658.94
465.634	548.94
465.854	487.94
466.073	488.94
466.293	460.94
466.512	465.94
466.732	426.94
466.951	425.94
467.171	429.94
467.391	454.94
467.61	457.94
467.829	479.94
468.049	462.94
468.268	477.94
468.488	434.94
468.707	465.94
468.927	439.94
469.146	442.94
469.365	443.94
469.585	434.94
469.804	443.94
470.023	472.94
470.243	442.94
470.462	460.94
470.681	523.94
470.901	466.94
471.12	448.94
471.339	443.94
471.558	459.94
471.777	456.94
471.997	449.94
472.216	479.94
472.435	493.94
472.654	488.94
472.873	466.94
473.092	452.94
473.311	458.94
473.53	469.94
473.749	473.94
473.968	505.94
474.187	631.94
474.406	680.94
474.625	536.94
474.844	471.94
475.063	439.94
475.282	466.94
475.501	462.94
475.72	444.94
475.939	478.94
476.158	451.94
476.377	467.94
476.596	456.94
476.814	475.94
477.033	486.94
477.252	499.94
477.471	482.94
477.69	512.94
477.908	496.94
478.127	493.94
478.346	482.94
478.564	494.94
478.783	488.94
479.002	516.94
479.22	529.94
479.439	512.94
479.658	550.94
479.876	552.94
480.095	546.94
480.313	586.94
480.532	571.94
480.751	562.94
480.969	550.94
481.188	629.94
481.406	686.94
481.624	607.94
481.843	548.94
482.061	567.94
482.28	566.94
482.498	537.94
482.717	552.94
482.935	544.94
483.153	536.94
483.372	540.94
483.59	549.94
483.808	550.94
484.027	522.94
484.245	532.94
484.463	540.94
484.681	561.94
484.9	546.94
485.118	542.94
485.336	539.94
485.554	544.94
485.772	564.94
485.99	561.94
486.209	552.94
486.427	574.94
486.645	586.94
486.863	580.94
487.081	619.94
487.299	590.94
487.517	555.94
487.735	567.94
487.953	569.94
488.171	593.94
488.389	562.94
488.607	610.94
488.825	594.94
489.043	613.94
489.261	596.94
489.479	582.94
489.696	598.94
489.914	620.94
490.132	624.94
490.35	610.94
490.568	629.94
490.786	627.94
491.003	639.94
491.221	646.94
491.439	676.94
491.657	668.94
491.874	676.94
492.092	679.94
492.31	669.94
492.527	685.94
492.745	669.94
492.963	696.94
493.18	684.94
493.398	688.94
493.615	676.94
493.833	711.94
494.05	700.94
494.268	718.94
494.485	708.94
494.703	683.94
494.92	685.94
495.138	714.94
495.355	727.94
495.573	727.94
495.79	716.94
496.008	699.94
496.225	700.94
496.442	717.94
496.66	716.94
496.877	698.94
497.094	696.94
497.312	707.94
497.529	728.94
497.746	727.94
497.963	720.94
498.181	735.94
498.398	762.94
498.615	756.94
498.832	750.94
499.049	739.94
499.267	765.94
499.484	795.94
499.701	794.94
499.918	843.94
500.135	839.94
500.352	847.94
500.569	856.94
500.786	850.94
501.003	841.94
501.22	830.94
501.437	861.94
501.654	840.94
501.871	847.94
