Data from 1980.PennyLincolnUp.Lamp.En5.5.200Scan.071819.P1_HRD10591_16-35-36-956.txt Node
Date: Thu Jul 18 16:35:36 EDT 2019
User: cochatt
Spectrometer: HR+D1059
Trigger mode: 1
Integration Time (sec): 1.000000E-1
Scans to average: 1
Electric dark correction enabled: true
Nonlinearity correction enabled: false
Boxcar width: 0
XAxis mode: Wavelengths
Number of Pixels in Spectrum: 2048
>>>>>Begin Spectral Data<<<<<
223.165	-16.56
223.4	-16.56
223.635	-16.56
223.869	-9.56
224.104	-17.56
224.338	-29.56
224.573	-15.56
224.808	-24.56
225.042	-0.56
225.277	-0.56
225.511	-6.56
225.746	-7.56
225.98	6.44
226.215	11.44
226.449	17.44
226.683	25.44
226.918	31.44
227.152	36.44
227.387	30.44
227.621	30.44
227.856	39.44
228.09	37.44
228.324	44.44
228.559	57.44
228.793	57.44
229.027	95.44
229.262	89.44
229.496	88.44
229.73	98.44
229.964	126.44
230.199	94.44
230.433	104.44
230.667	85.44
230.901	92.44
231.136	98.44
231.37	96.44
231.604	95.44
231.838	80.44
232.072	86.44
232.306	106.44
232.541	90.44
232.775	97.44
233.009	98.44
233.243	101.44
233.477	96.44
233.711	95.44
233.945	107.44
234.179	100.44
234.413	106.44
234.647	106.44
234.881	98.44
235.115	93.44
235.349	86.44
235.583	85.44
235.817	93.44
236.051	94.44
236.285	113.44
236.519	109.44
236.753	97.44
236.987	113.44
237.221	123.44
237.455	125.44
237.689	114.44
237.922	102.44
238.156	79.44
238.39	98.44
238.624	102.44
238.858	101.44
239.091	102.44
239.325	100.44
239.559	98.44
239.793	101.44
240.027	106.44
240.26	108.44
240.494	128.44
240.728	102.44
240.961	98.44
241.195	101.44
241.429	102.44
241.662	104.44
241.896	97.44
242.13	85.44
242.363	110.44
242.597	86.44
242.83	96.44
243.064	98.44
243.298	97.44
243.531	105.44
243.765	94.44
243.998	112.44
244.232	96.44
244.465	117.44
244.699	91.44
244.932	92.44
245.166	104.44
245.399	100.44
245.633	88.44
245.866	95.44
246.099	104.44
246.333	117.44
246.566	110.44
246.8	96.44
247.033	99.44
247.266	109.44
247.5	109.44
247.733	108.44
247.966	111.44
248.2	124.44
248.433	141.44
248.666	124.44
248.899	128.44
249.133	126.44
249.366	138.44
249.599	139.44
249.832	120.44
250.066	112.44
250.299	110.44
250.532	118.44
250.765	128.44
250.998	121.44
251.231	144.44
251.465	139.44
251.698	126.44
251.931	148.44
252.164	150.44
252.397	141.44
252.63	111.44
252.863	127.44
253.096	139.44
253.329	150.44
253.562	126.44
253.795	135.44
254.028	105.44
254.261	137.44
254.494	124.44
254.727	152.44
254.96	158.44
255.193	145.44
255.426	136.44
255.659	135.44
255.892	128.44
256.124	125.44
256.357	134.44
256.59	135.44
256.823	122.44
257.056	124.44
257.289	116.44
257.521	133.44
257.754	135.44
257.987	128.44
258.22	131.44
258.452	121.44
258.685	129.44
258.918	133.44
259.151	132.44
259.383	139.44
259.616	137.44
259.849	142.44
260.081	166.44
260.314	168.44
260.547	157.44
260.779	148.44
261.012	139.44
261.244	145.44
261.477	148.44
261.71	149.44
261.942	159.44
262.175	182.44
262.407	190.44
262.64	156.44
262.872	149.44
263.105	149.44
263.337	132.44
263.57	152.44
263.802	132.44
264.035	139.44
264.267	135.44
264.499	131.44
264.732	126.44
264.964	135.44
265.197	130.44
265.429	135.44
265.661	146.44
265.894	134.44
266.126	136.44
266.358	134.44
266.591	156.44
266.823	135.44
267.055	144.44
267.287	157.44
267.52	145.44
267.752	153.44
267.984	147.44
268.216	148.44
268.448	153.44
268.681	142.44
268.913	149.44
269.145	167.44
269.377	168.44
269.609	157.44
269.841	150.44
270.073	150.44
270.306	157.44
270.538	165.44
270.77	175.44
271.002	169.44
271.234	163.44
271.466	174.44
271.698	176.44
271.93	181.44
272.162	188.44
272.394	170.44
272.626	164.44
272.858	182.44
273.09	171.44
273.322	149.44
273.553	164.44
273.785	163.44
274.017	168.44
274.249	181.44
274.481	181.44
274.713	165.44
274.945	176.44
275.176	190.44
275.408	173.44
275.64	174.44
275.872	176.44
276.104	186.44
276.335	186.44
276.567	178.44
276.799	213.44
277.031	210.44
277.262	221.44
277.494	184.44
277.726	182.44
277.957	176.44
278.189	178.44
278.421	176.44
278.652	183.44
278.884	156.44
279.115	175.44
279.347	184.44
279.579	220.44
279.81	252.44
280.042	229.44
280.273	210.44
280.505	218.44
280.736	185.44
280.968	168.44
281.199	165.44
281.431	152.44
281.662	158.44
281.894	154.44
282.125	173.44
282.356	205.44
282.588	245.44
282.819	237.44
283.051	197.44
283.282	170.44
283.513	157.44
283.745	165.44
283.976	161.44
284.207	183.44
284.439	176.44
284.67	177.44
284.901	182.44
285.132	189.44
285.364	206.44
285.595	202.44
285.826	163.44
286.057	158.44
286.288	169.44
286.52	157.44
286.751	162.44
286.982	172.44
287.213	178.44
287.444	181.44
287.675	190.44
287.906	201.44
288.138	204.44
288.369	222.44
288.6	199.44
288.831	198.44
289.062	174.44
289.293	174.44
289.524	159.44
289.755	178.44
289.986	177.44
290.217	164.44
290.448	161.44
290.679	150.44
290.91	161.44
291.141	173.44
291.371	169.44
291.602	151.44
291.833	160.44
292.064	166.44
292.295	178.44
292.526	179.44
292.757	163.44
292.987	175.44
293.218	156.44
293.449	167.44
293.68	172.44
293.91	172.44
294.141	157.44
294.372	167.44
294.603	173.44
294.833	176.44
295.064	188.44
295.295	155.44
295.525	165.44
295.756	204.44
295.987	218.44
296.217	227.44
296.448	232.44
296.679	199.44
296.909	190.44
297.14	190.44
297.37	182.44
297.601	180.44
297.831	158.44
298.062	175.44
298.292	196.44
298.523	182.44
298.753	186.44
298.984	186.44
299.214	194.44
299.445	193.44
299.675	197.44
299.905	192.44
300.136	205.44
300.366	190.44
300.597	196.44
300.827	199.44
301.057	209.44
301.288	222.44
301.518	223.44
301.748	206.44
301.979	199.44
302.209	214.44
302.439	209.44
302.669	207.44
302.9	197.44
303.13	188.44
303.36	191.44
303.59	210.44
303.82	212.44
304.051	206.44
304.281	193.44
304.511	190.44
304.741	193.44
304.971	205.44
305.201	197.44
305.431	206.44
305.661	195.44
305.891	176.44
306.121	211.44
306.352	227.44
306.582	215.44
306.812	227.44
307.042	209.44
307.272	196.44
307.502	196.44
307.731	207.44
307.961	234.44
308.191	225.44
308.421	242.44
308.651	244.44
308.881	237.44
309.111	252.44
309.341	273.44
309.571	297.44
309.8	280.44
310.03	289.44
310.26	292.44
310.49	280.44
310.72	293.44
310.949	314.44
311.179	303.44
311.409	292.44
311.639	276.44
311.868	260.44
312.098	269.44
312.328	285.44
312.557	314.44
312.787	322.44
313.017	312.44
313.246	281.44
313.476	259.44
313.706	254.44
313.935	291.44
314.165	292.44
314.394	305.44
314.624	286.44
314.853	300.44
315.083	254.44
315.312	242.44
315.542	237.44
315.771	239.44
316.001	256.44
316.23	241.44
316.46	255.44
316.689	243.44
316.919	274.44
317.148	270.44
317.377	267.44
317.607	275.44
317.836	276.44
318.065	259.44
318.295	247.44
318.524	257.44
318.753	244.44
318.983	254.44
319.212	253.44
319.441	270.44
319.67	268.44
319.9	254.44
320.129	255.44
320.358	254.44
320.587	263.44
320.816	248.44
321.046	291.44
321.275	277.44
321.504	292.44
321.733	290.44
321.962	299.44
322.191	335.44
322.42	346.44
322.649	361.44
322.878	388.44
323.108	426.44
323.337	468.44
323.566	509.44
323.795	605.44
324.024	697.44
324.253	933.44
324.482	1471.44
324.71	2079.44
324.939	2564.44
325.168	2053.44
325.397	1166.44
325.626	720.44
325.855	574.44
326.084	497.44
326.313	468.44
326.542	524.44
326.77	625.44
326.999	814.44
327.228	1239.44
327.457	1763.44
327.686	1928.44
327.914	1256.44
328.143	802.44
328.372	688.44
328.6	592.44
328.829	548.44
329.058	593.44
329.287	582.44
329.515	489.44
329.744	407.44
329.972	370.44
330.201	393.44
330.43	453.44
330.658	545.44
330.887	592.44
331.115	560.44
331.344	430.44
331.572	414.44
331.801	396.44
332.03	368.44
332.258	360.44
332.486	307.44
332.715	290.44
332.943	289.44
333.172	284.44
333.4	282.44
333.629	302.44
333.857	307.44
334.085	300.44
334.314	298.44
334.542	276.44
334.771	294.44
334.999	296.44
335.227	310.44
335.455	264.44
335.684	266.44
335.912	266.44
336.14	271.44
336.369	282.44
336.597	280.44
336.825	282.44
337.053	276.44
337.281	290.44
337.51	272.44
337.738	271.44
337.966	278.44
338.194	298.44
338.422	313.44
338.65	280.44
338.878	246.44
339.106	260.44
339.334	268.44
339.562	271.44
339.79	270.44
340.018	248.44
340.246	266.44
340.474	275.44
340.702	281.44
340.93	255.44
341.158	269.44
341.386	284.44
341.614	314.44
341.842	278.44
342.07	271.44
342.298	251.44
342.526	233.44
342.754	223.44
342.981	231.44
343.209	223.44
343.437	237.44
343.665	248.44
343.893	257.44
344.12	241.44
344.348	264.44
344.576	253.44
344.804	285.44
345.031	303.44
345.259	300.44
345.487	308.44
345.714	280.44
345.942	269.44
346.17	279.44
346.397	271.44
346.625	255.44
346.853	272.44
347.08	265.44
347.308	278.44
347.535	293.44
347.763	298.44
347.99	313.44
348.218	296.44
348.445	308.44
348.673	303.44
348.9	281.44
349.128	267.44
349.355	264.44
349.583	260.44
349.81	256.44
350.037	241.44
350.265	254.44
350.492	237.44
350.72	252.44
350.947	270.44
351.174	296.44
351.402	299.44
351.629	297.44
351.856	288.44
352.083	308.44
352.311	328.44
352.538	352.44
352.765	335.44
352.992	302.44
353.22	296.44
353.447	296.44
353.674	260.44
353.901	243.44
354.128	226.44
354.355	227.44
354.583	220.44
354.81	245.44
355.037	237.44
355.264	236.44
355.491	208.44
355.718	229.44
355.945	240.44
356.172	215.44
356.399	238.44
356.626	220.44
356.853	238.44
357.08	228.44
357.307	238.44
357.534	212.44
357.761	214.44
357.988	241.44
358.215	231.44
358.441	240.44
358.668	243.44
358.895	231.44
359.122	263.44
359.349	279.44
359.576	302.44
359.802	342.44
360.029	394.44
360.256	403.44
360.483	346.44
360.709	308.44
360.936	292.44
361.163	295.44
361.39	274.44
361.616	292.44
361.843	295.44
362.07	293.44
362.296	319.44
362.523	277.44
362.749	280.44
362.976	267.44
363.203	258.44
363.429	254.44
363.656	247.44
363.882	231.44
364.109	234.44
364.335	240.44
364.562	249.44
364.788	228.44
365.015	261.44
365.241	252.44
365.468	273.44
365.694	278.44
365.92	264.44
366.147	247.44
366.373	222.44
366.599	238.44
366.826	223.44
367.052	232.44
367.278	223.44
367.505	239.44
367.731	239.44
367.957	233.44
368.184	241.44
368.41	265.44
368.636	258.44
368.862	245.44
369.089	246.44
369.315	222.44
369.541	222.44
369.767	209.44
369.993	217.44
370.219	221.44
370.445	222.44
370.672	220.44
370.898	218.44
371.124	228.44
371.35	210.44
371.576	219.44
371.802	210.44
372.028	201.44
372.254	227.44
372.48	207.44
372.706	214.44
372.932	211.44
373.158	223.44
373.384	228.44
373.61	242.44
373.835	234.44
374.061	247.44
374.287	229.44
374.513	221.44
374.739	217.44
374.965	236.44
375.191	238.44
375.416	224.44
375.642	219.44
375.868	190.44
376.094	208.44
376.319	213.44
376.545	189.44
376.771	213.44
376.997	222.44
377.222	211.44
377.448	220.44
377.674	215.44
377.899	202.44
378.125	190.44
378.35	212.44
378.576	201.44
378.802	211.44
379.027	190.44
379.253	203.44
379.478	191.44
379.704	207.44
379.929	190.44
380.155	214.44
380.38	194.44
380.606	233.44
380.831	217.44
381.057	216.44
381.282	223.44
381.507	224.44
381.733	226.44
381.958	243.44
382.184	254.44
382.409	238.44
382.634	227.44
382.86	232.44
383.085	240.44
383.31	238.44
383.535	220.44
383.761	238.44
383.986	256.44
384.211	223.44
384.436	210.44
384.662	227.44
384.887	227.44
385.112	223.44
385.337	225.44
385.562	225.44
385.787	257.44
386.013	287.44
386.238	279.44
386.463	245.44
386.688	245.44
386.913	231.44
387.138	229.44
387.363	223.44
387.588	233.44
387.813	226.44
388.038	232.44
388.263	240.44
388.488	237.44
388.713	210.44
388.938	202.44
389.163	216.44
389.387	213.44
389.612	197.44
389.837	217.44
390.062	215.44
390.287	200.44
390.512	206.44
390.736	209.44
390.961	197.44
391.186	205.44
391.411	214.44
391.636	227.44
391.86	218.44
392.085	209.44
392.31	227.44
392.534	244.44
392.759	241.44
392.984	292.44
393.208	397.44
393.433	580.44
393.658	545.44
393.882	330.44
394.107	236.44
394.331	292.44
394.556	314.44
394.78	274.44
395.005	231.44
395.229	214.44
395.454	225.44
395.678	226.44
395.903	256.44
396.127	351.44
396.352	417.44
396.576	352.44
396.801	388.44
397.025	480.44
397.249	358.44
397.474	245.44
397.698	230.44
397.922	233.44
398.147	219.44
398.371	233.44
398.595	202.44
398.82	223.44
399.044	219.44
399.268	216.44
399.492	225.44
399.717	239.44
399.941	250.44
400.165	242.44
400.389	267.44
400.613	251.44
400.837	245.44
401.062	229.44
401.286	219.44
401.51	243.44
401.734	234.44
401.958	248.44
402.182	246.44
402.406	275.44
402.63	272.44
402.854	260.44
403.078	246.44
403.302	233.44
403.526	253.44
403.75	230.44
403.974	224.44
404.198	231.44
404.422	246.44
404.645	260.44
404.869	257.44
405.093	261.44
405.317	269.44
405.541	281.44
405.765	262.44
405.988	262.44
406.212	315.44
406.436	314.44
406.66	347.44
406.883	308.44
407.107	303.44
407.331	300.44
407.555	326.44
407.778	320.44
408.002	291.44
408.226	251.44
408.449	256.44
408.673	253.44
408.896	267.44
409.12	271.44
409.344	264.44
409.567	237.44
409.791	233.44
410.014	224.44
410.238	228.44
410.461	221.44
410.685	222.44
410.908	250.44
411.132	256.44
411.355	238.44
411.578	258.44
411.802	232.44
412.025	229.44
412.249	222.44
412.472	240.44
412.695	232.44
412.919	223.44
413.142	207.44
413.365	202.44
413.589	227.44
413.812	222.44
414.035	225.44
414.258	211.44
414.482	221.44
414.705	204.44
414.928	211.44
415.151	234.44
415.374	227.44
415.597	222.44
415.821	222.44
416.044	215.44
416.267	210.44
416.49	229.44
416.713	204.44
416.936	206.44
417.159	214.44
417.382	215.44
417.605	229.44
417.828	226.44
418.051	230.44
418.274	225.44
418.497	223.44
418.72	215.44
418.943	204.44
419.166	220.44
419.389	227.44
419.611	232.44
419.834	223.44
420.057	211.44
420.28	220.44
420.503	205.44
420.726	214.44
420.948	225.44
421.171	224.44
421.394	251.44
421.617	233.44
421.839	244.44
422.062	224.44
422.285	239.44
422.507	302.44
422.73	392.44
422.953	430.44
423.175	301.44
423.398	239.44
423.621	242.44
423.843	265.44
424.066	237.44
424.288	248.44
424.511	246.44
424.733	274.44
424.956	312.44
425.178	305.44
425.401	308.44
425.623	323.44
425.846	272.44
426.068	265.44
426.291	268.44
426.513	267.44
426.735	257.44
426.958	283.44
427.18	328.44
427.402	388.44
427.625	494.44
427.847	512.44
428.069	377.44
428.292	321.44
428.514	284.44
428.736	284.44
428.958	282.44
429.181	269.44
429.403	232.44
429.625	245.44
429.847	270.44
430.069	300.44
430.292	317.44
430.514	275.44
430.736	252.44
430.958	255.44
431.18	237.44
431.402	227.44
431.624	228.44
431.846	230.44
432.068	241.44
432.29	235.44
432.512	226.44
432.734	234.44
432.956	237.44
433.178	236.44
433.4	250.44
433.622	237.44
433.844	215.44
434.066	219.44
434.287	222.44
434.509	225.44
434.731	210.44
434.953	232.44
435.175	245.44
435.397	244.44
435.618	255.44
435.84	280.44
436.062	301.44
436.284	326.44
436.505	303.44
436.727	272.44
436.949	281.44
437.17	252.44
437.392	240.44
437.614	280.44
437.835	314.44
438.057	391.44
438.278	385.44
438.5	378.44
438.721	370.44
438.943	342.44
439.165	317.44
439.386	287.44
439.608	285.44
439.829	313.44
440.05	324.44
440.272	347.44
440.493	332.44
440.715	295.44
440.936	279.44
441.158	260.44
441.379	258.44
441.6	274.44
441.822	286.44
442.043	297.44
442.264	308.44
442.486	351.44
442.707	314.44
442.928	290.44
443.149	301.44
443.371	300.44
443.592	350.44
443.813	358.44
444.034	344.44
444.255	305.44
444.476	257.44
444.698	261.44
444.919	273.44
445.14	366.44
445.361	345.44
445.582	327.44
445.803	365.44
446.024	394.44
446.245	384.44
446.466	370.44
446.687	314.44
446.908	281.44
447.129	253.44
447.35	262.44
447.571	267.44
447.792	258.44
448.013	273.44
448.234	278.44
448.455	300.44
448.675	335.44
448.896	352.44
449.117	320.44
449.338	312.44
449.559	347.44
449.779	359.44
450	309.44
450.221	281.44
450.442	264.44
450.662	281.44
450.883	325.44
451.104	353.44
451.324	331.44
451.545	281.44
451.766	289.44
451.986	244.44
452.207	246.44
452.428	241.44
452.648	252.44
452.869	271.44
453.089	278.44
453.31	283.44
453.53	314.44
453.751	278.44
453.971	294.44
454.192	337.44
454.412	309.44
454.633	282.44
454.853	257.44
455.073	268.44
455.294	266.44
455.514	300.44
455.734	264.44
455.955	236.44
456.175	217.44
456.395	206.44
456.616	223.44
456.836	224.44
457.056	212.44
457.276	207.44
457.497	209.44
457.717	216.44
457.937	241.44
458.157	261.44
458.377	262.44
458.598	289.44
458.818	373.44
459.038	462.44
459.258	391.44
459.478	339.44
459.698	259.44
459.918	256.44
460.138	251.44
460.358	238.44
460.578	238.44
460.798	225.44
461.018	231.44
461.238	224.44
461.458	218.44
461.678	241.44
461.898	238.44
462.118	237.44
462.338	228.44
462.558	220.44
462.777	213.44
462.997	226.44
463.217	233.44
463.437	239.44
463.657	212.44
463.876	236.44
464.096	228.44
464.316	250.44
464.536	282.44
464.755	282.44
464.975	307.44
465.195	419.44
465.414	554.44
465.634	414.44
465.854	321.44
466.073	286.44
466.293	252.44
466.512	252.44
466.732	252.44
466.951	246.44
467.171	238.44
467.391	253.44
467.61	293.44
467.829	311.44
468.049	264.44
468.268	258.44
468.488	238.44
468.707	241.44
468.927	229.44
469.146	226.44
469.365	221.44
469.585	230.44
469.804	263.44
470.023	276.44
470.243	276.44
470.462	290.44
470.681	319.44
470.901	290.44
471.12	260.44
471.339	248.44
471.558	246.44
471.777	244.44
471.997	236.44
472.216	220.44
472.435	249.44
472.654	229.44
472.873	224.44
473.092	224.44
473.311	217.44
473.53	213.44
473.749	243.44
473.968	260.44
474.187	315.44
474.406	303.44
474.625	276.44
474.844	239.44
475.063	234.44
475.282	217.44
475.501	239.44
475.72	247.44
475.939	243.44
476.158	249.44
476.377	242.44
476.596	239.44
476.814	263.44
477.033	280.44
477.252	270.44
477.471	256.44
477.69	260.44
477.908	248.44
478.127	243.44
478.346	233.44
478.564	261.44
478.783	257.44
479.002	273.44
479.22	261.44
479.439	302.44
479.658	319.44
479.876	304.44
480.095	302.44
480.313	306.44
480.532	303.44
480.751	278.44
480.969	284.44
481.188	265.44
481.406	300.44
481.624	310.44
481.843	270.44
482.061	259.44
482.28	259.44
482.498	264.44
482.717	252.44
482.935	275.44
483.153	264.44
483.372	265.44
483.59	271.44
483.808	281.44
484.027	280.44
484.245	268.44
484.463	259.44
484.681	273.44
484.9	278.44
485.118	264.44
485.336	273.44
485.554	274.44
485.772	261.44
485.99	284.44
486.209	272.44
486.427	270.44
486.645	301.44
486.863	335.44
487.081	334.44
487.299	305.44
487.517	308.44
487.735	288.44
487.953	292.44
488.171	305.44
488.389	282.44
488.607	286.44
488.825	293.44
489.043	289.44
489.261	304.44
489.479	270.44
489.696	288.44
489.914	277.44
490.132	277.44
490.35	288.44
490.568	277.44
490.786	282.44
491.003	294.44
491.221	284.44
491.439	297.44
491.657	308.44
491.874	295.44
492.092	304.44
492.31	278.44
492.527	302.44
492.745	291.44
492.963	308.44
493.18	295.44
493.398	297.44
493.615	309.44
493.833	310.44
494.05	290.44
494.268	297.44
494.485	307.44
494.703	307.44
494.92	304.44
495.138	305.44
495.355	294.44
495.573	305.44
495.79	298.44
496.008	340.44
496.225	308.44
496.442	301.44
496.66	314.44
496.877	303.44
497.094	308.44
497.312	296.44
497.529	314.44
497.746	305.44
497.963	321.44
498.181	329.44
498.398	368.44
498.615	345.44
498.832	335.44
499.049	316.44
499.267	339.44
499.484	343.44
499.701	332.44
499.918	326.44
500.135	343.44
500.352	318.44
500.569	344.44
500.786	355.44
501.003	365.44
501.22	349.44
501.437	362.44
501.654	379.44
501.871	403.44
502.088	378.44
502.305	354.44
502.522	359.44
