Data from 1980.PennyLincolnUp.Lamp.En5.5.200Scan.071819.P1_HRD10591_16-39-17-958.txt Node
Date: Thu Jul 18 16:39:17 EDT 2019
User: cochatt
Spectrometer: HR+D1059
Trigger mode: 1
Integration Time (sec): 1.000000E-1
Scans to average: 1
Electric dark correction enabled: true
Nonlinearity correction enabled: false
Boxcar width: 0
XAxis mode: Wavelengths
Number of Pixels in Spectrum: 2048
>>>>>Begin Spectral Data<<<<<
223.165	-19.06
223.4	-19.06
223.635	-19.06
223.869	-7.06
224.104	-23.06
224.338	3.94
224.573	-16.06
224.808	-10.06
225.042	-7.06
225.277	-10.06
225.511	-0.06
225.746	8.94
225.98	5.94
226.215	0.94
226.449	8.94
226.683	4.94
226.918	29.94
227.152	28.94
227.387	27.94
227.621	37.94
227.856	56.94
228.09	44.94
228.324	53.94
228.559	42.94
228.793	58.94
229.027	98.94
229.262	108.94
229.496	129.94
229.73	137.94
229.964	191.94
230.199	150.94
230.433	128.94
230.667	136.94
230.901	127.94
231.136	121.94
231.37	122.94
231.604	98.94
231.838	125.94
232.072	129.94
232.306	113.94
232.541	114.94
232.775	121.94
233.009	104.94
233.243	110.94
233.477	119.94
233.711	113.94
233.945	120.94
234.179	105.94
234.413	120.94
234.647	132.94
234.881	138.94
235.115	128.94
235.349	139.94
235.583	122.94
235.817	136.94
236.051	141.94
236.285	127.94
236.519	125.94
236.753	142.94
236.987	146.94
237.221	199.94
237.455	276.94
237.689	210.94
237.922	164.94
238.156	148.94
238.39	145.94
238.624	136.94
238.858	133.94
239.091	127.94
239.325	126.94
239.559	132.94
239.793	143.94
240.027	153.94
240.26	150.94
240.494	176.94
240.728	164.94
240.961	160.94
241.195	179.94
241.429	152.94
241.662	137.94
241.896	145.94
242.13	142.94
242.363	140.94
242.597	140.94
242.83	142.94
243.064	136.94
243.298	166.94
243.531	143.94
243.765	154.94
243.998	140.94
244.232	148.94
244.465	143.94
244.699	159.94
244.932	130.94
245.166	137.94
245.399	154.94
245.633	166.94
245.866	136.94
246.099	152.94
246.333	149.94
246.566	164.94
246.8	167.94
247.033	150.94
247.266	163.94
247.5	176.94
247.733	169.94
247.966	194.94
248.2	171.94
248.433	188.94
248.666	170.94
248.899	192.94
249.133	214.94
249.366	213.94
249.599	211.94
249.832	204.94
250.066	201.94
250.299	196.94
250.532	207.94
250.765	201.94
250.998	240.94
251.231	240.94
251.465	245.94
251.698	210.94
251.931	219.94
252.164	224.94
252.397	208.94
252.63	217.94
252.863	231.94
253.096	240.94
253.329	233.94
253.562	244.94
253.795	232.94
254.028	228.94
254.261	232.94
254.494	241.94
254.727	276.94
254.96	327.94
255.193	323.94
255.426	281.94
255.659	247.94
255.892	242.94
256.124	244.94
256.357	263.94
256.59	247.94
256.823	232.94
257.056	252.94
257.289	212.94
257.521	226.94
257.754	234.94
257.987	221.94
258.22	219.94
258.452	223.94
258.685	223.94
258.918	247.94
259.151	222.94
259.383	238.94
259.616	220.94
259.849	241.94
260.081	260.94
260.314	289.94
260.547	280.94
260.779	257.94
261.012	272.94
261.244	243.94
261.477	245.94
261.71	244.94
261.942	247.94
262.175	261.94
262.407	259.94
262.64	227.94
262.872	219.94
263.105	222.94
263.337	210.94
263.57	230.94
263.802	230.94
264.035	218.94
264.267	224.94
264.499	225.94
264.732	224.94
264.964	216.94
265.197	226.94
265.429	232.94
265.661	223.94
265.894	220.94
266.126	215.94
266.358	232.94
266.591	245.94
266.823	227.94
267.055	239.94
267.287	238.94
267.52	238.94
267.752	222.94
267.984	237.94
268.216	230.94
268.448	246.94
268.681	254.94
268.913	262.94
269.145	267.94
269.377	296.94
269.609	291.94
269.841	295.94
270.073	285.94
270.306	322.94
270.538	337.94
270.77	355.94
271.002	334.94
271.234	320.94
271.466	321.94
271.698	314.94
271.93	352.94
272.162	347.94
272.394	337.94
272.626	334.94
272.858	305.94
273.09	310.94
273.322	312.94
273.553	300.94
273.785	283.94
274.017	270.94
274.249	270.94
274.481	292.94
274.713	288.94
274.945	305.94
275.176	292.94
275.408	286.94
275.64	255.94
275.872	284.94
276.104	281.94
276.335	275.94
276.567	295.94
276.799	313.94
277.031	336.94
277.262	339.94
277.494	346.94
277.726	317.94
277.957	316.94
278.189	296.94
278.421	288.94
278.652	290.94
278.884	293.94
279.115	273.94
279.347	273.94
279.579	272.94
279.81	246.94
280.042	266.94
280.273	273.94
280.505	266.94
280.736	276.94
280.968	263.94
281.199	278.94
281.431	266.94
281.662	274.94
281.894	268.94
282.125	295.94
282.356	306.94
282.588	335.94
282.819	335.94
283.051	315.94
283.282	280.94
283.513	273.94
283.745	277.94
283.976	272.94
284.207	282.94
284.439	287.94
284.67	280.94
284.901	285.94
285.132	287.94
285.364	265.94
285.595	270.94
285.826	273.94
286.057	287.94
286.288	280.94
286.52	274.94
286.751	282.94
286.982	282.94
287.213	284.94
287.444	280.94
287.675	282.94
287.906	300.94
288.138	310.94
288.369	301.94
288.6	303.94
288.831	287.94
289.062	294.94
289.293	292.94
289.524	288.94
289.755	298.94
289.986	295.94
290.217	276.94
290.448	298.94
290.679	275.94
290.91	289.94
291.141	284.94
291.371	286.94
291.602	270.94
291.833	297.94
292.064	273.94
292.295	275.94
292.526	286.94
292.757	280.94
292.987	282.94
293.218	289.94
293.449	269.94
293.68	290.94
293.91	292.94
294.141	271.94
294.372	308.94
294.603	295.94
294.833	282.94
295.064	281.94
295.295	287.94
295.525	292.94
295.756	289.94
295.987	312.94
296.217	329.94
296.448	334.94
296.679	310.94
296.909	290.94
297.14	289.94
297.37	305.94
297.601	299.94
297.831	289.94
298.062	278.94
298.292	303.94
298.523	303.94
298.753	285.94
298.984	318.94
299.214	297.94
299.445	308.94
299.675	296.94
299.905	280.94
300.136	302.94
300.366	309.94
300.597	300.94
300.827	311.94
301.057	316.94
301.288	330.94
301.518	319.94
301.748	324.94
301.979	319.94
302.209	313.94
302.439	321.94
302.669	332.94
302.9	308.94
303.13	302.94
303.36	338.94
303.59	325.94
303.82	329.94
304.051	331.94
304.281	316.94
304.511	332.94
304.741	306.94
304.971	302.94
305.201	321.94
305.431	314.94
305.661	322.94
305.891	308.94
306.121	322.94
306.352	319.94
306.582	336.94
306.812	330.94
307.042	340.94
307.272	314.94
307.502	324.94
307.731	327.94
307.961	341.94
308.191	333.94
308.421	323.94
308.651	356.94
308.881	341.94
309.111	343.94
309.341	353.94
309.571	358.94
309.8	381.94
310.03	388.94
310.26	398.94
310.49	396.94
310.72	401.94
310.949	410.94
311.179	407.94
311.409	397.94
311.639	390.94
311.868	390.94
312.098	402.94
312.328	402.94
312.557	425.94
312.787	430.94
313.017	431.94
313.246	412.94
313.476	400.94
313.706	385.94
313.935	394.94
314.165	403.94
314.394	401.94
314.624	425.94
314.853	399.94
315.083	394.94
315.312	375.94
315.542	366.94
315.771	374.94
316.001	365.94
316.23	362.94
316.46	374.94
316.689	385.94
316.919	382.94
317.148	412.94
317.377	401.94
317.607	400.94
317.836	399.94
318.065	404.94
318.295	378.94
318.524	380.94
318.753	362.94
318.983	392.94
319.212	383.94
319.441	403.94
319.67	402.94
319.9	404.94
320.129	389.94
320.358	382.94
320.587	402.94
320.816	400.94
321.046	429.94
321.275	412.94
321.504	422.94
321.733	420.94
321.962	402.94
322.191	444.94
322.42	468.94
322.649	491.94
322.878	487.94
323.108	519.94
323.337	529.94
323.566	553.94
323.795	614.94
324.024	674.94
324.253	849.94
324.482	1180.94
324.71	1884.94
324.939	2710.94
325.168	2377.94
325.397	1260.94
325.626	823.94
325.855	638.94
326.084	590.94
326.313	577.94
326.542	568.94
326.77	637.94
326.999	764.94
327.228	1097.94
327.457	1660.94
327.686	2028.94
327.914	1386.94
328.143	893.94
328.372	753.94
328.6	692.94
328.829	663.94
329.058	700.94
329.287	692.94
329.515	636.94
329.744	580.94
329.972	582.94
330.201	604.94
330.43	648.94
330.658	694.94
330.887	729.94
331.115	692.94
331.344	578.94
331.572	536.94
331.801	525.94
332.03	538.94
332.258	493.94
332.486	485.94
332.715	449.94
332.943	462.94
333.172	452.94
333.4	461.94
333.629	472.94
333.857	483.94
334.085	507.94
334.314	528.94
334.542	560.94
334.771	592.94
334.999	526.94
335.227	492.94
335.455	471.94
335.684	433.94
335.912	435.94
336.14	450.94
336.369	448.94
336.597	467.94
336.825	448.94
337.053	434.94
337.281	436.94
337.51	414.94
337.738	433.94
337.966	437.94
338.194	444.94
338.422	451.94
338.65	440.94
338.878	420.94
339.106	428.94
339.334	431.94
339.562	412.94
339.79	410.94
340.018	444.94
340.246	422.94
340.474	430.94
340.702	423.94
340.93	406.94
341.158	431.94
341.386	440.94
341.614	441.94
341.842	448.94
342.07	422.94
342.298	406.94
342.526	382.94
342.754	418.94
342.981	402.94
343.209	384.94
343.437	405.94
343.665	424.94
343.893	413.94
344.12	410.94
344.348	415.94
344.576	423.94
344.804	427.94
345.031	443.94
345.259	455.94
345.487	432.94
345.714	431.94
345.942	394.94
346.17	401.94
346.397	438.94
346.625	426.94
346.853	426.94
347.08	440.94
347.308	410.94
347.535	446.94
347.763	433.94
347.99	426.94
348.218	448.94
348.445	434.94
348.673	412.94
348.9	424.94
349.128	407.94
349.355	384.94
349.583	403.94
349.81	395.94
350.037	406.94
350.265	410.94
350.492	412.94
350.72	410.94
350.947	410.94
351.174	444.94
351.402	438.94
351.629	432.94
351.856	411.94
352.083	429.94
352.311	457.94
352.538	443.94
352.765	445.94
352.992	430.94
353.22	428.94
353.447	421.94
353.674	409.94
353.901	407.94
354.128	391.94
354.355	364.94
354.583	384.94
354.81	390.94
355.037	383.94
355.264	381.94
355.491	376.94
355.718	354.94
355.945	376.94
356.172	370.94
356.399	370.94
356.626	365.94
356.853	372.94
357.08	369.94
357.307	378.94
357.534	384.94
357.761	404.94
357.988	391.94
358.215	383.94
358.441	383.94
358.668	389.94
358.895	398.94
359.122	397.94
359.349	396.94
359.576	418.94
359.802	441.94
360.029	500.94
360.256	523.94
360.483	473.94
360.709	443.94
360.936	402.94
361.163	422.94
361.39	424.94
361.616	434.94
361.843	432.94
362.07	415.94
362.296	427.94
362.523	441.94
362.749	412.94
362.976	410.94
363.203	418.94
363.429	403.94
363.656	395.94
363.882	407.94
364.109	398.94
364.335	385.94
364.562	403.94
364.788	392.94
365.015	372.94
365.241	386.94
365.468	415.94
365.694	400.94
365.92	407.94
366.147	392.94
366.373	380.94
366.599	379.94
366.826	400.94
367.052	385.94
367.278	387.94
367.505	388.94
367.731	392.94
367.957	380.94
368.184	397.94
368.41	390.94
368.636	404.94
368.862	425.94
369.089	414.94
369.315	391.94
369.541	387.94
369.767	390.94
369.993	402.94
370.219	388.94
370.445	382.94
370.672	376.94
370.898	359.94
371.124	384.94
371.35	384.94
371.576	383.94
371.802	394.94
372.028	382.94
372.254	370.94
372.48	372.94
372.706	382.94
372.932	380.94
373.158	385.94
373.384	378.94
373.61	398.94
373.835	388.94
374.061	380.94
374.287	380.94
374.513	393.94
374.739	349.94
374.965	382.94
375.191	398.94
375.416	397.94
375.642	374.94
375.868	376.94
376.094	361.94
376.319	388.94
376.545	348.94
376.771	375.94
376.997	380.94
377.222	378.94
377.448	374.94
377.674	382.94
377.899	361.94
378.125	363.94
378.35	365.94
378.576	367.94
378.802	377.94
379.027	376.94
379.253	369.94
379.478	362.94
379.704	381.94
379.929	380.94
380.155	377.94
380.38	364.94
380.606	385.94
380.831	368.94
381.057	376.94
381.282	384.94
381.507	362.94
381.733	364.94
381.958	395.94
382.184	392.94
382.409	380.94
382.634	387.94
382.86	392.94
383.085	376.94
383.31	381.94
383.535	408.94
383.761	391.94
383.986	383.94
384.211	394.94
384.436	383.94
384.662	402.94
384.887	381.94
385.112	397.94
385.337	379.94
385.562	383.94
385.787	390.94
386.013	420.94
386.238	407.94
386.463	405.94
386.688	400.94
386.913	372.94
387.138	397.94
387.363	385.94
387.588	383.94
387.813	401.94
388.038	414.94
388.263	410.94
388.488	394.94
388.713	402.94
388.938	397.94
389.163	405.94
389.387	398.94
389.612	381.94
389.837	402.94
390.062	372.94
390.287	385.94
390.512	399.94
390.736	386.94
390.961	384.94
391.186	399.94
391.411	407.94
391.636	421.94
391.86	406.94
392.085	385.94
392.31	413.94
392.534	427.94
392.759	411.94
392.984	406.94
393.208	405.94
393.433	389.94
393.658	418.94
393.882	420.94
394.107	412.94
394.331	409.94
394.556	389.94
394.78	404.94
395.005	412.94
395.229	398.94
395.454	384.94
395.678	415.94
395.903	419.94
396.127	442.94
396.352	436.94
396.576	432.94
396.801	398.94
397.025	423.94
397.249	413.94
397.474	420.94
397.698	418.94
397.922	445.94
398.147	464.94
398.371	466.94
398.595	459.94
398.82	448.94
399.044	457.94
399.268	445.94
399.492	466.94
399.717	497.94
399.941	545.94
400.165	555.94
400.389	561.94
400.613	523.94
400.837	476.94
401.062	458.94
401.286	462.94
401.51	478.94
401.734	456.94
401.958	466.94
402.182	470.94
402.406	483.94
402.63	482.94
402.854	460.94
403.078	453.94
403.302	471.94
403.526	473.94
403.75	464.94
403.974	453.94
404.198	469.94
404.422	490.94
404.645	507.94
404.869	492.94
405.093	533.94
405.317	542.94
405.541	590.94
405.765	564.94
405.988	494.94
406.212	512.94
406.436	541.94
406.66	576.94
406.883	541.94
407.107	545.94
407.331	557.94
407.555	648.94
407.778	662.94
408.002	600.94
408.226	529.94
408.449	506.94
408.673	545.94
408.896	561.94
409.12	590.94
409.344	583.94
409.567	504.94
409.791	498.94
410.014	454.94
410.238	474.94
410.461	466.94
410.685	461.94
410.908	493.94
411.132	557.94
411.355	590.94
411.578	542.94
411.802	504.94
412.025	485.94
412.249	480.94
412.472	512.94
412.695	530.94
412.919	560.94
413.142	512.94
413.365	482.94
413.589	480.94
413.812	458.94
414.035	472.94
414.258	460.94
414.482	438.94
414.705	452.94
414.928	446.94
415.151	442.94
415.374	452.94
415.597	438.94
415.821	433.94
416.044	447.94
416.267	458.94
416.49	452.94
416.713	445.94
416.936	470.94
417.159	440.94
417.382	466.94
417.605	452.94
417.828	480.94
418.051	500.94
418.274	487.94
418.497	467.94
418.72	471.94
418.943	447.94
419.166	465.94
419.389	481.94
419.611	485.94
419.834	493.94
420.057	476.94
420.28	495.94
420.503	487.94
420.726	486.94
420.948	513.94
421.171	568.94
421.394	579.94
421.617	511.94
421.839	477.94
422.062	474.94
422.285	509.94
422.507	553.94
422.73	644.94
422.953	622.94
423.175	548.94
423.398	519.94
423.621	494.94
423.843	524.94
424.066	533.94
424.288	530.94
424.511	568.94
424.733	634.94
424.956	694.94
425.178	656.94
425.401	658.94
425.623	687.94
425.846	590.94
426.068	546.94
426.291	549.94
426.513	521.94
426.735	560.94
426.958	604.94
427.18	698.94
427.402	818.94
427.625	909.94
427.847	847.94
428.069	711.94
428.292	606.94
428.514	561.94
428.736	537.94
428.958	540.94
429.181	501.94
429.403	502.94
429.625	518.94
429.847	556.94
430.069	625.94
430.292	608.94
430.514	534.94
430.736	508.94
430.958	481.94
431.18	466.94
431.402	456.94
431.624	462.94
431.846	425.94
432.068	459.94
432.29	470.94
432.512	466.94
432.734	489.94
432.956	471.94
433.178	484.94
433.4	495.94
433.622	485.94
433.844	462.94
434.066	453.94
434.287	454.94
434.509	466.94
434.731	477.94
434.953	473.94
435.175	494.94
435.397	518.94
435.618	559.94
435.84	590.94
436.062	704.94
436.284	763.94
436.505	614.94
436.727	560.94
436.949	540.94
437.17	504.94
437.392	512.94
437.614	512.94
437.835	562.94
438.057	687.94
438.278	774.94
438.5	758.94
438.721	844.94
438.943	786.94
439.165	631.94
439.386	566.94
439.608	570.94
439.829	578.94
440.05	601.94
440.272	650.94
440.493	623.94
440.715	532.94
440.936	545.94
441.158	525.94
441.379	507.94
441.6	527.94
441.822	546.94
442.043	593.94
442.264	681.94
442.486	731.94
442.707	623.94
442.928	591.94
443.149	569.94
443.371	597.94
443.592	658.94
443.813	711.94
444.034	792.94
444.255	635.94
444.476	578.94
444.698	548.94
444.919	528.94
445.14	630.94
445.361	580.94
445.582	601.94
445.803	667.94
446.024	794.94
446.245	778.94
446.466	709.94
446.687	612.94
446.908	552.94
447.129	534.94
447.35	509.94
447.571	513.94
447.792	488.94
448.013	496.94
448.234	537.94
448.455	598.94
448.675	715.94
448.896	799.94
449.117	689.94
449.338	657.94
449.559	747.94
449.779	862.94
450	702.94
450.221	590.94
450.442	531.94
450.662	518.94
450.883	529.94
451.104	546.94
451.324	525.94
451.545	510.94
451.766	501.94
451.986	470.94
452.207	463.94
452.428	430.94
452.648	466.94
452.869	454.94
453.089	461.94
453.31	474.94
453.53	495.94
453.751	464.94
453.971	471.94
454.192	502.94
454.412	474.94
454.633	470.94
454.853	461.94
455.073	463.94
455.294	490.94
455.514	574.94
455.734	557.94
455.955	447.94
456.175	427.94
456.395	440.94
456.616	414.94
456.836	422.94
457.056	416.94
457.276	394.94
457.497	417.94
457.717	404.94
457.937	408.94
458.157	437.94
458.377	440.94
458.598	480.94
458.818	548.94
459.038	643.94
459.258	668.94
459.478	544.94
459.698	464.94
459.918	465.94
460.138	465.94
460.358	452.94
460.578	438.94
460.798	463.94
461.018	461.94
461.238	433.94
461.458	443.94
461.678	472.94
461.898	468.94
462.118	442.94
462.338	456.94
462.558	462.94
462.777	474.94
462.997	462.94
463.217	457.94
463.437	469.94
463.657	456.94
463.876	462.94
464.096	472.94
464.316	475.94
464.536	473.94
464.755	495.94
464.975	508.94
465.195	555.94
465.414	664.94
465.634	594.94
465.854	522.94
466.073	495.94
466.293	466.94
466.512	450.94
466.732	441.94
466.951	438.94
467.171	457.94
467.391	452.94
467.61	480.94
467.829	482.94
468.049	475.94
468.268	444.94
468.488	457.94
468.707	431.94
468.927	454.94
469.146	428.94
469.365	427.94
469.585	441.94
469.804	437.94
470.023	457.94
470.243	452.94
470.462	478.94
470.681	492.94
470.901	491.94
471.12	460.94
471.339	463.94
471.558	455.94
471.777	463.94
471.997	453.94
472.216	454.94
472.435	538.94
472.654	520.94
472.873	445.94
473.092	464.94
473.311	475.94
473.53	472.94
473.749	476.94
473.968	521.94
474.187	623.94
474.406	682.94
474.625	530.94
474.844	489.94
475.063	460.94
475.282	466.94
475.501	466.94
475.72	484.94
475.939	465.94
476.158	470.94
476.377	466.94
476.596	487.94
476.814	486.94
477.033	491.94
477.252	505.94
477.471	496.94
477.69	514.94
477.908	466.94
478.127	480.94
478.346	489.94
478.564	488.94
478.783	500.94
479.002	515.94
479.22	526.94
479.439	546.94
479.658	534.94
479.876	574.94
480.095	573.94
480.313	600.94
480.532	593.94
480.751	561.94
480.969	583.94
481.188	659.94
481.406	730.94
481.624	624.94
481.843	581.94
482.061	581.94
482.28	541.94
482.498	552.94
482.717	559.94
482.935	545.94
483.153	566.94
483.372	543.94
483.59	544.94
483.808	569.94
484.027	542.94
484.245	562.94
484.463	557.94
484.681	553.94
484.9	536.94
485.118	541.94
485.336	546.94
485.554	545.94
485.772	559.94
485.99	549.94
486.209	596.94
486.427	586.94
486.645	581.94
486.863	630.94
487.081	617.94
487.299	600.94
487.517	582.94
487.735	594.94
487.953	590.94
488.171	555.94
488.389	585.94
488.607	601.94
488.825	590.94
489.043	588.94
489.261	604.94
489.479	584.94
489.696	612.94
489.914	617.94
490.132	620.94
490.35	646.94
490.568	618.94
490.786	649.94
491.003	646.94
491.221	678.94
491.439	673.94
491.657	671.94
491.874	687.94
492.092	677.94
492.31	702.94
492.527	711.94
492.745	698.94
492.963	700.94
493.18	695.94
493.398	714.94
493.615	693.94
493.833	718.94
494.05	714.94
494.268	728.94
494.485	733.94
494.703	714.94
494.92	713.94
495.138	703.94
495.355	710.94
495.573	728.94
495.79	717.94
496.008	730.94
496.225	704.94
496.442	717.94
496.66	713.94
496.877	706.94
497.094	709.94
497.312	721.94
497.529	704.94
497.746	706.94
497.963	726.94
498.181	729.94
498.398	764.94
498.615	760.94
498.832	776.94
499.049	752.94
499.267	764.94
499.484	775.94
499.701	800.94
499.918	813.94
500.135	846.94
500.352	845.94
500.569	846.94
500.786	846.94
501.003	873.94
501.22	853.94
501.437	838.94
501.654	826.94
501.871	869.94
