Data from 1980.PennyLincolnUp.Lamp.En5.5.200Scan.071819.P1_HRD10591_16-36-19-958.txt Node
Date: Thu Jul 18 16:36:19 EDT 2019
User: cochatt
Spectrometer: HR+D1059
Trigger mode: 1
Integration Time (sec): 1.000000E-1
Scans to average: 1
Electric dark correction enabled: true
Nonlinearity correction enabled: false
Boxcar width: 0
XAxis mode: Wavelengths
Number of Pixels in Spectrum: 2048
>>>>>Begin Spectral Data<<<<<
223.165	-15.44
223.4	-15.44
223.635	-15.44
223.869	-0.44
224.104	-12.44
224.338	-5.44
224.573	-15.44
224.808	-17.44
225.042	-28.44
225.277	-4.44
225.511	-2.44
225.746	-3.44
225.98	11.56
226.215	8.56
226.449	8.56
226.683	31.56
226.918	20.56
227.152	24.56
227.387	33.56
227.621	19.56
227.856	42.56
228.09	45.56
228.324	38.56
228.559	51.56
228.793	78.56
229.027	78.56
229.262	89.56
229.496	91.56
229.73	106.56
229.964	130.56
230.199	100.56
230.433	96.56
230.667	86.56
230.901	83.56
231.136	107.56
231.37	100.56
231.604	115.56
231.838	107.56
232.072	104.56
232.306	96.56
232.541	105.56
232.775	103.56
233.009	123.56
233.243	119.56
233.477	104.56
233.711	115.56
233.945	95.56
234.179	98.56
234.413	114.56
234.647	120.56
234.881	113.56
235.115	112.56
235.349	89.56
235.583	102.56
235.817	101.56
236.051	118.56
236.285	119.56
236.519	116.56
236.753	121.56
236.987	113.56
237.221	160.56
237.455	195.56
237.689	161.56
237.922	134.56
238.156	116.56
238.39	110.56
238.624	110.56
238.858	122.56
239.091	114.56
239.325	105.56
239.559	120.56
239.793	120.56
240.027	140.56
240.26	126.56
240.494	134.56
240.728	132.56
240.961	123.56
241.195	138.56
241.429	114.56
241.662	107.56
241.896	107.56
242.13	117.56
242.363	126.56
242.597	126.56
242.83	112.56
243.064	119.56
243.298	118.56
243.531	116.56
243.765	118.56
243.998	122.56
244.232	107.56
244.465	130.56
244.699	133.56
244.932	124.56
245.166	130.56
245.399	104.56
245.633	126.56
245.866	120.56
246.099	138.56
246.333	128.56
246.566	131.56
246.8	132.56
247.033	132.56
247.266	135.56
247.5	152.56
247.733	140.56
247.966	163.56
248.2	148.56
248.433	144.56
248.666	153.56
248.899	158.56
249.133	182.56
249.366	194.56
249.599	170.56
249.832	168.56
250.066	163.56
250.299	171.56
250.532	185.56
250.765	167.56
250.998	181.56
251.231	204.56
251.465	180.56
251.698	186.56
251.931	187.56
252.164	170.56
252.397	188.56
252.63	171.56
252.863	185.56
253.096	187.56
253.329	194.56
253.562	215.56
253.795	187.56
254.028	176.56
254.261	208.56
254.494	216.56
254.727	234.56
254.96	234.56
255.193	234.56
255.426	234.56
255.659	198.56
255.892	202.56
256.124	193.56
256.357	211.56
256.59	203.56
256.823	194.56
257.056	183.56
257.289	158.56
257.521	170.56
257.754	196.56
257.987	183.56
258.22	183.56
258.452	171.56
258.685	179.56
258.918	183.56
259.151	185.56
259.383	193.56
259.616	194.56
259.849	194.56
260.081	215.56
260.314	203.56
260.547	217.56
260.779	229.56
261.012	204.56
261.244	211.56
261.477	212.56
261.71	197.56
261.942	182.56
262.175	208.56
262.407	207.56
262.64	182.56
262.872	184.56
263.105	201.56
263.337	190.56
263.57	184.56
263.802	177.56
264.035	170.56
264.267	182.56
264.499	198.56
264.732	169.56
264.964	189.56
265.197	167.56
265.429	180.56
265.661	194.56
265.894	180.56
266.126	199.56
266.358	177.56
266.591	174.56
266.823	195.56
267.055	190.56
267.287	200.56
267.52	186.56
267.752	202.56
267.984	171.56
268.216	198.56
268.448	190.56
268.681	179.56
268.913	192.56
269.145	227.56
269.377	242.56
269.609	234.56
269.841	231.56
270.073	235.56
270.306	220.56
270.538	255.56
270.77	252.56
271.002	260.56
271.234	237.56
271.466	245.56
271.698	256.56
271.93	251.56
272.162	262.56
272.394	264.56
272.626	266.56
272.858	263.56
273.09	245.56
273.322	239.56
273.553	224.56
273.785	219.56
274.017	229.56
274.249	225.56
274.481	227.56
274.713	239.56
274.945	210.56
275.176	214.56
275.408	243.56
275.64	221.56
275.872	208.56
276.104	218.56
276.335	207.56
276.567	213.56
276.799	241.56
277.031	249.56
277.262	274.56
277.494	267.56
277.726	266.56
277.957	229.56
278.189	238.56
278.421	218.56
278.652	230.56
278.884	217.56
279.115	222.56
279.347	232.56
279.579	227.56
279.81	222.56
280.042	231.56
280.273	205.56
280.505	194.56
280.736	225.56
280.968	228.56
281.199	227.56
281.431	220.56
281.662	220.56
281.894	214.56
282.125	223.56
282.356	247.56
282.588	246.56
282.819	247.56
283.051	228.56
283.282	212.56
283.513	207.56
283.745	210.56
283.976	245.56
284.207	238.56
284.439	224.56
284.67	236.56
284.901	216.56
285.132	204.56
285.364	219.56
285.595	215.56
285.826	222.56
286.057	227.56
286.288	229.56
286.52	227.56
286.751	218.56
286.982	242.56
287.213	218.56
287.444	238.56
287.675	229.56
287.906	228.56
288.138	233.56
288.369	238.56
288.6	252.56
288.831	236.56
289.062	236.56
289.293	234.56
289.524	214.56
289.755	233.56
289.986	227.56
290.217	238.56
290.448	219.56
290.679	233.56
290.91	234.56
291.141	236.56
291.371	240.56
291.602	214.56
291.833	235.56
292.064	214.56
292.295	232.56
292.526	225.56
292.757	227.56
292.987	234.56
293.218	225.56
293.449	228.56
293.68	243.56
293.91	241.56
294.141	233.56
294.372	216.56
294.603	225.56
294.833	225.56
295.064	247.56
295.295	228.56
295.525	232.56
295.756	241.56
295.987	252.56
296.217	258.56
296.448	254.56
296.679	256.56
296.909	228.56
297.14	239.56
297.37	236.56
297.601	258.56
297.831	238.56
298.062	233.56
298.292	245.56
298.523	246.56
298.753	238.56
298.984	232.56
299.214	243.56
299.445	238.56
299.675	253.56
299.905	242.56
300.136	247.56
300.366	240.56
300.597	260.56
300.827	246.56
301.057	254.56
301.288	242.56
301.518	267.56
301.748	246.56
301.979	257.56
302.209	252.56
302.439	258.56
302.669	256.56
302.9	231.56
303.13	258.56
303.36	266.56
303.59	268.56
303.82	276.56
304.051	265.56
304.281	270.56
304.511	253.56
304.741	249.56
304.971	256.56
305.201	277.56
305.431	272.56
305.661	256.56
305.891	249.56
306.121	237.56
306.352	255.56
306.582	268.56
306.812	272.56
307.042	263.56
307.272	278.56
307.502	287.56
307.731	252.56
307.961	267.56
308.191	240.56
308.421	260.56
308.651	289.56
308.881	258.56
309.111	265.56
309.341	295.56
309.571	278.56
309.8	288.56
310.03	292.56
310.26	301.56
310.49	289.56
310.72	297.56
310.949	318.56
311.179	315.56
311.409	289.56
311.639	296.56
311.868	294.56
312.098	295.56
312.328	314.56
312.557	300.56
312.787	315.56
313.017	319.56
313.246	294.56
313.476	321.56
313.706	287.56
313.935	306.56
314.165	314.56
314.394	310.56
314.624	321.56
314.853	294.56
315.083	314.56
315.312	288.56
315.542	284.56
315.771	273.56
316.001	287.56
316.23	293.56
316.46	289.56
316.689	312.56
316.919	311.56
317.148	316.56
317.377	311.56
317.607	314.56
317.836	317.56
318.065	304.56
318.295	291.56
318.524	302.56
318.753	282.56
318.983	291.56
319.212	311.56
319.441	310.56
319.67	315.56
319.9	272.56
320.129	302.56
320.358	289.56
320.587	300.56
320.816	300.56
321.046	303.56
321.275	315.56
321.504	311.56
321.733	322.56
321.962	306.56
322.191	333.56
322.42	335.56
322.649	346.56
322.878	359.56
323.108	372.56
323.337	370.56
323.566	383.56
323.795	400.56
324.024	454.56
324.253	530.56
324.482	743.56
324.71	1151.56
324.939	1695.56
325.168	1487.56
325.397	779.56
325.626	547.56
325.855	430.56
326.084	396.56
326.313	389.56
326.542	401.56
326.77	442.56
326.999	512.56
327.228	708.56
327.457	1033.56
327.686	1275.56
327.914	874.56
328.143	571.56
328.372	488.56
328.6	479.56
328.829	445.56
329.058	462.56
329.287	466.56
329.515	423.56
329.744	403.56
329.972	379.56
330.201	399.56
330.43	423.56
330.658	455.56
330.887	464.56
331.115	484.56
331.344	393.56
331.572	394.56
331.801	383.56
332.03	379.56
332.258	369.56
332.486	371.56
332.715	337.56
332.943	378.56
333.172	378.56
333.4	363.56
333.629	355.56
333.857	368.56
334.085	362.56
334.314	375.56
334.542	368.56
334.771	397.56
334.999	373.56
335.227	359.56
335.455	356.56
335.684	350.56
335.912	352.56
336.14	361.56
336.369	330.56
336.597	360.56
336.825	358.56
337.053	342.56
337.281	329.56
337.51	350.56
337.738	342.56
337.966	330.56
338.194	355.56
338.422	355.56
338.65	319.56
338.878	352.56
339.106	336.56
339.334	329.56
339.562	337.56
339.79	324.56
340.018	328.56
340.246	335.56
340.474	348.56
340.702	324.56
340.93	329.56
341.158	339.56
341.386	339.56
341.614	332.56
341.842	336.56
342.07	315.56
342.298	342.56
342.526	336.56
342.754	316.56
342.981	322.56
343.209	329.56
343.437	318.56
343.665	336.56
343.893	342.56
344.12	331.56
344.348	325.56
344.576	331.56
344.804	339.56
345.031	357.56
345.259	356.56
345.487	368.56
345.714	347.56
345.942	330.56
346.17	308.56
346.397	314.56
346.625	340.56
346.853	312.56
347.08	320.56
347.308	322.56
347.535	352.56
347.763	343.56
347.99	324.56
348.218	350.56
348.445	351.56
348.673	349.56
348.9	334.56
349.128	330.56
349.355	315.56
349.583	314.56
349.81	323.56
350.037	332.56
350.265	316.56
350.492	322.56
350.72	303.56
350.947	297.56
351.174	327.56
351.402	339.56
351.629	330.56
351.856	315.56
352.083	330.56
352.311	345.56
352.538	323.56
352.765	319.56
352.992	331.56
353.22	332.56
353.447	328.56
353.674	310.56
353.901	310.56
354.128	329.56
354.355	300.56
354.583	328.56
354.81	323.56
355.037	295.56
355.264	306.56
355.491	310.56
355.718	312.56
355.945	310.56
356.172	322.56
356.399	297.56
356.626	307.56
356.853	294.56
357.08	295.56
357.307	304.56
357.534	320.56
357.761	311.56
357.988	316.56
358.215	318.56
358.441	314.56
358.668	311.56
358.895	322.56
359.122	312.56
359.349	333.56
359.576	337.56
359.802	342.56
360.029	360.56
360.256	380.56
360.483	353.56
360.709	343.56
360.936	323.56
361.163	343.56
361.39	325.56
361.616	332.56
361.843	326.56
362.07	328.56
362.296	325.56
362.523	328.56
362.749	345.56
362.976	330.56
363.203	332.56
363.429	324.56
363.656	312.56
363.882	307.56
364.109	326.56
364.335	294.56
364.562	322.56
364.788	315.56
365.015	321.56
365.241	309.56
365.468	329.56
365.694	327.56
365.92	328.56
366.147	324.56
366.373	312.56
366.599	307.56
366.826	337.56
367.052	317.56
367.278	302.56
367.505	316.56
367.731	327.56
367.957	318.56
368.184	319.56
368.41	331.56
368.636	341.56
368.862	323.56
369.089	337.56
369.315	320.56
369.541	320.56
369.767	326.56
369.993	324.56
370.219	330.56
370.445	305.56
370.672	323.56
370.898	327.56
371.124	324.56
371.35	314.56
371.576	305.56
371.802	327.56
372.028	325.56
372.254	308.56
372.48	298.56
372.706	312.56
372.932	329.56
373.158	334.56
373.384	310.56
373.61	311.56
373.835	321.56
374.061	312.56
374.287	326.56
374.513	331.56
374.739	328.56
374.965	319.56
375.191	302.56
375.416	312.56
375.642	314.56
375.868	314.56
376.094	312.56
376.319	307.56
376.545	305.56
376.771	319.56
376.997	312.56
377.222	303.56
377.448	312.56
377.674	316.56
377.899	314.56
378.125	321.56
378.35	308.56
378.576	322.56
378.802	327.56
379.027	309.56
379.253	308.56
379.478	309.56
379.704	316.56
379.929	323.56
380.155	306.56
380.38	324.56
380.606	307.56
380.831	319.56
381.057	313.56
381.282	325.56
381.507	332.56
381.733	324.56
381.958	324.56
382.184	324.56
382.409	327.56
382.634	316.56
382.86	313.56
383.085	339.56
383.31	344.56
383.535	363.56
383.761	324.56
383.986	327.56
384.211	318.56
384.436	310.56
384.662	360.56
384.887	345.56
385.112	330.56
385.337	337.56
385.562	319.56
385.787	331.56
386.013	335.56
386.238	367.56
386.463	358.56
386.688	340.56
386.913	334.56
387.138	347.56
387.363	325.56
387.588	338.56
387.813	352.56
388.038	344.56
388.263	343.56
388.488	340.56
388.713	343.56
388.938	344.56
389.163	338.56
389.387	343.56
389.612	346.56
389.837	352.56
390.062	344.56
390.287	338.56
390.512	348.56
390.736	332.56
390.961	331.56
391.186	334.56
391.411	340.56
391.636	335.56
391.86	352.56
392.085	348.56
392.31	334.56
392.534	324.56
392.759	353.56
392.984	354.56
393.208	360.56
393.433	364.56
393.658	359.56
393.882	356.56
394.107	341.56
394.331	335.56
394.556	356.56
394.78	349.56
395.005	326.56
395.229	344.56
395.454	352.56
395.678	355.56
395.903	363.56
396.127	386.56
396.352	380.56
396.576	368.56
396.801	352.56
397.025	355.56
397.249	363.56
397.474	372.56
397.698	358.56
397.922	368.56
398.147	373.56
398.371	370.56
398.595	391.56
398.82	373.56
399.044	402.56
399.268	403.56
399.492	419.56
399.717	433.56
399.941	452.56
400.165	456.56
400.389	470.56
400.613	445.56
400.837	409.56
401.062	396.56
401.286	376.56
401.51	381.56
401.734	378.56
401.958	390.56
402.182	392.56
402.406	388.56
402.63	380.56
402.854	388.56
403.078	408.56
403.302	394.56
403.526	378.56
403.75	397.56
403.974	411.56
404.198	386.56
404.422	386.56
404.645	404.56
404.869	406.56
405.093	410.56
405.317	466.56
405.541	482.56
405.765	415.56
405.988	423.56
406.212	425.56
406.436	450.56
406.66	474.56
406.883	438.56
407.107	441.56
407.331	472.56
407.555	514.56
407.778	523.56
408.002	478.56
408.226	444.56
408.449	443.56
408.673	436.56
408.896	458.56
409.12	503.56
409.344	462.56
409.567	407.56
409.791	395.56
410.014	384.56
410.238	396.56
410.461	411.56
410.685	427.56
410.908	422.56
411.132	434.56
411.355	484.56
411.578	450.56
411.802	411.56
412.025	406.56
412.249	397.56
412.472	423.56
412.695	425.56
412.919	424.56
413.142	417.56
413.365	378.56
413.589	384.56
413.812	379.56
414.035	385.56
414.258	378.56
414.482	382.56
414.705	385.56
414.928	370.56
415.151	377.56
415.374	376.56
415.597	376.56
415.821	354.56
416.044	386.56
416.267	390.56
416.49	380.56
416.713	370.56
416.936	370.56
417.159	373.56
417.382	368.56
417.605	398.56
417.828	395.56
418.051	400.56
418.274	378.56
418.497	400.56
418.72	397.56
418.943	395.56
419.166	400.56
419.389	415.56
419.611	404.56
419.834	388.56
420.057	396.56
420.28	388.56
420.503	387.56
420.726	391.56
420.948	420.56
421.171	439.56
421.394	471.56
421.617	425.56
421.839	399.56
422.062	400.56
422.285	416.56
422.507	467.56
422.73	515.56
422.953	507.56
423.175	434.56
423.398	438.56
423.621	423.56
423.843	422.56
424.066	428.56
424.288	427.56
424.511	472.56
424.733	474.56
424.956	542.56
425.178	560.56
425.401	551.56
425.623	548.56
425.846	468.56
426.068	465.56
426.291	438.56
426.513	430.56
426.735	432.56
426.958	475.56
427.18	558.56
427.402	679.56
427.625	710.56
427.847	626.56
428.069	552.56
428.292	486.56
428.514	441.56
428.736	422.56
428.958	428.56
429.181	413.56
429.403	426.56
429.625	432.56
429.847	450.56
430.069	506.56
430.292	508.56
430.514	426.56
430.736	399.56
430.958	399.56
431.18	384.56
431.402	404.56
431.624	380.56
431.846	369.56
432.068	380.56
432.29	372.56
432.512	390.56
432.734	391.56
432.956	387.56
433.178	409.56
433.4	424.56
433.622	388.56
433.844	394.56
434.066	383.56
434.287	386.56
434.509	394.56
434.731	386.56
434.953	394.56
435.175	404.56
435.397	432.56
435.618	446.56
435.84	485.56
436.062	555.56
436.284	607.56
436.505	534.56
436.727	462.56
436.949	425.56
437.17	422.56
437.392	399.56
437.614	426.56
437.835	449.56
438.057	532.56
438.278	613.56
438.5	623.56
438.721	678.56
438.943	636.56
439.165	529.56
439.386	508.56
439.608	464.56
439.829	449.56
440.05	457.56
440.272	513.56
440.493	484.56
440.715	463.56
440.936	439.56
441.158	434.56
441.379	419.56
441.6	425.56
441.822	442.56
442.043	465.56
442.264	563.56
442.486	574.56
442.707	487.56
442.928	457.56
443.149	455.56
443.371	467.56
443.592	500.56
443.813	572.56
444.034	614.56
444.255	518.56
444.476	456.56
444.698	448.56
444.919	431.56
445.14	505.56
445.361	508.56
445.582	476.56
445.803	513.56
446.024	608.56
446.245	624.56
446.466	571.56
446.687	481.56
446.908	445.56
447.129	456.56
447.35	395.56
447.571	420.56
447.792	412.56
448.013	422.56
448.234	415.56
448.455	465.56
448.675	562.56
448.896	670.56
449.117	568.56
449.338	546.56
449.559	602.56
449.779	695.56
450	529.56
450.221	468.56
450.442	415.56
450.662	386.56
450.883	412.56
451.104	408.56
451.324	403.56
451.545	402.56
451.766	384.56
451.986	378.56
452.207	378.56
452.428	356.56
452.648	355.56
452.869	360.56
453.089	374.56
453.31	374.56
453.53	360.56
453.751	379.56
453.971	368.56
454.192	363.56
454.412	378.56
454.633	364.56
454.853	347.56
455.073	380.56
455.294	394.56
455.514	434.56
455.734	430.56
455.955	361.56
456.175	342.56
456.395	345.56
456.616	356.56
456.836	349.56
457.056	345.56
457.276	335.56
457.497	331.56
457.717	332.56
457.937	358.56
458.157	347.56
458.377	363.56
458.598	382.56
458.818	414.56
459.038	479.56
459.258	519.56
459.478	427.56
459.698	403.56
459.918	372.56
460.138	380.56
460.358	356.56
460.578	375.56
460.798	380.56
461.018	395.56
461.238	393.56
461.458	384.56
461.678	385.56
461.898	391.56
462.118	394.56
462.338	388.56
462.558	396.56
462.777	394.56
462.997	408.56
463.217	410.56
463.437	391.56
463.657	398.56
463.876	385.56
464.096	387.56
464.316	374.56
464.536	417.56
464.755	395.56
464.975	410.56
465.195	456.56
465.414	496.56
465.634	441.56
465.854	410.56
466.073	393.56
466.293	375.56
466.512	379.56
466.732	379.56
466.951	360.56
467.171	368.56
467.391	370.56
467.61	401.56
467.829	396.56
468.049	375.56
468.268	389.56
468.488	374.56
468.707	374.56
468.927	372.56
469.146	374.56
469.365	368.56
469.585	357.56
469.804	378.56
470.023	370.56
470.243	398.56
470.462	378.56
470.681	375.56
470.901	386.56
471.12	378.56
471.339	383.56
471.558	342.56
471.777	358.56
471.997	387.56
472.216	394.56
472.435	391.56
472.654	385.56
472.873	379.56
473.092	383.56
473.311	378.56
473.53	388.56
473.749	384.56
473.968	431.56
474.187	512.56
474.406	521.56
474.625	430.56
474.844	396.56
475.063	401.56
475.282	378.56
475.501	389.56
475.72	397.56
475.939	387.56
476.158	393.56
476.377	393.56
476.596	394.56
476.814	415.56
477.033	412.56
477.252	409.56
477.471	404.56
477.69	402.56
477.908	402.56
478.127	406.56
478.346	440.56
478.564	430.56
478.783	432.56
479.002	422.56
479.22	420.56
479.439	447.56
479.658	450.56
479.876	452.56
480.095	464.56
480.313	494.56
480.532	466.56
480.751	471.56
480.969	467.56
481.188	480.56
481.406	510.56
481.624	470.56
481.843	452.56
482.061	448.56
482.28	412.56
482.498	434.56
482.717	447.56
482.935	442.56
483.153	435.56
483.372	456.56
483.59	445.56
483.808	435.56
484.027	439.56
484.245	442.56
484.463	457.56
484.681	461.56
484.9	459.56
485.118	470.56
485.336	466.56
485.554	456.56
485.772	455.56
485.99	466.56
486.209	452.56
486.427	466.56
486.645	468.56
486.863	496.56
487.081	487.56
487.299	478.56
487.517	462.56
487.735	448.56
487.953	480.56
488.171	458.56
488.389	498.56
488.607	498.56
488.825	467.56
489.043	480.56
489.261	491.56
489.479	484.56
489.696	498.56
489.914	478.56
490.132	514.56
490.35	495.56
490.568	508.56
490.786	533.56
491.003	516.56
491.221	552.56
491.439	562.56
491.657	552.56
491.874	557.56
492.092	568.56
492.31	548.56
492.527	554.56
492.745	541.56
492.963	554.56
493.18	539.56
493.398	544.56
493.615	589.56
493.833	562.56
494.05	587.56
494.268	568.56
494.485	553.56
494.703	572.56
494.92	579.56
495.138	570.56
495.355	585.56
495.573	581.56
495.79	571.56
496.008	583.56
496.225	575.56
496.442	591.56
496.66	582.56
496.877	569.56
497.094	580.56
497.312	560.56
497.529	573.56
497.746	572.56
497.963	600.56
498.181	611.56
498.398	592.56
498.615	616.56
498.832	638.56
499.049	646.56
499.267	668.56
499.484	666.56
499.701	683.56
499.918	682.56
500.135	705.56
500.352	720.56
500.569	722.56
500.786	740.56
501.003	742.56
501.22	710.56
501.437	688.56
501.654	682.56
501.871	682.56
502.088	700.56
