Data from 1980.PennyLincolnUp.Lamp.En5.5.200Scan.071819.P1_HRD10591_16-38-51-957.txt Node
Date: Thu Jul 18 16:38:51 EDT 2019
User: cochatt
Spectrometer: HR+D1059
Trigger mode: 1
Integration Time (sec): 1.000000E-1
Scans to average: 1
Electric dark correction enabled: true
Nonlinearity correction enabled: false
Boxcar width: 0
XAxis mode: Wavelengths
Number of Pixels in Spectrum: 2048
>>>>>Begin Spectral Data<<<<<
223.165	-12.81
223.4	-12.81
223.635	-12.81
223.869	-22.81
224.104	-2.81
224.338	7.19
224.573	-18.81
224.808	-13.81
225.042	-11.81
225.277	-13.81
225.511	-8.81
225.746	-0.81
225.98	-5.81
226.215	11.19
226.449	18.19
226.683	23.19
226.918	29.19
227.152	23.19
227.387	44.19
227.621	47.19
227.856	27.19
228.09	43.19
228.324	48.19
228.559	55.19
228.793	57.19
229.027	100.19
229.262	111.19
229.496	125.19
229.73	135.19
229.964	165.19
230.199	157.19
230.433	121.19
230.667	122.19
230.901	123.19
231.136	114.19
231.37	131.19
231.604	120.19
231.838	125.19
232.072	116.19
232.306	115.19
232.541	111.19
232.775	114.19
233.009	109.19
233.243	125.19
233.477	105.19
233.711	102.19
233.945	116.19
234.179	115.19
234.413	125.19
234.647	129.19
234.881	115.19
235.115	114.19
235.349	121.19
235.583	125.19
235.817	122.19
236.051	138.19
236.285	137.19
236.519	125.19
236.753	136.19
236.987	154.19
237.221	200.19
237.455	270.19
237.689	211.19
237.922	148.19
238.156	125.19
238.39	133.19
238.624	125.19
238.858	135.19
239.091	119.19
239.325	118.19
239.559	137.19
239.793	132.19
240.027	146.19
240.26	144.19
240.494	163.19
240.728	166.19
240.961	161.19
241.195	149.19
241.429	140.19
241.662	124.19
241.896	130.19
242.13	142.19
242.363	138.19
242.597	136.19
242.83	137.19
243.064	122.19
243.298	137.19
243.531	133.19
243.765	139.19
243.998	152.19
244.232	153.19
244.465	138.19
244.699	147.19
244.932	151.19
245.166	164.19
245.399	143.19
245.633	152.19
245.866	162.19
246.099	145.19
246.333	149.19
246.566	165.19
246.8	166.19
247.033	161.19
247.266	167.19
247.5	163.19
247.733	171.19
247.966	183.19
248.2	171.19
248.433	163.19
248.666	185.19
248.899	174.19
249.133	207.19
249.366	211.19
249.599	214.19
249.832	198.19
250.066	182.19
250.299	187.19
250.532	188.19
250.765	214.19
250.998	229.19
251.231	234.19
251.465	235.19
251.698	200.19
251.931	224.19
252.164	205.19
252.397	217.19
252.63	207.19
252.863	229.19
253.096	230.19
253.329	239.19
253.562	243.19
253.795	234.19
254.028	228.19
254.261	213.19
254.494	244.19
254.727	271.19
254.96	297.19
255.193	287.19
255.426	272.19
255.659	257.19
255.892	234.19
256.124	259.19
256.357	261.19
256.59	241.19
256.823	208.19
257.056	209.19
257.289	211.19
257.521	225.19
257.754	211.19
257.987	218.19
258.22	215.19
258.452	208.19
258.685	220.19
258.918	219.19
259.151	223.19
259.383	225.19
259.616	215.19
259.849	220.19
260.081	254.19
260.314	283.19
260.547	271.19
260.779	258.19
261.012	255.19
261.244	264.19
261.477	221.19
261.71	222.19
261.942	243.19
262.175	255.19
262.407	247.19
262.64	224.19
262.872	228.19
263.105	214.19
263.337	201.19
263.57	227.19
263.802	232.19
264.035	202.19
264.267	214.19
264.499	208.19
264.732	209.19
264.964	208.19
265.197	194.19
265.429	220.19
265.661	210.19
265.894	223.19
266.126	225.19
266.358	207.19
266.591	208.19
266.823	232.19
267.055	229.19
267.287	219.19
267.52	225.19
267.752	228.19
267.984	222.19
268.216	228.19
268.448	236.19
268.681	229.19
268.913	243.19
269.145	273.19
269.377	290.19
269.609	262.19
269.841	267.19
270.073	286.19
270.306	285.19
270.538	325.19
270.77	323.19
271.002	312.19
271.234	281.19
271.466	332.19
271.698	316.19
271.93	336.19
272.162	338.19
272.394	337.19
272.626	315.19
272.858	301.19
273.09	299.19
273.322	282.19
273.553	277.19
273.785	255.19
274.017	277.19
274.249	269.19
274.481	268.19
274.713	264.19
274.945	270.19
275.176	279.19
275.408	272.19
275.64	274.19
275.872	265.19
276.104	246.19
276.335	273.19
276.567	275.19
276.799	275.19
277.031	315.19
277.262	338.19
277.494	321.19
277.726	315.19
277.957	307.19
278.189	284.19
278.421	268.19
278.652	276.19
278.884	253.19
279.115	269.19
279.347	268.19
279.579	249.19
279.81	262.19
280.042	262.19
280.273	265.19
280.505	261.19
280.736	255.19
280.968	253.19
281.199	255.19
281.431	257.19
281.662	262.19
281.894	258.19
282.125	263.19
282.356	279.19
282.588	304.19
282.819	328.19
283.051	274.19
283.282	277.19
283.513	272.19
283.745	255.19
283.976	272.19
284.207	269.19
284.439	261.19
284.67	261.19
284.901	282.19
285.132	256.19
285.364	251.19
285.595	262.19
285.826	257.19
286.057	264.19
286.288	254.19
286.52	243.19
286.751	257.19
286.982	272.19
287.213	287.19
287.444	256.19
287.675	264.19
287.906	283.19
288.138	270.19
288.369	297.19
288.6	288.19
288.831	285.19
289.062	296.19
289.293	274.19
289.524	279.19
289.755	265.19
289.986	264.19
290.217	269.19
290.448	270.19
290.679	268.19
290.91	279.19
291.141	265.19
291.371	267.19
291.602	266.19
291.833	279.19
292.064	274.19
292.295	270.19
292.526	296.19
292.757	277.19
292.987	264.19
293.218	271.19
293.449	285.19
293.68	263.19
293.91	277.19
294.141	291.19
294.372	268.19
294.603	278.19
294.833	278.19
295.064	258.19
295.295	279.19
295.525	257.19
295.756	285.19
295.987	283.19
296.217	301.19
296.448	330.19
296.679	303.19
296.909	286.19
297.14	271.19
297.37	269.19
297.601	266.19
297.831	286.19
298.062	267.19
298.292	261.19
298.523	282.19
298.753	281.19
298.984	283.19
299.214	303.19
299.445	281.19
299.675	289.19
299.905	296.19
300.136	295.19
300.366	299.19
300.597	288.19
300.827	295.19
301.057	306.19
301.288	308.19
301.518	309.19
301.748	272.19
301.979	289.19
302.209	309.19
302.439	311.19
302.669	313.19
302.9	295.19
303.13	278.19
303.36	310.19
303.59	335.19
303.82	310.19
304.051	296.19
304.281	294.19
304.511	315.19
304.741	320.19
304.971	287.19
305.201	299.19
305.431	291.19
305.661	308.19
305.891	293.19
306.121	303.19
306.352	311.19
306.582	333.19
306.812	315.19
307.042	305.19
307.272	308.19
307.502	309.19
307.731	313.19
307.961	315.19
308.191	324.19
308.421	308.19
308.651	303.19
308.881	325.19
309.111	323.19
309.341	337.19
309.571	331.19
309.8	353.19
310.03	355.19
310.26	368.19
310.49	375.19
310.72	390.19
310.949	396.19
311.179	406.19
311.409	369.19
311.639	380.19
311.868	364.19
312.098	380.19
312.328	399.19
312.557	401.19
312.787	425.19
313.017	416.19
313.246	400.19
313.476	363.19
313.706	345.19
313.935	359.19
314.165	375.19
314.394	395.19
314.624	386.19
314.853	376.19
315.083	369.19
315.312	373.19
315.542	343.19
315.771	345.19
316.001	358.19
316.23	359.19
316.46	368.19
316.689	355.19
316.919	347.19
317.148	375.19
317.377	376.19
317.607	395.19
317.836	352.19
318.065	347.19
318.295	371.19
318.524	364.19
318.753	369.19
318.983	361.19
319.212	369.19
319.441	375.19
319.67	378.19
319.9	373.19
320.129	347.19
320.358	362.19
320.587	376.19
320.816	358.19
321.046	383.19
321.275	376.19
321.504	393.19
321.733	396.19
321.962	393.19
322.191	434.19
322.42	443.19
322.649	431.19
322.878	473.19
323.108	466.19
323.337	526.19
323.566	549.19
323.795	565.19
324.024	635.19
324.253	787.19
324.482	1132.19
324.71	1743.19
324.939	2581.19
325.168	2290.19
325.397	1188.19
325.626	767.19
325.855	636.19
326.084	566.19
326.313	544.19
326.542	569.19
326.77	589.19
326.999	730.19
327.228	1026.19
327.457	1553.19
327.686	1949.19
327.914	1312.19
328.143	842.19
328.372	726.19
328.6	671.19
328.829	650.19
329.058	655.19
329.287	664.19
329.515	597.19
329.744	535.19
329.972	571.19
330.201	564.19
330.43	641.19
330.658	655.19
330.887	711.19
331.115	663.19
331.344	536.19
331.572	518.19
331.801	516.19
332.03	501.19
332.258	470.19
332.486	435.19
332.715	441.19
332.943	448.19
333.172	443.19
333.4	441.19
333.629	453.19
333.857	440.19
334.085	471.19
334.314	496.19
334.542	506.19
334.771	549.19
334.999	497.19
335.227	461.19
335.455	437.19
335.684	422.19
335.912	411.19
336.14	404.19
336.369	411.19
336.597	438.19
336.825	438.19
337.053	407.19
337.281	393.19
337.51	397.19
337.738	422.19
337.966	414.19
338.194	419.19
338.422	423.19
338.65	412.19
338.878	394.19
339.106	406.19
339.334	421.19
339.562	387.19
339.79	397.19
340.018	414.19
340.246	421.19
340.474	410.19
340.702	373.19
340.93	409.19
341.158	417.19
341.386	411.19
341.614	411.19
341.842	428.19
342.07	396.19
342.298	391.19
342.526	387.19
342.754	395.19
342.981	374.19
343.209	389.19
343.437	376.19
343.665	383.19
343.893	391.19
344.12	408.19
344.348	391.19
344.576	399.19
344.804	394.19
345.031	415.19
345.259	438.19
345.487	410.19
345.714	419.19
345.942	418.19
346.17	399.19
346.397	398.19
346.625	390.19
346.853	391.19
347.08	384.19
347.308	418.19
347.535	435.19
347.763	425.19
347.99	415.19
348.218	403.19
348.445	419.19
348.673	418.19
348.9	402.19
349.128	371.19
349.355	367.19
349.583	379.19
349.81	376.19
350.037	374.19
350.265	372.19
350.492	393.19
350.72	384.19
350.947	415.19
351.174	417.19
351.402	421.19
351.629	417.19
351.856	403.19
352.083	414.19
352.311	425.19
352.538	421.19
352.765	436.19
352.992	403.19
353.22	431.19
353.447	409.19
353.674	390.19
353.901	374.19
354.128	359.19
354.355	373.19
354.583	370.19
354.81	374.19
355.037	345.19
355.264	371.19
355.491	372.19
355.718	359.19
355.945	369.19
356.172	379.19
356.399	354.19
356.626	327.19
356.853	331.19
357.08	361.19
357.307	347.19
357.534	370.19
357.761	353.19
357.988	367.19
358.215	362.19
358.441	352.19
358.668	366.19
358.895	367.19
359.122	345.19
359.349	383.19
359.576	415.19
359.802	433.19
360.029	461.19
360.256	495.19
360.483	432.19
360.709	390.19
360.936	394.19
361.163	381.19
361.39	391.19
361.616	403.19
361.843	407.19
362.07	397.19
362.296	394.19
362.523	384.19
362.749	387.19
362.976	361.19
363.203	387.19
363.429	371.19
363.656	385.19
363.882	389.19
364.109	390.19
364.335	364.19
364.562	365.19
364.788	379.19
365.015	377.19
365.241	363.19
365.468	391.19
365.694	397.19
365.92	383.19
366.147	377.19
366.373	358.19
366.599	367.19
366.826	375.19
367.052	361.19
367.278	371.19
367.505	375.19
367.731	360.19
367.957	353.19
368.184	377.19
368.41	375.19
368.636	385.19
368.862	384.19
369.089	393.19
369.315	369.19
369.541	357.19
369.767	354.19
369.993	385.19
370.219	375.19
370.445	368.19
370.672	368.19
370.898	380.19
371.124	345.19
371.35	356.19
371.576	352.19
371.802	363.19
372.028	343.19
372.254	352.19
372.48	349.19
372.706	357.19
372.932	346.19
373.158	339.19
373.384	367.19
373.61	348.19
373.835	346.19
374.061	362.19
374.287	366.19
374.513	376.19
374.739	390.19
374.965	372.19
375.191	360.19
375.416	371.19
375.642	351.19
375.868	359.19
376.094	351.19
376.319	338.19
376.545	361.19
376.771	350.19
376.997	353.19
377.222	355.19
377.448	358.19
377.674	331.19
377.899	324.19
378.125	343.19
378.35	348.19
378.576	352.19
378.802	352.19
379.027	348.19
379.253	341.19
379.478	353.19
379.704	352.19
379.929	344.19
380.155	347.19
380.38	348.19
380.606	344.19
380.831	356.19
381.057	357.19
381.282	359.19
381.507	348.19
381.733	373.19
381.958	342.19
382.184	361.19
382.409	369.19
382.634	360.19
382.86	367.19
383.085	375.19
383.31	370.19
383.535	355.19
383.761	367.19
383.986	361.19
384.211	361.19
384.436	361.19
384.662	368.19
384.887	363.19
385.112	363.19
385.337	365.19
385.562	357.19
385.787	374.19
386.013	412.19
386.238	384.19
386.463	390.19
386.688	383.19
386.913	397.19
387.138	382.19
387.363	369.19
387.588	371.19
387.813	375.19
388.038	389.19
388.263	398.19
388.488	384.19
388.713	372.19
388.938	365.19
389.163	383.19
389.387	385.19
389.612	369.19
389.837	363.19
390.062	375.19
390.287	373.19
390.512	362.19
390.736	372.19
390.961	389.19
391.186	386.19
391.411	368.19
391.636	388.19
391.86	360.19
392.085	380.19
392.31	362.19
392.534	383.19
392.759	389.19
392.984	388.19
393.208	372.19
393.433	390.19
393.658	370.19
393.882	374.19
394.107	371.19
394.331	363.19
394.556	373.19
394.78	377.19
395.005	382.19
395.229	387.19
395.454	379.19
395.678	374.19
395.903	394.19
396.127	428.19
396.352	416.19
396.576	385.19
396.801	384.19
397.025	393.19
397.249	402.19
397.474	393.19
397.698	385.19
397.922	404.19
398.147	407.19
398.371	421.19
398.595	403.19
398.82	400.19
399.044	416.19
399.268	418.19
399.492	456.19
399.717	454.19
399.941	466.19
400.165	507.19
400.389	546.19
400.613	495.19
400.837	445.19
401.062	447.19
401.286	441.19
401.51	428.19
401.734	427.19
401.958	414.19
402.182	425.19
402.406	449.19
402.63	455.19
402.854	454.19
403.078	449.19
403.302	442.19
403.526	452.19
403.75	465.19
403.974	440.19
404.198	417.19
404.422	458.19
404.645	455.19
404.869	450.19
405.093	481.19
405.317	540.19
405.541	581.19
405.765	500.19
405.988	467.19
406.212	505.19
406.436	529.19
406.66	513.19
406.883	515.19
407.107	509.19
407.331	548.19
407.555	612.19
407.778	625.19
408.002	535.19
408.226	519.19
408.449	495.19
408.673	456.19
408.896	520.19
409.12	571.19
409.344	545.19
409.567	506.19
409.791	470.19
410.014	462.19
410.238	453.19
410.461	424.19
410.685	437.19
410.908	475.19
411.132	488.19
411.355	510.19
411.578	520.19
411.802	474.19
412.025	420.19
412.249	476.19
412.472	491.19
412.695	501.19
412.919	530.19
413.142	480.19
413.365	458.19
413.589	451.19
413.812	431.19
414.035	444.19
414.258	422.19
414.482	407.19
414.705	416.19
414.928	415.19
415.151	426.19
415.374	422.19
415.597	420.19
415.821	410.19
416.044	419.19
416.267	423.19
416.49	423.19
416.713	428.19
416.936	416.19
417.159	424.19
417.382	438.19
417.605	429.19
417.828	447.19
418.051	433.19
418.274	448.19
418.497	456.19
418.72	435.19
418.943	420.19
419.166	455.19
419.389	445.19
419.611	471.19
419.834	460.19
420.057	479.19
420.28	443.19
420.503	476.19
420.726	475.19
420.948	469.19
421.171	529.19
421.394	534.19
421.617	493.19
421.839	457.19
422.062	474.19
422.285	459.19
422.507	530.19
422.73	604.19
422.953	601.19
423.175	523.19
423.398	499.19
423.621	473.19
423.843	529.19
424.066	508.19
424.288	482.19
424.511	532.19
424.733	585.19
424.956	676.19
425.178	637.19
425.401	635.19
425.623	661.19
425.846	567.19
426.068	511.19
426.291	508.19
426.513	511.19
426.735	531.19
426.958	543.19
427.18	667.19
427.402	775.19
427.625	836.19
427.847	761.19
428.069	679.19
428.292	589.19
428.514	534.19
428.736	507.19
428.958	490.19
429.181	482.19
429.403	497.19
429.625	479.19
429.847	524.19
430.069	583.19
430.292	582.19
430.514	477.19
430.736	484.19
430.958	487.19
431.18	442.19
431.402	425.19
431.624	429.19
431.846	429.19
432.068	421.19
432.29	429.19
432.512	448.19
432.734	475.19
432.956	468.19
433.178	456.19
433.4	451.19
433.622	466.19
433.844	453.19
434.066	425.19
434.287	417.19
434.509	433.19
434.731	454.19
434.953	457.19
435.175	460.19
435.397	510.19
435.618	531.19
435.84	547.19
436.062	639.19
436.284	727.19
436.505	598.19
436.727	519.19
436.949	502.19
437.17	473.19
437.392	474.19
437.614	505.19
437.835	521.19
438.057	625.19
438.278	729.19
438.5	735.19
438.721	789.19
438.943	758.19
439.165	607.19
439.386	577.19
439.608	535.19
439.829	542.19
440.05	573.19
440.272	614.19
440.493	565.19
440.715	516.19
440.936	477.19
441.158	485.19
441.379	501.19
441.6	491.19
441.822	519.19
442.043	561.19
442.264	642.19
442.486	693.19
442.707	606.19
442.928	545.19
443.149	545.19
443.371	568.19
443.592	596.19
443.813	692.19
444.034	742.19
444.255	625.19
444.476	547.19
444.698	507.19
444.919	521.19
445.14	585.19
445.361	589.19
445.582	576.19
445.803	645.19
446.024	735.19
446.245	786.19
446.466	683.19
446.687	561.19
446.908	536.19
447.129	499.19
447.35	504.19
447.571	477.19
447.792	479.19
448.013	499.19
448.234	519.19
448.455	587.19
448.675	683.19
448.896	765.19
449.117	684.19
449.338	636.19
449.559	696.19
449.779	802.19
450	657.19
450.221	532.19
450.442	515.19
450.662	503.19
450.883	483.19
451.104	527.19
451.324	476.19
451.545	470.19
451.766	469.19
451.986	432.19
452.207	424.19
452.428	450.19
452.648	459.19
452.869	439.19
453.089	458.19
453.31	479.19
453.53	437.19
453.751	433.19
453.971	447.19
454.192	487.19
454.412	443.19
454.633	424.19
454.853	408.19
455.073	417.19
455.294	471.19
455.514	518.19
455.734	535.19
455.955	447.19
456.175	389.19
456.395	417.19
456.616	399.19
456.836	380.19
457.056	407.19
457.276	379.19
457.497	401.19
457.717	388.19
457.937	402.19
458.157	408.19
458.377	419.19
458.598	445.19
458.818	522.19
459.038	607.19
459.258	610.19
459.478	528.19
459.698	465.19
459.918	441.19
460.138	425.19
460.358	434.19
460.578	435.19
460.798	436.19
461.018	425.19
461.238	436.19
461.458	439.19
461.678	437.19
461.898	419.19
462.118	427.19
462.338	424.19
462.558	431.19
462.777	420.19
462.997	424.19
463.217	464.19
463.437	450.19
463.657	441.19
463.876	445.19
464.096	452.19
464.316	439.19
464.536	462.19
464.755	479.19
464.975	462.19
465.195	543.19
465.414	644.19
465.634	541.19
465.854	504.19
466.073	474.19
466.293	460.19
466.512	447.19
466.732	435.19
466.951	423.19
467.171	410.19
467.391	434.19
467.61	456.19
467.829	466.19
468.049	451.19
468.268	444.19
468.488	429.19
468.707	428.19
468.927	447.19
469.146	409.19
469.365	435.19
469.585	398.19
469.804	393.19
470.023	435.19
470.243	453.19
470.462	447.19
470.681	446.19
470.901	467.19
471.12	455.19
471.339	423.19
471.558	452.19
471.777	445.19
471.997	427.19
472.216	457.19
472.435	482.19
472.654	492.19
472.873	460.19
473.092	428.19
473.311	438.19
473.53	469.19
473.749	472.19
473.968	505.19
474.187	628.19
474.406	635.19
474.625	513.19
474.844	461.19
475.063	442.19
475.282	418.19
475.501	446.19
475.72	450.19
475.939	451.19
476.158	459.19
476.377	455.19
476.596	451.19
476.814	463.19
477.033	450.19
477.252	462.19
477.471	460.19
477.69	477.19
477.908	475.19
478.127	456.19
478.346	476.19
478.564	475.19
478.783	463.19
479.002	484.19
479.22	480.19
479.439	491.19
479.658	528.19
479.876	544.19
480.095	520.19
480.313	550.19
480.532	539.19
480.751	524.19
480.969	547.19
481.188	639.19
481.406	659.19
481.624	593.19
481.843	539.19
482.061	521.19
482.28	529.19
482.498	532.19
482.717	532.19
482.935	528.19
483.153	524.19
483.372	515.19
483.59	527.19
483.808	529.19
484.027	512.19
484.245	512.19
484.463	530.19
484.681	508.19
484.9	547.19
485.118	540.19
485.336	531.19
485.554	569.19
485.772	533.19
485.99	545.19
486.209	551.19
486.427	524.19
486.645	576.19
486.863	586.19
487.081	575.19
487.299	575.19
487.517	567.19
487.735	559.19
487.953	581.19
488.171	561.19
488.389	556.19
488.607	563.19
488.825	557.19
489.043	584.19
489.261	557.19
489.479	555.19
489.696	556.19
489.914	554.19
490.132	575.19
490.35	598.19
490.568	593.19
490.786	628.19
491.003	615.19
491.221	631.19
491.439	647.19
491.657	658.19
491.874	657.19
492.092	649.19
492.31	643.19
492.527	681.19
492.745	659.19
492.963	657.19
493.18	662.19
493.398	668.19
493.615	699.19
493.833	677.19
494.05	679.19
494.268	692.19
494.485	668.19
494.703	662.19
494.92	683.19
495.138	657.19
495.355	692.19
495.573	684.19
495.79	700.19
496.008	689.19
496.225	690.19
496.442	677.19
496.66	661.19
496.877	649.19
497.094	678.19
497.312	679.19
497.529	682.19
497.746	676.19
497.963	707.19
498.181	722.19
498.398	708.19
498.615	708.19
498.832	744.19
499.049	736.19
499.267	737.19
499.484	736.19
499.701	769.19
499.918	768.19
500.135	788.19
500.352	807.19
500.569	803.19
500.786	824.19
501.003	835.19
501.22	818.19
501.437	797.19
501.654	821.19
501.871	779.19
