Data from 1980.PennyLincolnUp.Lamp.En5.5.200Scan.071819.P1_HRD10591_16-39-06-957.txt Node
Date: Thu Jul 18 16:39:06 EDT 2019
User: cochatt
Spectrometer: HR+D1059
Trigger mode: 1
Integration Time (sec): 1.000000E-1
Scans to average: 1
Electric dark correction enabled: true
Nonlinearity correction enabled: false
Boxcar width: 0
XAxis mode: Wavelengths
Number of Pixels in Spectrum: 2048
>>>>>Begin Spectral Data<<<<<
223.165	-5.19
223.4	-5.19
223.635	-5.19
223.869	-16.19
224.104	-26.19
224.338	-19.19
224.573	-11.19
224.808	-4.19
225.042	-3.19
225.277	-3.19
225.511	-1.19
225.746	-12.19
225.98	-6.19
226.215	11.81
226.449	11.81
226.683	31.81
226.918	24.81
227.152	27.81
227.387	34.81
227.621	34.81
227.856	50.81
228.09	45.81
228.324	53.81
228.559	49.81
228.793	77.81
229.027	108.81
229.262	108.81
229.496	117.81
229.73	132.81
229.964	177.81
230.199	150.81
230.433	120.81
230.667	119.81
230.901	113.81
231.136	126.81
231.37	124.81
231.604	118.81
231.838	121.81
232.072	122.81
232.306	100.81
232.541	112.81
232.775	116.81
233.009	114.81
233.243	120.81
233.477	110.81
233.711	120.81
233.945	122.81
234.179	125.81
234.413	111.81
234.647	113.81
234.881	104.81
235.115	131.81
235.349	122.81
235.583	128.81
235.817	126.81
236.051	137.81
236.285	128.81
236.519	128.81
236.753	131.81
236.987	156.81
237.221	207.81
237.455	236.81
237.689	203.81
237.922	154.81
238.156	138.81
238.39	146.81
238.624	143.81
238.858	126.81
239.091	136.81
239.325	134.81
239.559	130.81
239.793	145.81
240.027	128.81
240.26	151.81
240.494	176.81
240.728	180.81
240.961	148.81
241.195	150.81
241.429	142.81
241.662	159.81
241.896	136.81
242.13	150.81
242.363	142.81
242.597	152.81
242.83	139.81
243.064	144.81
243.298	137.81
243.531	136.81
243.765	161.81
243.998	142.81
244.232	137.81
244.465	142.81
244.699	161.81
244.932	145.81
245.166	140.81
245.399	153.81
245.633	142.81
245.866	142.81
246.099	145.81
246.333	148.81
246.566	152.81
246.8	154.81
247.033	155.81
247.266	155.81
247.5	178.81
247.733	182.81
247.966	178.81
248.2	155.81
248.433	180.81
248.666	173.81
248.899	199.81
249.133	210.81
249.366	232.81
249.599	213.81
249.832	216.81
250.066	184.81
250.299	202.81
250.532	196.81
250.765	205.81
250.998	223.81
251.231	220.81
251.465	224.81
251.698	194.81
251.931	238.81
252.164	219.81
252.397	210.81
252.63	194.81
252.863	200.81
253.096	220.81
253.329	241.81
253.562	244.81
253.795	229.81
254.028	235.81
254.261	223.81
254.494	223.81
254.727	289.81
254.96	308.81
255.193	302.81
255.426	290.81
255.659	241.81
255.892	257.81
256.124	245.81
256.357	257.81
256.59	246.81
256.823	246.81
257.056	237.81
257.289	230.81
257.521	223.81
257.754	197.81
257.987	221.81
258.22	216.81
258.452	227.81
258.685	218.81
258.918	218.81
259.151	200.81
259.383	224.81
259.616	244.81
259.849	239.81
260.081	253.81
260.314	270.81
260.547	265.81
260.779	243.81
261.012	237.81
261.244	237.81
261.477	226.81
261.71	244.81
261.942	250.81
262.175	251.81
262.407	250.81
262.64	213.81
262.872	228.81
263.105	223.81
263.337	219.81
263.57	228.81
263.802	219.81
264.035	207.81
264.267	200.81
264.499	215.81
264.732	201.81
264.964	208.81
265.197	200.81
265.429	205.81
265.661	218.81
265.894	204.81
266.126	226.81
266.358	207.81
266.591	215.81
266.823	214.81
267.055	209.81
267.287	219.81
267.52	218.81
267.752	236.81
267.984	237.81
268.216	211.81
268.448	244.81
268.681	236.81
268.913	236.81
269.145	297.81
269.377	285.81
269.609	280.81
269.841	278.81
270.073	284.81
270.306	291.81
270.538	328.81
270.77	330.81
271.002	327.81
271.234	304.81
271.466	320.81
271.698	344.81
271.93	324.81
272.162	336.81
272.394	348.81
272.626	314.81
272.858	314.81
273.09	300.81
273.322	295.81
273.553	271.81
273.785	265.81
274.017	276.81
274.249	266.81
274.481	282.81
274.713	253.81
274.945	268.81
275.176	273.81
275.408	262.81
275.64	251.81
275.872	275.81
276.104	257.81
276.335	253.81
276.567	273.81
276.799	292.81
277.031	306.81
277.262	320.81
277.494	335.81
277.726	301.81
277.957	295.81
278.189	291.81
278.421	283.81
278.652	265.81
278.884	272.81
279.115	260.81
279.347	265.81
279.579	264.81
279.81	262.81
280.042	257.81
280.273	241.81
280.505	260.81
280.736	261.81
280.968	238.81
281.199	254.81
281.431	264.81
281.662	269.81
281.894	247.81
282.125	270.81
282.356	280.81
282.588	301.81
282.819	318.81
283.051	285.81
283.282	247.81
283.513	274.81
283.745	256.81
283.976	270.81
284.207	268.81
284.439	267.81
284.67	263.81
284.901	278.81
285.132	270.81
285.364	260.81
285.595	264.81
285.826	270.81
286.057	268.81
286.288	257.81
286.52	265.81
286.751	269.81
286.982	263.81
287.213	260.81
287.444	263.81
287.675	272.81
287.906	274.81
288.138	292.81
288.369	281.81
288.6	293.81
288.831	285.81
289.062	272.81
289.293	270.81
289.524	272.81
289.755	262.81
289.986	271.81
290.217	281.81
290.448	278.81
290.679	278.81
290.91	264.81
291.141	242.81
291.371	284.81
291.602	279.81
291.833	280.81
292.064	268.81
292.295	263.81
292.526	268.81
292.757	280.81
292.987	283.81
293.218	284.81
293.449	272.81
293.68	266.81
293.91	270.81
294.141	270.81
294.372	279.81
294.603	282.81
294.833	282.81
295.064	258.81
295.295	280.81
295.525	279.81
295.756	279.81
295.987	271.81
296.217	295.81
296.448	308.81
296.679	306.81
296.909	288.81
297.14	284.81
297.37	290.81
297.601	278.81
297.831	274.81
298.062	270.81
298.292	257.81
298.523	275.81
298.753	290.81
298.984	254.81
299.214	277.81
299.445	288.81
299.675	286.81
299.905	291.81
300.136	280.81
300.366	295.81
300.597	302.81
300.827	306.81
301.057	312.81
301.288	306.81
301.518	282.81
301.748	301.81
301.979	304.81
302.209	324.81
302.439	308.81
302.669	332.81
302.9	296.81
303.13	299.81
303.36	310.81
303.59	298.81
303.82	308.81
304.051	322.81
304.281	290.81
304.511	298.81
304.741	290.81
304.971	286.81
305.201	290.81
305.431	297.81
305.661	305.81
305.891	309.81
306.121	292.81
306.352	301.81
306.582	318.81
306.812	293.81
307.042	301.81
307.272	311.81
307.502	308.81
307.731	318.81
307.961	312.81
308.191	304.81
308.421	288.81
308.651	313.81
308.881	347.81
309.111	312.81
309.341	332.81
309.571	344.81
309.8	349.81
310.03	355.81
310.26	359.81
310.49	352.81
310.72	368.81
310.949	386.81
311.179	401.81
311.409	395.81
311.639	367.81
311.868	360.81
312.098	380.81
312.328	372.81
312.557	398.81
312.787	414.81
313.017	396.81
313.246	381.81
313.476	352.81
313.706	348.81
313.935	367.81
314.165	381.81
314.394	392.81
314.624	392.81
314.853	380.81
315.083	377.81
315.312	345.81
315.542	360.81
315.771	372.81
316.001	346.81
316.23	367.81
316.46	353.81
316.689	336.81
316.919	348.81
317.148	396.81
317.377	380.81
317.607	361.81
317.836	356.81
318.065	348.81
318.295	361.81
318.524	368.81
318.753	351.81
318.983	355.81
319.212	373.81
319.441	382.81
319.67	392.81
319.9	361.81
320.129	338.81
320.358	344.81
320.587	367.81
320.816	377.81
321.046	392.81
321.275	398.81
321.504	376.81
321.733	385.81
321.962	393.81
322.191	413.81
322.42	429.81
322.649	448.81
322.878	457.81
323.108	471.81
323.337	502.81
323.566	532.81
323.795	582.81
324.024	622.81
324.253	779.81
324.482	1094.81
324.71	1692.81
324.939	2448.81
325.168	2165.81
325.397	1141.81
325.626	735.81
325.855	604.81
326.084	521.81
326.313	534.81
326.542	546.81
326.77	579.81
326.999	678.81
327.228	969.81
327.457	1510.81
327.686	1846.81
327.914	1291.81
328.143	828.81
328.372	728.81
328.6	658.81
328.829	615.81
329.058	618.81
329.287	641.81
329.515	600.81
329.744	534.81
329.972	533.81
330.201	566.81
330.43	600.81
330.658	646.81
330.887	668.81
331.115	642.81
331.344	550.81
331.572	514.81
331.801	488.81
332.03	508.81
332.258	491.81
332.486	452.81
332.715	427.81
332.943	452.81
333.172	424.81
333.4	441.81
333.629	444.81
333.857	449.81
334.085	469.81
334.314	479.81
334.542	497.81
334.771	552.81
334.999	493.81
335.227	446.81
335.455	443.81
335.684	432.81
335.912	411.81
336.14	385.81
336.369	428.81
336.597	434.81
336.825	455.81
337.053	416.81
337.281	401.81
337.51	396.81
337.738	428.81
337.966	414.81
338.194	412.81
338.422	443.81
338.65	416.81
338.878	402.81
339.106	409.81
339.334	415.81
339.562	382.81
339.79	392.81
340.018	378.81
340.246	386.81
340.474	402.81
340.702	400.81
340.93	405.81
341.158	392.81
341.386	408.81
341.614	413.81
341.842	419.81
342.07	385.81
342.298	394.81
342.526	379.81
342.754	386.81
342.981	372.81
343.209	376.81
343.437	380.81
343.665	379.81
343.893	410.81
344.12	398.81
344.348	391.81
344.576	390.81
344.804	410.81
345.031	437.81
345.259	425.81
345.487	408.81
345.714	409.81
345.942	410.81
346.17	396.81
346.397	412.81
346.625	391.81
346.853	393.81
347.08	400.81
347.308	401.81
347.535	415.81
347.763	428.81
347.99	420.81
348.218	418.81
348.445	407.81
348.673	410.81
348.9	392.81
349.128	385.81
349.355	369.81
349.583	372.81
349.81	377.81
350.037	399.81
350.265	380.81
350.492	382.81
350.72	369.81
350.947	397.81
351.174	399.81
351.402	406.81
351.629	399.81
351.856	407.81
352.083	411.81
352.311	424.81
352.538	435.81
352.765	422.81
352.992	418.81
353.22	412.81
353.447	408.81
353.674	396.81
353.901	372.81
354.128	367.81
354.355	348.81
354.583	360.81
354.81	376.81
355.037	352.81
355.264	337.81
355.491	350.81
355.718	356.81
355.945	355.81
356.172	351.81
356.399	376.81
356.626	355.81
356.853	356.81
357.08	369.81
357.307	369.81
357.534	353.81
357.761	361.81
357.988	365.81
358.215	358.81
358.441	358.81
358.668	363.81
358.895	375.81
359.122	379.81
359.349	398.81
359.576	408.81
359.802	428.81
360.029	441.81
360.256	459.81
360.483	422.81
360.709	400.81
360.936	385.81
361.163	392.81
361.39	398.81
361.616	402.81
361.843	370.81
362.07	394.81
362.296	409.81
362.523	399.81
362.749	408.81
362.976	388.81
363.203	360.81
363.429	369.81
363.656	372.81
363.882	372.81
364.109	377.81
364.335	373.81
364.562	369.81
364.788	365.81
365.015	374.81
365.241	364.81
365.468	374.81
365.694	360.81
365.92	372.81
366.147	382.81
366.373	388.81
366.599	365.81
366.826	357.81
367.052	361.81
367.278	344.81
367.505	377.81
367.731	379.81
367.957	372.81
368.184	370.81
368.41	361.81
368.636	381.81
368.862	378.81
369.089	367.81
369.315	378.81
369.541	357.81
369.767	362.81
369.993	354.81
370.219	374.81
370.445	365.81
370.672	378.81
370.898	360.81
371.124	355.81
371.35	361.81
371.576	375.81
371.802	360.81
372.028	346.81
372.254	354.81
372.48	368.81
372.706	361.81
372.932	356.81
373.158	353.81
373.384	362.81
373.61	373.81
373.835	342.81
374.061	365.81
374.287	356.81
374.513	367.81
374.739	361.81
374.965	356.81
375.191	351.81
375.416	372.81
375.642	362.81
375.868	366.81
376.094	350.81
376.319	356.81
376.545	351.81
376.771	351.81
376.997	348.81
377.222	358.81
377.448	333.81
377.674	365.81
377.899	346.81
378.125	351.81
378.35	338.81
378.576	346.81
378.802	357.81
379.027	353.81
379.253	352.81
379.478	368.81
379.704	357.81
379.929	353.81
380.155	357.81
380.38	341.81
380.606	336.81
380.831	358.81
381.057	357.81
381.282	375.81
381.507	349.81
381.733	356.81
381.958	361.81
382.184	369.81
382.409	346.81
382.634	344.81
382.86	360.81
383.085	374.81
383.31	360.81
383.535	361.81
383.761	360.81
383.986	356.81
384.211	330.81
384.436	364.81
384.662	362.81
384.887	370.81
385.112	352.81
385.337	366.81
385.562	366.81
385.787	374.81
386.013	397.81
386.238	401.81
386.463	380.81
386.688	376.81
386.913	390.81
387.138	377.81
387.363	361.81
387.588	374.81
387.813	372.81
388.038	373.81
388.263	392.81
388.488	384.81
388.713	383.81
388.938	364.81
389.163	381.81
389.387	369.81
389.612	350.81
389.837	357.81
390.062	356.81
390.287	372.81
390.512	358.81
390.736	384.81
390.961	376.81
391.186	386.81
391.411	374.81
391.636	379.81
391.86	375.81
392.085	377.81
392.31	378.81
392.534	368.81
392.759	392.81
392.984	394.81
393.208	386.81
393.433	376.81
393.658	376.81
393.882	360.81
394.107	378.81
394.331	384.81
394.556	407.81
394.78	384.81
395.005	390.81
395.229	367.81
395.454	384.81
395.678	380.81
395.903	399.81
396.127	417.81
396.352	407.81
396.576	392.81
396.801	402.81
397.025	385.81
397.249	397.81
397.474	391.81
397.698	388.81
397.922	415.81
398.147	416.81
398.371	444.81
398.595	409.81
398.82	402.81
399.044	415.81
399.268	414.81
399.492	433.81
399.717	447.81
399.941	490.81
400.165	502.81
400.389	515.81
400.613	461.81
400.837	446.81
401.062	427.81
401.286	439.81
401.51	436.81
401.734	439.81
401.958	446.81
402.182	440.81
402.406	449.81
402.63	417.81
402.854	436.81
403.078	428.81
403.302	419.81
403.526	441.81
403.75	456.81
403.974	457.81
404.198	420.81
404.422	436.81
404.645	449.81
404.869	446.81
405.093	484.81
405.317	528.81
405.541	558.81
405.765	488.81
405.988	465.81
406.212	501.81
406.436	522.81
406.66	514.81
406.883	480.81
407.107	502.81
407.331	531.81
407.555	617.81
407.778	608.81
408.002	539.81
408.226	515.81
408.449	498.81
408.673	495.81
408.896	536.81
409.12	558.81
409.344	543.81
409.567	452.81
409.791	472.81
410.014	444.81
410.238	459.81
410.461	442.81
410.685	454.81
410.908	473.81
411.132	482.81
411.355	532.81
411.578	517.81
411.802	479.81
412.025	444.81
412.249	447.81
412.472	479.81
412.695	502.81
412.919	498.81
413.142	489.81
413.365	469.81
413.589	452.81
413.812	422.81
414.035	430.81
414.258	414.81
414.482	420.81
414.705	416.81
414.928	414.81
415.151	423.81
415.374	402.81
415.597	403.81
415.821	442.81
416.044	434.81
416.267	425.81
416.49	425.81
416.713	406.81
416.936	419.81
417.159	440.81
417.382	423.81
417.605	430.81
417.828	442.81
418.051	471.81
418.274	433.81
418.497	405.81
418.72	405.81
418.943	421.81
419.166	451.81
419.389	466.81
419.611	462.81
419.834	460.81
420.057	478.81
420.28	463.81
420.503	461.81
420.726	460.81
420.948	463.81
421.171	492.81
421.394	545.81
421.617	479.81
421.839	469.81
422.062	472.81
422.285	457.81
422.507	506.81
422.73	599.81
422.953	589.81
423.175	505.81
423.398	505.81
423.621	490.81
423.843	516.81
424.066	509.81
424.288	492.81
424.511	522.81
424.733	564.81
424.956	614.81
425.178	628.81
425.401	628.81
425.623	626.81
425.846	542.81
426.068	497.81
426.291	508.81
426.513	513.81
426.735	551.81
426.958	556.81
427.18	660.81
427.402	775.81
427.625	820.81
427.847	753.81
428.069	700.81
428.292	582.81
428.514	542.81
428.736	487.81
428.958	480.81
429.181	470.81
429.403	465.81
429.625	489.81
429.847	529.81
430.069	577.81
430.292	590.81
430.514	481.81
430.736	475.81
430.958	466.81
431.18	448.81
431.402	434.81
431.624	446.81
431.846	432.81
432.068	447.81
432.29	432.81
432.512	426.81
432.734	427.81
432.956	433.81
433.178	454.81
433.4	467.81
433.622	461.81
433.844	458.81
434.066	434.81
434.287	456.81
434.509	448.81
434.731	448.81
434.953	452.81
435.175	463.81
435.397	489.81
435.618	520.81
435.84	558.81
436.062	645.81
436.284	701.81
436.505	596.81
436.727	532.81
436.949	491.81
437.17	475.81
437.392	484.81
437.614	478.81
437.835	539.81
438.057	650.81
438.278	732.81
438.5	708.81
438.721	763.81
438.943	737.81
439.165	609.81
439.386	557.81
439.608	533.81
439.829	546.81
440.05	559.81
440.272	600.81
440.493	578.81
440.715	517.81
440.936	470.81
441.158	488.81
441.379	472.81
441.6	497.81
441.822	522.81
442.043	565.81
442.264	616.81
442.486	689.81
442.707	577.81
442.928	536.81
443.149	538.81
443.371	578.81
443.592	607.81
443.813	702.81
444.034	741.81
444.255	623.81
444.476	552.81
444.698	519.81
444.919	497.81
445.14	586.81
445.361	534.81
445.582	541.81
445.803	618.81
446.024	719.81
446.245	728.81
446.466	670.81
446.687	614.81
446.908	531.81
447.129	500.81
447.35	496.81
447.571	490.81
447.792	456.81
448.013	482.81
448.234	526.81
448.455	567.81
448.675	676.81
448.896	740.81
449.117	638.81
449.338	635.81
449.559	704.81
449.779	767.81
450	666.81
450.221	534.81
450.442	498.81
450.662	469.81
450.883	480.81
451.104	522.81
451.324	506.81
451.545	445.81
451.766	452.81
451.986	440.81
452.207	423.81
452.428	416.81
452.648	408.81
452.869	436.81
453.089	445.81
453.31	458.81
453.53	427.81
453.751	438.81
453.971	440.81
454.192	445.81
454.412	438.81
454.633	403.81
454.853	423.81
455.073	416.81
455.294	451.81
455.514	532.81
455.734	528.81
455.955	436.81
456.175	425.81
456.395	408.81
456.616	410.81
456.836	390.81
457.056	425.81
457.276	379.81
457.497	388.81
457.717	401.81
457.937	390.81
458.157	427.81
458.377	402.81
458.598	428.81
458.818	494.81
459.038	608.81
459.258	619.81
459.478	518.81
459.698	465.81
459.918	430.81
460.138	414.81
460.358	409.81
460.578	433.81
460.798	432.81
461.018	439.81
461.238	426.81
461.458	410.81
461.678	408.81
461.898	421.81
462.118	407.81
462.338	433.81
462.558	406.81
462.777	418.81
462.997	442.81
463.217	453.81
463.437	452.81
463.657	445.81
463.876	434.81
464.096	433.81
464.316	464.81
464.536	440.81
464.755	454.81
464.975	479.81
465.195	529.81
465.414	619.81
465.634	540.81
465.854	478.81
466.073	455.81
466.293	456.81
466.512	442.81
466.732	431.81
466.951	441.81
467.171	413.81
467.391	432.81
467.61	445.81
467.829	456.81
468.049	443.81
468.268	438.81
468.488	440.81
468.707	397.81
468.927	413.81
469.146	410.81
469.365	428.81
469.585	410.81
469.804	437.81
470.023	450.81
470.243	445.81
470.462	411.81
470.681	466.81
470.901	447.81
471.12	447.81
471.339	455.81
471.558	448.81
471.777	441.81
471.997	409.81
472.216	433.81
472.435	472.81
472.654	496.81
472.873	453.81
473.092	427.81
473.311	434.81
473.53	448.81
473.749	419.81
473.968	480.81
474.187	622.81
474.406	619.81
474.625	502.81
474.844	470.81
475.063	445.81
475.282	451.81
475.501	437.81
475.72	440.81
475.939	423.81
476.158	447.81
476.377	454.81
476.596	456.81
476.814	465.81
477.033	476.81
477.252	484.81
477.471	452.81
477.69	477.81
477.908	455.81
478.127	447.81
478.346	479.81
478.564	458.81
478.783	470.81
479.002	487.81
479.22	476.81
479.439	493.81
479.658	519.81
479.876	525.81
480.095	536.81
480.313	565.81
480.532	537.81
480.751	510.81
480.969	546.81
481.188	623.81
481.406	666.81
481.624	576.81
481.843	556.81
482.061	505.81
482.28	520.81
482.498	513.81
482.717	521.81
482.935	508.81
483.153	520.81
483.372	529.81
483.59	541.81
483.808	508.81
484.027	540.81
484.245	527.81
484.463	510.81
484.681	522.81
484.9	530.81
485.118	536.81
485.336	541.81
485.554	531.81
485.772	540.81
485.99	538.81
486.209	530.81
486.427	554.81
486.645	556.81
486.863	577.81
487.081	604.81
487.299	576.81
487.517	555.81
487.735	560.81
487.953	552.81
488.171	552.81
488.389	569.81
488.607	554.81
488.825	538.81
489.043	556.81
489.261	593.81
489.479	583.81
489.696	555.81
489.914	573.81
490.132	580.81
490.35	575.81
490.568	612.81
490.786	597.81
491.003	616.81
491.221	612.81
491.439	623.81
491.657	647.81
491.874	632.81
492.092	654.81
492.31	642.81
492.527	660.81
492.745	663.81
492.963	658.81
493.18	646.81
493.398	659.81
493.615	656.81
493.833	666.81
494.05	652.81
494.268	656.81
494.485	679.81
494.703	679.81
494.92	670.81
495.138	682.81
495.355	678.81
495.573	700.81
495.79	685.81
496.008	671.81
496.225	661.81
496.442	671.81
496.66	662.81
496.877	656.81
497.094	662.81
497.312	674.81
497.529	673.81
497.746	691.81
497.963	702.81
498.181	724.81
498.398	727.81
498.615	717.81
498.832	719.81
499.049	713.81
499.267	736.81
499.484	726.81
499.701	736.81
499.918	753.81
500.135	754.81
500.352	772.81
500.569	772.81
500.786	808.81
501.003	784.81
501.22	786.81
501.437	790.81
501.654	792.81
501.871	791.81
