Data from 1980.PennyLincolnUp.Lamp.En5.5.200Scan.071819.P1_HRD10591_16-36-06-956.txt Node
Date: Thu Jul 18 16:36:06 EDT 2019
User: cochatt
Spectrometer: HR+D1059
Trigger mode: 1
Integration Time (sec): 1.000000E-1
Scans to average: 1
Electric dark correction enabled: true
Nonlinearity correction enabled: false
Boxcar width: 0
XAxis mode: Wavelengths
Number of Pixels in Spectrum: 2048
>>>>>Begin Spectral Data<<<<<
223.165	-18.88
223.4	-18.88
223.635	-18.88
223.869	-17.88
224.104	-18.88
224.338	-22.88
224.573	-14.88
224.808	-9.88
225.042	-0.88
225.277	-5.88
225.511	-3.88
225.746	0.12
225.98	7.12
226.215	10.12
226.449	27.12
226.683	22.12
226.918	19.12
227.152	28.12
227.387	33.12
227.621	51.12
227.856	39.12
228.09	47.12
228.324	43.12
228.559	53.12
228.793	66.12
229.027	91.12
229.262	106.12
229.496	114.12
229.73	119.12
229.964	135.12
230.199	124.12
230.433	104.12
230.667	106.12
230.901	84.12
231.136	105.12
231.37	109.12
231.604	118.12
231.838	107.12
232.072	104.12
232.306	109.12
232.541	103.12
232.775	116.12
233.009	107.12
233.243	111.12
233.477	120.12
233.711	117.12
233.945	115.12
234.179	109.12
234.413	111.12
234.647	100.12
234.881	110.12
235.115	106.12
235.349	111.12
235.583	121.12
235.817	125.12
236.051	110.12
236.285	122.12
236.519	109.12
236.753	122.12
236.987	121.12
237.221	163.12
237.455	209.12
237.689	173.12
237.922	132.12
238.156	125.12
238.39	127.12
238.624	113.12
238.858	111.12
239.091	110.12
239.325	112.12
239.559	119.12
239.793	123.12
240.027	129.12
240.26	125.12
240.494	141.12
240.728	141.12
240.961	134.12
241.195	127.12
241.429	125.12
241.662	133.12
241.896	121.12
242.13	134.12
242.363	141.12
242.597	128.12
242.83	125.12
243.064	125.12
243.298	127.12
243.531	145.12
243.765	129.12
243.998	136.12
244.232	128.12
244.465	123.12
244.699	133.12
244.932	132.12
245.166	127.12
245.399	143.12
245.633	143.12
245.866	122.12
246.099	145.12
246.333	140.12
246.566	142.12
246.8	135.12
247.033	140.12
247.266	137.12
247.5	150.12
247.733	153.12
247.966	151.12
248.2	169.12
248.433	148.12
248.666	152.12
248.899	171.12
249.133	172.12
249.366	185.12
249.599	183.12
249.832	152.12
250.066	164.12
250.299	161.12
250.532	151.12
250.765	179.12
250.998	179.12
251.231	192.12
251.465	192.12
251.698	185.12
251.931	199.12
252.164	181.12
252.397	180.12
252.63	171.12
252.863	171.12
253.096	206.12
253.329	194.12
253.562	184.12
253.795	206.12
254.028	176.12
254.261	189.12
254.494	196.12
254.727	209.12
254.96	227.12
255.193	231.12
255.426	207.12
255.659	206.12
255.892	206.12
256.124	192.12
256.357	199.12
256.59	181.12
256.823	173.12
257.056	184.12
257.289	181.12
257.521	188.12
257.754	194.12
257.987	184.12
258.22	179.12
258.452	177.12
258.685	184.12
258.918	178.12
259.151	174.12
259.383	182.12
259.616	200.12
259.849	188.12
260.081	208.12
260.314	208.12
260.547	233.12
260.779	220.12
261.012	201.12
261.244	200.12
261.477	190.12
261.71	196.12
261.942	196.12
262.175	199.12
262.407	197.12
262.64	178.12
262.872	188.12
263.105	169.12
263.337	179.12
263.57	182.12
263.802	173.12
264.035	171.12
264.267	170.12
264.499	160.12
264.732	189.12
264.964	188.12
265.197	184.12
265.429	187.12
265.661	166.12
265.894	174.12
266.126	185.12
266.358	172.12
266.591	181.12
266.823	177.12
267.055	179.12
267.287	185.12
267.52	175.12
267.752	191.12
267.984	174.12
268.216	199.12
268.448	196.12
268.681	196.12
268.913	201.12
269.145	211.12
269.377	225.12
269.609	225.12
269.841	207.12
270.073	235.12
270.306	241.12
270.538	239.12
270.77	247.12
271.002	241.12
271.234	220.12
271.466	250.12
271.698	243.12
271.93	259.12
272.162	252.12
272.394	244.12
272.626	249.12
272.858	230.12
273.09	223.12
273.322	225.12
273.553	225.12
273.785	213.12
274.017	217.12
274.249	207.12
274.481	207.12
274.713	221.12
274.945	213.12
275.176	207.12
275.408	219.12
275.64	225.12
275.872	204.12
276.104	217.12
276.335	203.12
276.567	216.12
276.799	226.12
277.031	233.12
277.262	263.12
277.494	260.12
277.726	228.12
277.957	218.12
278.189	217.12
278.421	227.12
278.652	205.12
278.884	213.12
279.115	209.12
279.347	212.12
279.579	229.12
279.81	236.12
280.042	224.12
280.273	221.12
280.505	227.12
280.736	222.12
280.968	220.12
281.199	208.12
281.431	209.12
281.662	215.12
281.894	210.12
282.125	211.12
282.356	233.12
282.588	249.12
282.819	219.12
283.051	231.12
283.282	203.12
283.513	209.12
283.745	231.12
283.976	217.12
284.207	230.12
284.439	223.12
284.67	230.12
284.901	216.12
285.132	225.12
285.364	225.12
285.595	214.12
285.826	213.12
286.057	217.12
286.288	215.12
286.52	213.12
286.751	210.12
286.982	219.12
287.213	224.12
287.444	224.12
287.675	220.12
287.906	228.12
288.138	228.12
288.369	243.12
288.6	246.12
288.831	227.12
289.062	220.12
289.293	217.12
289.524	227.12
289.755	219.12
289.986	219.12
290.217	229.12
290.448	211.12
290.679	223.12
290.91	229.12
291.141	214.12
291.371	213.12
291.602	227.12
291.833	236.12
292.064	215.12
292.295	233.12
292.526	231.12
292.757	206.12
292.987	216.12
293.218	214.12
293.449	215.12
293.68	219.12
293.91	218.12
294.141	220.12
294.372	215.12
294.603	219.12
294.833	229.12
295.064	217.12
295.295	221.12
295.525	246.12
295.756	225.12
295.987	221.12
296.217	267.12
296.448	238.12
296.679	233.12
296.909	223.12
297.14	227.12
297.37	220.12
297.601	228.12
297.831	237.12
298.062	223.12
298.292	250.12
298.523	216.12
298.753	234.12
298.984	218.12
299.214	228.12
299.445	244.12
299.675	246.12
299.905	222.12
300.136	229.12
300.366	234.12
300.597	227.12
300.827	219.12
301.057	254.12
301.288	256.12
301.518	263.12
301.748	248.12
301.979	244.12
302.209	244.12
302.439	247.12
302.669	244.12
302.9	226.12
303.13	251.12
303.36	245.12
303.59	241.12
303.82	249.12
304.051	248.12
304.281	246.12
304.511	238.12
304.741	237.12
304.971	252.12
305.201	229.12
305.431	243.12
305.661	234.12
305.891	275.12
306.121	249.12
306.352	259.12
306.582	260.12
306.812	276.12
307.042	250.12
307.272	250.12
307.502	249.12
307.731	247.12
307.961	261.12
308.191	251.12
308.421	250.12
308.651	260.12
308.881	269.12
309.111	286.12
309.341	269.12
309.571	287.12
309.8	287.12
310.03	279.12
310.26	279.12
310.49	285.12
310.72	292.12
310.949	307.12
311.179	285.12
311.409	288.12
311.639	279.12
311.868	299.12
312.098	284.12
312.328	285.12
312.557	296.12
312.787	309.12
313.017	297.12
313.246	279.12
313.476	276.12
313.706	278.12
313.935	293.12
314.165	296.12
314.394	301.12
314.624	301.12
314.853	292.12
315.083	296.12
315.312	281.12
315.542	284.12
315.771	288.12
316.001	277.12
316.23	289.12
316.46	285.12
316.689	293.12
316.919	288.12
317.148	307.12
317.377	305.12
317.607	317.12
317.836	304.12
318.065	287.12
318.295	288.12
318.524	286.12
318.753	280.12
318.983	256.12
319.212	286.12
319.441	295.12
319.67	306.12
319.9	272.12
320.129	263.12
320.358	284.12
320.587	288.12
320.816	293.12
321.046	296.12
321.275	294.12
321.504	289.12
321.733	307.12
321.962	311.12
322.191	320.12
322.42	322.12
322.649	353.12
322.878	339.12
323.108	335.12
323.337	359.12
323.566	380.12
323.795	383.12
324.024	428.12
324.253	497.12
324.482	737.12
324.71	1094.12
324.939	1625.12
325.168	1494.12
325.397	758.12
325.626	508.12
325.855	431.12
326.084	396.12
326.313	385.12
326.542	387.12
326.77	428.12
326.999	499.12
327.228	651.12
327.457	998.12
327.686	1287.12
327.914	867.12
328.143	568.12
328.372	484.12
328.6	441.12
328.829	413.12
329.058	431.12
329.287	426.12
329.515	413.12
329.744	365.12
329.972	364.12
330.201	364.12
330.43	398.12
330.658	413.12
330.887	449.12
331.115	435.12
331.344	369.12
331.572	353.12
331.801	373.12
332.03	365.12
332.258	342.12
332.486	315.12
332.715	319.12
332.943	341.12
333.172	323.12
333.4	327.12
333.629	336.12
333.857	364.12
334.085	341.12
334.314	351.12
334.542	353.12
334.771	348.12
334.999	349.12
335.227	341.12
335.455	344.12
335.684	343.12
335.912	315.12
336.14	326.12
336.369	331.12
336.597	336.12
336.825	347.12
337.053	326.12
337.281	340.12
337.51	328.12
337.738	307.12
337.966	326.12
338.194	311.12
338.422	320.12
338.65	345.12
338.878	343.12
339.106	311.12
339.334	325.12
339.562	311.12
339.79	330.12
340.018	327.12
340.246	333.12
340.474	327.12
340.702	325.12
340.93	325.12
341.158	314.12
341.386	312.12
341.614	342.12
341.842	319.12
342.07	301.12
342.298	318.12
342.526	295.12
342.754	311.12
342.981	309.12
343.209	312.12
343.437	309.12
343.665	304.12
343.893	321.12
344.12	327.12
344.348	307.12
344.576	322.12
344.804	341.12
345.031	342.12
345.259	341.12
345.487	337.12
345.714	334.12
345.942	307.12
346.17	332.12
346.397	312.12
346.625	311.12
346.853	313.12
347.08	317.12
347.308	327.12
347.535	343.12
347.763	326.12
347.99	316.12
348.218	307.12
348.445	346.12
348.673	330.12
348.9	332.12
349.128	294.12
349.355	320.12
349.583	307.12
349.81	310.12
350.037	308.12
350.265	304.12
350.492	321.12
350.72	312.12
350.947	319.12
351.174	327.12
351.402	320.12
351.629	325.12
351.856	329.12
352.083	321.12
352.311	340.12
352.538	318.12
352.765	332.12
352.992	321.12
353.22	309.12
353.447	327.12
353.674	328.12
353.901	295.12
354.128	297.12
354.355	296.12
354.583	305.12
354.81	287.12
355.037	284.12
355.264	287.12
355.491	290.12
355.718	311.12
355.945	291.12
356.172	309.12
356.399	295.12
356.626	291.12
356.853	293.12
357.08	292.12
357.307	302.12
357.534	299.12
357.761	288.12
357.988	318.12
358.215	308.12
358.441	307.12
358.668	299.12
358.895	281.12
359.122	310.12
359.349	307.12
359.576	326.12
359.802	318.12
360.029	349.12
360.256	353.12
360.483	359.12
360.709	325.12
360.936	325.12
361.163	317.12
361.39	329.12
361.616	330.12
361.843	283.12
362.07	309.12
362.296	331.12
362.523	294.12
362.749	300.12
362.976	307.12
363.203	307.12
363.429	296.12
363.656	313.12
363.882	317.12
364.109	312.12
364.335	319.12
364.562	305.12
364.788	310.12
365.015	318.12
365.241	322.12
365.468	299.12
365.694	302.12
365.92	309.12
366.147	303.12
366.373	305.12
366.599	296.12
366.826	309.12
367.052	315.12
367.278	304.12
367.505	313.12
367.731	307.12
367.957	306.12
368.184	318.12
368.41	301.12
368.636	319.12
368.862	293.12
369.089	305.12
369.315	312.12
369.541	303.12
369.767	321.12
369.993	303.12
370.219	311.12
370.445	313.12
370.672	311.12
370.898	308.12
371.124	285.12
371.35	296.12
371.576	309.12
371.802	320.12
372.028	310.12
372.254	296.12
372.48	302.12
372.706	311.12
372.932	287.12
373.158	311.12
373.384	311.12
373.61	301.12
373.835	292.12
374.061	333.12
374.287	315.12
374.513	310.12
374.739	311.12
374.965	315.12
375.191	304.12
375.416	310.12
375.642	307.12
375.868	312.12
376.094	303.12
376.319	317.12
376.545	291.12
376.771	312.12
376.997	303.12
377.222	326.12
377.448	311.12
377.674	304.12
377.899	315.12
378.125	304.12
378.35	315.12
378.576	285.12
378.802	288.12
379.027	280.12
379.253	320.12
379.478	316.12
379.704	304.12
379.929	315.12
380.155	321.12
380.38	312.12
380.606	314.12
380.831	304.12
381.057	309.12
381.282	303.12
381.507	307.12
381.733	328.12
381.958	318.12
382.184	335.12
382.409	321.12
382.634	312.12
382.86	313.12
383.085	339.12
383.31	337.12
383.535	321.12
383.761	325.12
383.986	317.12
384.211	310.12
384.436	335.12
384.662	335.12
384.887	336.12
385.112	342.12
385.337	337.12
385.562	351.12
385.787	328.12
386.013	324.12
386.238	326.12
386.463	351.12
386.688	327.12
386.913	335.12
387.138	357.12
387.363	348.12
387.588	339.12
387.813	321.12
388.038	332.12
388.263	331.12
388.488	343.12
388.713	334.12
388.938	351.12
389.163	327.12
389.387	330.12
389.612	316.12
389.837	325.12
390.062	347.12
390.287	331.12
390.512	325.12
390.736	333.12
390.961	342.12
391.186	325.12
391.411	327.12
391.636	320.12
391.86	342.12
392.085	331.12
392.31	342.12
392.534	349.12
392.759	350.12
392.984	334.12
393.208	353.12
393.433	396.12
393.658	401.12
393.882	362.12
394.107	337.12
394.331	333.12
394.556	334.12
394.78	337.12
395.005	331.12
395.229	320.12
395.454	335.12
395.678	340.12
395.903	331.12
396.127	343.12
396.352	374.12
396.576	345.12
396.801	389.12
397.025	401.12
397.249	381.12
397.474	358.12
397.698	337.12
397.922	365.12
398.147	364.12
398.371	395.12
398.595	361.12
398.82	358.12
399.044	363.12
399.268	393.12
399.492	394.12
399.717	405.12
399.941	422.12
400.165	454.12
400.389	459.12
400.613	422.12
400.837	387.12
401.062	391.12
401.286	363.12
401.51	371.12
401.734	373.12
401.958	363.12
402.182	358.12
402.406	383.12
402.63	377.12
402.854	375.12
403.078	392.12
403.302	378.12
403.526	377.12
403.75	377.12
403.974	386.12
404.198	365.12
404.422	385.12
404.645	398.12
404.869	384.12
405.093	420.12
405.317	416.12
405.541	445.12
405.765	418.12
405.988	424.12
406.212	409.12
406.436	423.12
406.66	439.12
406.883	420.12
407.107	440.12
407.331	451.12
407.555	520.12
407.778	503.12
408.002	479.12
408.226	439.12
408.449	426.12
408.673	415.12
408.896	439.12
409.12	464.12
409.344	459.12
409.567	410.12
409.791	412.12
410.014	411.12
410.238	371.12
410.461	399.12
410.685	404.12
410.908	401.12
411.132	417.12
411.355	466.12
411.578	449.12
411.802	408.12
412.025	385.12
412.249	423.12
412.472	396.12
412.695	409.12
412.919	399.12
413.142	393.12
413.365	376.12
413.589	380.12
413.812	360.12
414.035	351.12
414.258	355.12
414.482	383.12
414.705	371.12
414.928	363.12
415.151	361.12
415.374	368.12
415.597	373.12
415.821	338.12
416.044	347.12
416.267	348.12
416.49	378.12
416.713	361.12
416.936	366.12
417.159	361.12
417.382	366.12
417.605	375.12
417.828	362.12
418.051	399.12
418.274	383.12
418.497	367.12
418.72	377.12
418.943	369.12
419.166	373.12
419.389	383.12
419.611	391.12
419.834	390.12
420.057	380.12
420.28	390.12
420.503	377.12
420.726	392.12
420.948	391.12
421.171	455.12
421.394	465.12
421.617	396.12
421.839	392.12
422.062	377.12
422.285	400.12
422.507	437.12
422.73	513.12
422.953	528.12
423.175	441.12
423.398	427.12
423.621	385.12
423.843	403.12
424.066	409.12
424.288	420.12
424.511	432.12
424.733	473.12
424.956	555.12
425.178	532.12
425.401	497.12
425.623	535.12
425.846	464.12
426.068	419.12
426.291	427.12
426.513	401.12
426.735	413.12
426.958	450.12
427.18	511.12
427.402	606.12
427.625	667.12
427.847	604.12
428.069	515.12
428.292	461.12
428.514	427.12
428.736	402.12
428.958	389.12
429.181	387.12
429.403	410.12
429.625	385.12
429.847	424.12
430.069	474.12
430.292	487.12
430.514	443.12
430.736	400.12
430.958	381.12
431.18	374.12
431.402	385.12
431.624	390.12
431.846	361.12
432.068	364.12
432.29	368.12
432.512	376.12
432.734	375.12
432.956	374.12
433.178	370.12
433.4	387.12
433.622	364.12
433.844	369.12
434.066	357.12
434.287	385.12
434.509	364.12
434.731	389.12
434.953	387.12
435.175	409.12
435.397	416.12
435.618	421.12
435.84	443.12
436.062	542.12
436.284	580.12
436.505	487.12
436.727	440.12
436.949	406.12
437.17	407.12
437.392	393.12
437.614	407.12
437.835	450.12
438.057	494.12
438.278	577.12
438.5	596.12
438.721	647.12
438.943	625.12
439.165	468.12
439.386	437.12
439.608	435.12
439.829	435.12
440.05	461.12
440.272	488.12
440.493	471.12
440.715	437.12
440.936	406.12
441.158	425.12
441.379	399.12
441.6	408.12
441.822	415.12
442.043	458.12
442.264	536.12
442.486	574.12
442.707	480.12
442.928	460.12
443.149	462.12
443.371	457.12
443.592	478.12
443.813	554.12
444.034	605.12
444.255	481.12
444.476	438.12
444.698	441.12
444.919	439.12
445.14	513.12
445.361	473.12
445.582	479.12
445.803	501.12
446.024	607.12
446.245	597.12
446.466	531.12
446.687	459.12
446.908	427.12
447.129	398.12
447.35	415.12
447.571	399.12
447.792	411.12
448.013	403.12
448.234	411.12
448.455	454.12
448.675	535.12
448.896	632.12
449.117	535.12
449.338	501.12
449.559	577.12
449.779	644.12
450	551.12
450.221	463.12
450.442	417.12
450.662	375.12
450.883	379.12
451.104	411.12
451.324	401.12
451.545	383.12
451.766	353.12
451.986	343.12
452.207	364.12
452.428	363.12
452.648	368.12
452.869	328.12
453.089	355.12
453.31	363.12
453.53	363.12
453.751	372.12
453.971	363.12
454.192	364.12
454.412	354.12
454.633	369.12
454.853	338.12
455.073	363.12
455.294	383.12
455.514	424.12
455.734	413.12
455.955	351.12
456.175	331.12
456.395	330.12
456.616	314.12
456.836	335.12
457.056	326.12
457.276	333.12
457.497	345.12
457.717	340.12
457.937	331.12
458.157	332.12
458.377	356.12
458.598	363.12
458.818	397.12
459.038	457.12
459.258	464.12
459.478	406.12
459.698	392.12
459.918	382.12
460.138	378.12
460.358	372.12
460.578	363.12
460.798	374.12
461.018	375.12
461.238	383.12
461.458	364.12
461.678	352.12
461.898	384.12
462.118	368.12
462.338	379.12
462.558	375.12
462.777	360.12
462.997	391.12
463.217	402.12
463.437	395.12
463.657	401.12
463.876	388.12
464.096	412.12
464.316	393.12
464.536	394.12
464.755	395.12
464.975	397.12
465.195	436.12
465.414	488.12
465.634	441.12
465.854	401.12
466.073	385.12
466.293	387.12
466.512	369.12
466.732	387.12
466.951	383.12
467.171	367.12
467.391	373.12
467.61	385.12
467.829	364.12
468.049	379.12
468.268	339.12
468.488	373.12
468.707	354.12
468.927	384.12
469.146	355.12
469.365	351.12
469.585	339.12
469.804	345.12
470.023	363.12
470.243	365.12
470.462	352.12
470.681	389.12
470.901	395.12
471.12	374.12
471.339	368.12
471.558	359.12
471.777	377.12
471.997	372.12
472.216	366.12
472.435	376.12
472.654	359.12
472.873	368.12
473.092	364.12
473.311	379.12
473.53	376.12
473.749	376.12
473.968	392.12
474.187	506.12
474.406	511.12
474.625	424.12
474.844	395.12
475.063	379.12
475.282	391.12
475.501	381.12
475.72	377.12
475.939	376.12
476.158	381.12
476.377	371.12
476.596	391.12
476.814	398.12
477.033	395.12
477.252	379.12
477.471	397.12
477.69	375.12
477.908	391.12
478.127	388.12
478.346	395.12
478.564	403.12
478.783	409.12
479.002	419.12
479.22	413.12
479.439	427.12
479.658	425.12
479.876	433.12
480.095	433.12
480.313	461.12
480.532	445.12
480.751	451.12
480.969	425.12
481.188	453.12
481.406	469.12
481.624	459.12
481.843	452.12
482.061	444.12
482.28	453.12
482.498	415.12
482.717	421.12
482.935	450.12
483.153	409.12
483.372	398.12
483.59	423.12
483.808	439.12
484.027	442.12
484.245	442.12
484.463	436.12
484.681	438.12
484.9	451.12
485.118	438.12
485.336	442.12
485.554	450.12
485.772	442.12
485.99	454.12
486.209	457.12
486.427	459.12
486.645	459.12
486.863	449.12
487.081	467.12
487.299	477.12
487.517	459.12
487.735	463.12
487.953	482.12
488.171	473.12
488.389	475.12
488.607	463.12
488.825	471.12
489.043	465.12
489.261	480.12
489.479	490.12
489.696	474.12
489.914	505.12
490.132	485.12
490.35	479.12
490.568	509.12
490.786	493.12
491.003	492.12
491.221	517.12
491.439	535.12
491.657	523.12
491.874	519.12
492.092	540.12
492.31	530.12
492.527	528.12
492.745	543.12
492.963	529.12
493.18	538.12
493.398	523.12
493.615	549.12
493.833	547.12
494.05	525.12
494.268	556.12
494.485	547.12
494.703	554.12
494.92	550.12
495.138	555.12
495.355	551.12
495.573	561.12
495.79	558.12
496.008	562.12
496.225	567.12
496.442	578.12
496.66	545.12
496.877	559.12
497.094	565.12
497.312	580.12
497.529	583.12
497.746	587.12
497.963	564.12
498.181	584.12
498.398	588.12
498.615	605.12
498.832	609.12
499.049	627.12
499.267	627.12
499.484	614.12
499.701	646.12
499.918	676.12
500.135	696.12
500.352	703.12
500.569	701.12
500.786	700.12
501.003	684.12
501.22	685.12
501.437	712.12
501.654	693.12
501.871	667.12
502.088	650.12
