Data from 1980.PennyLincolnUp.Lamp.En5.5.200Scan.071819.P1_HRD10591_16-38-49-957.txt Node
Date: Thu Jul 18 16:38:49 EDT 2019
User: cochatt
Spectrometer: HR+D1059
Trigger mode: 1
Integration Time (sec): 1.000000E-1
Scans to average: 1
Electric dark correction enabled: true
Nonlinearity correction enabled: false
Boxcar width: 0
XAxis mode: Wavelengths
Number of Pixels in Spectrum: 2048
>>>>>Begin Spectral Data<<<<<
223.165	-13.44
223.4	-13.44
223.635	-13.44
223.869	-22.44
224.104	-22.44
224.338	-11.44
224.573	-17.44
224.808	-7.44
225.042	-3.44
225.277	-6.44
225.511	-3.44
225.746	5.56
225.98	-6.44
226.215	15.56
226.449	26.56
226.683	14.56
226.918	1.56
227.152	50.56
227.387	28.56
227.621	30.56
227.856	42.56
228.09	36.56
228.324	41.56
228.559	42.56
228.793	64.56
229.027	97.56
229.262	103.56
229.496	124.56
229.73	133.56
229.964	173.56
230.199	142.56
230.433	129.56
230.667	109.56
230.901	125.56
231.136	117.56
231.37	121.56
231.604	111.56
231.838	117.56
232.072	117.56
232.306	120.56
232.541	126.56
232.775	133.56
233.009	137.56
233.243	117.56
233.477	117.56
233.711	118.56
233.945	123.56
234.179	123.56
234.413	113.56
234.647	121.56
234.881	125.56
235.115	126.56
235.349	125.56
235.583	121.56
235.817	132.56
236.051	125.56
236.285	126.56
236.519	126.56
236.753	134.56
236.987	151.56
237.221	185.56
237.455	246.56
237.689	198.56
237.922	153.56
238.156	147.56
238.39	140.56
238.624	129.56
238.858	137.56
239.091	133.56
239.325	115.56
239.559	124.56
239.793	145.56
240.027	151.56
240.26	156.56
240.494	163.56
240.728	153.56
240.961	161.56
241.195	138.56
241.429	133.56
241.662	149.56
241.896	146.56
242.13	144.56
242.363	138.56
242.597	125.56
242.83	149.56
243.064	144.56
243.298	149.56
243.531	151.56
243.765	141.56
243.998	152.56
244.232	129.56
244.465	141.56
244.699	157.56
244.932	144.56
245.166	131.56
245.399	155.56
245.633	141.56
245.866	154.56
246.099	149.56
246.333	161.56
246.566	135.56
246.8	170.56
247.033	154.56
247.266	173.56
247.5	167.56
247.733	181.56
247.966	173.56
248.2	179.56
248.433	185.56
248.666	162.56
248.899	208.56
249.133	185.56
249.366	222.56
249.599	213.56
249.832	201.56
250.066	168.56
250.299	183.56
250.532	177.56
250.765	213.56
250.998	247.56
251.231	239.56
251.465	222.56
251.698	212.56
251.931	225.56
252.164	213.56
252.397	212.56
252.63	214.56
252.863	214.56
253.096	239.56
253.329	240.56
253.562	229.56
253.795	236.56
254.028	234.56
254.261	247.56
254.494	255.56
254.727	267.56
254.96	285.56
255.193	294.56
255.426	279.56
255.659	277.56
255.892	234.56
256.124	257.56
256.357	233.56
256.59	226.56
256.823	231.56
257.056	234.56
257.289	222.56
257.521	220.56
257.754	227.56
257.987	206.56
258.22	213.56
258.452	218.56
258.685	224.56
258.918	211.56
259.151	219.56
259.383	227.56
259.616	237.56
259.849	237.56
260.081	243.56
260.314	283.56
260.547	282.56
260.779	260.56
261.012	236.56
261.244	244.56
261.477	242.56
261.71	229.56
261.942	229.56
262.175	243.56
262.407	245.56
262.64	229.56
262.872	213.56
263.105	224.56
263.337	218.56
263.57	227.56
263.802	206.56
264.035	205.56
264.267	213.56
264.499	231.56
264.732	219.56
264.964	197.56
265.197	208.56
265.429	216.56
265.661	226.56
265.894	214.56
266.126	217.56
266.358	227.56
266.591	207.56
266.823	217.56
267.055	214.56
267.287	241.56
267.52	217.56
267.752	231.56
267.984	219.56
268.216	233.56
268.448	232.56
268.681	235.56
268.913	224.56
269.145	283.56
269.377	284.56
269.609	271.56
269.841	266.56
270.073	284.56
270.306	281.56
270.538	330.56
270.77	330.56
271.002	315.56
271.234	309.56
271.466	310.56
271.698	341.56
271.93	358.56
272.162	343.56
272.394	358.56
272.626	339.56
272.858	292.56
273.09	271.56
273.322	299.56
273.553	283.56
273.785	277.56
274.017	285.56
274.249	276.56
274.481	276.56
274.713	275.56
274.945	276.56
275.176	275.56
275.408	252.56
275.64	255.56
275.872	261.56
276.104	280.56
276.335	282.56
276.567	286.56
276.799	301.56
277.031	324.56
277.262	323.56
277.494	317.56
277.726	308.56
277.957	300.56
278.189	289.56
278.421	296.56
278.652	265.56
278.884	279.56
279.115	268.56
279.347	261.56
279.579	258.56
279.81	256.56
280.042	272.56
280.273	263.56
280.505	266.56
280.736	263.56
280.968	252.56
281.199	284.56
281.431	268.56
281.662	271.56
281.894	255.56
282.125	264.56
282.356	281.56
282.588	334.56
282.819	324.56
283.051	279.56
283.282	247.56
283.513	257.56
283.745	275.56
283.976	263.56
284.207	270.56
284.439	263.56
284.67	263.56
284.901	270.56
285.132	264.56
285.364	248.56
285.595	278.56
285.826	268.56
286.057	283.56
286.288	270.56
286.52	257.56
286.751	268.56
286.982	259.56
287.213	258.56
287.444	268.56
287.675	282.56
287.906	284.56
288.138	284.56
288.369	294.56
288.6	291.56
288.831	282.56
289.062	284.56
289.293	264.56
289.524	272.56
289.755	289.56
289.986	266.56
290.217	276.56
290.448	267.56
290.679	269.56
290.91	270.56
291.141	267.56
291.371	280.56
291.602	267.56
291.833	270.56
292.064	262.56
292.295	266.56
292.526	286.56
292.757	280.56
292.987	279.56
293.218	269.56
293.449	288.56
293.68	268.56
293.91	271.56
294.141	276.56
294.372	263.56
294.603	284.56
294.833	264.56
295.064	271.56
295.295	277.56
295.525	289.56
295.756	299.56
295.987	288.56
296.217	333.56
296.448	320.56
296.679	299.56
296.909	285.56
297.14	279.56
297.37	283.56
297.601	282.56
297.831	293.56
298.062	284.56
298.292	288.56
298.523	292.56
298.753	283.56
298.984	274.56
299.214	281.56
299.445	301.56
299.675	280.56
299.905	289.56
300.136	278.56
300.366	290.56
300.597	291.56
300.827	298.56
301.057	322.56
301.288	307.56
301.518	308.56
301.748	300.56
301.979	301.56
302.209	317.56
302.439	311.56
302.669	294.56
302.9	311.56
303.13	320.56
303.36	293.56
303.59	328.56
303.82	314.56
304.051	301.56
304.281	318.56
304.511	286.56
304.741	296.56
304.971	311.56
305.201	297.56
305.431	313.56
305.661	313.56
305.891	315.56
306.121	311.56
306.352	300.56
306.582	332.56
306.812	316.56
307.042	300.56
307.272	319.56
307.502	324.56
307.731	321.56
307.961	317.56
308.191	295.56
308.421	323.56
308.651	309.56
308.881	327.56
309.111	316.56
309.341	322.56
309.571	365.56
309.8	349.56
310.03	355.56
310.26	366.56
310.49	371.56
310.72	389.56
310.949	408.56
311.179	391.56
311.409	397.56
311.639	377.56
311.868	378.56
312.098	362.56
312.328	379.56
312.557	389.56
312.787	418.56
313.017	418.56
313.246	404.56
313.476	373.56
313.706	360.56
313.935	357.56
314.165	384.56
314.394	398.56
314.624	395.56
314.853	386.56
315.083	372.56
315.312	386.56
315.542	359.56
315.771	356.56
316.001	369.56
316.23	359.56
316.46	361.56
316.689	375.56
316.919	355.56
317.148	393.56
317.377	375.56
317.607	382.56
317.836	395.56
318.065	365.56
318.295	352.56
318.524	350.56
318.753	390.56
318.983	357.56
319.212	369.56
319.441	376.56
319.67	375.56
319.9	374.56
320.129	377.56
320.358	365.56
320.587	403.56
320.816	374.56
321.046	404.56
321.275	404.56
321.504	378.56
321.733	389.56
321.962	403.56
322.191	415.56
322.42	440.56
322.649	449.56
322.878	471.56
323.108	472.56
323.337	490.56
323.566	525.56
323.795	569.56
324.024	612.56
324.253	802.56
324.482	1121.56
324.71	1751.56
324.939	2532.56
325.168	2259.56
325.397	1163.56
325.626	775.56
325.855	633.56
326.084	563.56
326.313	554.56
326.542	565.56
326.77	592.56
326.999	719.56
327.228	1033.56
327.457	1543.56
327.686	1901.56
327.914	1307.56
328.143	835.56
328.372	756.56
328.6	680.56
328.829	615.56
329.058	630.56
329.287	660.56
329.515	597.56
329.744	567.56
329.972	553.56
330.201	556.56
330.43	621.56
330.658	641.56
330.887	684.56
331.115	646.56
331.344	567.56
331.572	506.56
331.801	517.56
332.03	490.56
332.258	483.56
332.486	451.56
332.715	461.56
332.943	462.56
333.172	430.56
333.4	446.56
333.629	446.56
333.857	464.56
334.085	492.56
334.314	503.56
334.542	534.56
334.771	563.56
334.999	514.56
335.227	460.56
335.455	452.56
335.684	448.56
335.912	423.56
336.14	416.56
336.369	421.56
336.597	434.56
336.825	426.56
337.053	411.56
337.281	430.56
337.51	405.56
337.738	441.56
337.966	430.56
338.194	434.56
338.422	418.56
338.65	389.56
338.878	407.56
339.106	395.56
339.334	400.56
339.562	379.56
339.79	399.56
340.018	421.56
340.246	394.56
340.474	427.56
340.702	410.56
340.93	405.56
341.158	405.56
341.386	412.56
341.614	430.56
341.842	424.56
342.07	395.56
342.298	404.56
342.526	386.56
342.754	392.56
342.981	403.56
343.209	386.56
343.437	365.56
343.665	383.56
343.893	403.56
344.12	414.56
344.348	411.56
344.576	413.56
344.804	419.56
345.031	434.56
345.259	457.56
345.487	411.56
345.714	403.56
345.942	396.56
346.17	397.56
346.397	393.56
346.625	395.56
346.853	389.56
347.08	390.56
347.308	391.56
347.535	420.56
347.763	399.56
347.99	407.56
348.218	427.56
348.445	428.56
348.673	417.56
348.9	388.56
349.128	401.56
349.355	392.56
349.583	389.56
349.81	392.56
350.037	393.56
350.265	387.56
350.492	394.56
350.72	404.56
350.947	381.56
351.174	419.56
351.402	454.56
351.629	422.56
351.856	402.56
352.083	426.56
352.311	423.56
352.538	429.56
352.765	437.56
352.992	449.56
353.22	401.56
353.447	399.56
353.674	388.56
353.901	379.56
354.128	380.56
354.355	397.56
354.583	378.56
354.81	347.56
355.037	375.56
355.264	373.56
355.491	350.56
355.718	360.56
355.945	367.56
356.172	370.56
356.399	361.56
356.626	361.56
356.853	372.56
357.08	359.56
357.307	349.56
357.534	339.56
357.761	362.56
357.988	351.56
358.215	353.56
358.441	381.56
358.668	365.56
358.895	374.56
359.122	377.56
359.349	398.56
359.576	411.56
359.802	436.56
360.029	470.56
360.256	468.56
360.483	469.56
360.709	395.56
360.936	396.56
361.163	404.56
361.39	403.56
361.616	419.56
361.843	398.56
362.07	410.56
362.296	414.56
362.523	399.56
362.749	393.56
362.976	395.56
363.203	377.56
363.429	395.56
363.656	407.56
363.882	395.56
364.109	381.56
364.335	382.56
364.562	370.56
364.788	363.56
365.015	361.56
365.241	370.56
365.468	377.56
365.694	395.56
365.92	369.56
366.147	366.56
366.373	379.56
366.599	361.56
366.826	353.56
367.052	375.56
367.278	375.56
367.505	373.56
367.731	371.56
367.957	374.56
368.184	369.56
368.41	393.56
368.636	389.56
368.862	383.56
369.089	374.56
369.315	366.56
369.541	371.56
369.767	385.56
369.993	375.56
370.219	388.56
370.445	375.56
370.672	354.56
370.898	389.56
371.124	358.56
371.35	367.56
371.576	368.56
371.802	366.56
372.028	354.56
372.254	350.56
372.48	350.56
372.706	363.56
372.932	369.56
373.158	362.56
373.384	378.56
373.61	367.56
373.835	379.56
374.061	359.56
374.287	385.56
374.513	373.56
374.739	379.56
374.965	356.56
375.191	366.56
375.416	367.56
375.642	342.56
375.868	353.56
376.094	356.56
376.319	375.56
376.545	358.56
376.771	373.56
376.997	364.56
377.222	360.56
377.448	375.56
377.674	361.56
377.899	346.56
378.125	366.56
378.35	358.56
378.576	364.56
378.802	353.56
379.027	364.56
379.253	344.56
379.478	350.56
379.704	343.56
379.929	370.56
380.155	369.56
380.38	362.56
380.606	359.56
380.831	362.56
381.057	381.56
381.282	365.56
381.507	364.56
381.733	370.56
381.958	348.56
382.184	379.56
382.409	369.56
382.634	366.56
382.86	377.56
383.085	359.56
383.31	353.56
383.535	355.56
383.761	370.56
383.986	373.56
384.211	357.56
384.436	373.56
384.662	385.56
384.887	364.56
385.112	370.56
385.337	395.56
385.562	393.56
385.787	397.56
386.013	408.56
386.238	400.56
386.463	418.56
386.688	403.56
386.913	379.56
387.138	357.56
387.363	366.56
387.588	375.56
387.813	381.56
388.038	391.56
388.263	380.56
388.488	382.56
388.713	386.56
388.938	379.56
389.163	399.56
389.387	407.56
389.612	395.56
389.837	385.56
390.062	384.56
390.287	369.56
390.512	377.56
390.736	371.56
390.961	389.56
391.186	391.56
391.411	391.56
391.636	384.56
391.86	398.56
392.085	401.56
392.31	403.56
392.534	380.56
392.759	394.56
392.984	393.56
393.208	395.56
393.433	396.56
393.658	409.56
393.882	388.56
394.107	388.56
394.331	399.56
394.556	391.56
394.78	386.56
395.005	392.56
395.229	392.56
395.454	389.56
395.678	376.56
395.903	405.56
396.127	425.56
396.352	442.56
396.576	399.56
396.801	409.56
397.025	375.56
397.249	409.56
397.474	406.56
397.698	409.56
397.922	430.56
398.147	418.56
398.371	427.56
398.595	421.56
398.82	427.56
399.044	433.56
399.268	437.56
399.492	436.56
399.717	479.56
399.941	491.56
400.165	522.56
400.389	521.56
400.613	487.56
400.837	481.56
401.062	446.56
401.286	445.56
401.51	424.56
401.734	416.56
401.958	434.56
402.182	427.56
402.406	480.56
402.63	455.56
402.854	469.56
403.078	444.56
403.302	435.56
403.526	452.56
403.75	454.56
403.974	442.56
404.198	456.56
404.422	465.56
404.645	471.56
404.869	484.56
405.093	510.56
405.317	541.56
405.541	567.56
405.765	528.56
405.988	486.56
406.212	515.56
406.436	523.56
406.66	540.56
406.883	516.56
407.107	524.56
407.331	555.56
407.555	620.56
407.778	644.56
408.002	583.56
408.226	535.56
408.449	519.56
408.673	502.56
408.896	531.56
409.12	572.56
409.344	541.56
409.567	477.56
409.791	470.56
410.014	462.56
410.238	464.56
410.461	464.56
410.685	472.56
410.908	467.56
411.132	503.56
411.355	566.56
411.578	537.56
411.802	476.56
412.025	449.56
412.249	476.56
412.472	494.56
412.695	547.56
412.919	551.56
413.142	466.56
413.365	463.56
413.589	446.56
413.812	431.56
414.035	431.56
414.258	417.56
414.482	433.56
414.705	426.56
414.928	428.56
415.151	429.56
415.374	437.56
415.597	419.56
415.821	424.56
416.044	425.56
416.267	430.56
416.49	434.56
416.713	426.56
416.936	413.56
417.159	445.56
417.382	433.56
417.605	440.56
417.828	458.56
418.051	489.56
418.274	472.56
418.497	442.56
418.72	461.56
418.943	441.56
419.166	459.56
419.389	461.56
419.611	469.56
419.834	457.56
420.057	452.56
420.28	465.56
420.503	465.56
420.726	450.56
420.948	508.56
421.171	521.56
421.394	572.56
421.617	514.56
421.839	468.56
422.062	465.56
422.285	479.56
422.507	528.56
422.73	611.56
422.953	599.56
423.175	541.56
423.398	482.56
423.621	502.56
423.843	513.56
424.066	511.56
424.288	517.56
424.511	529.56
424.733	590.56
424.956	664.56
425.178	650.56
425.401	613.56
425.623	671.56
425.846	582.56
426.068	506.56
426.291	507.56
426.513	516.56
426.735	536.56
426.958	588.56
427.18	653.56
427.402	782.56
427.625	880.56
427.847	807.56
428.069	665.56
428.292	613.56
428.514	541.56
428.736	490.56
428.958	487.56
429.181	487.56
429.403	479.56
429.625	478.56
429.847	516.56
430.069	600.56
430.292	586.56
430.514	502.56
430.736	466.56
430.958	461.56
431.18	445.56
431.402	463.56
431.624	437.56
431.846	433.56
432.068	453.56
432.29	440.56
432.512	440.56
432.734	463.56
432.956	456.56
433.178	463.56
433.4	477.56
433.622	453.56
433.844	454.56
434.066	461.56
434.287	441.56
434.509	441.56
434.731	460.56
434.953	445.56
435.175	463.56
435.397	507.56
435.618	516.56
435.84	554.56
436.062	655.56
436.284	714.56
436.505	601.56
436.727	550.56
436.949	511.56
437.17	493.56
437.392	484.56
437.614	527.56
437.835	541.56
438.057	658.56
438.278	756.56
438.5	736.56
438.721	797.56
438.943	772.56
439.165	619.56
439.386	558.56
439.608	589.56
439.829	550.56
440.05	577.56
440.272	628.56
440.493	575.56
440.715	515.56
440.936	506.56
441.158	516.56
441.379	502.56
441.6	521.56
441.822	527.56
442.043	564.56
442.264	661.56
442.486	713.56
442.707	583.56
442.928	545.56
443.149	540.56
443.371	577.56
443.592	629.56
443.813	709.56
444.034	765.56
444.255	652.56
444.476	547.56
444.698	529.56
444.919	516.56
445.14	583.56
445.361	581.56
445.582	565.56
445.803	642.56
446.024	741.56
446.245	738.56
446.466	677.56
446.687	593.56
446.908	565.56
447.129	508.56
447.35	490.56
447.571	463.56
447.792	495.56
448.013	489.56
448.234	518.56
448.455	565.56
448.675	676.56
448.896	792.56
449.117	664.56
449.338	649.56
449.559	754.56
449.779	818.56
450	663.56
450.221	552.56
450.442	507.56
450.662	510.56
450.883	520.56
451.104	531.56
451.324	517.56
451.545	467.56
451.766	476.56
451.986	453.56
452.207	436.56
452.428	431.56
452.648	417.56
452.869	445.56
453.089	465.56
453.31	454.56
453.53	437.56
453.751	445.56
453.971	461.56
454.192	476.56
454.412	464.56
454.633	441.56
454.853	427.56
455.073	435.56
455.294	467.56
455.514	541.56
455.734	518.56
455.955	430.56
456.175	430.56
456.395	412.56
456.616	407.56
456.836	397.56
457.056	396.56
457.276	391.56
457.497	390.56
457.717	408.56
457.937	419.56
458.157	412.56
458.377	434.56
458.598	458.56
458.818	516.56
459.038	621.56
459.258	626.56
459.478	521.56
459.698	469.56
459.918	457.56
460.138	439.56
460.358	430.56
460.578	442.56
460.798	441.56
461.018	426.56
461.238	447.56
461.458	413.56
461.678	424.56
461.898	418.56
462.118	434.56
462.338	460.56
462.558	443.56
462.777	436.56
462.997	433.56
463.217	462.56
463.437	463.56
463.657	459.56
463.876	460.56
464.096	464.56
464.316	457.56
464.536	484.56
464.755	475.56
464.975	488.56
465.195	522.56
465.414	668.56
465.634	572.56
465.854	497.56
466.073	469.56
466.293	449.56
466.512	458.56
466.732	429.56
466.951	430.56
467.171	420.56
467.391	479.56
467.61	455.56
467.829	458.56
468.049	442.56
468.268	446.56
468.488	454.56
468.707	421.56
468.927	441.56
469.146	429.56
469.365	416.56
469.585	418.56
469.804	455.56
470.023	449.56
470.243	450.56
470.462	443.56
470.681	461.56
470.901	462.56
471.12	442.56
471.339	452.56
471.558	448.56
471.777	460.56
471.997	440.56
472.216	439.56
472.435	495.56
472.654	498.56
472.873	448.56
473.092	445.56
473.311	452.56
473.53	469.56
473.749	475.56
473.968	509.56
474.187	647.56
474.406	655.56
474.625	528.56
474.844	469.56
475.063	453.56
475.282	452.56
475.501	440.56
475.72	461.56
475.939	448.56
476.158	469.56
476.377	474.56
476.596	468.56
476.814	464.56
477.033	454.56
477.252	458.56
477.471	463.56
477.69	478.56
477.908	463.56
478.127	501.56
478.346	482.56
478.564	476.56
478.783	464.56
479.002	489.56
479.22	497.56
479.439	524.56
479.658	519.56
479.876	531.56
480.095	547.56
480.313	546.56
480.532	551.56
480.751	562.56
480.969	547.56
481.188	631.56
481.406	694.56
481.624	577.56
481.843	563.56
482.061	541.56
482.28	528.56
482.498	541.56
482.717	529.56
482.935	530.56
483.153	506.56
483.372	519.56
483.59	532.56
483.808	552.56
484.027	517.56
484.245	548.56
484.463	536.56
484.681	530.56
484.9	542.56
485.118	540.56
485.336	521.56
485.554	536.56
485.772	562.56
485.99	575.56
486.209	546.56
486.427	531.56
486.645	576.56
486.863	584.56
487.081	583.56
487.299	573.56
487.517	591.56
487.735	574.56
487.953	585.56
488.171	565.56
488.389	582.56
488.607	584.56
488.825	573.56
489.043	570.56
489.261	574.56
489.479	591.56
489.696	572.56
489.914	584.56
490.132	582.56
490.35	572.56
490.568	618.56
490.786	615.56
491.003	627.56
491.221	632.56
491.439	663.56
491.657	652.56
491.874	650.56
492.092	649.56
492.31	681.56
492.527	689.56
492.745	691.56
492.963	676.56
493.18	678.56
493.398	674.56
493.615	665.56
493.833	667.56
494.05	679.56
494.268	681.56
494.485	689.56
494.703	690.56
494.92	680.56
495.138	683.56
495.355	674.56
495.573	683.56
495.79	690.56
496.008	701.56
496.225	681.56
496.442	691.56
496.66	702.56
496.877	686.56
497.094	682.56
497.312	693.56
497.529	691.56
497.746	686.56
497.963	711.56
498.181	709.56
498.398	725.56
498.615	723.56
498.832	740.56
499.049	722.56
499.267	724.56
499.484	756.56
499.701	744.56
499.918	773.56
500.135	811.56
500.352	803.56
500.569	801.56
500.786	807.56
501.003	836.56
501.22	813.56
501.437	819.56
501.654	791.56
501.871	826.56
