Data from 1980.PennyLincolnUp.Lamp.En5.5.200Scan.071819.P1_HRD10591_16-36-07-956.txt Node
Date: Thu Jul 18 16:36:07 EDT 2019
User: cochatt
Spectrometer: HR+D1059
Trigger mode: 1
Integration Time (sec): 1.000000E-1
Scans to average: 1
Electric dark correction enabled: true
Nonlinearity correction enabled: false
Boxcar width: 0
XAxis mode: Wavelengths
Number of Pixels in Spectrum: 2048
>>>>>Begin Spectral Data<<<<<
223.165	-10
223.4	-10
223.635	-10
223.869	-2
224.104	-19
224.338	-18
224.573	-25
224.808	-6
225.042	-5
225.277	2
225.511	-1
225.746	-8
225.98	6
226.215	8
226.449	12
226.683	6
226.918	25
227.152	35
227.387	35
227.621	33
227.856	46
228.09	40
228.324	52
228.559	50
228.793	56
229.027	92
229.262	84
229.496	104
229.73	122
229.964	138
230.199	113
230.433	105
230.667	123
230.901	95
231.136	96
231.37	109
231.604	100
231.838	112
232.072	116
232.306	115
232.541	103
232.775	109
233.009	100
233.243	103
233.477	104
233.711	109
233.945	100
234.179	97
234.413	109
234.647	118
234.881	103
235.115	101
235.349	108
235.583	100
235.817	111
236.051	125
236.285	106
236.519	128
236.753	117
236.987	124
237.221	148
237.455	195
237.689	173
237.922	134
238.156	126
238.39	101
238.624	107
238.858	119
239.091	97
239.325	117
239.559	113
239.793	124
240.027	122
240.26	116
240.494	140
240.728	125
240.961	127
241.195	127
241.429	135
241.662	126
241.896	113
242.13	119
242.363	108
242.597	116
242.83	122
243.064	122
243.298	126
243.531	129
243.765	132
243.998	137
244.232	134
244.465	131
244.699	125
244.932	128
245.166	114
245.399	126
245.633	111
245.866	141
246.099	140
246.333	129
246.566	133
246.8	146
247.033	136
247.266	134
247.5	152
247.733	142
247.966	146
248.2	158
248.433	156
248.666	141
248.899	142
249.133	168
249.366	164
249.599	161
249.832	160
250.066	162
250.299	166
250.532	157
250.765	181
250.998	190
251.231	192
251.465	178
251.698	173
251.931	186
252.164	177
252.397	185
252.63	183
252.863	182
253.096	196
253.329	201
253.562	184
253.795	209
254.028	188
254.261	176
254.494	178
254.727	204
254.96	220
255.193	222
255.426	189
255.659	207
255.892	199
256.124	192
256.357	182
256.59	174
256.823	175
257.056	188
257.289	167
257.521	180
257.754	173
257.987	180
258.22	174
258.452	177
258.685	189
258.918	175
259.151	190
259.383	191
259.616	196
259.849	190
260.081	206
260.314	208
260.547	212
260.779	206
261.012	202
261.244	189
261.477	178
261.71	188
261.942	189
262.175	199
262.407	180
262.64	171
262.872	175
263.105	163
263.337	177
263.57	182
263.802	178
264.035	182
264.267	163
264.499	187
264.732	171
264.964	186
265.197	177
265.429	180
265.661	186
265.894	182
266.126	176
266.358	184
266.591	172
266.823	187
267.055	177
267.287	185
267.52	180
267.752	185
267.984	189
268.216	182
268.448	174
268.681	180
268.913	196
269.145	209
269.377	215
269.609	215
269.841	203
270.073	210
270.306	220
270.538	234
270.77	223
271.002	231
271.234	228
271.466	230
271.698	236
271.93	244
272.162	239
272.394	246
272.626	228
272.858	229
273.09	219
273.322	222
273.553	213
273.785	191
274.017	213
274.249	206
274.481	197
274.713	205
274.945	196
275.176	207
275.408	193
275.64	195
275.872	208
276.104	218
276.335	222
276.567	193
276.799	209
277.031	218
277.262	236
277.494	234
277.726	228
277.957	236
278.189	208
278.421	206
278.652	203
278.884	218
279.115	220
279.347	207
279.579	207
279.81	216
280.042	221
280.273	225
280.505	217
280.736	216
280.968	210
281.199	205
281.431	211
281.662	204
281.894	209
282.125	201
282.356	210
282.588	238
282.819	242
283.051	218
283.282	199
283.513	219
283.745	222
283.976	200
284.207	220
284.439	216
284.67	219
284.901	208
285.132	226
285.364	204
285.595	213
285.826	199
286.057	214
286.288	209
286.52	232
286.751	218
286.982	218
287.213	216
287.444	225
287.675	211
287.906	232
288.138	226
288.369	222
288.6	209
288.831	219
289.062	231
289.293	212
289.524	218
289.755	214
289.986	205
290.217	217
290.448	216
290.679	227
290.91	217
291.141	201
291.371	223
291.602	217
291.833	210
292.064	201
292.295	218
292.526	212
292.757	224
292.987	218
293.218	217
293.449	228
293.68	214
293.91	212
294.141	234
294.372	215
294.603	210
294.833	202
295.064	224
295.295	229
295.525	224
295.756	230
295.987	232
296.217	231
296.448	244
296.679	217
296.909	222
297.14	221
297.37	219
297.601	223
297.831	223
298.062	208
298.292	231
298.523	211
298.753	224
298.984	214
299.214	215
299.445	234
299.675	217
299.905	221
300.136	232
300.366	236
300.597	220
300.827	248
301.057	237
301.288	240
301.518	248
301.748	240
301.979	234
302.209	235
302.439	243
302.669	236
302.9	240
303.13	255
303.36	258
303.59	252
303.82	239
304.051	244
304.281	247
304.511	233
304.741	214
304.971	224
305.201	237
305.431	229
305.661	240
305.891	243
306.121	230
306.352	256
306.582	243
306.812	224
307.042	244
307.272	254
307.502	229
307.731	261
307.961	244
308.191	241
308.421	245
308.651	243
308.881	258
309.111	249
309.341	240
309.571	249
309.8	272
310.03	268
310.26	270
310.49	258
310.72	289
310.949	278
311.179	294
311.409	273
311.639	264
311.868	278
312.098	293
312.328	273
312.557	298
312.787	292
313.017	276
313.246	268
313.476	248
313.706	273
313.935	282
314.165	287
314.394	276
314.624	289
314.853	278
315.083	284
315.312	267
315.542	279
315.771	284
316.001	257
316.23	269
316.46	276
316.689	262
316.919	280
317.148	285
317.377	282
317.607	282
317.836	271
318.065	280
318.295	285
318.524	255
318.753	261
318.983	276
319.212	268
319.441	278
319.67	279
319.9	277
320.129	276
320.358	262
320.587	272
320.816	286
321.046	274
321.275	291
321.504	291
321.733	292
321.962	305
322.191	305
322.42	312
322.649	299
322.878	322
323.108	310
323.337	333
323.566	348
323.795	370
324.024	387
324.253	444
324.482	652
324.71	989
324.939	1433
325.168	1233
325.397	648
325.626	438
325.855	393
326.084	376
326.313	353
326.542	364
326.77	382
326.999	446
327.228	590
327.457	859
327.686	1094
327.914	714
328.143	478
328.372	421
328.6	404
328.829	385
329.058	391
329.287	407
329.515	383
329.744	361
329.972	344
330.201	352
330.43	381
330.658	370
330.887	422
331.115	417
331.344	387
331.572	338
331.801	333
332.03	346
332.258	340
332.486	316
332.715	313
332.943	313
333.172	316
333.4	320
333.629	339
333.857	335
334.085	331
334.314	335
334.542	341
334.771	347
334.999	330
335.227	330
335.455	331
335.684	321
335.912	344
336.14	315
336.369	315
336.597	310
336.825	350
337.053	316
337.281	309
337.51	312
337.738	308
337.966	312
338.194	332
338.422	317
338.65	303
338.878	314
339.106	316
339.334	313
339.562	303
339.79	317
340.018	302
340.246	301
340.474	301
340.702	291
340.93	311
341.158	285
341.386	318
341.614	318
341.842	310
342.07	321
342.298	297
342.526	302
342.754	294
342.981	301
343.209	294
343.437	293
343.665	310
343.893	309
344.12	307
344.348	321
344.576	309
344.804	332
345.031	314
345.259	302
345.487	293
345.714	302
345.942	305
346.17	293
346.397	287
346.625	294
346.853	310
347.08	304
347.308	293
347.535	318
347.763	305
347.99	308
348.218	302
348.445	308
348.673	320
348.9	300
349.128	311
349.355	291
349.583	316
349.81	287
350.037	287
350.265	292
350.492	292
350.72	295
350.947	301
351.174	308
351.402	302
351.629	324
351.856	300
352.083	309
352.311	318
352.538	304
352.765	287
352.992	306
353.22	303
353.447	303
353.674	312
353.901	290
354.128	278
354.355	289
354.583	280
354.81	275
355.037	294
355.264	291
355.491	292
355.718	302
355.945	277
356.172	276
356.399	277
356.626	290
356.853	290
357.08	293
357.307	278
357.534	297
357.761	310
357.988	285
358.215	291
358.441	282
358.668	296
358.895	310
359.122	282
359.349	302
359.576	297
359.802	313
360.029	345
360.256	346
360.483	348
360.709	314
360.936	320
361.163	301
361.39	305
361.616	299
361.843	287
362.07	322
362.296	313
362.523	289
362.749	301
362.976	303
363.203	290
363.429	283
363.656	298
363.882	272
364.109	295
364.335	304
364.562	293
364.788	296
365.015	302
365.241	294
365.468	300
365.694	303
365.92	298
366.147	289
366.373	293
366.599	313
366.826	320
367.052	298
367.278	288
367.505	294
367.731	305
367.957	295
368.184	282
368.41	296
368.636	305
368.862	301
369.089	305
369.315	304
369.541	298
369.767	284
369.993	316
370.219	292
370.445	295
370.672	295
370.898	298
371.124	294
371.35	293
371.576	285
371.802	312
372.028	287
372.254	307
372.48	288
372.706	284
372.932	287
373.158	301
373.384	308
373.61	308
373.835	302
374.061	314
374.287	303
374.513	310
374.739	322
374.965	311
375.191	296
375.416	291
375.642	313
375.868	282
376.094	304
376.319	312
376.545	300
376.771	295
376.997	286
377.222	296
377.448	298
377.674	301
377.899	298
378.125	293
378.35	290
378.576	290
378.802	309
379.027	280
379.253	301
379.478	290
379.704	304
379.929	302
380.155	301
380.38	302
380.606	297
380.831	292
381.057	300
381.282	301
381.507	298
381.733	311
381.958	319
382.184	304
382.409	310
382.634	296
382.86	303
383.085	306
383.31	301
383.535	312
383.761	293
383.986	305
384.211	305
384.436	318
384.662	340
384.887	320
385.112	310
385.337	301
385.562	311
385.787	314
386.013	324
386.238	328
386.463	322
386.688	324
386.913	330
387.138	336
387.363	325
387.588	318
387.813	316
388.038	304
388.263	308
388.488	327
388.713	340
388.938	317
389.163	318
389.387	328
389.612	312
389.837	332
390.062	349
390.287	323
390.512	337
390.736	336
390.961	334
391.186	296
391.411	325
391.636	312
391.86	330
392.085	326
392.31	326
392.534	343
392.759	326
392.984	318
393.208	339
393.433	344
393.658	359
393.882	327
394.107	325
394.331	313
394.556	324
394.78	319
395.005	296
395.229	329
395.454	315
395.678	330
395.903	334
396.127	329
396.352	353
396.576	359
396.801	333
397.025	350
397.249	348
397.474	336
397.698	344
397.922	335
398.147	335
398.371	345
398.595	352
398.82	346
399.044	341
399.268	366
399.492	372
399.717	396
399.941	407
400.165	448
400.389	434
400.613	400
400.837	370
401.062	372
401.286	368
401.51	355
401.734	351
401.958	362
402.182	351
402.406	342
402.63	381
402.854	362
403.078	329
403.302	365
403.526	372
403.75	372
403.974	366
404.198	370
404.422	373
404.645	392
404.869	376
405.093	390
405.317	402
405.541	418
405.765	406
405.988	389
406.212	404
406.436	402
406.66	430
406.883	418
407.107	421
407.331	457
407.555	470
407.778	487
408.002	444
408.226	423
408.449	412
408.673	405
408.896	414
409.12	457
409.344	446
409.567	388
409.791	379
410.014	401
410.238	388
410.461	379
410.685	369
410.908	378
411.132	404
411.355	441
411.578	414
411.802	384
412.025	361
412.249	388
412.472	376
412.695	399
412.919	383
413.142	380
413.365	359
413.589	366
413.812	365
414.035	370
414.258	345
414.482	353
414.705	376
414.928	362
415.151	351
415.374	348
415.597	336
415.821	355
416.044	372
416.267	364
416.49	365
416.713	345
416.936	359
417.159	345
417.382	361
417.605	352
417.828	352
418.051	365
418.274	373
418.497	356
418.72	356
418.943	370
419.166	365
419.389	375
419.611	367
419.834	388
420.057	356
420.28	384
420.503	365
420.726	378
420.948	376
421.171	412
421.394	441
421.617	388
421.839	355
422.062	384
422.285	384
422.507	430
422.73	508
422.953	465
423.175	416
423.398	384
423.621	396
423.843	396
424.066	394
424.288	402
424.511	408
424.733	454
424.956	516
425.178	500
425.401	506
425.623	503
425.846	453
426.068	419
426.291	372
426.513	395
426.735	409
426.958	440
427.18	522
427.402	583
427.625	671
427.847	585
428.069	466
428.292	442
428.514	420
428.736	404
428.958	392
429.181	384
429.403	375
429.625	389
429.847	398
430.069	459
430.292	456
430.514	367
430.736	374
430.958	390
431.18	375
431.402	350
431.624	357
431.846	344
432.068	346
432.29	364
432.512	342
432.734	367
432.956	375
433.178	368
433.4	389
433.622	369
433.844	339
434.066	352
434.287	348
434.509	334
434.731	355
434.953	362
435.175	387
435.397	398
435.618	421
435.84	451
436.062	500
436.284	571
436.505	484
436.727	421
436.949	388
437.17	390
437.392	362
437.614	384
437.835	404
438.057	484
438.278	549
438.5	558
438.721	615
438.943	592
439.165	479
439.386	447
439.608	425
439.829	423
440.05	458
440.272	462
440.493	441
440.715	400
440.936	393
441.158	380
441.379	400
441.6	365
441.822	408
442.043	414
442.264	510
442.486	540
442.707	466
442.928	438
443.149	437
443.371	421
443.592	453
443.813	516
444.034	590
444.255	489
444.476	435
444.698	434
444.919	394
445.14	495
445.361	454
445.582	434
445.803	461
446.024	544
446.245	556
446.466	526
446.687	454
446.908	425
447.129	394
447.35	405
447.571	385
447.792	384
448.013	383
448.234	381
448.455	442
448.675	510
448.896	620
449.117	516
449.338	501
449.559	545
449.779	624
450	520
450.221	435
450.442	392
450.662	389
450.883	386
451.104	372
451.324	382
451.545	365
451.766	342
451.986	351
452.207	331
452.428	318
452.648	358
452.869	355
453.089	336
453.31	373
453.53	346
453.751	335
453.971	340
454.192	348
454.412	344
454.633	330
454.853	338
455.073	337
455.294	370
455.514	427
455.734	388
455.955	342
456.175	326
456.395	328
456.616	307
456.836	321
457.056	326
457.276	314
457.497	318
457.717	317
457.937	323
458.157	324
458.377	328
458.598	361
458.818	367
459.038	428
459.258	454
459.478	378
459.698	361
459.918	360
460.138	336
460.358	360
460.578	351
460.798	365
461.018	374
461.238	345
461.458	357
461.678	341
461.898	376
462.118	369
462.338	365
462.558	355
462.777	358
462.997	359
463.217	378
463.437	382
463.657	379
463.876	360
464.096	378
464.316	386
464.536	377
464.755	388
464.975	351
465.195	396
465.414	426
465.634	402
465.854	362
466.073	337
466.293	361
466.512	337
466.732	344
466.951	337
467.171	346
467.391	318
467.61	341
467.829	352
468.049	360
468.268	323
468.488	332
468.707	321
468.927	338
469.146	329
469.365	334
469.585	338
469.804	324
470.023	354
470.243	340
470.462	344
470.681	380
470.901	349
471.12	344
471.339	357
471.558	353
471.777	352
471.997	335
472.216	359
472.435	349
472.654	359
472.873	361
473.092	338
473.311	358
473.53	363
473.749	359
473.968	399
474.187	443
474.406	481
474.625	406
474.844	383
475.063	369
475.282	361
475.501	364
475.72	358
475.939	351
476.158	349
476.377	359
476.596	391
476.814	360
477.033	366
477.252	386
477.471	363
477.69	368
477.908	361
478.127	376
478.346	375
478.564	374
478.783	388
479.002	399
479.22	398
479.439	417
479.658	395
479.876	428
480.095	411
480.313	449
480.532	417
480.751	414
480.969	438
481.188	454
481.406	459
481.624	436
481.843	402
482.061	413
482.28	415
482.498	409
482.717	399
482.935	420
483.153	398
483.372	388
483.59	412
483.808	411
484.027	380
484.245	412
484.463	409
484.681	429
484.9	406
485.118	424
485.336	416
485.554	417
485.772	440
485.99	425
486.209	421
486.427	444
486.645	430
486.863	424
487.081	461
487.299	440
487.517	456
487.735	456
487.953	437
488.171	447
488.389	454
488.607	450
488.825	433
489.043	442
489.261	434
489.479	460
489.696	437
489.914	438
490.132	449
490.35	476
490.568	461
490.786	481
491.003	476
491.221	496
491.439	490
491.657	495
491.874	502
492.092	502
492.31	491
492.527	517
492.745	517
492.963	527
493.18	513
493.398	510
493.615	529
493.833	526
494.05	526
494.268	507
494.485	512
494.703	503
494.92	516
495.138	537
495.355	524
495.573	523
495.79	536
496.008	544
496.225	520
496.442	538
496.66	537
496.877	516
497.094	516
497.312	539
497.529	545
497.746	556
497.963	545
498.181	556
498.398	578
498.615	590
498.832	570
499.049	574
499.267	581
499.484	592
499.701	628
499.918	640
500.135	658
500.352	679
500.569	672
500.786	680
501.003	675
501.22	656
501.437	642
501.654	671
501.871	645
502.088	640
502.305	613
502.522	576
502.739	571
502.956	534
503.172	535
503.389	556
503.606	555
503.823	546
504.04	546
504.256	527
504.473	518
504.69	502
504.907	539
505.123	520
505.34	488
505.557	495
505.773	523
505.99	515
506.207	506
506.423	526
506.64	514
506.856	504
507.073	497
507.289	492
507.506	507
507.722	497
507.939	500
508.155	516
508.372	488
508.588	493
508.805	477
509.021	480
509.238	464
509.454	513
509.67	516
509.887	506
510.103	482
510.319	489
510.536	550
510.752	875
510.968	709
511.184	471
511.401	472
511.617	466
511.833	456
512.049	465
512.265	485
512.481	452
512.698	460
512.914	461
513.13	456
513.346	469
513.562	462
513.778	434
513.994	458
514.21	467
514.426	468
514.642	521
514.858	533
515.074	539
515.29	620
515.506	908
515.721	761
515.937	544
516.153	502
516.369	487
516.585	456
516.801	458
517.016	466
517.232	461
517.448	471
517.664	454
517.879	466
518.095	470
518.311	479
518.527	464
518.742	450
518.958	456
519.173	438
519.389	456
519.605	468
519.82	461
520.036	459
520.251	497
520.467	490
520.682	458
520.898	507
521.113	483
521.329	516
521.544	580
521.76	723
521.975	1110
522.19	1131
522.406	651
522.621	526
522.836	466
523.052	442
523.267	451
523.482	427
523.698	428
523.913	431
524.128	449
524.343	414
524.559	390
524.774	388
524.989	421
525.204	400
525.419	402
525.634	389
525.849	392
526.064	406
526.28	400
526.495	376
526.71	381
526.925	385
527.14	391
527.355	373
527.57	373
527.785	372
527.999	346
528.214	366
528.429	377
528.644	388
528.859	362
529.074	354
529.289	409
529.503	447
529.718	429
529.933	405
530.148	380
530.363	381
530.577	377
530.792	371
531.007	356
531.221	371
531.436	349
531.651	385
531.865	363
532.08	367
532.295	352
532.509	359
532.724	369
532.938	351
533.153	354
533.367	361
533.582	376
533.796	359
534.011	344
534.225	347
534.44	342
534.654	353
534.868	367
535.083	360
535.297	350
535.511	340
535.726	377
535.94	359
536.154	340
536.369	363
536.583	352
536.797	342
537.011	356
537.225	355
537.44	355
537.654	349
537.868	363
538.082	358
538.296	352
538.51	345
538.724	342
538.938	336
539.153	350
539.367	342
539.581	372
539.795	368
540.009	349
540.222	352
540.436	340
540.65	356
540.864	358
541.078	370
541.292	360
541.506	361
541.72	369
541.934	362
542.147	364
542.361	345
542.575	359
542.789	330
543.002	342
543.216	346
543.43	352
543.644	353
543.857	342
544.071	364
544.285	356
544.498	346
544.712	349
544.925	328
545.139	345
545.352	361
545.566	367
545.779	319
545.993	344
546.206	346
546.42	360
546.633	349
546.847	341
547.06	336
547.274	331
547.487	344
547.7	333
547.914	351
548.127	328
548.34	346
548.554	334
548.767	360
548.98	332
549.193	343
549.407	327
549.62	337
549.833	331
550.046	336
550.259	318
550.473	332
550.686	350
550.899	331
551.112	329
551.325	318
551.538	314
551.751	338
551.964	335
552.177	319
552.39	324
552.603	347
552.816	333
553.029	318
553.242	323
553.455	325
553.667	347
553.88	353
554.093	345
554.306	339
554.519	332
554.732	324
554.944	331
555.157	329
555.37	321
555.583	319
555.795	320
556.008	318
556.221	305
556.433	320
556.646	322
556.859	308
557.071	296
557.284	297
557.496	319
557.709	303
557.921	315
558.134	311
558.346	317
558.559	304
558.771	324
558.984	316
559.196	288
559.409	328
559.621	295
559.833	294
560.046	308
560.258	284
560.47	284
560.683	303
560.895	315
561.107	305
561.32	285
561.532	315
561.744	304
561.956	316
562.168	310
562.381	302
562.593	312
562.805	324
563.017	304
563.229	297
563.441	308
563.653	306
563.865	304
