Data from 1980.PennyLincolnUp.Lamp.En5.5.200Scan.071819.P1_HRD10591_16-37-08-957.txt Node
Date: Thu Jul 18 16:37:08 EDT 2019
User: cochatt
Spectrometer: HR+D1059
Trigger mode: 1
Integration Time (sec): 1.000000E-1
Scans to average: 1
Electric dark correction enabled: true
Nonlinearity correction enabled: false
Boxcar width: 0
XAxis mode: Wavelengths
Number of Pixels in Spectrum: 2048
>>>>>Begin Spectral Data<<<<<
223.165	-16.31
223.4	-16.31
223.635	-16.31
223.869	-9.31
224.104	-15.31
224.338	-19.31
224.573	-17.31
224.808	-21.31
225.042	-2.31
225.277	-10.31
225.511	-9.31
225.746	1.69
225.98	21.69
226.215	12.69
226.449	15.69
226.683	25.69
226.918	21.69
227.152	21.69
227.387	21.69
227.621	31.69
227.856	49.69
228.09	45.69
228.324	52.69
228.559	54.69
228.793	71.69
229.027	104.69
229.262	112.69
229.496	116.69
229.73	140.69
229.964	154.69
230.199	120.69
230.433	105.69
230.667	97.69
230.901	118.69
231.136	109.69
231.37	96.69
231.604	114.69
231.838	120.69
232.072	110.69
232.306	110.69
232.541	115.69
232.775	105.69
233.009	103.69
233.243	107.69
233.477	105.69
233.711	105.69
233.945	114.69
234.179	104.69
234.413	103.69
234.647	111.69
234.881	117.69
235.115	121.69
235.349	101.69
235.583	103.69
235.817	112.69
236.051	102.69
236.285	117.69
236.519	120.69
236.753	119.69
236.987	139.69
237.221	179.69
237.455	233.69
237.689	186.69
237.922	124.69
238.156	127.69
238.39	124.69
238.624	115.69
238.858	119.69
239.091	139.69
239.325	127.69
239.559	121.69
239.793	129.69
240.027	140.69
240.26	127.69
240.494	157.69
240.728	153.69
240.961	142.69
241.195	141.69
241.429	143.69
241.662	125.69
241.896	138.69
242.13	137.69
242.363	117.69
242.597	118.69
242.83	137.69
243.064	135.69
243.298	129.69
243.531	130.69
243.765	124.69
243.998	127.69
244.232	157.69
244.465	145.69
244.699	137.69
244.932	135.69
245.166	140.69
245.399	135.69
245.633	142.69
245.866	130.69
246.099	155.69
246.333	144.69
246.566	137.69
246.8	149.69
247.033	149.69
247.266	147.69
247.5	154.69
247.733	174.69
247.966	162.69
248.2	183.69
248.433	163.69
248.666	183.69
248.899	181.69
249.133	215.69
249.366	199.69
249.599	201.69
249.832	175.69
250.066	191.69
250.299	186.69
250.532	188.69
250.765	208.69
250.998	222.69
251.231	226.69
251.465	217.69
251.698	208.69
251.931	204.69
252.164	189.69
252.397	203.69
252.63	197.69
252.863	195.69
253.096	200.69
253.329	245.69
253.562	228.69
253.795	225.69
254.028	250.69
254.261	197.69
254.494	216.69
254.727	253.69
254.96	266.69
255.193	271.69
255.426	247.69
255.659	242.69
255.892	222.69
256.124	242.69
256.357	226.69
256.59	222.69
256.823	219.69
257.056	208.69
257.289	186.69
257.521	223.69
257.754	214.69
257.987	202.69
258.22	203.69
258.452	211.69
258.685	200.69
258.918	208.69
259.151	202.69
259.383	214.69
259.616	216.69
259.849	228.69
260.081	229.69
260.314	246.69
260.547	257.69
260.779	230.69
261.012	223.69
261.244	226.69
261.477	215.69
261.71	229.69
261.942	224.69
262.175	238.69
262.407	240.69
262.64	223.69
262.872	209.69
263.105	198.69
263.337	195.69
263.57	192.69
263.802	205.69
264.035	206.69
264.267	209.69
264.499	212.69
264.732	214.69
264.964	200.69
265.197	198.69
265.429	191.69
265.661	211.69
265.894	213.69
266.126	210.69
266.358	183.69
266.591	223.69
266.823	218.69
267.055	207.69
267.287	208.69
267.52	220.69
267.752	217.69
267.984	213.69
268.216	201.69
268.448	228.69
268.681	217.69
268.913	237.69
269.145	234.69
269.377	246.69
269.609	266.69
269.841	256.69
270.073	271.69
270.306	270.69
270.538	301.69
270.77	306.69
271.002	310.69
271.234	291.69
271.466	301.69
271.698	320.69
271.93	336.69
272.162	311.69
272.394	312.69
272.626	305.69
272.858	294.69
273.09	296.69
273.322	271.69
273.553	257.69
273.785	256.69
274.017	243.69
274.249	265.69
274.481	275.69
274.713	246.69
274.945	260.69
275.176	271.69
275.408	276.69
275.64	243.69
275.872	249.69
276.104	248.69
276.335	250.69
276.567	252.69
276.799	273.69
277.031	291.69
277.262	299.69
277.494	315.69
277.726	295.69
277.957	277.69
278.189	270.69
278.421	257.69
278.652	273.69
278.884	254.69
279.115	252.69
279.347	242.69
279.579	229.69
279.81	245.69
280.042	252.69
280.273	245.69
280.505	249.69
280.736	264.69
280.968	240.69
281.199	254.69
281.431	246.69
281.662	233.69
281.894	247.69
282.125	255.69
282.356	261.69
282.588	298.69
282.819	284.69
283.051	265.69
283.282	243.69
283.513	265.69
283.745	249.69
283.976	238.69
284.207	256.69
284.439	246.69
284.67	275.69
284.901	258.69
285.132	258.69
285.364	246.69
285.595	259.69
285.826	227.69
286.057	257.69
286.288	252.69
286.52	250.69
286.751	265.69
286.982	250.69
287.213	254.69
287.444	262.69
287.675	248.69
287.906	274.69
288.138	289.69
288.369	282.69
288.6	277.69
288.831	266.69
289.062	285.69
289.293	258.69
289.524	269.69
289.755	272.69
289.986	281.69
290.217	255.69
290.448	265.69
290.679	263.69
290.91	267.69
291.141	262.69
291.371	265.69
291.602	253.69
291.833	259.69
292.064	247.69
292.295	259.69
292.526	276.69
292.757	256.69
292.987	276.69
293.218	279.69
293.449	261.69
293.68	264.69
293.91	247.69
294.141	254.69
294.372	245.69
294.603	256.69
294.833	259.69
295.064	253.69
295.295	261.69
295.525	242.69
295.756	258.69
295.987	271.69
296.217	303.69
296.448	310.69
296.679	288.69
296.909	267.69
297.14	277.69
297.37	276.69
297.601	274.69
297.831	270.69
298.062	259.69
298.292	285.69
298.523	286.69
298.753	275.69
298.984	295.69
299.214	289.69
299.445	271.69
299.675	285.69
299.905	274.69
300.136	288.69
300.366	285.69
300.597	282.69
300.827	279.69
301.057	289.69
301.288	295.69
301.518	303.69
301.748	286.69
301.979	280.69
302.209	309.69
302.439	301.69
302.669	301.69
302.9	281.69
303.13	296.69
303.36	313.69
303.59	292.69
303.82	309.69
304.051	305.69
304.281	307.69
304.511	282.69
304.741	287.69
304.971	285.69
305.201	280.69
305.431	297.69
305.661	277.69
305.891	290.69
306.121	306.69
306.352	309.69
306.582	298.69
306.812	297.69
307.042	292.69
307.272	297.69
307.502	281.69
307.731	307.69
307.961	315.69
308.191	303.69
308.421	303.69
308.651	319.69
308.881	298.69
309.111	307.69
309.341	285.69
309.571	321.69
309.8	320.69
310.03	325.69
310.26	365.69
310.49	355.69
310.72	354.69
310.949	377.69
311.179	384.69
311.409	345.69
311.639	351.69
311.868	346.69
312.098	343.69
312.328	367.69
312.557	358.69
312.787	385.69
313.017	379.69
313.246	369.69
313.476	359.69
313.706	375.69
313.935	341.69
314.165	368.69
314.394	361.69
314.624	373.69
314.853	348.69
315.083	339.69
315.312	336.69
315.542	338.69
315.771	339.69
316.001	334.69
316.23	349.69
316.46	340.69
316.689	360.69
316.919	354.69
317.148	354.69
317.377	367.69
317.607	343.69
317.836	339.69
318.065	334.69
318.295	330.69
318.524	349.69
318.753	333.69
318.983	348.69
319.212	345.69
319.441	356.69
319.67	353.69
319.9	357.69
320.129	354.69
320.358	350.69
320.587	345.69
320.816	357.69
321.046	345.69
321.275	387.69
321.504	379.69
321.733	376.69
321.962	381.69
322.191	391.69
322.42	379.69
322.649	432.69
322.878	425.69
323.108	429.69
323.337	463.69
323.566	517.69
323.795	533.69
324.024	578.69
324.253	741.69
324.482	1016.69
324.71	1600.69
324.939	2281.69
325.168	2010.69
325.397	1077.69
325.626	719.69
325.855	555.69
326.084	505.69
326.313	496.69
326.542	515.69
326.77	567.69
326.999	666.69
327.228	905.69
327.457	1371.69
327.686	1736.69
327.914	1182.69
328.143	783.69
328.372	658.69
328.6	616.69
328.829	594.69
329.058	597.69
329.287	617.69
329.515	570.69
329.744	494.69
329.972	513.69
330.201	520.69
330.43	553.69
330.658	614.69
330.887	617.69
331.115	614.69
331.344	516.69
331.572	486.69
331.801	458.69
332.03	473.69
332.258	419.69
332.486	421.69
332.715	428.69
332.943	419.69
333.172	408.69
333.4	426.69
333.629	418.69
333.857	458.69
334.085	457.69
334.314	454.69
334.542	483.69
334.771	502.69
334.999	464.69
335.227	439.69
335.455	438.69
335.684	402.69
335.912	395.69
336.14	387.69
336.369	402.69
336.597	401.69
336.825	408.69
337.053	396.69
337.281	399.69
337.51	402.69
337.738	383.69
337.966	386.69
338.194	417.69
338.422	416.69
338.65	397.69
338.878	383.69
339.106	354.69
339.334	375.69
339.562	397.69
339.79	383.69
340.018	383.69
340.246	392.69
340.474	397.69
340.702	401.69
340.93	378.69
341.158	402.69
341.386	399.69
341.614	394.69
341.842	385.69
342.07	362.69
342.298	361.69
342.526	381.69
342.754	373.69
342.981	367.69
343.209	360.69
343.437	362.69
343.665	359.69
343.893	385.69
344.12	379.69
344.348	374.69
344.576	382.69
344.804	386.69
345.031	408.69
345.259	417.69
345.487	413.69
345.714	385.69
345.942	379.69
346.17	384.69
346.397	391.69
346.625	379.69
346.853	374.69
347.08	382.69
347.308	398.69
347.535	399.69
347.763	408.69
347.99	396.69
348.218	392.69
348.445	385.69
348.673	416.69
348.9	383.69
349.128	383.69
349.355	354.69
349.583	377.69
349.81	342.69
350.037	376.69
350.265	379.69
350.492	365.69
350.72	378.69
350.947	361.69
351.174	401.69
351.402	400.69
351.629	401.69
351.856	389.69
352.083	411.69
352.311	415.69
352.538	387.69
352.765	404.69
352.992	393.69
353.22	392.69
353.447	381.69
353.674	396.69
353.901	358.69
354.128	371.69
354.355	332.69
354.583	361.69
354.81	369.69
355.037	364.69
355.264	338.69
355.491	339.69
355.718	345.69
355.945	345.69
356.172	335.69
356.399	337.69
356.626	332.69
356.853	335.69
357.08	338.69
357.307	346.69
357.534	357.69
357.761	327.69
357.988	352.69
358.215	349.69
358.441	338.69
358.668	353.69
358.895	347.69
359.122	358.69
359.349	389.69
359.576	401.69
359.802	405.69
360.029	471.69
360.256	437.69
360.483	412.69
360.709	399.69
360.936	400.69
361.163	375.69
361.39	389.69
361.616	377.69
361.843	360.69
362.07	378.69
362.296	413.69
362.523	377.69
362.749	385.69
362.976	382.69
363.203	379.69
363.429	369.69
363.656	366.69
363.882	352.69
364.109	350.69
364.335	361.69
364.562	361.69
364.788	354.69
365.015	366.69
365.241	359.69
365.468	355.69
365.694	376.69
365.92	375.69
366.147	378.69
366.373	346.69
366.599	353.69
366.826	371.69
367.052	350.69
367.278	357.69
367.505	356.69
367.731	363.69
367.957	355.69
368.184	356.69
368.41	379.69
368.636	359.69
368.862	377.69
369.089	385.69
369.315	363.69
369.541	354.69
369.767	352.69
369.993	327.69
370.219	351.69
370.445	368.69
370.672	355.69
370.898	361.69
371.124	350.69
371.35	347.69
371.576	345.69
371.802	362.69
372.028	351.69
372.254	344.69
372.48	349.69
372.706	348.69
372.932	337.69
373.158	360.69
373.384	359.69
373.61	360.69
373.835	358.69
374.061	356.69
374.287	359.69
374.513	368.69
374.739	351.69
374.965	337.69
375.191	351.69
375.416	367.69
375.642	361.69
375.868	356.69
376.094	357.69
376.319	350.69
376.545	346.69
376.771	353.69
376.997	363.69
377.222	353.69
377.448	349.69
377.674	340.69
377.899	341.69
378.125	337.69
378.35	350.69
378.576	343.69
378.802	344.69
379.027	345.69
379.253	329.69
379.478	349.69
379.704	342.69
379.929	349.69
380.155	335.69
380.38	360.69
380.606	355.69
380.831	344.69
381.057	340.69
381.282	352.69
381.507	346.69
381.733	360.69
381.958	352.69
382.184	344.69
382.409	372.69
382.634	346.69
382.86	353.69
383.085	347.69
383.31	369.69
383.535	367.69
383.761	358.69
383.986	366.69
384.211	379.69
384.436	350.69
384.662	374.69
384.887	377.69
385.112	353.69
385.337	360.69
385.562	386.69
385.787	355.69
386.013	396.69
386.238	381.69
386.463	378.69
386.688	370.69
386.913	361.69
387.138	381.69
387.363	367.69
387.588	365.69
387.813	366.69
388.038	361.69
388.263	364.69
388.488	365.69
388.713	380.69
388.938	390.69
389.163	376.69
389.387	374.69
389.612	372.69
389.837	380.69
390.062	370.69
390.287	387.69
390.512	374.69
390.736	366.69
390.961	369.69
391.186	375.69
391.411	369.69
391.636	374.69
391.86	377.69
392.085	385.69
392.31	368.69
392.534	379.69
392.759	370.69
392.984	390.69
393.208	365.69
393.433	371.69
393.658	368.69
393.882	375.69
394.107	375.69
394.331	370.69
394.556	357.69
394.78	381.69
395.005	369.69
395.229	361.69
395.454	367.69
395.678	367.69
395.903	407.69
396.127	407.69
396.352	419.69
396.576	403.69
396.801	379.69
397.025	376.69
397.249	378.69
397.474	397.69
397.698	395.69
397.922	404.69
398.147	397.69
398.371	432.69
398.595	418.69
398.82	417.69
399.044	415.69
399.268	425.69
399.492	430.69
399.717	456.69
399.941	491.69
400.165	520.69
400.389	522.69
400.613	467.69
400.837	439.69
401.062	438.69
401.286	416.69
401.51	401.69
401.734	419.69
401.958	418.69
402.182	419.69
402.406	418.69
402.63	427.69
402.854	415.69
403.078	436.69
403.302	423.69
403.526	442.69
403.75	441.69
403.974	432.69
404.198	430.69
404.422	453.69
404.645	433.69
404.869	449.69
405.093	488.69
405.317	513.69
405.541	550.69
405.765	493.69
405.988	480.69
406.212	477.69
406.436	515.69
406.66	521.69
406.883	491.69
407.107	519.69
407.331	550.69
407.555	596.69
407.778	591.69
408.002	554.69
408.226	489.69
408.449	484.69
408.673	515.69
408.896	527.69
409.12	555.69
409.344	512.69
409.567	490.69
409.791	472.69
410.014	451.69
410.238	413.69
410.461	449.69
410.685	451.69
410.908	457.69
411.132	484.69
411.355	515.69
411.578	502.69
411.802	456.69
412.025	465.69
412.249	441.69
412.472	463.69
412.695	513.69
412.919	508.69
413.142	455.69
413.365	439.69
413.589	449.69
413.812	441.69
414.035	412.69
414.258	433.69
414.482	415.69
414.705	401.69
414.928	410.69
415.151	422.69
415.374	406.69
415.597	422.69
415.821	417.69
416.044	418.69
416.267	447.69
416.49	396.69
416.713	403.69
416.936	408.69
417.159	405.69
417.382	426.69
417.605	408.69
417.828	434.69
418.051	436.69
418.274	434.69
418.497	424.69
418.72	414.69
418.943	408.69
419.166	412.69
419.389	430.69
419.611	432.69
419.834	440.69
420.057	451.69
420.28	449.69
420.503	452.69
420.726	459.69
420.948	458.69
421.171	501.69
421.394	524.69
421.617	481.69
421.839	458.69
422.062	457.69
422.285	457.69
422.507	514.69
422.73	590.69
422.953	566.69
423.175	502.69
423.398	469.69
423.621	467.69
423.843	468.69
424.066	499.69
424.288	495.69
424.511	502.69
424.733	589.69
424.956	632.69
425.178	622.69
425.401	603.69
425.623	641.69
425.846	541.69
426.068	489.69
426.291	483.69
426.513	506.69
426.735	521.69
426.958	547.69
427.18	612.69
427.402	710.69
427.625	816.69
427.847	752.69
428.069	611.69
428.292	576.69
428.514	498.69
428.736	473.69
428.958	472.69
429.181	466.69
429.403	462.69
429.625	469.69
429.847	511.69
430.069	572.69
430.292	554.69
430.514	478.69
430.736	466.69
430.958	442.69
431.18	466.69
431.402	458.69
431.624	427.69
431.846	435.69
432.068	413.69
432.29	429.69
432.512	415.69
432.734	446.69
432.956	425.69
433.178	431.69
433.4	451.69
433.622	446.69
433.844	437.69
434.066	424.69
434.287	423.69
434.509	414.69
434.731	433.69
434.953	470.69
435.175	480.69
435.397	462.69
435.618	524.69
435.84	563.69
436.062	637.69
436.284	682.69
436.505	583.69
436.727	522.69
436.949	486.69
437.17	464.69
437.392	455.69
437.614	474.69
437.835	530.69
438.057	589.69
438.278	715.69
438.5	683.69
438.721	745.69
438.943	729.69
439.165	585.69
439.386	533.69
439.608	527.69
439.829	539.69
440.05	560.69
440.272	608.69
440.493	551.69
440.715	498.69
440.936	497.69
441.158	497.69
441.379	478.69
441.6	491.69
441.822	519.69
442.043	551.69
442.264	625.69
442.486	650.69
442.707	567.69
442.928	516.69
443.149	514.69
443.371	556.69
443.592	566.69
443.813	666.69
444.034	733.69
444.255	586.69
444.476	533.69
444.698	483.69
444.919	505.69
445.14	587.69
445.361	545.69
445.582	522.69
445.803	628.69
446.024	701.69
446.245	709.69
446.466	649.69
446.687	571.69
446.908	539.69
447.129	509.69
447.35	474.69
447.571	461.69
447.792	452.69
448.013	469.69
448.234	488.69
448.455	561.69
448.675	661.69
448.896	749.69
449.117	637.69
449.338	598.69
449.559	696.69
449.779	780.69
450	652.69
450.221	539.69
450.442	509.69
450.662	465.69
450.883	497.69
451.104	505.69
451.324	503.69
451.545	448.69
451.766	431.69
451.986	440.69
452.207	404.69
452.428	413.69
452.648	421.69
452.869	420.69
453.089	453.69
453.31	442.69
453.53	437.69
453.751	425.69
453.971	426.69
454.192	457.69
454.412	439.69
454.633	409.69
454.853	406.69
455.073	429.69
455.294	442.69
455.514	523.69
455.734	486.69
455.955	395.69
456.175	406.69
456.395	391.69
456.616	367.69
456.836	377.69
457.056	366.69
457.276	379.69
457.497	375.69
457.717	401.69
457.937	387.69
458.157	393.69
458.377	394.69
458.598	450.69
458.818	482.69
459.038	598.69
459.258	587.69
459.478	491.69
459.698	436.69
459.918	427.69
460.138	430.69
460.358	439.69
460.578	423.69
460.798	423.69
461.018	415.69
461.238	422.69
461.458	417.69
461.678	411.69
461.898	421.69
462.118	413.69
462.338	426.69
462.558	429.69
462.777	439.69
462.997	402.69
463.217	418.69
463.437	454.69
463.657	439.69
463.876	433.69
464.096	422.69
464.316	427.69
464.536	434.69
464.755	440.69
464.975	455.69
465.195	517.69
465.414	616.69
465.634	533.69
465.854	470.69
466.073	459.69
466.293	449.69
466.512	413.69
466.732	423.69
466.951	417.69
467.171	423.69
467.391	422.69
467.61	432.69
467.829	451.69
468.049	430.69
468.268	409.69
468.488	403.69
468.707	401.69
468.927	424.69
469.146	405.69
469.365	407.69
469.585	392.69
469.804	405.69
470.023	437.69
470.243	453.69
470.462	425.69
470.681	455.69
470.901	449.69
471.12	425.69
471.339	401.69
471.558	414.69
471.777	431.69
471.997	421.69
472.216	434.69
472.435	474.69
472.654	453.69
472.873	420.69
473.092	419.69
473.311	424.69
473.53	427.69
473.749	442.69
473.968	488.69
474.187	586.69
474.406	612.69
474.625	479.69
474.844	451.69
475.063	425.69
475.282	429.69
475.501	441.69
475.72	421.69
475.939	430.69
476.158	433.69
476.377	440.69
476.596	435.69
476.814	442.69
477.033	438.69
477.252	471.69
477.471	462.69
477.69	450.69
477.908	460.69
478.127	454.69
478.346	458.69
478.564	458.69
478.783	450.69
479.002	503.69
479.22	478.69
479.439	499.69
479.658	505.69
479.876	541.69
480.095	522.69
480.313	554.69
480.532	538.69
480.751	513.69
480.969	532.69
481.188	595.69
481.406	625.69
481.624	521.69
481.843	545.69
482.061	526.69
482.28	531.69
482.498	516.69
482.717	514.69
482.935	481.69
483.153	487.69
483.372	490.69
483.59	509.69
483.808	533.69
484.027	494.69
484.245	498.69
484.463	500.69
484.681	522.69
484.9	489.69
485.118	496.69
485.336	522.69
485.554	518.69
485.772	515.69
485.99	516.69
486.209	543.69
486.427	536.69
486.645	527.69
486.863	544.69
487.081	576.69
487.299	559.69
487.517	554.69
487.735	552.69
487.953	559.69
488.171	554.69
488.389	557.69
488.607	557.69
488.825	560.69
489.043	526.69
489.261	567.69
489.479	535.69
489.696	553.69
489.914	561.69
490.132	563.69
490.35	591.69
490.568	596.69
490.786	592.69
491.003	597.69
491.221	602.69
491.439	619.69
491.657	625.69
491.874	625.69
492.092	639.69
492.31	638.69
492.527	640.69
492.745	641.69
492.963	642.69
493.18	617.69
493.398	635.69
493.615	645.69
493.833	639.69
494.05	670.69
494.268	632.69
494.485	640.69
494.703	664.69
494.92	651.69
495.138	651.69
495.355	662.69
495.573	665.69
495.79	652.69
496.008	656.69
496.225	673.69
496.442	659.69
496.66	656.69
496.877	659.69
497.094	641.69
497.312	647.69
497.529	673.69
497.746	688.69
497.963	669.69
498.181	687.69
498.398	703.69
498.615	722.69
498.832	709.69
499.049	705.69
499.267	733.69
499.484	713.69
499.701	733.69
499.918	769.69
500.135	772.69
500.352	810.69
500.569	801.69
500.786	785.69
501.003	813.69
501.22	798.69
501.437	777.69
501.654	787.69
501.871	813.69
