Data from 1980.PennyLincolnUp.Lamp.En5.5.200Scan.071819.P1_HRD10591_16-38-38-958.txt Node
Date: Thu Jul 18 16:38:38 EDT 2019
User: cochatt
Spectrometer: HR+D1059
Trigger mode: 1
Integration Time (sec): 1.000000E-1
Scans to average: 1
Electric dark correction enabled: true
Nonlinearity correction enabled: false
Boxcar width: 0
XAxis mode: Wavelengths
Number of Pixels in Spectrum: 2048
>>>>>Begin Spectral Data<<<<<
223.165	-20.38
223.4	-20.38
223.635	-20.38
223.869	-24.38
224.104	-9.38
224.338	-4.38
224.573	-12.38
224.808	-27.38
225.042	3.62
225.277	-8.38
225.511	-11.38
225.746	7.62
225.98	14.62
226.215	7.62
226.449	15.62
226.683	25.62
226.918	14.62
227.152	28.62
227.387	36.62
227.621	32.62
227.856	41.62
228.09	56.62
228.324	58.62
228.559	56.62
228.793	64.62
229.027	109.62
229.262	107.62
229.496	112.62
229.73	123.62
229.964	179.62
230.199	136.62
230.433	121.62
230.667	127.62
230.901	112.62
231.136	122.62
231.37	115.62
231.604	107.62
231.838	117.62
232.072	98.62
232.306	121.62
232.541	124.62
232.775	106.62
233.009	117.62
233.243	119.62
233.477	110.62
233.711	116.62
233.945	122.62
234.179	103.62
234.413	115.62
234.647	124.62
234.881	133.62
235.115	113.62
235.349	133.62
235.583	127.62
235.817	112.62
236.051	127.62
236.285	135.62
236.519	127.62
236.753	135.62
236.987	161.62
237.221	196.62
237.455	243.62
237.689	215.62
237.922	155.62
238.156	147.62
238.39	138.62
238.624	131.62
238.858	127.62
239.091	119.62
239.325	133.62
239.559	130.62
239.793	133.62
240.027	129.62
240.26	156.62
240.494	163.62
240.728	177.62
240.961	149.62
241.195	152.62
241.429	148.62
241.662	151.62
241.896	136.62
242.13	138.62
242.363	141.62
242.597	140.62
242.83	122.62
243.064	145.62
243.298	136.62
243.531	125.62
243.765	141.62
243.998	141.62
244.232	137.62
244.465	148.62
244.699	151.62
244.932	145.62
245.166	153.62
245.399	148.62
245.633	150.62
245.866	152.62
246.099	147.62
246.333	143.62
246.566	152.62
246.8	157.62
247.033	150.62
247.266	152.62
247.5	158.62
247.733	176.62
247.966	172.62
248.2	157.62
248.433	176.62
248.666	192.62
248.899	196.62
249.133	218.62
249.366	231.62
249.599	207.62
249.832	201.62
250.066	200.62
250.299	186.62
250.532	210.62
250.765	196.62
250.998	224.62
251.231	228.62
251.465	239.62
251.698	220.62
251.931	211.62
252.164	193.62
252.397	200.62
252.63	196.62
252.863	211.62
253.096	217.62
253.329	236.62
253.562	218.62
253.795	234.62
254.028	227.62
254.261	243.62
254.494	233.62
254.727	260.62
254.96	304.62
255.193	292.62
255.426	261.62
255.659	246.62
255.892	251.62
256.124	250.62
256.357	257.62
256.59	239.62
256.823	235.62
257.056	215.62
257.289	219.62
257.521	211.62
257.754	224.62
257.987	216.62
258.22	203.62
258.452	205.62
258.685	221.62
258.918	219.62
259.151	202.62
259.383	221.62
259.616	217.62
259.849	233.62
260.081	241.62
260.314	270.62
260.547	291.62
260.779	264.62
261.012	236.62
261.244	241.62
261.477	225.62
261.71	232.62
261.942	248.62
262.175	251.62
262.407	245.62
262.64	215.62
262.872	225.62
263.105	214.62
263.337	218.62
263.57	222.62
263.802	206.62
264.035	209.62
264.267	187.62
264.499	206.62
264.732	195.62
264.964	209.62
265.197	202.62
265.429	225.62
265.661	201.62
265.894	208.62
266.126	209.62
266.358	216.62
266.591	216.62
266.823	236.62
267.055	220.62
267.287	215.62
267.52	215.62
267.752	232.62
267.984	213.62
268.216	218.62
268.448	244.62
268.681	230.62
268.913	238.62
269.145	266.62
269.377	286.62
269.609	300.62
269.841	282.62
270.073	286.62
270.306	297.62
270.538	328.62
270.77	314.62
271.002	308.62
271.234	320.62
271.466	320.62
271.698	330.62
271.93	332.62
272.162	324.62
272.394	345.62
272.626	311.62
272.858	294.62
273.09	293.62
273.322	270.62
273.553	265.62
273.785	262.62
274.017	261.62
274.249	266.62
274.481	263.62
274.713	273.62
274.945	287.62
275.176	262.62
275.408	257.62
275.64	265.62
275.872	262.62
276.104	267.62
276.335	267.62
276.567	280.62
276.799	291.62
277.031	300.62
277.262	354.62
277.494	321.62
277.726	322.62
277.957	301.62
278.189	276.62
278.421	279.62
278.652	259.62
278.884	270.62
279.115	256.62
279.347	270.62
279.579	277.62
279.81	278.62
280.042	270.62
280.273	288.62
280.505	261.62
280.736	252.62
280.968	255.62
281.199	269.62
281.431	260.62
281.662	270.62
281.894	261.62
282.125	251.62
282.356	282.62
282.588	294.62
282.819	304.62
283.051	284.62
283.282	250.62
283.513	265.62
283.745	259.62
283.976	280.62
284.207	275.62
284.439	263.62
284.67	265.62
284.901	266.62
285.132	260.62
285.364	244.62
285.595	247.62
285.826	272.62
286.057	257.62
286.288	258.62
286.52	275.62
286.751	269.62
286.982	276.62
287.213	247.62
287.444	256.62
287.675	288.62
287.906	280.62
288.138	283.62
288.369	295.62
288.6	290.62
288.831	287.62
289.062	273.62
289.293	266.62
289.524	272.62
289.755	282.62
289.986	270.62
290.217	260.62
290.448	278.62
290.679	258.62
290.91	258.62
291.141	263.62
291.371	277.62
291.602	253.62
291.833	241.62
292.064	243.62
292.295	273.62
292.526	258.62
292.757	277.62
292.987	260.62
293.218	276.62
293.449	274.62
293.68	283.62
293.91	276.62
294.141	275.62
294.372	273.62
294.603	265.62
294.833	271.62
295.064	271.62
295.295	269.62
295.525	265.62
295.756	286.62
295.987	283.62
296.217	301.62
296.448	321.62
296.679	288.62
296.909	293.62
297.14	288.62
297.37	280.62
297.601	298.62
297.831	283.62
298.062	262.62
298.292	295.62
298.523	272.62
298.753	294.62
298.984	280.62
299.214	274.62
299.445	258.62
299.675	293.62
299.905	312.62
300.136	289.62
300.366	287.62
300.597	287.62
300.827	296.62
301.057	307.62
301.288	317.62
301.518	312.62
301.748	317.62
301.979	305.62
302.209	313.62
302.439	298.62
302.669	313.62
302.9	312.62
303.13	304.62
303.36	318.62
303.59	296.62
303.82	320.62
304.051	317.62
304.281	316.62
304.511	287.62
304.741	289.62
304.971	296.62
305.201	284.62
305.431	299.62
305.661	304.62
305.891	324.62
306.121	312.62
306.352	310.62
306.582	314.62
306.812	319.62
307.042	298.62
307.272	309.62
307.502	306.62
307.731	303.62
307.961	319.62
308.191	309.62
308.421	304.62
308.651	314.62
308.881	333.62
309.111	329.62
309.341	340.62
309.571	345.62
309.8	333.62
310.03	355.62
310.26	377.62
310.49	381.62
310.72	384.62
310.949	419.62
311.179	416.62
311.409	377.62
311.639	379.62
311.868	364.62
312.098	375.62
312.328	361.62
312.557	385.62
312.787	422.62
313.017	405.62
313.246	386.62
313.476	372.62
313.706	359.62
313.935	360.62
314.165	380.62
314.394	395.62
314.624	398.62
314.853	380.62
315.083	343.62
315.312	381.62
315.542	361.62
315.771	361.62
316.001	364.62
316.23	359.62
316.46	362.62
316.689	360.62
316.919	351.62
317.148	368.62
317.377	383.62
317.607	383.62
317.836	354.62
318.065	369.62
318.295	375.62
318.524	352.62
318.753	339.62
318.983	352.62
319.212	352.62
319.441	396.62
319.67	388.62
319.9	354.62
320.129	367.62
320.358	376.62
320.587	384.62
320.816	377.62
321.046	385.62
321.275	398.62
321.504	395.62
321.733	372.62
321.962	397.62
322.191	402.62
322.42	437.62
322.649	472.62
322.878	460.62
323.108	469.62
323.337	505.62
323.566	541.62
323.795	582.62
324.024	645.62
324.253	787.62
324.482	1154.62
324.71	1782.62
324.939	2565.62
325.168	2193.62
325.397	1169.62
325.626	776.62
325.855	619.62
326.084	548.62
326.313	537.62
326.542	559.62
326.77	619.62
326.999	724.62
327.228	995.62
327.457	1542.62
327.686	1888.62
327.914	1286.62
328.143	834.62
328.372	723.62
328.6	669.62
328.829	629.62
329.058	634.62
329.287	651.62
329.515	607.62
329.744	536.62
329.972	549.62
330.201	561.62
330.43	619.62
330.658	667.62
330.887	675.62
331.115	667.62
331.344	562.62
331.572	519.62
331.801	507.62
332.03	498.62
332.258	465.62
332.486	455.62
332.715	455.62
332.943	433.62
333.172	447.62
333.4	434.62
333.629	471.62
333.857	462.62
334.085	475.62
334.314	498.62
334.542	529.62
334.771	547.62
334.999	502.62
335.227	472.62
335.455	441.62
335.684	420.62
335.912	401.62
336.14	392.62
336.369	408.62
336.597	443.62
336.825	425.62
337.053	403.62
337.281	384.62
337.51	391.62
337.738	423.62
337.966	422.62
338.194	424.62
338.422	423.62
338.65	382.62
338.878	407.62
339.106	388.62
339.334	388.62
339.562	408.62
339.79	385.62
340.018	374.62
340.246	389.62
340.474	434.62
340.702	402.62
340.93	409.62
341.158	402.62
341.386	398.62
341.614	409.62
341.842	407.62
342.07	400.62
342.298	385.62
342.526	401.62
342.754	392.62
342.981	381.62
343.209	400.62
343.437	390.62
343.665	381.62
343.893	399.62
344.12	394.62
344.348	397.62
344.576	403.62
344.804	403.62
345.031	418.62
345.259	419.62
345.487	412.62
345.714	423.62
345.942	421.62
346.17	388.62
346.397	389.62
346.625	394.62
346.853	392.62
347.08	387.62
347.308	407.62
347.535	410.62
347.763	409.62
347.99	410.62
348.218	439.62
348.445	435.62
348.673	428.62
348.9	407.62
349.128	391.62
349.355	379.62
349.583	378.62
349.81	373.62
350.037	362.62
350.265	375.62
350.492	377.62
350.72	365.62
350.947	389.62
351.174	427.62
351.402	427.62
351.629	396.62
351.856	431.62
352.083	409.62
352.311	429.62
352.538	420.62
352.765	413.62
352.992	399.62
353.22	423.62
353.447	412.62
353.674	389.62
353.901	358.62
354.128	374.62
354.355	365.62
354.583	367.62
354.81	353.62
355.037	371.62
355.264	355.62
355.491	343.62
355.718	337.62
355.945	352.62
356.172	360.62
356.399	351.62
356.626	357.62
356.853	374.62
357.08	369.62
357.307	340.62
357.534	323.62
357.761	338.62
357.988	367.62
358.215	361.62
358.441	344.62
358.668	365.62
358.895	372.62
359.122	371.62
359.349	354.62
359.576	389.62
359.802	435.62
360.029	475.62
360.256	498.62
360.483	477.62
360.709	401.62
360.936	420.62
361.163	390.62
361.39	420.62
361.616	406.62
361.843	404.62
362.07	388.62
362.296	395.62
362.523	389.62
362.749	391.62
362.976	381.62
363.203	383.62
363.429	391.62
363.656	378.62
363.882	404.62
364.109	378.62
364.335	355.62
364.562	352.62
364.788	361.62
365.015	352.62
365.241	371.62
365.468	381.62
365.694	376.62
365.92	390.62
366.147	372.62
366.373	373.62
366.599	364.62
366.826	371.62
367.052	364.62
367.278	383.62
367.505	371.62
367.731	379.62
367.957	353.62
368.184	367.62
368.41	395.62
368.636	385.62
368.862	391.62
369.089	398.62
369.315	400.62
369.541	373.62
369.767	372.62
369.993	372.62
370.219	361.62
370.445	360.62
370.672	347.62
370.898	361.62
371.124	383.62
371.35	343.62
371.576	371.62
371.802	323.62
372.028	351.62
372.254	350.62
372.48	354.62
372.706	350.62
372.932	355.62
373.158	346.62
373.384	358.62
373.61	370.62
373.835	375.62
374.061	356.62
374.287	367.62
374.513	355.62
374.739	370.62
374.965	334.62
375.191	379.62
375.416	349.62
375.642	353.62
375.868	341.62
376.094	332.62
376.319	346.62
376.545	346.62
376.771	360.62
376.997	367.62
377.222	364.62
377.448	342.62
377.674	364.62
377.899	354.62
378.125	335.62
378.35	334.62
378.576	359.62
378.802	351.62
379.027	344.62
379.253	345.62
379.478	347.62
379.704	348.62
379.929	357.62
380.155	357.62
380.38	340.62
380.606	359.62
380.831	349.62
381.057	358.62
381.282	350.62
381.507	340.62
381.733	337.62
381.958	363.62
382.184	357.62
382.409	357.62
382.634	352.62
382.86	357.62
383.085	351.62
383.31	354.62
383.535	357.62
383.761	362.62
383.986	358.62
384.211	372.62
384.436	357.62
384.662	367.62
384.887	395.62
385.112	364.62
385.337	365.62
385.562	369.62
385.787	385.62
386.013	378.62
386.238	388.62
386.463	418.62
386.688	383.62
386.913	375.62
387.138	370.62
387.363	371.62
387.588	371.62
387.813	385.62
388.038	372.62
388.263	382.62
388.488	379.62
388.713	383.62
388.938	364.62
389.163	382.62
389.387	367.62
389.612	378.62
389.837	369.62
390.062	375.62
390.287	369.62
390.512	391.62
390.736	355.62
390.961	373.62
391.186	383.62
391.411	381.62
391.636	367.62
391.86	382.62
392.085	394.62
392.31	385.62
392.534	379.62
392.759	377.62
392.984	375.62
393.208	388.62
393.433	373.62
393.658	377.62
393.882	358.62
394.107	375.62
394.331	389.62
394.556	373.62
394.78	380.62
395.005	378.62
395.229	368.62
395.454	375.62
395.678	410.62
395.903	397.62
396.127	434.62
396.352	433.62
396.576	410.62
396.801	379.62
397.025	400.62
397.249	380.62
397.474	403.62
397.698	402.62
397.922	426.62
398.147	430.62
398.371	434.62
398.595	417.62
398.82	411.62
399.044	438.62
399.268	422.62
399.492	444.62
399.717	460.62
399.941	483.62
400.165	524.62
400.389	532.62
400.613	471.62
400.837	438.62
401.062	452.62
401.286	426.62
401.51	435.62
401.734	405.62
401.958	433.62
402.182	449.62
402.406	426.62
402.63	437.62
402.854	437.62
403.078	454.62
403.302	446.62
403.526	445.62
403.75	453.62
403.974	454.62
404.198	449.62
404.422	438.62
404.645	444.62
404.869	457.62
405.093	508.62
405.317	513.62
405.541	555.62
405.765	518.62
405.988	501.62
406.212	496.62
406.436	521.62
406.66	556.62
406.883	497.62
407.107	533.62
407.331	551.62
407.555	607.62
407.778	613.62
408.002	532.62
408.226	525.62
408.449	507.62
408.673	504.62
408.896	508.62
409.12	543.62
409.344	512.62
409.567	469.62
409.791	447.62
410.014	471.62
410.238	438.62
410.461	441.62
410.685	464.62
410.908	431.62
411.132	511.62
411.355	561.62
411.578	519.62
411.802	479.62
412.025	440.62
412.249	451.62
412.472	481.62
412.695	509.62
412.919	518.62
413.142	466.62
413.365	453.62
413.589	418.62
413.812	432.62
414.035	416.62
414.258	410.62
414.482	415.62
414.705	412.62
414.928	412.62
415.151	410.62
415.374	420.62
415.597	407.62
415.821	418.62
416.044	416.62
416.267	426.62
416.49	458.62
416.713	419.62
416.936	413.62
417.159	404.62
417.382	440.62
417.605	415.62
417.828	433.62
418.051	457.62
418.274	445.62
418.497	425.62
418.72	427.62
418.943	436.62
419.166	445.62
419.389	455.62
419.611	466.62
419.834	473.62
420.057	450.62
420.28	456.62
420.503	451.62
420.726	453.62
420.948	468.62
421.171	517.62
421.394	530.62
421.617	490.62
421.839	458.62
422.062	459.62
422.285	461.62
422.507	533.62
422.73	599.62
422.953	615.62
423.175	524.62
423.398	486.62
423.621	503.62
423.843	500.62
424.066	483.62
424.288	506.62
424.511	511.62
424.733	554.62
424.956	663.62
425.178	617.62
425.401	642.62
425.623	663.62
425.846	563.62
426.068	491.62
426.291	541.62
426.513	512.62
426.735	515.62
426.958	578.62
427.18	639.62
427.402	759.62
427.625	844.62
427.847	791.62
428.069	683.62
428.292	583.62
428.514	523.62
428.736	491.62
428.958	475.62
429.181	472.62
429.403	491.62
429.625	498.62
429.847	523.62
430.069	594.62
430.292	606.62
430.514	508.62
430.736	455.62
430.958	475.62
431.18	449.62
431.402	443.62
431.624	449.62
431.846	444.62
432.068	441.62
432.29	422.62
432.512	428.62
432.734	450.62
432.956	435.62
433.178	467.62
433.4	458.62
433.622	439.62
433.844	444.62
434.066	442.62
434.287	432.62
434.509	452.62
434.731	437.62
434.953	473.62
435.175	482.62
435.397	499.62
435.618	523.62
435.84	556.62
436.062	642.62
436.284	735.62
436.505	605.62
436.727	546.62
436.949	489.62
437.17	485.62
437.392	490.62
437.614	480.62
437.835	543.62
438.057	643.62
438.278	734.62
438.5	736.62
438.721	769.62
438.943	738.62
439.165	601.62
439.386	565.62
439.608	548.62
439.829	564.62
440.05	565.62
440.272	612.62
440.493	563.62
440.715	521.62
440.936	518.62
441.158	483.62
441.379	495.62
441.6	491.62
441.822	500.62
442.043	544.62
442.264	615.62
442.486	684.62
442.707	609.62
442.928	533.62
443.149	545.62
443.371	587.62
443.592	624.62
443.813	706.62
444.034	736.62
444.255	625.62
444.476	540.62
444.698	516.62
444.919	487.62
445.14	581.62
445.361	554.62
445.582	556.62
445.803	641.62
446.024	711.62
446.245	748.62
446.466	681.62
446.687	572.62
446.908	529.62
447.129	504.62
447.35	503.62
447.571	483.62
447.792	476.62
448.013	475.62
448.234	495.62
448.455	553.62
448.675	666.62
448.896	770.62
449.117	677.62
449.338	611.62
449.559	745.62
449.779	822.62
450	673.62
450.221	561.62
450.442	514.62
450.662	503.62
450.883	483.62
451.104	509.62
451.324	493.62
451.545	476.62
451.766	442.62
451.986	447.62
452.207	427.62
452.428	425.62
452.648	425.62
452.869	420.62
453.089	456.62
453.31	465.62
453.53	463.62
453.751	407.62
453.971	424.62
454.192	441.62
454.412	446.62
454.633	438.62
454.853	431.62
455.073	424.62
455.294	445.62
455.514	520.62
455.734	513.62
455.955	431.62
456.175	396.62
456.395	413.62
456.616	391.62
456.836	401.62
457.056	385.62
457.276	394.62
457.497	401.62
457.717	389.62
457.937	417.62
458.157	399.62
458.377	422.62
458.598	443.62
458.818	511.62
459.038	607.62
459.258	624.62
459.478	524.62
459.698	453.62
459.918	457.62
460.138	438.62
460.358	446.62
460.578	440.62
460.798	444.62
461.018	426.62
461.238	421.62
461.458	419.62
461.678	412.62
461.898	433.62
462.118	421.62
462.338	433.62
462.558	413.62
462.777	419.62
462.997	437.62
463.217	447.62
463.437	445.62
463.657	435.62
463.876	434.62
464.096	428.62
464.316	433.62
464.536	453.62
464.755	470.62
464.975	466.62
465.195	526.62
465.414	648.62
465.634	549.62
465.854	493.62
466.073	472.62
466.293	444.62
466.512	433.62
466.732	428.62
466.951	435.62
467.171	419.62
467.391	422.62
467.61	450.62
467.829	422.62
468.049	452.62
468.268	465.62
468.488	429.62
468.707	409.62
468.927	409.62
469.146	410.62
469.365	423.62
469.585	441.62
469.804	437.62
470.023	454.62
470.243	451.62
470.462	463.62
470.681	460.62
470.901	459.62
471.12	452.62
471.339	419.62
471.558	436.62
471.777	443.62
471.997	444.62
472.216	433.62
472.435	485.62
472.654	484.62
472.873	447.62
473.092	420.62
473.311	432.62
473.53	430.62
473.749	451.62
473.968	500.62
474.187	599.62
474.406	641.62
474.625	523.62
474.844	469.62
475.063	441.62
475.282	421.62
475.501	462.62
475.72	439.62
475.939	461.62
476.158	449.62
476.377	475.62
476.596	439.62
476.814	463.62
477.033	467.62
477.252	467.62
477.471	463.62
477.69	474.62
477.908	467.62
478.127	463.62
478.346	489.62
478.564	479.62
478.783	456.62
479.002	480.62
479.22	492.62
479.439	502.62
479.658	539.62
479.876	509.62
480.095	549.62
480.313	562.62
480.532	536.62
480.751	541.62
480.969	564.62
481.188	623.62
481.406	697.62
481.624	587.62
481.843	564.62
482.061	534.62
482.28	549.62
482.498	520.62
482.717	528.62
482.935	490.62
483.153	499.62
483.372	517.62
483.59	507.62
483.808	511.62
484.027	513.62
484.245	525.62
484.463	525.62
484.681	518.62
484.9	519.62
485.118	550.62
485.336	532.62
485.554	523.62
485.772	509.62
485.99	570.62
486.209	550.62
486.427	554.62
486.645	540.62
486.863	571.62
487.081	575.62
487.299	590.62
487.517	549.62
487.735	546.62
487.953	561.62
488.171	567.62
488.389	555.62
488.607	577.62
488.825	580.62
489.043	561.62
489.261	552.62
489.479	563.62
489.696	587.62
489.914	583.62
490.132	607.62
490.35	575.62
490.568	584.62
490.786	600.62
491.003	603.62
491.221	595.62
491.439	645.62
491.657	662.62
491.874	648.62
492.092	645.62
492.31	648.62
492.527	668.62
492.745	682.62
492.963	669.62
493.18	678.62
493.398	666.62
493.615	676.62
493.833	673.62
494.05	690.62
494.268	658.62
494.485	669.62
494.703	686.62
494.92	676.62
495.138	694.62
495.355	685.62
495.573	689.62
495.79	667.62
496.008	674.62
496.225	696.62
496.442	686.62
496.66	672.62
496.877	679.62
497.094	693.62
497.312	687.62
497.529	689.62
497.746	720.62
497.963	722.62
498.181	678.62
498.398	691.62
498.615	710.62
498.832	715.62
499.049	716.62
499.267	722.62
499.484	735.62
499.701	796.62
499.918	777.62
500.135	811.62
500.352	818.62
500.569	805.62
500.786	804.62
501.003	798.62
501.22	789.62
501.437	791.62
501.654	819.62
501.871	790.62
