Data from 1980.PennyLincolnUp.Lamp.En5.5.200Scan.071819.P1_HRD10591_16-37-52-957.txt Node
Date: Thu Jul 18 16:37:52 EDT 2019
User: cochatt
Spectrometer: HR+D1059
Trigger mode: 1
Integration Time (sec): 1.000000E-1
Scans to average: 1
Electric dark correction enabled: true
Nonlinearity correction enabled: false
Boxcar width: 0
XAxis mode: Wavelengths
Number of Pixels in Spectrum: 2048
>>>>>Begin Spectral Data<<<<<
223.165	-14.19
223.4	-14.19
223.635	-14.19
223.869	-24.19
224.104	-11.19
224.338	-29.19
224.573	-2.19
224.808	4.81
225.042	-10.19
225.277	-2.19
225.511	2.81
225.746	1.81
225.98	2.81
226.215	-2.19
226.449	17.81
226.683	21.81
226.918	17.81
227.152	25.81
227.387	31.81
227.621	39.81
227.856	39.81
228.09	49.81
228.324	36.81
228.559	40.81
228.793	65.81
229.027	101.81
229.262	111.81
229.496	97.81
229.73	142.81
229.964	160.81
230.199	129.81
230.433	123.81
230.667	131.81
230.901	97.81
231.136	117.81
231.37	116.81
231.604	115.81
231.838	109.81
232.072	112.81
232.306	106.81
232.541	111.81
232.775	102.81
233.009	106.81
233.243	118.81
233.477	115.81
233.711	115.81
233.945	114.81
234.179	118.81
234.413	128.81
234.647	128.81
234.881	115.81
235.115	120.81
235.349	117.81
235.583	127.81
235.817	128.81
236.051	124.81
236.285	134.81
236.519	139.81
236.753	140.81
236.987	158.81
237.221	190.81
237.455	242.81
237.689	208.81
237.922	154.81
238.156	136.81
238.39	138.81
238.624	136.81
238.858	121.81
239.091	136.81
239.325	124.81
239.559	130.81
239.793	132.81
240.027	129.81
240.26	152.81
240.494	167.81
240.728	152.81
240.961	146.81
241.195	144.81
241.429	136.81
241.662	134.81
241.896	138.81
242.13	116.81
242.363	130.81
242.597	134.81
242.83	141.81
243.064	145.81
243.298	136.81
243.531	124.81
243.765	145.81
243.998	150.81
244.232	136.81
244.465	143.81
244.699	151.81
244.932	137.81
245.166	159.81
245.399	141.81
245.633	150.81
245.866	149.81
246.099	139.81
246.333	150.81
246.566	157.81
246.8	141.81
247.033	152.81
247.266	166.81
247.5	169.81
247.733	178.81
247.966	175.81
248.2	170.81
248.433	163.81
248.666	161.81
248.899	193.81
249.133	226.81
249.366	223.81
249.599	214.81
249.832	187.81
250.066	186.81
250.299	173.81
250.532	199.81
250.765	212.81
250.998	219.81
251.231	242.81
251.465	221.81
251.698	221.81
251.931	198.81
252.164	206.81
252.397	209.81
252.63	210.81
252.863	217.81
253.096	227.81
253.329	227.81
253.562	233.81
253.795	222.81
254.028	208.81
254.261	213.81
254.494	245.81
254.727	259.81
254.96	289.81
255.193	287.81
255.426	266.81
255.659	259.81
255.892	232.81
256.124	243.81
256.357	248.81
256.59	244.81
256.823	229.81
257.056	227.81
257.289	203.81
257.521	206.81
257.754	218.81
257.987	217.81
258.22	224.81
258.452	208.81
258.685	212.81
258.918	206.81
259.151	229.81
259.383	213.81
259.616	223.81
259.849	231.81
260.081	253.81
260.314	244.81
260.547	281.81
260.779	245.81
261.012	242.81
261.244	239.81
261.477	235.81
261.71	232.81
261.942	243.81
262.175	246.81
262.407	218.81
262.64	212.81
262.872	214.81
263.105	212.81
263.337	206.81
263.57	220.81
263.802	222.81
264.035	204.81
264.267	209.81
264.499	225.81
264.732	230.81
264.964	205.81
265.197	202.81
265.429	210.81
265.661	191.81
265.894	209.81
266.126	226.81
266.358	214.81
266.591	196.81
266.823	210.81
267.055	229.81
267.287	220.81
267.52	208.81
267.752	213.81
267.984	214.81
268.216	226.81
268.448	206.81
268.681	245.81
268.913	245.81
269.145	265.81
269.377	269.81
269.609	258.81
269.841	236.81
270.073	272.81
270.306	285.81
270.538	342.81
270.77	320.81
271.002	310.81
271.234	301.81
271.466	308.81
271.698	302.81
271.93	333.81
272.162	316.81
272.394	329.81
272.626	307.81
272.858	281.81
273.09	304.81
273.322	288.81
273.553	271.81
273.785	246.81
274.017	253.81
274.249	246.81
274.481	284.81
274.713	262.81
274.945	256.81
275.176	262.81
275.408	259.81
275.64	259.81
275.872	256.81
276.104	266.81
276.335	246.81
276.567	268.81
276.799	288.81
277.031	298.81
277.262	322.81
277.494	318.81
277.726	296.81
277.957	282.81
278.189	270.81
278.421	265.81
278.652	267.81
278.884	262.81
279.115	258.81
279.347	270.81
279.579	258.81
279.81	250.81
280.042	265.81
280.273	242.81
280.505	250.81
280.736	260.81
280.968	250.81
281.199	248.81
281.431	235.81
281.662	257.81
281.894	266.81
282.125	261.81
282.356	284.81
282.588	278.81
282.819	322.81
283.051	260.81
283.282	240.81
283.513	258.81
283.745	256.81
283.976	264.81
284.207	270.81
284.439	236.81
284.67	268.81
284.901	264.81
285.132	250.81
285.364	266.81
285.595	236.81
285.826	268.81
286.057	270.81
286.288	279.81
286.52	258.81
286.751	256.81
286.982	238.81
287.213	254.81
287.444	269.81
287.675	273.81
287.906	270.81
288.138	269.81
288.369	271.81
288.6	276.81
288.831	278.81
289.062	269.81
289.293	276.81
289.524	264.81
289.755	275.81
289.986	271.81
290.217	245.81
290.448	252.81
290.679	266.81
290.91	254.81
291.141	267.81
291.371	265.81
291.602	277.81
291.833	270.81
292.064	282.81
292.295	266.81
292.526	276.81
292.757	276.81
292.987	255.81
293.218	265.81
293.449	270.81
293.68	265.81
293.91	264.81
294.141	274.81
294.372	247.81
294.603	272.81
294.833	252.81
295.064	261.81
295.295	268.81
295.525	277.81
295.756	293.81
295.987	294.81
296.217	332.81
296.448	322.81
296.679	284.81
296.909	271.81
297.14	275.81
297.37	272.81
297.601	268.81
297.831	277.81
298.062	261.81
298.292	273.81
298.523	276.81
298.753	283.81
298.984	284.81
299.214	278.81
299.445	274.81
299.675	279.81
299.905	282.81
300.136	268.81
300.366	272.81
300.597	284.81
300.827	283.81
301.057	310.81
301.288	296.81
301.518	280.81
301.748	305.81
301.979	289.81
302.209	290.81
302.439	305.81
302.669	299.81
302.9	291.81
303.13	301.81
303.36	299.81
303.59	313.81
303.82	312.81
304.051	294.81
304.281	294.81
304.511	299.81
304.741	281.81
304.971	306.81
305.201	314.81
305.431	288.81
305.661	306.81
305.891	296.81
306.121	277.81
306.352	301.81
306.582	322.81
306.812	297.81
307.042	298.81
307.272	292.81
307.502	290.81
307.731	306.81
307.961	291.81
308.191	308.81
308.421	293.81
308.651	318.81
308.881	291.81
309.111	312.81
309.341	309.81
309.571	337.81
309.8	339.81
310.03	341.81
310.26	352.81
310.49	362.81
310.72	348.81
310.949	356.81
311.179	361.81
311.409	348.81
311.639	355.81
311.868	352.81
312.098	379.81
312.328	363.81
312.557	388.81
312.787	390.81
313.017	403.81
313.246	369.81
313.476	375.81
313.706	358.81
313.935	374.81
314.165	384.81
314.394	395.81
314.624	384.81
314.853	363.81
315.083	382.81
315.312	349.81
315.542	363.81
315.771	358.81
316.001	348.81
316.23	344.81
316.46	354.81
316.689	340.81
316.919	345.81
317.148	356.81
317.377	377.81
317.607	362.81
317.836	374.81
318.065	352.81
318.295	335.81
318.524	346.81
318.753	368.81
318.983	360.81
319.212	358.81
319.441	354.81
319.67	377.81
319.9	354.81
320.129	366.81
320.358	350.81
320.587	361.81
320.816	380.81
321.046	384.81
321.275	386.81
321.504	381.81
321.733	390.81
321.962	397.81
322.191	392.81
322.42	420.81
322.649	419.81
322.878	469.81
323.108	472.81
323.337	515.81
323.566	528.81
323.795	564.81
324.024	612.81
324.253	764.81
324.482	1069.81
324.71	1696.81
324.939	2420.81
325.168	2114.81
325.397	1136.81
325.626	745.81
325.855	590.81
326.084	542.81
326.313	506.81
326.542	532.81
326.77	590.81
326.999	686.81
327.228	973.81
327.457	1474.81
327.686	1833.81
327.914	1231.81
328.143	813.81
328.372	690.81
328.6	630.81
328.829	607.81
329.058	612.81
329.287	634.81
329.515	592.81
329.744	523.81
329.972	520.81
330.201	548.81
330.43	595.81
330.658	626.81
330.887	653.81
331.115	622.81
331.344	532.81
331.572	489.81
331.801	484.81
332.03	483.81
332.258	454.81
332.486	446.81
332.715	417.81
332.943	405.81
333.172	422.81
333.4	412.81
333.629	426.81
333.857	457.81
334.085	456.81
334.314	481.81
334.542	524.81
334.771	537.81
334.999	464.81
335.227	449.81
335.455	437.81
335.684	409.81
335.912	414.81
336.14	423.81
336.369	403.81
336.597	400.81
336.825	409.81
337.053	411.81
337.281	385.81
337.51	395.81
337.738	394.81
337.966	412.81
338.194	419.81
338.422	406.81
338.65	401.81
338.878	400.81
339.106	396.81
339.334	392.81
339.562	386.81
339.79	391.81
340.018	380.81
340.246	407.81
340.474	395.81
340.702	418.81
340.93	384.81
341.158	393.81
341.386	399.81
341.614	397.81
341.842	390.81
342.07	391.81
342.298	398.81
342.526	380.81
342.754	388.81
342.981	385.81
343.209	358.81
343.437	368.81
343.665	388.81
343.893	395.81
344.12	391.81
344.348	378.81
344.576	379.81
344.804	394.81
345.031	414.81
345.259	400.81
345.487	414.81
345.714	404.81
345.942	386.81
346.17	386.81
346.397	394.81
346.625	371.81
346.853	400.81
347.08	385.81
347.308	411.81
347.535	405.81
347.763	416.81
347.99	394.81
348.218	421.81
348.445	425.81
348.673	424.81
348.9	392.81
349.128	379.81
349.355	368.81
349.583	358.81
349.81	371.81
350.037	382.81
350.265	347.81
350.492	372.81
350.72	372.81
350.947	388.81
351.174	390.81
351.402	414.81
351.629	396.81
351.856	407.81
352.083	406.81
352.311	416.81
352.538	413.81
352.765	402.81
352.992	406.81
353.22	398.81
353.447	364.81
353.674	368.81
353.901	377.81
354.128	353.81
354.355	352.81
354.583	377.81
354.81	374.81
355.037	350.81
355.264	353.81
355.491	349.81
355.718	338.81
355.945	341.81
356.172	349.81
356.399	353.81
356.626	353.81
356.853	357.81
357.08	349.81
357.307	352.81
357.534	338.81
357.761	344.81
357.988	346.81
358.215	361.81
358.441	361.81
358.668	350.81
358.895	361.81
359.122	363.81
359.349	396.81
359.576	377.81
359.802	413.81
360.029	445.81
360.256	473.81
360.483	444.81
360.709	408.81
360.936	396.81
361.163	389.81
361.39	408.81
361.616	393.81
361.843	394.81
362.07	381.81
362.296	394.81
362.523	384.81
362.749	381.81
362.976	383.81
363.203	372.81
363.429	340.81
363.656	378.81
363.882	372.81
364.109	356.81
364.335	360.81
364.562	348.81
364.788	379.81
365.015	366.81
365.241	362.81
365.468	382.81
365.694	364.81
365.92	397.81
366.147	357.81
366.373	368.81
366.599	364.81
366.826	378.81
367.052	344.81
367.278	370.81
367.505	343.81
367.731	359.81
367.957	365.81
368.184	360.81
368.41	360.81
368.636	395.81
368.862	390.81
369.089	365.81
369.315	361.81
369.541	358.81
369.767	353.81
369.993	354.81
370.219	348.81
370.445	336.81
370.672	363.81
370.898	338.81
371.124	350.81
371.35	368.81
371.576	327.81
371.802	361.81
372.028	340.81
372.254	340.81
372.48	356.81
372.706	356.81
372.932	358.81
373.158	368.81
373.384	354.81
373.61	346.81
373.835	349.81
374.061	359.81
374.287	346.81
374.513	340.81
374.739	341.81
374.965	354.81
375.191	360.81
375.416	353.81
375.642	363.81
375.868	375.81
376.094	335.81
376.319	344.81
376.545	352.81
376.771	334.81
376.997	354.81
377.222	357.81
377.448	346.81
377.674	364.81
377.899	360.81
378.125	347.81
378.35	359.81
378.576	342.81
378.802	339.81
379.027	352.81
379.253	343.81
379.478	358.81
379.704	360.81
379.929	370.81
380.155	344.81
380.38	360.81
380.606	349.81
380.831	363.81
381.057	365.81
381.282	346.81
381.507	355.81
381.733	339.81
381.958	358.81
382.184	357.81
382.409	350.81
382.634	347.81
382.86	359.81
383.085	368.81
383.31	352.81
383.535	354.81
383.761	357.81
383.986	373.81
384.211	353.81
384.436	345.81
384.662	366.81
384.887	370.81
385.112	359.81
385.337	378.81
385.562	375.81
385.787	368.81
386.013	379.81
386.238	380.81
386.463	381.81
386.688	378.81
386.913	360.81
387.138	368.81
387.363	361.81
387.588	350.81
387.813	359.81
388.038	382.81
388.263	368.81
388.488	376.81
388.713	357.81
388.938	370.81
389.163	375.81
389.387	388.81
389.612	378.81
389.837	368.81
390.062	381.81
390.287	389.81
390.512	354.81
390.736	363.81
390.961	349.81
391.186	350.81
391.411	370.81
391.636	367.81
391.86	385.81
392.085	372.81
392.31	360.81
392.534	375.81
392.759	369.81
392.984	374.81
393.208	375.81
393.433	359.81
393.658	374.81
393.882	354.81
394.107	366.81
394.331	373.81
394.556	373.81
394.78	354.81
395.005	372.81
395.229	371.81
395.454	371.81
395.678	381.81
395.903	393.81
396.127	406.81
396.352	432.81
396.576	413.81
396.801	374.81
397.025	380.81
397.249	402.81
397.474	382.81
397.698	401.81
397.922	417.81
398.147	417.81
398.371	436.81
398.595	396.81
398.82	396.81
399.044	428.81
399.268	407.81
399.492	448.81
399.717	456.81
399.941	472.81
400.165	498.81
400.389	517.81
400.613	469.81
400.837	446.81
401.062	412.81
401.286	425.81
401.51	417.81
401.734	416.81
401.958	432.81
402.182	442.81
402.406	440.81
402.63	444.81
402.854	424.81
403.078	426.81
403.302	421.81
403.526	445.81
403.75	459.81
403.974	445.81
404.198	434.81
404.422	436.81
404.645	453.81
404.869	445.81
405.093	476.81
405.317	514.81
405.541	568.81
405.765	496.81
405.988	486.81
406.212	485.81
406.436	512.81
406.66	526.81
406.883	476.81
407.107	512.81
407.331	556.81
407.555	619.81
407.778	598.81
408.002	533.81
408.226	488.81
408.449	478.81
408.673	503.81
408.896	526.81
409.12	550.81
409.344	538.81
409.567	477.81
409.791	459.81
410.014	453.81
410.238	466.81
410.461	457.81
410.685	467.81
410.908	477.81
411.132	503.81
411.355	544.81
411.578	505.81
411.802	446.81
412.025	455.81
412.249	450.81
412.472	463.81
412.695	515.81
412.919	525.81
413.142	460.81
413.365	417.81
413.589	413.81
413.812	426.81
414.035	433.81
414.258	429.81
414.482	416.81
414.705	434.81
414.928	427.81
415.151	439.81
415.374	416.81
415.597	416.81
415.821	395.81
416.044	413.81
416.267	400.81
416.49	400.81
416.713	407.81
416.936	422.81
417.159	420.81
417.382	437.81
417.605	438.81
417.828	448.81
418.051	464.81
418.274	428.81
418.497	432.81
418.72	421.81
418.943	430.81
419.166	450.81
419.389	445.81
419.611	461.81
419.834	439.81
420.057	448.81
420.28	442.81
420.503	461.81
420.726	473.81
420.948	486.81
421.171	491.81
421.394	529.81
421.617	478.81
421.839	454.81
422.062	445.81
422.285	479.81
422.507	536.81
422.73	573.81
422.953	583.81
423.175	504.81
423.398	474.81
423.621	483.81
423.843	477.81
424.066	487.81
424.288	500.81
424.511	509.81
424.733	552.81
424.956	628.81
425.178	624.81
425.401	609.81
425.623	639.81
425.846	557.81
426.068	504.81
426.291	507.81
426.513	507.81
426.735	511.81
426.958	549.81
427.18	644.81
427.402	743.81
427.625	816.81
427.847	788.81
428.069	654.81
428.292	588.81
428.514	532.81
428.736	499.81
428.958	522.81
429.181	478.81
429.403	460.81
429.625	494.81
429.847	525.81
430.069	609.81
430.292	562.81
430.514	490.81
430.736	486.81
430.958	446.81
431.18	443.81
431.402	441.81
431.624	427.81
431.846	412.81
432.068	428.81
432.29	421.81
432.512	414.81
432.734	440.81
432.956	447.81
433.178	460.81
433.4	462.81
433.622	429.81
433.844	436.81
434.066	426.81
434.287	437.81
434.509	429.81
434.731	427.81
434.953	439.81
435.175	456.81
435.397	489.81
435.618	489.81
435.84	546.81
436.062	650.81
436.284	711.81
436.505	595.81
436.727	512.81
436.949	500.81
437.17	469.81
437.392	474.81
437.614	490.81
437.835	531.81
438.057	628.81
438.278	704.81
438.5	700.81
438.721	782.81
438.943	736.81
439.165	598.81
439.386	558.81
439.608	525.81
439.829	525.81
440.05	557.81
440.272	603.81
440.493	556.81
440.715	517.81
440.936	491.81
441.158	475.81
441.379	469.81
441.6	502.81
441.822	505.81
442.043	566.81
442.264	640.81
442.486	672.81
442.707	563.81
442.928	534.81
443.149	529.81
443.371	554.81
443.592	602.81
443.813	680.81
444.034	741.81
444.255	613.81
444.476	532.81
444.698	512.81
444.919	514.81
445.14	589.81
445.361	562.81
445.582	551.81
445.803	625.81
446.024	712.81
446.245	729.81
446.466	650.81
446.687	564.81
446.908	541.81
447.129	489.81
447.35	468.81
447.571	473.81
447.792	462.81
448.013	458.81
448.234	476.81
448.455	545.81
448.675	670.81
448.896	773.81
449.117	658.81
449.338	630.81
449.559	702.81
449.779	789.81
450	653.81
450.221	533.81
450.442	480.81
450.662	476.81
450.883	484.81
451.104	504.81
451.324	480.81
451.545	464.81
451.766	422.81
451.986	429.81
452.207	435.81
452.428	409.81
452.648	427.81
452.869	436.81
453.089	427.81
453.31	447.81
453.53	422.81
453.751	424.81
453.971	420.81
454.192	468.81
454.412	443.81
454.633	427.81
454.853	415.81
455.073	424.81
455.294	450.81
455.514	528.81
455.734	501.81
455.955	435.81
456.175	388.81
456.395	382.81
456.616	390.81
456.836	371.81
457.056	389.81
457.276	390.81
457.497	393.81
457.717	384.81
457.937	402.81
458.157	406.81
458.377	401.81
458.598	444.81
458.818	508.81
459.038	591.81
459.258	600.81
459.478	476.81
459.698	448.81
459.918	418.81
460.138	412.81
460.358	397.81
460.578	419.81
460.798	432.81
461.018	427.81
461.238	425.81
461.458	405.81
461.678	424.81
461.898	434.81
462.118	410.81
462.338	420.81
462.558	438.81
462.777	443.81
462.997	428.81
463.217	437.81
463.437	422.81
463.657	435.81
463.876	442.81
464.096	433.81
464.316	433.81
464.536	453.81
464.755	467.81
464.975	454.81
465.195	530.81
465.414	610.81
465.634	525.81
465.854	490.81
466.073	453.81
466.293	437.81
466.512	437.81
466.732	434.81
466.951	422.81
467.171	410.81
467.391	414.81
467.61	445.81
467.829	426.81
468.049	463.81
468.268	441.81
468.488	424.81
468.707	430.81
468.927	409.81
469.146	404.81
469.365	402.81
469.585	423.81
469.804	423.81
470.023	416.81
470.243	428.81
470.462	437.81
470.681	447.81
470.901	453.81
471.12	416.81
471.339	412.81
471.558	438.81
471.777	444.81
471.997	439.81
472.216	424.81
472.435	485.81
472.654	464.81
472.873	428.81
473.092	404.81
473.311	433.81
473.53	444.81
473.749	448.81
473.968	487.81
474.187	597.81
474.406	613.81
474.625	483.81
474.844	448.81
475.063	458.81
475.282	434.81
475.501	428.81
475.72	452.81
475.939	437.81
476.158	436.81
476.377	441.81
476.596	436.81
476.814	447.81
477.033	454.81
477.252	462.81
477.471	442.81
477.69	460.81
477.908	454.81
478.127	467.81
478.346	454.81
478.564	474.81
478.783	480.81
479.002	491.81
479.22	490.81
479.439	498.81
479.658	515.81
479.876	541.81
480.095	507.81
480.313	563.81
480.532	522.81
480.751	516.81
480.969	533.81
481.188	606.81
481.406	671.81
481.624	586.81
481.843	538.81
482.061	525.81
482.28	535.81
482.498	506.81
482.717	504.81
482.935	510.81
483.153	497.81
483.372	493.81
483.59	492.81
483.808	488.81
484.027	499.81
484.245	506.81
484.463	536.81
484.681	531.81
484.9	511.81
485.118	513.81
485.336	509.81
485.554	518.81
485.772	524.81
485.99	527.81
486.209	524.81
486.427	522.81
486.645	539.81
486.863	557.81
487.081	580.81
487.299	587.81
487.517	556.81
487.735	556.81
487.953	574.81
488.171	552.81
488.389	552.81
488.607	561.81
488.825	563.81
489.043	556.81
489.261	539.81
489.479	571.81
489.696	569.81
489.914	569.81
490.132	576.81
490.35	570.81
490.568	584.81
490.786	592.81
491.003	629.81
491.221	613.81
491.439	629.81
491.657	633.81
491.874	657.81
492.092	648.81
492.31	668.81
492.527	646.81
492.745	668.81
492.963	659.81
493.18	662.81
493.398	666.81
493.615	651.81
493.833	672.81
494.05	660.81
494.268	643.81
494.485	649.81
494.703	653.81
494.92	673.81
495.138	677.81
495.355	654.81
495.573	655.81
495.79	669.81
496.008	659.81
496.225	681.81
496.442	666.81
496.66	668.81
496.877	669.81
497.094	665.81
497.312	673.81
497.529	664.81
497.746	684.81
497.963	699.81
498.181	714.81
498.398	684.81
498.615	694.81
498.832	686.81
499.049	708.81
499.267	721.81
499.484	741.81
499.701	724.81
499.918	758.81
500.135	764.81
500.352	780.81
500.569	780.81
500.786	793.81
501.003	819.81
501.22	804.81
501.437	807.81
501.654	771.81
501.871	788.81
