Data from 1980.PennyLincolnUp.Lamp.En5.5.200Scan.071819.P1_HRD10591_16-37-03-957.txt Node
Date: Thu Jul 18 16:37:03 EDT 2019
User: cochatt
Spectrometer: HR+D1059
Trigger mode: 1
Integration Time (sec): 1.000000E-1
Scans to average: 1
Electric dark correction enabled: true
Nonlinearity correction enabled: false
Boxcar width: 0
XAxis mode: Wavelengths
Number of Pixels in Spectrum: 2048
>>>>>Begin Spectral Data<<<<<
223.165	-10.06
223.4	-10.06
223.635	-10.06
223.869	-29.06
224.104	-33.06
224.338	-10.06
224.573	-9.06
224.808	-9.06
225.042	2.94
225.277	-1.06
225.511	-2.06
225.746	-7.06
225.98	13.94
226.215	5.94
226.449	11.94
226.683	29.94
226.918	20.94
227.152	24.94
227.387	43.94
227.621	47.94
227.856	44.94
228.09	55.94
228.324	46.94
228.559	54.94
228.793	68.94
229.027	102.94
229.262	108.94
229.496	108.94
229.73	131.94
229.964	167.94
230.199	137.94
230.433	118.94
230.667	118.94
230.901	127.94
231.136	105.94
231.37	113.94
231.604	117.94
231.838	115.94
232.072	101.94
232.306	100.94
232.541	107.94
232.775	120.94
233.009	115.94
233.243	95.94
233.477	107.94
233.711	100.94
233.945	99.94
234.179	92.94
234.413	123.94
234.647	111.94
234.881	114.94
235.115	121.94
235.349	101.94
235.583	106.94
235.817	126.94
236.051	123.94
236.285	126.94
236.519	119.94
236.753	134.94
236.987	147.94
237.221	188.94
237.455	249.94
237.689	215.94
237.922	152.94
238.156	145.94
238.39	141.94
238.624	134.94
238.858	126.94
239.091	145.94
239.325	130.94
239.559	122.94
239.793	121.94
240.027	130.94
240.26	144.94
240.494	160.94
240.728	145.94
240.961	144.94
241.195	150.94
241.429	142.94
241.662	141.94
241.896	133.94
242.13	123.94
242.363	129.94
242.597	130.94
242.83	134.94
243.064	137.94
243.298	153.94
243.531	128.94
243.765	143.94
243.998	138.94
244.232	138.94
244.465	141.94
244.699	137.94
244.932	136.94
245.166	139.94
245.399	134.94
245.633	147.94
245.866	136.94
246.099	152.94
246.333	144.94
246.566	138.94
246.8	142.94
247.033	160.94
247.266	158.94
247.5	161.94
247.733	165.94
247.966	174.94
248.2	176.94
248.433	182.94
248.666	178.94
248.899	185.94
249.133	184.94
249.366	187.94
249.599	195.94
249.832	180.94
250.066	187.94
250.299	187.94
250.532	182.94
250.765	207.94
250.998	222.94
251.231	218.94
251.465	211.94
251.698	202.94
251.931	192.94
252.164	187.94
252.397	194.94
252.63	212.94
252.863	203.94
253.096	219.94
253.329	221.94
253.562	236.94
253.795	224.94
254.028	224.94
254.261	218.94
254.494	224.94
254.727	266.94
254.96	290.94
255.193	281.94
255.426	243.94
255.659	234.94
255.892	223.94
256.124	234.94
256.357	216.94
256.59	228.94
256.823	214.94
257.056	213.94
257.289	201.94
257.521	223.94
257.754	212.94
257.987	197.94
258.22	212.94
258.452	199.94
258.685	217.94
258.918	214.94
259.151	221.94
259.383	226.94
259.616	210.94
259.849	216.94
260.081	227.94
260.314	244.94
260.547	257.94
260.779	231.94
261.012	240.94
261.244	232.94
261.477	225.94
261.71	210.94
261.942	223.94
262.175	234.94
262.407	236.94
262.64	217.94
262.872	212.94
263.105	195.94
263.337	214.94
263.57	200.94
263.802	210.94
264.035	202.94
264.267	210.94
264.499	198.94
264.732	214.94
264.964	207.94
265.197	207.94
265.429	203.94
265.661	211.94
265.894	198.94
266.126	199.94
266.358	209.94
266.591	210.94
266.823	215.94
267.055	203.94
267.287	224.94
267.52	215.94
267.752	217.94
267.984	206.94
268.216	211.94
268.448	219.94
268.681	210.94
268.913	228.94
269.145	248.94
269.377	260.94
269.609	266.94
269.841	257.94
270.073	258.94
270.306	285.94
270.538	306.94
270.77	318.94
271.002	295.94
271.234	292.94
271.466	312.94
271.698	295.94
271.93	312.94
272.162	287.94
272.394	306.94
272.626	286.94
272.858	284.94
273.09	277.94
273.322	260.94
273.553	264.94
273.785	250.94
274.017	249.94
274.249	255.94
274.481	251.94
274.713	260.94
274.945	265.94
275.176	244.94
275.408	245.94
275.64	249.94
275.872	247.94
276.104	245.94
276.335	263.94
276.567	269.94
276.799	287.94
277.031	300.94
277.262	307.94
277.494	313.94
277.726	283.94
277.957	264.94
278.189	276.94
278.421	255.94
278.652	230.94
278.884	271.94
279.115	260.94
279.347	247.94
279.579	252.94
279.81	248.94
280.042	250.94
280.273	264.94
280.505	255.94
280.736	235.94
280.968	240.94
281.199	231.94
281.431	235.94
281.662	244.94
281.894	236.94
282.125	251.94
282.356	262.94
282.588	284.94
282.819	286.94
283.051	251.94
283.282	244.94
283.513	260.94
283.745	260.94
283.976	250.94
284.207	269.94
284.439	262.94
284.67	270.94
284.901	249.94
285.132	254.94
285.364	251.94
285.595	246.94
285.826	251.94
286.057	239.94
286.288	266.94
286.52	242.94
286.751	242.94
286.982	258.94
287.213	253.94
287.444	268.94
287.675	254.94
287.906	258.94
288.138	268.94
288.369	272.94
288.6	268.94
288.831	281.94
289.062	267.94
289.293	248.94
289.524	253.94
289.755	267.94
289.986	263.94
290.217	252.94
290.448	260.94
290.679	272.94
290.91	244.94
291.141	245.94
291.371	256.94
291.602	269.94
291.833	256.94
292.064	249.94
292.295	257.94
292.526	278.94
292.757	265.94
292.987	250.94
293.218	246.94
293.449	245.94
293.68	250.94
293.91	264.94
294.141	267.94
294.372	262.94
294.603	257.94
294.833	278.94
295.064	265.94
295.295	270.94
295.525	252.94
295.756	276.94
295.987	264.94
296.217	310.94
296.448	312.94
296.679	283.94
296.909	254.94
297.14	255.94
297.37	261.94
297.601	258.94
297.831	260.94
298.062	265.94
298.292	271.94
298.523	285.94
298.753	269.94
298.984	267.94
299.214	262.94
299.445	266.94
299.675	272.94
299.905	295.94
300.136	280.94
300.366	273.94
300.597	260.94
300.827	280.94
301.057	280.94
301.288	295.94
301.518	299.94
301.748	294.94
301.979	274.94
302.209	290.94
302.439	313.94
302.669	282.94
302.9	297.94
303.13	290.94
303.36	281.94
303.59	298.94
303.82	306.94
304.051	309.94
304.281	298.94
304.511	271.94
304.741	284.94
304.971	270.94
305.201	278.94
305.431	284.94
305.661	301.94
305.891	290.94
306.121	298.94
306.352	291.94
306.582	311.94
306.812	296.94
307.042	302.94
307.272	296.94
307.502	298.94
307.731	279.94
307.961	301.94
308.191	300.94
308.421	306.94
308.651	292.94
308.881	297.94
309.111	286.94
309.341	308.94
309.571	299.94
309.8	330.94
310.03	326.94
310.26	332.94
310.49	342.94
310.72	333.94
310.949	361.94
311.179	356.94
311.409	356.94
311.639	341.94
311.868	350.94
312.098	335.94
312.328	372.94
312.557	388.94
312.787	399.94
313.017	377.94
313.246	349.94
313.476	329.94
313.706	340.94
313.935	339.94
314.165	357.94
314.394	362.94
314.624	364.94
314.853	351.94
315.083	346.94
315.312	340.94
315.542	326.94
315.771	349.94
316.001	336.94
316.23	317.94
316.46	335.94
316.689	346.94
316.919	346.94
317.148	362.94
317.377	363.94
317.607	369.94
317.836	343.94
318.065	342.94
318.295	332.94
318.524	332.94
318.753	327.94
318.983	340.94
319.212	335.94
319.441	336.94
319.67	377.94
319.9	359.94
320.129	344.94
320.358	331.94
320.587	347.94
320.816	341.94
321.046	376.94
321.275	372.94
321.504	358.94
321.733	370.94
321.962	376.94
322.191	395.94
322.42	407.94
322.649	410.94
322.878	442.94
323.108	451.94
323.337	463.94
323.566	462.94
323.795	521.94
324.024	586.94
324.253	723.94
324.482	986.94
324.71	1504.94
324.939	2208.94
325.168	1929.94
325.397	1034.94
325.626	681.94
325.855	569.94
326.084	511.94
326.313	489.94
326.542	474.94
326.77	542.94
326.999	643.94
327.228	873.94
327.457	1342.94
327.686	1690.94
327.914	1156.94
328.143	732.94
328.372	654.94
328.6	602.94
328.829	567.94
329.058	558.94
329.287	585.94
329.515	540.94
329.744	502.94
329.972	494.94
330.201	514.94
330.43	546.94
330.658	596.94
330.887	615.94
331.115	595.94
331.344	499.94
331.572	465.94
331.801	461.94
332.03	453.94
332.258	444.94
332.486	418.94
332.715	381.94
332.943	404.94
333.172	412.94
333.4	411.94
333.629	405.94
333.857	437.94
334.085	439.94
334.314	472.94
334.542	476.94
334.771	485.94
334.999	454.94
335.227	418.94
335.455	411.94
335.684	409.94
335.912	390.94
336.14	387.94
336.369	390.94
336.597	408.94
336.825	411.94
337.053	391.94
337.281	395.94
337.51	383.94
337.738	409.94
337.966	391.94
338.194	384.94
338.422	386.94
338.65	388.94
338.878	382.94
339.106	382.94
339.334	378.94
339.562	356.94
339.79	366.94
340.018	390.94
340.246	372.94
340.474	390.94
340.702	383.94
340.93	391.94
341.158	379.94
341.386	380.94
341.614	408.94
341.842	373.94
342.07	376.94
342.298	378.94
342.526	374.94
342.754	358.94
342.981	347.94
343.209	359.94
343.437	370.94
343.665	352.94
343.893	372.94
344.12	395.94
344.348	384.94
344.576	367.94
344.804	388.94
345.031	392.94
345.259	402.94
345.487	398.94
345.714	378.94
345.942	394.94
346.17	398.94
346.397	374.94
346.625	387.94
346.853	375.94
347.08	383.94
347.308	382.94
347.535	371.94
347.763	398.94
347.99	402.94
348.218	388.94
348.445	398.94
348.673	397.94
348.9	385.94
349.128	357.94
349.355	358.94
349.583	370.94
349.81	361.94
350.037	361.94
350.265	365.94
350.492	368.94
350.72	380.94
350.947	376.94
351.174	382.94
351.402	366.94
351.629	378.94
351.856	382.94
352.083	384.94
352.311	388.94
352.538	384.94
352.765	379.94
352.992	395.94
353.22	375.94
353.447	365.94
353.674	390.94
353.901	347.94
354.128	366.94
354.355	347.94
354.583	351.94
354.81	349.94
355.037	350.94
355.264	343.94
355.491	341.94
355.718	375.94
355.945	326.94
356.172	342.94
356.399	325.94
356.626	337.94
356.853	342.94
357.08	328.94
357.307	332.94
357.534	329.94
357.761	334.94
357.988	356.94
358.215	342.94
358.441	337.94
358.668	354.94
358.895	332.94
359.122	361.94
359.349	358.94
359.576	367.94
359.802	408.94
360.029	425.94
360.256	439.94
360.483	427.94
360.709	390.94
360.936	388.94
361.163	363.94
361.39	387.94
361.616	382.94
361.843	372.94
362.07	367.94
362.296	381.94
362.523	371.94
362.749	397.94
362.976	363.94
363.203	368.94
363.429	355.94
363.656	367.94
363.882	370.94
364.109	349.94
364.335	369.94
364.562	370.94
364.788	348.94
365.015	347.94
365.241	347.94
365.468	360.94
365.694	365.94
365.92	360.94
366.147	372.94
366.373	350.94
366.599	336.94
366.826	327.94
367.052	376.94
367.278	374.94
367.505	353.94
367.731	357.94
367.957	338.94
368.184	355.94
368.41	352.94
368.636	354.94
368.862	375.94
369.089	387.94
369.315	356.94
369.541	344.94
369.767	378.94
369.993	371.94
370.219	347.94
370.445	351.94
370.672	336.94
370.898	355.94
371.124	349.94
371.35	356.94
371.576	331.94
371.802	320.94
372.028	349.94
372.254	338.94
372.48	343.94
372.706	345.94
372.932	338.94
373.158	364.94
373.384	346.94
373.61	349.94
373.835	342.94
374.061	340.94
374.287	348.94
374.513	341.94
374.739	358.94
374.965	344.94
375.191	327.94
375.416	346.94
375.642	351.94
375.868	349.94
376.094	350.94
376.319	353.94
376.545	346.94
376.771	353.94
376.997	336.94
377.222	341.94
377.448	343.94
377.674	333.94
377.899	330.94
378.125	350.94
378.35	342.94
378.576	345.94
378.802	343.94
379.027	343.94
379.253	338.94
379.478	332.94
379.704	340.94
379.929	347.94
380.155	347.94
380.38	358.94
380.606	362.94
380.831	364.94
381.057	348.94
381.282	352.94
381.507	342.94
381.733	344.94
381.958	353.94
382.184	348.94
382.409	348.94
382.634	357.94
382.86	364.94
383.085	357.94
383.31	354.94
383.535	343.94
383.761	349.94
383.986	364.94
384.211	338.94
384.436	354.94
384.662	368.94
384.887	362.94
385.112	356.94
385.337	346.94
385.562	344.94
385.787	347.94
386.013	360.94
386.238	358.94
386.463	370.94
386.688	356.94
386.913	373.94
387.138	374.94
387.363	377.94
387.588	378.94
387.813	366.94
388.038	359.94
388.263	366.94
388.488	371.94
388.713	376.94
388.938	381.94
389.163	378.94
389.387	382.94
389.612	368.94
389.837	364.94
390.062	388.94
390.287	383.94
390.512	348.94
390.736	359.94
390.961	353.94
391.186	368.94
391.411	371.94
391.636	370.94
391.86	376.94
392.085	368.94
392.31	368.94
392.534	381.94
392.759	390.94
392.984	378.94
393.208	375.94
393.433	388.94
393.658	391.94
393.882	398.94
394.107	371.94
394.331	375.94
394.556	365.94
394.78	373.94
395.005	367.94
395.229	370.94
395.454	376.94
395.678	389.94
395.903	388.94
396.127	406.94
396.352	396.94
396.576	394.94
396.801	390.94
397.025	378.94
397.249	377.94
397.474	378.94
397.698	394.94
397.922	413.94
398.147	414.94
398.371	426.94
398.595	408.94
398.82	403.94
399.044	394.94
399.268	403.94
399.492	438.94
399.717	448.94
399.941	492.94
400.165	489.94
400.389	506.94
400.613	459.94
400.837	418.94
401.062	418.94
401.286	416.94
401.51	402.94
401.734	421.94
401.958	426.94
402.182	418.94
402.406	452.94
402.63	426.94
402.854	411.94
403.078	441.94
403.302	440.94
403.526	425.94
403.75	446.94
403.974	434.94
404.198	420.94
404.422	442.94
404.645	432.94
404.869	449.94
405.093	476.94
405.317	508.94
405.541	519.94
405.765	478.94
405.988	481.94
406.212	484.94
406.436	499.94
406.66	515.94
406.883	475.94
407.107	514.94
407.331	543.94
407.555	586.94
407.778	570.94
408.002	519.94
408.226	486.94
408.449	474.94
408.673	468.94
408.896	508.94
409.12	549.94
409.344	536.94
409.567	467.94
409.791	453.94
410.014	437.94
410.238	449.94
410.461	430.94
410.685	430.94
410.908	459.94
411.132	478.94
411.355	516.94
411.578	503.94
411.802	454.94
412.025	437.94
412.249	437.94
412.472	472.94
412.695	495.94
412.919	492.94
413.142	442.94
413.365	465.94
413.589	427.94
413.812	416.94
414.035	404.94
414.258	398.94
414.482	431.94
414.705	420.94
414.928	406.94
415.151	416.94
415.374	414.94
415.597	406.94
415.821	407.94
416.044	411.94
416.267	434.94
416.49	414.94
416.713	400.94
416.936	399.94
417.159	453.94
417.382	422.94
417.605	418.94
417.828	423.94
418.051	455.94
418.274	436.94
418.497	422.94
418.72	446.94
418.943	416.94
419.166	418.94
419.389	458.94
419.611	450.94
419.834	422.94
420.057	444.94
420.28	458.94
420.503	449.94
420.726	422.94
420.948	451.94
421.171	475.94
421.394	552.94
421.617	458.94
421.839	446.94
422.062	457.94
422.285	455.94
422.507	513.94
422.73	589.94
422.953	557.94
423.175	508.94
423.398	457.94
423.621	460.94
423.843	476.94
424.066	478.94
424.288	480.94
424.511	496.94
424.733	554.94
424.956	633.94
425.178	584.94
425.401	572.94
425.623	622.94
425.846	523.94
426.068	505.94
426.291	475.94
426.513	468.94
426.735	496.94
426.958	548.94
427.18	615.94
427.402	698.94
427.625	808.94
427.847	729.94
428.069	621.94
428.292	568.94
428.514	517.94
428.736	515.94
428.958	473.94
429.181	460.94
429.403	464.94
429.625	452.94
429.847	496.94
430.069	571.94
430.292	558.94
430.514	477.94
430.736	445.94
430.958	446.94
431.18	442.94
431.402	431.94
431.624	414.94
431.846	421.94
432.068	438.94
432.29	415.94
432.512	422.94
432.734	422.94
432.956	435.94
433.178	461.94
433.4	448.94
433.622	426.94
433.844	441.94
434.066	427.94
434.287	415.94
434.509	408.94
434.731	429.94
434.953	422.94
435.175	453.94
435.397	488.94
435.618	490.94
435.84	542.94
436.062	605.94
436.284	670.94
436.505	548.94
436.727	502.94
436.949	458.94
437.17	452.94
437.392	462.94
437.614	462.94
437.835	504.94
438.057	607.94
438.278	711.94
438.5	711.94
438.721	738.94
438.943	712.94
439.165	585.94
439.386	538.94
439.608	522.94
439.829	521.94
440.05	566.94
440.272	571.94
440.493	542.94
440.715	512.94
440.936	457.94
441.158	455.94
441.379	457.94
441.6	468.94
441.822	478.94
442.043	548.94
442.264	618.94
442.486	649.94
442.707	575.94
442.928	514.94
443.149	526.94
443.371	551.94
443.592	589.94
443.813	657.94
444.034	698.94
444.255	574.94
444.476	544.94
444.698	484.94
444.919	484.94
445.14	592.94
445.361	535.94
445.582	547.94
445.803	606.94
446.024	694.94
446.245	712.94
446.466	656.94
446.687	567.94
446.908	510.94
447.129	489.94
447.35	452.94
447.571	457.94
447.792	476.94
448.013	451.94
448.234	478.94
448.455	538.94
448.675	650.94
448.896	714.94
449.117	622.94
449.338	610.94
449.559	708.94
449.779	767.94
450	636.94
450.221	526.94
450.442	470.94
450.662	468.94
450.883	470.94
451.104	483.94
451.324	477.94
451.545	456.94
451.766	412.94
451.986	395.94
452.207	404.94
452.428	408.94
452.648	394.94
452.869	424.94
453.089	418.94
453.31	414.94
453.53	443.94
453.751	406.94
453.971	436.94
454.192	443.94
454.412	438.94
454.633	404.94
454.853	413.94
455.073	410.94
455.294	430.94
455.514	501.94
455.734	505.94
455.955	446.94
456.175	384.94
456.395	379.94
456.616	382.94
456.836	380.94
457.056	377.94
457.276	385.94
457.497	384.94
457.717	376.94
457.937	386.94
458.157	392.94
458.377	408.94
458.598	420.94
458.818	490.94
459.038	542.94
459.258	563.94
459.478	484.94
459.698	447.94
459.918	431.94
460.138	419.94
460.358	418.94
460.578	436.94
460.798	407.94
461.018	436.94
461.238	410.94
461.458	400.94
461.678	416.94
461.898	428.94
462.118	392.94
462.338	419.94
462.558	413.94
462.777	396.94
462.997	417.94
463.217	446.94
463.437	438.94
463.657	422.94
463.876	428.94
464.096	433.94
464.316	431.94
464.536	450.94
464.755	429.94
464.975	464.94
465.195	515.94
465.414	580.94
465.634	524.94
465.854	462.94
466.073	452.94
466.293	447.94
466.512	436.94
466.732	410.94
466.951	398.94
467.171	404.94
467.391	414.94
467.61	446.94
467.829	449.94
468.049	442.94
468.268	418.94
468.488	427.94
468.707	418.94
468.927	394.94
469.146	384.94
469.365	386.94
469.585	395.94
469.804	416.94
470.023	434.94
470.243	411.94
470.462	426.94
470.681	441.94
470.901	446.94
471.12	442.94
471.339	423.94
471.558	441.94
471.777	429.94
471.997	415.94
472.216	409.94
472.435	468.94
472.654	425.94
472.873	424.94
473.092	426.94
473.311	430.94
473.53	434.94
473.749	445.94
473.968	488.94
474.187	582.94
474.406	603.94
474.625	490.94
474.844	428.94
475.063	434.94
475.282	418.94
475.501	428.94
475.72	437.94
475.939	430.94
476.158	426.94
476.377	428.94
476.596	436.94
476.814	442.94
477.033	454.94
477.252	448.94
477.471	430.94
477.69	448.94
477.908	471.94
478.127	478.94
478.346	452.94
478.564	454.94
478.783	438.94
479.002	484.94
479.22	473.94
479.439	481.94
479.658	521.94
479.876	501.94
480.095	524.94
480.313	535.94
480.532	530.94
480.751	500.94
480.969	514.94
481.188	587.94
481.406	602.94
481.624	567.94
481.843	505.94
482.061	493.94
482.28	495.94
482.498	506.94
482.717	482.94
482.935	486.94
483.153	507.94
483.372	503.94
483.59	506.94
483.808	492.94
484.027	497.94
484.245	502.94
484.463	489.94
484.681	500.94
484.9	495.94
485.118	493.94
485.336	510.94
485.554	486.94
485.772	518.94
485.99	506.94
486.209	512.94
486.427	518.94
486.645	546.94
486.863	563.94
487.081	567.94
487.299	554.94
487.517	556.94
487.735	557.94
487.953	529.94
488.171	537.94
488.389	540.94
488.607	552.94
488.825	559.94
489.043	499.94
489.261	532.94
489.479	546.94
489.696	566.94
489.914	556.94
490.132	557.94
490.35	545.94
490.568	555.94
490.786	559.94
491.003	597.94
491.221	584.94
491.439	612.94
491.657	612.94
491.874	614.94
492.092	615.94
492.31	640.94
492.527	636.94
492.745	637.94
492.963	615.94
493.18	662.94
493.398	605.94
493.615	636.94
493.833	638.94
494.05	637.94
494.268	643.94
494.485	622.94
494.703	632.94
494.92	646.94
495.138	640.94
495.355	634.94
495.573	630.94
495.79	641.94
496.008	656.94
496.225	618.94
496.442	622.94
496.66	644.94
496.877	652.94
497.094	638.94
497.312	650.94
497.529	661.94
497.746	648.94
497.963	640.94
498.181	680.94
498.398	688.94
498.615	662.94
498.832	692.94
499.049	696.94
499.267	695.94
499.484	710.94
499.701	737.94
499.918	742.94
500.135	791.94
500.352	779.94
500.569	754.94
500.786	800.94
501.003	835.94
501.22	824.94
501.437	738.94
501.654	750.94
501.871	778.94
