Data from 1980.PennyLincolnUp.Lamp.En5.5.200Scan.071819.P1_HRD10591_16-38-07-957.txt Node
Date: Thu Jul 18 16:38:07 EDT 2019
User: cochatt
Spectrometer: HR+D1059
Trigger mode: 1
Integration Time (sec): 1.000000E-1
Scans to average: 1
Electric dark correction enabled: true
Nonlinearity correction enabled: false
Boxcar width: 0
XAxis mode: Wavelengths
Number of Pixels in Spectrum: 2048
>>>>>Begin Spectral Data<<<<<
223.165	-10.75
223.4	-10.75
223.635	-10.75
223.869	-16.75
224.104	-10.75
224.338	-10.75
224.573	-18.75
224.808	-16.75
225.042	-4.75
225.277	-14.75
225.511	-11.75
225.746	8.25
225.98	6.25
226.215	14.25
226.449	12.25
226.683	18.25
226.918	23.25
227.152	33.25
227.387	19.25
227.621	47.25
227.856	38.25
228.09	45.25
228.324	49.25
228.559	48.25
228.793	51.25
229.027	88.25
229.262	92.25
229.496	120.25
229.73	141.25
229.964	145.25
230.199	131.25
230.433	121.25
230.667	103.25
230.901	125.25
231.136	102.25
231.37	123.25
231.604	97.25
231.838	110.25
232.072	106.25
232.306	114.25
232.541	104.25
232.775	109.25
233.009	123.25
233.243	122.25
233.477	116.25
233.711	117.25
233.945	110.25
234.179	117.25
234.413	111.25
234.647	125.25
234.881	104.25
235.115	109.25
235.349	121.25
235.583	122.25
235.817	109.25
236.051	120.25
236.285	113.25
236.519	125.25
236.753	147.25
236.987	144.25
237.221	205.25
237.455	266.25
237.689	182.25
237.922	145.25
238.156	137.25
238.39	131.25
238.624	120.25
238.858	127.25
239.091	120.25
239.325	137.25
239.559	129.25
239.793	125.25
240.027	137.25
240.26	153.25
240.494	173.25
240.728	148.25
240.961	150.25
241.195	135.25
241.429	139.25
241.662	138.25
241.896	122.25
242.13	128.25
242.363	139.25
242.597	105.25
242.83	125.25
243.064	125.25
243.298	140.25
243.531	135.25
243.765	132.25
243.998	133.25
244.232	127.25
244.465	153.25
244.699	144.25
244.932	137.25
245.166	137.25
245.399	134.25
245.633	157.25
245.866	149.25
246.099	159.25
246.333	154.25
246.566	154.25
246.8	145.25
247.033	168.25
247.266	165.25
247.5	173.25
247.733	187.25
247.966	192.25
248.2	170.25
248.433	178.25
248.666	186.25
248.899	177.25
249.133	201.25
249.366	210.25
249.599	196.25
249.832	189.25
250.066	182.25
250.299	196.25
250.532	207.25
250.765	200.25
250.998	223.25
251.231	221.25
251.465	216.25
251.698	205.25
251.931	189.25
252.164	193.25
252.397	193.25
252.63	189.25
252.863	209.25
253.096	242.25
253.329	241.25
253.562	242.25
253.795	216.25
254.028	209.25
254.261	223.25
254.494	253.25
254.727	260.25
254.96	288.25
255.193	274.25
255.426	274.25
255.659	252.25
255.892	247.25
256.124	249.25
256.357	255.25
256.59	222.25
256.823	231.25
257.056	222.25
257.289	216.25
257.521	215.25
257.754	218.25
257.987	217.25
258.22	202.25
258.452	228.25
258.685	208.25
258.918	196.25
259.151	197.25
259.383	213.25
259.616	227.25
259.849	221.25
260.081	241.25
260.314	249.25
260.547	262.25
260.779	261.25
261.012	250.25
261.244	229.25
261.477	219.25
261.71	216.25
261.942	225.25
262.175	248.25
262.407	237.25
262.64	213.25
262.872	221.25
263.105	210.25
263.337	202.25
263.57	219.25
263.802	202.25
264.035	208.25
264.267	214.25
264.499	209.25
264.732	216.25
264.964	213.25
265.197	199.25
265.429	214.25
265.661	209.25
265.894	211.25
266.126	211.25
266.358	228.25
266.591	226.25
266.823	219.25
267.055	215.25
267.287	215.25
267.52	223.25
267.752	212.25
267.984	221.25
268.216	225.25
268.448	227.25
268.681	231.25
268.913	231.25
269.145	258.25
269.377	281.25
269.609	279.25
269.841	276.25
270.073	273.25
270.306	282.25
270.538	302.25
270.77	334.25
271.002	295.25
271.234	310.25
271.466	306.25
271.698	302.25
271.93	318.25
272.162	325.25
272.394	343.25
272.626	305.25
272.858	297.25
273.09	283.25
273.322	263.25
273.553	271.25
273.785	272.25
274.017	263.25
274.249	263.25
274.481	275.25
274.713	266.25
274.945	277.25
275.176	273.25
275.408	256.25
275.64	269.25
275.872	263.25
276.104	269.25
276.335	266.25
276.567	271.25
276.799	287.25
277.031	303.25
277.262	321.25
277.494	314.25
277.726	302.25
277.957	287.25
278.189	301.25
278.421	281.25
278.652	265.25
278.884	275.25
279.115	280.25
279.347	257.25
279.579	263.25
279.81	252.25
280.042	260.25
280.273	264.25
280.505	261.25
280.736	241.25
280.968	257.25
281.199	248.25
281.431	226.25
281.662	263.25
281.894	266.25
282.125	246.25
282.356	270.25
282.588	308.25
282.819	319.25
283.051	264.25
283.282	279.25
283.513	257.25
283.745	270.25
283.976	266.25
284.207	298.25
284.439	296.25
284.67	259.25
284.901	278.25
285.132	258.25
285.364	269.25
285.595	284.25
285.826	276.25
286.057	274.25
286.288	271.25
286.52	269.25
286.751	269.25
286.982	293.25
287.213	277.25
287.444	270.25
287.675	261.25
287.906	272.25
288.138	294.25
288.369	274.25
288.6	296.25
288.831	296.25
289.062	281.25
289.293	287.25
289.524	281.25
289.755	286.25
289.986	280.25
290.217	261.25
290.448	257.25
290.679	263.25
290.91	283.25
291.141	263.25
291.371	274.25
291.602	274.25
291.833	271.25
292.064	278.25
292.295	271.25
292.526	256.25
292.757	277.25
292.987	267.25
293.218	258.25
293.449	281.25
293.68	284.25
293.91	274.25
294.141	272.25
294.372	294.25
294.603	270.25
294.833	286.25
295.064	281.25
295.295	278.25
295.525	263.25
295.756	291.25
295.987	278.25
296.217	298.25
296.448	322.25
296.679	292.25
296.909	276.25
297.14	265.25
297.37	285.25
297.601	281.25
297.831	277.25
298.062	287.25
298.292	269.25
298.523	278.25
298.753	296.25
298.984	264.25
299.214	286.25
299.445	287.25
299.675	289.25
299.905	282.25
300.136	297.25
300.366	276.25
300.597	283.25
300.827	292.25
301.057	319.25
301.288	320.25
301.518	318.25
301.748	314.25
301.979	311.25
302.209	291.25
302.439	295.25
302.669	317.25
302.9	307.25
303.13	299.25
303.36	319.25
303.59	312.25
303.82	319.25
304.051	313.25
304.281	320.25
304.511	313.25
304.741	294.25
304.971	289.25
305.201	289.25
305.431	320.25
305.661	285.25
305.891	312.25
306.121	313.25
306.352	319.25
306.582	312.25
306.812	297.25
307.042	320.25
307.272	309.25
307.502	307.25
307.731	325.25
307.961	318.25
308.191	313.25
308.421	321.25
308.651	315.25
308.881	338.25
309.111	331.25
309.341	325.25
309.571	353.25
309.8	337.25
310.03	346.25
310.26	355.25
310.49	357.25
310.72	370.25
310.949	397.25
311.179	393.25
311.409	357.25
311.639	347.25
311.868	367.25
312.098	359.25
312.328	377.25
312.557	374.25
312.787	410.25
313.017	402.25
313.246	384.25
313.476	377.25
313.706	383.25
313.935	365.25
314.165	384.25
314.394	408.25
314.624	376.25
314.853	359.25
315.083	369.25
315.312	365.25
315.542	348.25
315.771	354.25
316.001	344.25
316.23	338.25
316.46	341.25
316.689	361.25
316.919	365.25
317.148	378.25
317.377	361.25
317.607	365.25
317.836	365.25
318.065	350.25
318.295	373.25
318.524	371.25
318.753	365.25
318.983	341.25
319.212	366.25
319.441	357.25
319.67	365.25
319.9	362.25
320.129	373.25
320.358	367.25
320.587	372.25
320.816	377.25
321.046	390.25
321.275	396.25
321.504	398.25
321.733	417.25
321.962	401.25
322.191	409.25
322.42	433.25
322.649	453.25
322.878	457.25
323.108	462.25
323.337	483.25
323.566	517.25
323.795	569.25
324.024	622.25
324.253	784.25
324.482	1080.25
324.71	1661.25
324.939	2441.25
325.168	2179.25
325.397	1126.25
325.626	744.25
325.855	602.25
326.084	530.25
326.313	506.25
326.542	544.25
326.77	599.25
326.999	689.25
327.228	969.25
327.457	1461.25
327.686	1825.25
327.914	1263.25
328.143	793.25
328.372	701.25
328.6	641.25
328.829	601.25
329.058	632.25
329.287	618.25
329.515	573.25
329.744	527.25
329.972	549.25
330.201	555.25
330.43	600.25
330.658	637.25
330.887	655.25
331.115	620.25
331.344	499.25
331.572	497.25
331.801	506.25
332.03	496.25
332.258	477.25
332.486	452.25
332.715	419.25
332.943	434.25
333.172	440.25
333.4	454.25
333.629	427.25
333.857	465.25
334.085	455.25
334.314	478.25
334.542	523.25
334.771	547.25
334.999	495.25
335.227	442.25
335.455	423.25
335.684	413.25
335.912	435.25
336.14	418.25
336.369	414.25
336.597	430.25
336.825	440.25
337.053	414.25
337.281	405.25
337.51	401.25
337.738	419.25
337.966	426.25
338.194	436.25
338.422	437.25
338.65	414.25
338.878	410.25
339.106	394.25
339.334	414.25
339.562	399.25
339.79	406.25
340.018	416.25
340.246	406.25
340.474	421.25
340.702	396.25
340.93	431.25
341.158	431.25
341.386	402.25
341.614	422.25
341.842	404.25
342.07	405.25
342.298	407.25
342.526	398.25
342.754	387.25
342.981	378.25
343.209	374.25
343.437	365.25
343.665	395.25
343.893	395.25
344.12	417.25
344.348	408.25
344.576	412.25
344.804	419.25
345.031	418.25
345.259	430.25
345.487	422.25
345.714	407.25
345.942	409.25
346.17	392.25
346.397	393.25
346.625	393.25
346.853	426.25
347.08	410.25
347.308	408.25
347.535	421.25
347.763	413.25
347.99	399.25
348.218	422.25
348.445	412.25
348.673	431.25
348.9	405.25
349.128	381.25
349.355	385.25
349.583	374.25
349.81	397.25
350.037	390.25
350.265	379.25
350.492	395.25
350.72	398.25
350.947	395.25
351.174	391.25
351.402	417.25
351.629	418.25
351.856	405.25
352.083	435.25
352.311	449.25
352.538	435.25
352.765	422.25
352.992	399.25
353.22	398.25
353.447	406.25
353.674	407.25
353.901	373.25
354.128	381.25
354.355	401.25
354.583	362.25
354.81	377.25
355.037	368.25
355.264	378.25
355.491	359.25
355.718	372.25
355.945	360.25
356.172	354.25
356.399	363.25
356.626	362.25
356.853	352.25
357.08	362.25
357.307	359.25
357.534	359.25
357.761	354.25
357.988	374.25
358.215	357.25
358.441	365.25
358.668	345.25
358.895	373.25
359.122	375.25
359.349	383.25
359.576	403.25
359.802	422.25
360.029	474.25
360.256	480.25
360.483	441.25
360.709	421.25
360.936	386.25
361.163	412.25
361.39	421.25
361.616	407.25
361.843	401.25
362.07	393.25
362.296	394.25
362.523	397.25
362.749	400.25
362.976	411.25
363.203	391.25
363.429	370.25
363.656	383.25
363.882	382.25
364.109	353.25
364.335	376.25
364.562	385.25
364.788	358.25
365.015	397.25
365.241	365.25
365.468	369.25
365.694	383.25
365.92	385.25
366.147	380.25
366.373	396.25
366.599	370.25
366.826	367.25
367.052	371.25
367.278	376.25
367.505	362.25
367.731	362.25
367.957	365.25
368.184	379.25
368.41	377.25
368.636	381.25
368.862	378.25
369.089	379.25
369.315	378.25
369.541	378.25
369.767	374.25
369.993	361.25
370.219	366.25
370.445	359.25
370.672	353.25
370.898	354.25
371.124	381.25
371.35	373.25
371.576	358.25
371.802	370.25
372.028	362.25
372.254	352.25
372.48	373.25
372.706	345.25
372.932	370.25
373.158	333.25
373.384	365.25
373.61	369.25
373.835	366.25
374.061	378.25
374.287	368.25
374.513	376.25
374.739	374.25
374.965	372.25
375.191	371.25
375.416	371.25
375.642	377.25
375.868	385.25
376.094	344.25
376.319	368.25
376.545	372.25
376.771	382.25
376.997	355.25
377.222	357.25
377.448	360.25
377.674	331.25
377.899	350.25
378.125	349.25
378.35	344.25
378.576	354.25
378.802	355.25
379.027	361.25
379.253	375.25
379.478	341.25
379.704	345.25
379.929	358.25
380.155	365.25
380.38	361.25
380.606	350.25
380.831	376.25
381.057	379.25
381.282	374.25
381.507	355.25
381.733	370.25
381.958	361.25
382.184	377.25
382.409	360.25
382.634	376.25
382.86	375.25
383.085	369.25
383.31	357.25
383.535	375.25
383.761	367.25
383.986	372.25
384.211	367.25
384.436	394.25
384.662	350.25
384.887	367.25
385.112	373.25
385.337	369.25
385.562	385.25
385.787	366.25
386.013	394.25
386.238	389.25
386.463	394.25
386.688	392.25
386.913	405.25
387.138	366.25
387.363	379.25
387.588	381.25
387.813	382.25
388.038	383.25
388.263	384.25
388.488	375.25
388.713	357.25
388.938	381.25
389.163	399.25
389.387	394.25
389.612	391.25
389.837	382.25
390.062	376.25
390.287	370.25
390.512	389.25
390.736	410.25
390.961	393.25
391.186	389.25
391.411	403.25
391.636	405.25
391.86	398.25
392.085	392.25
392.31	408.25
392.534	389.25
392.759	371.25
392.984	385.25
393.208	387.25
393.433	398.25
393.658	399.25
393.882	389.25
394.107	387.25
394.331	407.25
394.556	387.25
394.78	392.25
395.005	381.25
395.229	393.25
395.454	395.25
395.678	378.25
395.903	409.25
396.127	430.25
396.352	438.25
396.576	406.25
396.801	396.25
397.025	391.25
397.249	405.25
397.474	414.25
397.698	418.25
397.922	424.25
398.147	433.25
398.371	422.25
398.595	443.25
398.82	421.25
399.044	435.25
399.268	441.25
399.492	442.25
399.717	475.25
399.941	523.25
400.165	527.25
400.389	560.25
400.613	502.25
400.837	469.25
401.062	461.25
401.286	445.25
401.51	438.25
401.734	429.25
401.958	458.25
402.182	455.25
402.406	454.25
402.63	466.25
402.854	454.25
403.078	456.25
403.302	470.25
403.526	463.25
403.75	474.25
403.974	439.25
404.198	457.25
404.422	468.25
404.645	455.25
404.869	455.25
405.093	494.25
405.317	549.25
405.541	587.25
405.765	515.25
405.988	487.25
406.212	494.25
406.436	503.25
406.66	567.25
406.883	523.25
407.107	539.25
407.331	574.25
407.555	629.25
407.778	629.25
408.002	558.25
408.226	527.25
408.449	517.25
408.673	525.25
408.896	548.25
409.12	579.25
409.344	540.25
409.567	496.25
409.791	482.25
410.014	474.25
410.238	441.25
410.461	460.25
410.685	465.25
410.908	475.25
411.132	537.25
411.355	551.25
411.578	543.25
411.802	488.25
412.025	473.25
412.249	454.25
412.472	478.25
412.695	542.25
412.919	518.25
413.142	488.25
413.365	461.25
413.589	442.25
413.812	463.25
414.035	427.25
414.258	446.25
414.482	441.25
414.705	428.25
414.928	435.25
415.151	420.25
415.374	431.25
415.597	431.25
415.821	438.25
416.044	446.25
416.267	447.25
416.49	442.25
416.713	453.25
416.936	422.25
417.159	430.25
417.382	456.25
417.605	422.25
417.828	452.25
418.051	466.25
418.274	472.25
418.497	449.25
418.72	454.25
418.943	434.25
419.166	451.25
419.389	470.25
419.611	475.25
419.834	454.25
420.057	467.25
420.28	454.25
420.503	482.25
420.726	477.25
420.948	500.25
421.171	531.25
421.394	564.25
421.617	496.25
421.839	466.25
422.062	470.25
422.285	496.25
422.507	541.25
422.73	613.25
422.953	587.25
423.175	538.25
423.398	498.25
423.621	491.25
423.843	513.25
424.066	529.25
424.288	515.25
424.511	528.25
424.733	603.25
424.956	661.25
425.178	647.25
425.401	629.25
425.623	665.25
425.846	564.25
426.068	539.25
426.291	529.25
426.513	521.25
426.735	520.25
426.958	567.25
427.18	656.25
427.402	795.25
427.625	866.25
427.847	765.25
428.069	653.25
428.292	601.25
428.514	535.25
428.736	488.25
428.958	499.25
429.181	517.25
429.403	497.25
429.625	500.25
429.847	523.25
430.069	621.25
430.292	599.25
430.514	486.25
430.736	474.25
430.958	464.25
431.18	454.25
431.402	441.25
431.624	443.25
431.846	419.25
432.068	446.25
432.29	447.25
432.512	446.25
432.734	477.25
432.956	455.25
433.178	469.25
433.4	498.25
433.622	465.25
433.844	453.25
434.066	446.25
434.287	465.25
434.509	466.25
434.731	444.25
434.953	465.25
435.175	511.25
435.397	508.25
435.618	538.25
435.84	581.25
436.062	661.25
436.284	745.25
436.505	628.25
436.727	564.25
436.949	512.25
437.17	492.25
437.392	496.25
437.614	535.25
437.835	548.25
438.057	634.25
438.278	721.25
438.5	729.25
438.721	775.25
438.943	757.25
439.165	595.25
439.386	561.25
439.608	544.25
439.829	554.25
440.05	565.25
440.272	612.25
440.493	587.25
440.715	537.25
440.936	497.25
441.158	495.25
441.379	509.25
441.6	494.25
441.822	534.25
442.043	562.25
442.264	651.25
442.486	679.25
442.707	589.25
442.928	533.25
443.149	534.25
443.371	573.25
443.592	623.25
443.813	696.25
444.034	743.25
444.255	637.25
444.476	563.25
444.698	543.25
444.919	544.25
445.14	603.25
445.361	565.25
445.582	565.25
445.803	634.25
446.024	754.25
446.245	767.25
446.466	713.25
446.687	577.25
446.908	529.25
447.129	499.25
447.35	474.25
447.571	475.25
447.792	490.25
448.013	478.25
448.234	507.25
448.455	580.25
448.675	671.25
448.896	783.25
449.117	668.25
449.338	651.25
449.559	761.25
449.779	818.25
450	676.25
450.221	544.25
450.442	509.25
450.662	493.25
450.883	500.25
451.104	534.25
451.324	502.25
451.545	479.25
451.766	462.25
451.986	438.25
452.207	441.25
452.428	434.25
452.648	413.25
452.869	445.25
453.089	442.25
453.31	483.25
453.53	467.25
453.751	429.25
453.971	441.25
454.192	447.25
454.412	464.25
454.633	455.25
454.853	436.25
455.073	441.25
455.294	457.25
455.514	539.25
455.734	545.25
455.955	453.25
456.175	423.25
456.395	404.25
456.616	411.25
456.836	402.25
457.056	393.25
457.276	401.25
457.497	407.25
457.717	405.25
457.937	400.25
458.157	421.25
458.377	422.25
458.598	460.25
458.818	521.25
459.038	625.25
459.258	638.25
459.478	520.25
459.698	451.25
459.918	458.25
460.138	432.25
460.358	448.25
460.578	447.25
460.798	442.25
461.018	454.25
461.238	446.25
461.458	452.25
461.678	419.25
461.898	424.25
462.118	442.25
462.338	434.25
462.558	447.25
462.777	431.25
462.997	456.25
463.217	473.25
463.437	467.25
463.657	456.25
463.876	467.25
464.096	450.25
464.316	443.25
464.536	462.25
464.755	467.25
464.975	484.25
465.195	529.25
465.414	631.25
465.634	522.25
465.854	499.25
466.073	481.25
466.293	453.25
466.512	435.25
466.732	433.25
466.951	426.25
467.171	429.25
467.391	445.25
467.61	453.25
467.829	442.25
468.049	451.25
468.268	454.25
468.488	423.25
468.707	441.25
468.927	435.25
469.146	433.25
469.365	436.25
469.585	434.25
469.804	437.25
470.023	455.25
470.243	439.25
470.462	459.25
470.681	458.25
470.901	466.25
471.12	441.25
471.339	456.25
471.558	446.25
471.777	437.25
471.997	407.25
472.216	432.25
472.435	497.25
472.654	479.25
472.873	451.25
473.092	453.25
473.311	450.25
473.53	441.25
473.749	469.25
473.968	505.25
474.187	625.25
474.406	648.25
474.625	516.25
474.844	460.25
475.063	451.25
475.282	445.25
475.501	445.25
475.72	444.25
475.939	445.25
476.158	462.25
476.377	461.25
476.596	441.25
476.814	463.25
477.033	478.25
477.252	484.25
477.471	465.25
477.69	496.25
477.908	473.25
478.127	478.25
478.346	468.25
478.564	487.25
478.783	491.25
479.002	487.25
479.22	529.25
479.439	518.25
479.658	545.25
479.876	544.25
480.095	519.25
480.313	564.25
480.532	557.25
480.751	541.25
480.969	559.25
481.188	631.25
481.406	676.25
481.624	597.25
481.843	557.25
482.061	522.25
482.28	564.25
482.498	539.25
482.717	535.25
482.935	519.25
483.153	528.25
483.372	547.25
483.59	511.25
483.808	533.25
484.027	550.25
484.245	518.25
484.463	530.25
484.681	531.25
484.9	516.25
485.118	537.25
485.336	529.25
485.554	553.25
485.772	541.25
485.99	550.25
486.209	535.25
486.427	555.25
486.645	545.25
486.863	587.25
487.081	594.25
487.299	563.25
487.517	557.25
487.735	580.25
487.953	561.25
488.171	569.25
488.389	568.25
488.607	573.25
488.825	576.25
489.043	580.25
489.261	569.25
489.479	561.25
489.696	579.25
489.914	597.25
490.132	597.25
490.35	592.25
490.568	608.25
490.786	621.25
491.003	624.25
491.221	635.25
491.439	661.25
491.657	652.25
491.874	671.25
492.092	637.25
492.31	651.25
492.527	674.25
492.745	675.25
492.963	685.25
493.18	669.25
493.398	672.25
493.615	702.25
493.833	673.25
494.05	693.25
494.268	681.25
494.485	668.25
494.703	694.25
494.92	697.25
495.138	691.25
495.355	692.25
495.573	703.25
495.79	691.25
496.008	705.25
496.225	690.25
496.442	689.25
496.66	694.25
496.877	673.25
497.094	689.25
497.312	681.25
497.529	679.25
497.746	693.25
497.963	695.25
498.181	756.25
498.398	756.25
498.615	725.25
498.832	749.25
499.049	757.25
499.267	742.25
499.484	777.25
499.701	775.25
499.918	773.25
500.135	813.25
500.352	842.25
500.569	854.25
500.786	842.25
501.003	832.25
501.22	840.25
501.437	835.25
501.654	811.25
501.871	807.25
