Data from 1980.PennyLincolnUp.Lamp.En5.5.200Scan.071819.P1_HRD10591_16-37-58-957.txt Node
Date: Thu Jul 18 16:37:58 EDT 2019
User: cochatt
Spectrometer: HR+D1059
Trigger mode: 1
Integration Time (sec): 1.000000E-1
Scans to average: 1
Electric dark correction enabled: true
Nonlinearity correction enabled: false
Boxcar width: 0
XAxis mode: Wavelengths
Number of Pixels in Spectrum: 2048
>>>>>Begin Spectral Data<<<<<
223.165	-11.06
223.4	-11.06
223.635	-11.06
223.869	-26.06
224.104	-24.06
224.338	-5.06
224.573	-13.06
224.808	-17.06
225.042	-22.06
225.277	10.94
225.511	-6.06
225.746	12.94
225.98	8.94
226.215	12.94
226.449	9.94
226.683	23.94
226.918	20.94
227.152	23.94
227.387	34.94
227.621	46.94
227.856	43.94
228.09	41.94
228.324	48.94
228.559	53.94
228.793	57.94
229.027	99.94
229.262	99.94
229.496	113.94
229.73	144.94
229.964	155.94
230.199	122.94
230.433	115.94
230.667	115.94
230.901	119.94
231.136	117.94
231.37	96.94
231.604	113.94
231.838	102.94
232.072	122.94
232.306	106.94
232.541	111.94
232.775	104.94
233.009	114.94
233.243	117.94
233.477	105.94
233.711	104.94
233.945	112.94
234.179	122.94
234.413	122.94
234.647	120.94
234.881	122.94
235.115	106.94
235.349	126.94
235.583	134.94
235.817	126.94
236.051	134.94
236.285	124.94
236.519	128.94
236.753	124.94
236.987	137.94
237.221	191.94
237.455	248.94
237.689	198.94
237.922	136.94
238.156	136.94
238.39	124.94
238.624	119.94
238.858	123.94
239.091	123.94
239.325	114.94
239.559	110.94
239.793	117.94
240.027	139.94
240.26	136.94
240.494	151.94
240.728	137.94
240.961	146.94
241.195	148.94
241.429	133.94
241.662	135.94
241.896	129.94
242.13	129.94
242.363	138.94
242.597	130.94
242.83	137.94
243.064	145.94
243.298	136.94
243.531	135.94
243.765	130.94
243.998	127.94
244.232	140.94
244.465	149.94
244.699	143.94
244.932	131.94
245.166	144.94
245.399	154.94
245.633	136.94
245.866	141.94
246.099	141.94
246.333	139.94
246.566	132.94
246.8	138.94
247.033	140.94
247.266	160.94
247.5	162.94
247.733	191.94
247.966	164.94
248.2	183.94
248.433	174.94
248.666	185.94
248.899	189.94
249.133	203.94
249.366	211.94
249.599	200.94
249.832	178.94
250.066	176.94
250.299	192.94
250.532	207.94
250.765	219.94
250.998	225.94
251.231	226.94
251.465	232.94
251.698	219.94
251.931	212.94
252.164	215.94
252.397	192.94
252.63	198.94
252.863	204.94
253.096	230.94
253.329	242.94
253.562	231.94
253.795	220.94
254.028	199.94
254.261	218.94
254.494	217.94
254.727	275.94
254.96	293.94
255.193	295.94
255.426	274.94
255.659	242.94
255.892	226.94
256.124	241.94
256.357	238.94
256.59	222.94
256.823	215.94
257.056	232.94
257.289	209.94
257.521	202.94
257.754	226.94
257.987	209.94
258.22	216.94
258.452	199.94
258.685	198.94
258.918	199.94
259.151	224.94
259.383	210.94
259.616	227.94
259.849	233.94
260.081	239.94
260.314	266.94
260.547	260.94
260.779	263.94
261.012	242.94
261.244	234.94
261.477	229.94
261.71	222.94
261.942	229.94
262.175	246.94
262.407	245.94
262.64	223.94
262.872	226.94
263.105	240.94
263.337	215.94
263.57	194.94
263.802	213.94
264.035	214.94
264.267	196.94
264.499	210.94
264.732	195.94
264.964	202.94
265.197	211.94
265.429	200.94
265.661	208.94
265.894	214.94
266.126	207.94
266.358	215.94
266.591	204.94
266.823	225.94
267.055	208.94
267.287	235.94
267.52	217.94
267.752	218.94
267.984	217.94
268.216	222.94
268.448	233.94
268.681	221.94
268.913	243.94
269.145	239.94
269.377	288.94
269.609	276.94
269.841	250.94
270.073	260.94
270.306	305.94
270.538	304.94
270.77	322.94
271.002	318.94
271.234	303.94
271.466	300.94
271.698	320.94
271.93	343.94
272.162	320.94
272.394	326.94
272.626	300.94
272.858	315.94
273.09	273.94
273.322	288.94
273.553	272.94
273.785	269.94
274.017	236.94
274.249	251.94
274.481	256.94
274.713	256.94
274.945	255.94
275.176	266.94
275.408	256.94
275.64	249.94
275.872	257.94
276.104	261.94
276.335	247.94
276.567	256.94
276.799	276.94
277.031	308.94
277.262	310.94
277.494	320.94
277.726	287.94
277.957	282.94
278.189	272.94
278.421	272.94
278.652	273.94
278.884	247.94
279.115	242.94
279.347	230.94
279.579	243.94
279.81	240.94
280.042	261.94
280.273	243.94
280.505	247.94
280.736	265.94
280.968	255.94
281.199	239.94
281.431	234.94
281.662	235.94
281.894	248.94
282.125	258.94
282.356	274.94
282.588	284.94
282.819	297.94
283.051	254.94
283.282	246.94
283.513	270.94
283.745	255.94
283.976	241.94
284.207	272.94
284.439	244.94
284.67	270.94
284.901	254.94
285.132	250.94
285.364	256.94
285.595	272.94
285.826	264.94
286.057	234.94
286.288	245.94
286.52	256.94
286.751	246.94
286.982	268.94
287.213	255.94
287.444	252.94
287.675	260.94
287.906	276.94
288.138	275.94
288.369	296.94
288.6	277.94
288.831	277.94
289.062	275.94
289.293	258.94
289.524	288.94
289.755	268.94
289.986	252.94
290.217	262.94
290.448	261.94
290.679	267.94
290.91	261.94
291.141	261.94
291.371	258.94
291.602	248.94
291.833	252.94
292.064	262.94
292.295	269.94
292.526	264.94
292.757	260.94
292.987	266.94
293.218	264.94
293.449	258.94
293.68	260.94
293.91	267.94
294.141	266.94
294.372	256.94
294.603	280.94
294.833	273.94
295.064	264.94
295.295	266.94
295.525	241.94
295.756	275.94
295.987	259.94
296.217	315.94
296.448	327.94
296.679	274.94
296.909	260.94
297.14	278.94
297.37	274.94
297.601	271.94
297.831	263.94
298.062	278.94
298.292	268.94
298.523	268.94
298.753	275.94
298.984	296.94
299.214	265.94
299.445	297.94
299.675	268.94
299.905	284.94
300.136	296.94
300.366	281.94
300.597	295.94
300.827	284.94
301.057	304.94
301.288	310.94
301.518	303.94
301.748	280.94
301.979	314.94
302.209	296.94
302.439	303.94
302.669	295.94
302.9	284.94
303.13	292.94
303.36	305.94
303.59	303.94
303.82	316.94
304.051	298.94
304.281	272.94
304.511	265.94
304.741	278.94
304.971	289.94
305.201	292.94
305.431	299.94
305.661	276.94
305.891	296.94
306.121	282.94
306.352	306.94
306.582	307.94
306.812	304.94
307.042	312.94
307.272	310.94
307.502	302.94
307.731	306.94
307.961	304.94
308.191	296.94
308.421	318.94
308.651	309.94
308.881	327.94
309.111	300.94
309.341	306.94
309.571	337.94
309.8	324.94
310.03	337.94
310.26	354.94
310.49	347.94
310.72	369.94
310.949	346.94
311.179	396.94
311.409	368.94
311.639	351.94
311.868	370.94
312.098	344.94
312.328	367.94
312.557	395.94
312.787	388.94
313.017	388.94
313.246	378.94
313.476	328.94
313.706	344.94
313.935	351.94
314.165	378.94
314.394	392.94
314.624	361.94
314.853	374.94
315.083	343.94
315.312	354.94
315.542	330.94
315.771	329.94
316.001	333.94
316.23	336.94
316.46	329.94
316.689	337.94
316.919	350.94
317.148	354.94
317.377	346.94
317.607	347.94
317.836	376.94
318.065	350.94
318.295	334.94
318.524	350.94
318.753	356.94
318.983	335.94
319.212	359.94
319.441	348.94
319.67	363.94
319.9	352.94
320.129	355.94
320.358	341.94
320.587	370.94
320.816	374.94
321.046	366.94
321.275	366.94
321.504	374.94
321.733	375.94
321.962	394.94
322.191	414.94
322.42	432.94
322.649	457.94
322.878	442.94
323.108	442.94
323.337	498.94
323.566	518.94
323.795	570.94
324.024	626.94
324.253	751.94
324.482	1066.94
324.71	1650.94
324.939	2341.94
325.168	2112.94
325.397	1104.94
325.626	755.94
325.855	573.94
326.084	534.94
326.313	519.94
326.542	511.94
326.77	569.94
326.999	681.94
327.228	924.94
327.457	1444.94
327.686	1801.94
327.914	1231.94
328.143	815.94
328.372	678.94
328.6	644.94
328.829	587.94
329.058	634.94
329.287	624.94
329.515	574.94
329.744	517.94
329.972	518.94
330.201	536.94
330.43	595.94
330.658	617.94
330.887	678.94
331.115	639.94
331.344	542.94
331.572	493.94
331.801	467.94
332.03	479.94
332.258	467.94
332.486	435.94
332.715	418.94
332.943	415.94
333.172	427.94
333.4	408.94
333.629	426.94
333.857	425.94
334.085	453.94
334.314	458.94
334.542	515.94
334.771	521.94
334.999	465.94
335.227	442.94
335.455	410.94
335.684	394.94
335.912	403.94
336.14	413.94
336.369	418.94
336.597	407.94
336.825	428.94
337.053	419.94
337.281	414.94
337.51	400.94
337.738	385.94
337.966	404.94
338.194	413.94
338.422	393.94
338.65	413.94
338.878	391.94
339.106	381.94
339.334	384.94
339.562	374.94
339.79	370.94
340.018	382.94
340.246	394.94
340.474	387.94
340.702	414.94
340.93	388.94
341.158	377.94
341.386	390.94
341.614	391.94
341.842	388.94
342.07	382.94
342.298	385.94
342.526	370.94
342.754	362.94
342.981	380.94
343.209	361.94
343.437	368.94
343.665	373.94
343.893	369.94
344.12	364.94
344.348	382.94
344.576	398.94
344.804	402.94
345.031	414.94
345.259	420.94
345.487	400.94
345.714	394.94
345.942	376.94
346.17	377.94
346.397	393.94
346.625	380.94
346.853	374.94
347.08	383.94
347.308	406.94
347.535	383.94
347.763	397.94
347.99	411.94
348.218	383.94
348.445	407.94
348.673	390.94
348.9	396.94
349.128	363.94
349.355	368.94
349.583	362.94
349.81	388.94
350.037	363.94
350.265	346.94
350.492	356.94
350.72	373.94
350.947	370.94
351.174	394.94
351.402	411.94
351.629	375.94
351.856	399.94
352.083	399.94
352.311	407.94
352.538	408.94
352.765	394.94
352.992	386.94
353.22	407.94
353.447	386.94
353.674	391.94
353.901	376.94
354.128	347.94
354.355	356.94
354.583	358.94
354.81	367.94
355.037	364.94
355.264	328.94
355.491	332.94
355.718	332.94
355.945	346.94
356.172	338.94
356.399	337.94
356.626	335.94
356.853	347.94
357.08	326.94
357.307	359.94
357.534	342.94
357.761	345.94
357.988	347.94
358.215	351.94
358.441	346.94
358.668	339.94
358.895	355.94
359.122	362.94
359.349	375.94
359.576	408.94
359.802	406.94
360.029	446.94
360.256	462.94
360.483	427.94
360.709	384.94
360.936	389.94
361.163	370.94
361.39	389.94
361.616	395.94
361.843	405.94
362.07	380.94
362.296	393.94
362.523	380.94
362.749	371.94
362.976	371.94
363.203	367.94
363.429	368.94
363.656	355.94
363.882	362.94
364.109	384.94
364.335	371.94
364.562	358.94
364.788	340.94
365.015	335.94
365.241	355.94
365.468	376.94
365.694	382.94
365.92	363.94
366.147	346.94
366.373	362.94
366.599	339.94
366.826	338.94
367.052	329.94
367.278	340.94
367.505	360.94
367.731	335.94
367.957	348.94
368.184	356.94
368.41	343.94
368.636	371.94
368.862	383.94
369.089	372.94
369.315	354.94
369.541	359.94
369.767	350.94
369.993	343.94
370.219	361.94
370.445	340.94
370.672	363.94
370.898	337.94
371.124	324.94
371.35	343.94
371.576	338.94
371.802	339.94
372.028	348.94
372.254	348.94
372.48	348.94
372.706	342.94
372.932	355.94
373.158	346.94
373.384	341.94
373.61	345.94
373.835	353.94
374.061	344.94
374.287	350.94
374.513	327.94
374.739	341.94
374.965	339.94
375.191	343.94
375.416	368.94
375.642	342.94
375.868	358.94
376.094	339.94
376.319	347.94
376.545	336.94
376.771	320.94
376.997	361.94
377.222	336.94
377.448	333.94
377.674	332.94
377.899	346.94
378.125	332.94
378.35	343.94
378.576	340.94
378.802	331.94
379.027	345.94
379.253	352.94
379.478	350.94
379.704	328.94
379.929	352.94
380.155	336.94
380.38	345.94
380.606	358.94
380.831	353.94
381.057	347.94
381.282	346.94
381.507	329.94
381.733	342.94
381.958	331.94
382.184	326.94
382.409	351.94
382.634	356.94
382.86	339.94
383.085	356.94
383.31	341.94
383.535	354.94
383.761	348.94
383.986	354.94
384.211	354.94
384.436	362.94
384.662	340.94
384.887	353.94
385.112	356.94
385.337	373.94
385.562	365.94
385.787	351.94
386.013	352.94
386.238	379.94
386.463	372.94
386.688	357.94
386.913	347.94
387.138	360.94
387.363	363.94
387.588	362.94
387.813	353.94
388.038	358.94
388.263	351.94
388.488	373.94
388.713	352.94
388.938	365.94
389.163	358.94
389.387	372.94
389.612	372.94
389.837	361.94
390.062	376.94
390.287	341.94
390.512	338.94
390.736	338.94
390.961	350.94
391.186	368.94
391.411	370.94
391.636	375.94
391.86	357.94
392.085	370.94
392.31	373.94
392.534	363.94
392.759	356.94
392.984	362.94
393.208	377.94
393.433	347.94
393.658	368.94
393.882	353.94
394.107	361.94
394.331	360.94
394.556	357.94
394.78	369.94
395.005	386.94
395.229	363.94
395.454	374.94
395.678	359.94
395.903	388.94
396.127	409.94
396.352	406.94
396.576	385.94
396.801	379.94
397.025	362.94
397.249	381.94
397.474	375.94
397.698	386.94
397.922	375.94
398.147	401.94
398.371	434.94
398.595	398.94
398.82	402.94
399.044	397.94
399.268	411.94
399.492	442.94
399.717	449.94
399.941	469.94
400.165	506.94
400.389	509.94
400.613	465.94
400.837	420.94
401.062	422.94
401.286	422.94
401.51	423.94
401.734	430.94
401.958	411.94
402.182	430.94
402.406	451.94
402.63	429.94
402.854	427.94
403.078	413.94
403.302	446.94
403.526	427.94
403.75	446.94
403.974	422.94
404.198	419.94
404.422	422.94
404.645	433.94
404.869	441.94
405.093	475.94
405.317	504.94
405.541	522.94
405.765	486.94
405.988	448.94
406.212	460.94
406.436	492.94
406.66	507.94
406.883	493.94
407.107	482.94
407.331	519.94
407.555	591.94
407.778	620.94
408.002	516.94
408.226	488.94
408.449	479.94
408.673	468.94
408.896	497.94
409.12	541.94
409.344	512.94
409.567	476.94
409.791	437.94
410.014	447.94
410.238	436.94
410.461	448.94
410.685	451.94
410.908	468.94
411.132	495.94
411.355	510.94
411.578	473.94
411.802	466.94
412.025	447.94
412.249	449.94
412.472	461.94
412.695	514.94
412.919	491.94
413.142	478.94
413.365	437.94
413.589	426.94
413.812	403.94
414.035	404.94
414.258	411.94
414.482	397.94
414.705	410.94
414.928	400.94
415.151	406.94
415.374	409.94
415.597	379.94
415.821	392.94
416.044	404.94
416.267	422.94
416.49	400.94
416.713	406.94
416.936	391.94
417.159	411.94
417.382	420.94
417.605	420.94
417.828	431.94
418.051	451.94
418.274	449.94
418.497	442.94
418.72	419.94
418.943	408.94
419.166	410.94
419.389	437.94
419.611	436.94
419.834	424.94
420.057	425.94
420.28	452.94
420.503	416.94
420.726	448.94
420.948	467.94
421.171	478.94
421.394	536.94
421.617	471.94
421.839	449.94
422.062	441.94
422.285	455.94
422.507	495.94
422.73	572.94
422.953	570.94
423.175	516.94
423.398	473.94
423.621	448.94
423.843	464.94
424.066	480.94
424.288	476.94
424.511	500.94
424.733	544.94
424.956	638.94
425.178	588.94
425.401	596.94
425.623	599.94
425.846	525.94
426.068	498.94
426.291	491.94
426.513	480.94
426.735	497.94
426.958	535.94
427.18	623.94
427.402	726.94
427.625	835.94
427.847	742.94
428.069	644.94
428.292	548.94
428.514	521.94
428.736	482.94
428.958	487.94
429.181	470.94
429.403	481.94
429.625	469.94
429.847	514.94
430.069	541.94
430.292	571.94
430.514	489.94
430.736	441.94
430.958	440.94
431.18	426.94
431.402	439.94
431.624	422.94
431.846	406.94
432.068	424.94
432.29	411.94
432.512	416.94
432.734	444.94
432.956	428.94
433.178	427.94
433.4	444.94
433.622	440.94
433.844	435.94
434.066	407.94
434.287	420.94
434.509	423.94
434.731	435.94
434.953	443.94
435.175	450.94
435.397	479.94
435.618	514.94
435.84	540.94
436.062	639.94
436.284	664.94
436.505	584.94
436.727	508.94
436.949	470.94
437.17	460.94
437.392	466.94
437.614	493.94
437.835	514.94
438.057	619.94
438.278	702.94
438.5	716.94
438.721	732.94
438.943	730.94
439.165	585.94
439.386	550.94
439.608	530.94
439.829	521.94
440.05	551.94
440.272	607.94
440.493	560.94
440.715	481.94
440.936	494.94
441.158	471.94
441.379	446.94
441.6	475.94
441.822	502.94
442.043	560.94
442.264	628.94
442.486	653.94
442.707	548.94
442.928	511.94
443.149	526.94
443.371	556.94
443.592	598.94
443.813	664.94
444.034	699.94
444.255	616.94
444.476	524.94
444.698	490.94
444.919	495.94
445.14	617.94
445.361	560.94
445.582	534.94
445.803	613.94
446.024	711.94
446.245	698.94
446.466	670.94
446.687	574.94
446.908	523.94
447.129	498.94
447.35	487.94
447.571	470.94
447.792	467.94
448.013	480.94
448.234	482.94
448.455	531.94
448.675	651.94
448.896	743.94
449.117	632.94
449.338	603.94
449.559	684.94
449.779	744.94
450	611.94
450.221	540.94
450.442	478.94
450.662	478.94
450.883	492.94
451.104	527.94
451.324	485.94
451.545	468.94
451.766	440.94
451.986	391.94
452.207	402.94
452.428	399.94
452.648	413.94
452.869	416.94
453.089	441.94
453.31	416.94
453.53	435.94
453.751	417.94
453.971	440.94
454.192	463.94
454.412	447.94
454.633	424.94
454.853	410.94
455.073	411.94
455.294	437.94
455.514	518.94
455.734	511.94
455.955	415.94
456.175	414.94
456.395	373.94
456.616	375.94
456.836	374.94
457.056	384.94
457.276	373.94
457.497	379.94
457.717	394.94
457.937	384.94
458.157	403.94
458.377	404.94
458.598	433.94
458.818	492.94
459.038	602.94
459.258	574.94
459.478	484.94
459.698	433.94
459.918	411.94
460.138	402.94
460.358	397.94
460.578	397.94
460.798	409.94
461.018	406.94
461.238	416.94
461.458	390.94
461.678	392.94
461.898	416.94
462.118	397.94
462.338	433.94
462.558	443.94
462.777	417.94
462.997	420.94
463.217	422.94
463.437	444.94
463.657	426.94
463.876	411.94
464.096	442.94
464.316	443.94
464.536	440.94
464.755	434.94
464.975	443.94
465.195	506.94
465.414	628.94
465.634	521.94
465.854	474.94
466.073	446.94
466.293	422.94
466.512	428.94
466.732	407.94
466.951	422.94
467.171	412.94
467.391	424.94
467.61	407.94
467.829	448.94
468.049	422.94
468.268	435.94
468.488	441.94
468.707	407.94
468.927	405.94
469.146	406.94
469.365	395.94
469.585	398.94
469.804	402.94
470.023	423.94
470.243	424.94
470.462	443.94
470.681	432.94
470.901	441.94
471.12	413.94
471.339	414.94
471.558	423.94
471.777	426.94
471.997	402.94
472.216	452.94
472.435	464.94
472.654	448.94
472.873	435.94
473.092	426.94
473.311	411.94
473.53	436.94
473.749	431.94
473.968	464.94
474.187	591.94
474.406	599.94
474.625	500.94
474.844	444.94
475.063	431.94
475.282	401.94
475.501	423.94
475.72	456.94
475.939	435.94
476.158	425.94
476.377	422.94
476.596	440.94
476.814	420.94
477.033	448.94
477.252	439.94
477.471	447.94
477.69	457.94
477.908	452.94
478.127	456.94
478.346	457.94
478.564	460.94
478.783	450.94
479.002	450.94
479.22	469.94
479.439	479.94
479.658	496.94
479.876	500.94
480.095	514.94
480.313	536.94
480.532	553.94
480.751	514.94
480.969	515.94
481.188	608.94
481.406	643.94
481.624	599.94
481.843	537.94
482.061	519.94
482.28	499.94
482.498	508.94
482.717	496.94
482.935	494.94
483.153	503.94
483.372	503.94
483.59	497.94
483.808	514.94
484.027	485.94
484.245	496.94
484.463	487.94
484.681	500.94
484.9	502.94
485.118	512.94
485.336	516.94
485.554	497.94
485.772	491.94
485.99	521.94
486.209	528.94
486.427	524.94
486.645	555.94
486.863	579.94
487.081	562.94
487.299	548.94
487.517	547.94
487.735	528.94
487.953	555.94
488.171	554.94
488.389	554.94
488.607	550.94
488.825	543.94
489.043	532.94
489.261	540.94
489.479	534.94
489.696	551.94
489.914	544.94
490.132	549.94
490.35	567.94
490.568	586.94
490.786	592.94
491.003	591.94
491.221	604.94
491.439	618.94
491.657	623.94
491.874	638.94
492.092	639.94
492.31	609.94
492.527	639.94
492.745	641.94
492.963	634.94
493.18	640.94
493.398	645.94
493.615	632.94
493.833	656.94
494.05	664.94
494.268	657.94
494.485	625.94
494.703	642.94
494.92	648.94
495.138	668.94
495.355	663.94
495.573	663.94
495.79	667.94
496.008	668.94
496.225	652.94
496.442	642.94
496.66	664.94
496.877	664.94
497.094	631.94
497.312	659.94
497.529	645.94
497.746	649.94
497.963	669.94
498.181	666.94
498.398	702.94
498.615	682.94
498.832	708.94
499.049	703.94
499.267	708.94
499.484	728.94
499.701	744.94
499.918	722.94
500.135	758.94
500.352	764.94
500.569	794.94
500.786	765.94
501.003	763.94
501.22	779.94
501.437	757.94
501.654	761.94
501.871	736.94
