Data from 1980.PennyLincolnUp.Lamp.En5.5.200Scan.071819.P1_HRD10591_16-37-17-957.txt Node
Date: Thu Jul 18 16:37:17 EDT 2019
User: cochatt
Spectrometer: HR+D1059
Trigger mode: 1
Integration Time (sec): 1.000000E-1
Scans to average: 1
Electric dark correction enabled: true
Nonlinearity correction enabled: false
Boxcar width: 0
XAxis mode: Wavelengths
Number of Pixels in Spectrum: 2048
>>>>>Begin Spectral Data<<<<<
223.165	-11.94
223.4	-11.94
223.635	-11.94
223.869	-27.94
224.104	-9.94
224.338	-6.94
224.573	-18.94
224.808	-19.94
225.042	1.06
225.277	-5.94
225.511	-7.94
225.746	-5.94
225.98	14.06
226.215	13.06
226.449	8.06
226.683	24.06
226.918	28.06
227.152	27.06
227.387	37.06
227.621	42.06
227.856	47.06
228.09	53.06
228.324	50.06
228.559	55.06
228.793	72.06
229.027	108.06
229.262	125.06
229.496	127.06
229.73	140.06
229.964	164.06
230.199	136.06
230.433	119.06
230.667	129.06
230.901	126.06
231.136	118.06
231.37	124.06
231.604	123.06
231.838	124.06
232.072	110.06
232.306	121.06
232.541	113.06
232.775	107.06
233.009	119.06
233.243	117.06
233.477	115.06
233.711	115.06
233.945	115.06
234.179	126.06
234.413	125.06
234.647	110.06
234.881	117.06
235.115	115.06
235.349	116.06
235.583	121.06
235.817	128.06
236.051	137.06
236.285	121.06
236.519	128.06
236.753	126.06
236.987	143.06
237.221	176.06
237.455	233.06
237.689	192.06
237.922	155.06
238.156	156.06
238.39	141.06
238.624	137.06
238.858	137.06
239.091	134.06
239.325	126.06
239.559	133.06
239.793	125.06
240.027	138.06
240.26	144.06
240.494	144.06
240.728	158.06
240.961	145.06
241.195	144.06
241.429	138.06
241.662	149.06
241.896	134.06
242.13	155.06
242.363	141.06
242.597	136.06
242.83	127.06
243.064	142.06
243.298	139.06
243.531	145.06
243.765	148.06
243.998	148.06
244.232	136.06
244.465	125.06
244.699	136.06
244.932	153.06
245.166	139.06
245.399	144.06
245.633	154.06
245.866	140.06
246.099	140.06
246.333	151.06
246.566	146.06
246.8	141.06
247.033	157.06
247.266	165.06
247.5	164.06
247.733	181.06
247.966	157.06
248.2	170.06
248.433	173.06
248.666	177.06
248.899	190.06
249.133	222.06
249.366	212.06
249.599	195.06
249.832	190.06
250.066	168.06
250.299	194.06
250.532	193.06
250.765	204.06
250.998	216.06
251.231	244.06
251.465	226.06
251.698	209.06
251.931	204.06
252.164	188.06
252.397	204.06
252.63	200.06
252.863	225.06
253.096	228.06
253.329	233.06
253.562	228.06
253.795	221.06
254.028	224.06
254.261	230.06
254.494	237.06
254.727	248.06
254.96	302.06
255.193	303.06
255.426	266.06
255.659	267.06
255.892	234.06
256.124	235.06
256.357	230.06
256.59	244.06
256.823	220.06
257.056	229.06
257.289	234.06
257.521	213.06
257.754	227.06
257.987	202.06
258.22	211.06
258.452	212.06
258.685	203.06
258.918	201.06
259.151	196.06
259.383	215.06
259.616	221.06
259.849	221.06
260.081	256.06
260.314	248.06
260.547	260.06
260.779	230.06
261.012	240.06
261.244	223.06
261.477	225.06
261.71	230.06
261.942	230.06
262.175	238.06
262.407	213.06
262.64	210.06
262.872	206.06
263.105	207.06
263.337	203.06
263.57	214.06
263.802	193.06
264.035	220.06
264.267	203.06
264.499	214.06
264.732	220.06
264.964	223.06
265.197	209.06
265.429	216.06
265.661	208.06
265.894	208.06
266.126	228.06
266.358	210.06
266.591	200.06
266.823	213.06
267.055	218.06
267.287	224.06
267.52	237.06
267.752	226.06
267.984	224.06
268.216	222.06
268.448	231.06
268.681	231.06
268.913	232.06
269.145	252.06
269.377	274.06
269.609	279.06
269.841	265.06
270.073	254.06
270.306	284.06
270.538	310.06
270.77	317.06
271.002	303.06
271.234	282.06
271.466	299.06
271.698	319.06
271.93	314.06
272.162	327.06
272.394	317.06
272.626	316.06
272.858	302.06
273.09	271.06
273.322	273.06
273.553	256.06
273.785	254.06
274.017	241.06
274.249	269.06
274.481	261.06
274.713	271.06
274.945	261.06
275.176	272.06
275.408	281.06
275.64	262.06
275.872	266.06
276.104	261.06
276.335	281.06
276.567	271.06
276.799	282.06
277.031	319.06
277.262	318.06
277.494	325.06
277.726	305.06
277.957	295.06
278.189	281.06
278.421	259.06
278.652	254.06
278.884	253.06
279.115	251.06
279.347	255.06
279.579	252.06
279.81	256.06
280.042	258.06
280.273	265.06
280.505	260.06
280.736	234.06
280.968	247.06
281.199	240.06
281.431	262.06
281.662	269.06
281.894	254.06
282.125	279.06
282.356	264.06
282.588	301.06
282.819	299.06
283.051	278.06
283.282	263.06
283.513	253.06
283.745	264.06
283.976	252.06
284.207	266.06
284.439	261.06
284.67	263.06
284.901	258.06
285.132	261.06
285.364	272.06
285.595	248.06
285.826	265.06
286.057	263.06
286.288	260.06
286.52	261.06
286.751	263.06
286.982	262.06
287.213	255.06
287.444	269.06
287.675	277.06
287.906	274.06
288.138	277.06
288.369	282.06
288.6	287.06
288.831	296.06
289.062	277.06
289.293	249.06
289.524	274.06
289.755	280.06
289.986	277.06
290.217	280.06
290.448	267.06
290.679	281.06
290.91	255.06
291.141	243.06
291.371	277.06
291.602	244.06
291.833	267.06
292.064	250.06
292.295	273.06
292.526	273.06
292.757	255.06
292.987	249.06
293.218	263.06
293.449	272.06
293.68	269.06
293.91	263.06
294.141	267.06
294.372	260.06
294.603	263.06
294.833	264.06
295.064	273.06
295.295	271.06
295.525	270.06
295.756	265.06
295.987	271.06
296.217	299.06
296.448	321.06
296.679	283.06
296.909	254.06
297.14	269.06
297.37	283.06
297.601	285.06
297.831	268.06
298.062	271.06
298.292	269.06
298.523	264.06
298.753	285.06
298.984	284.06
299.214	285.06
299.445	270.06
299.675	285.06
299.905	279.06
300.136	293.06
300.366	294.06
300.597	278.06
300.827	294.06
301.057	302.06
301.288	307.06
301.518	289.06
301.748	288.06
301.979	304.06
302.209	311.06
302.439	292.06
302.669	277.06
302.9	295.06
303.13	300.06
303.36	307.06
303.59	309.06
303.82	297.06
304.051	300.06
304.281	297.06
304.511	311.06
304.741	295.06
304.971	293.06
305.201	291.06
305.431	300.06
305.661	297.06
305.891	272.06
306.121	295.06
306.352	293.06
306.582	313.06
306.812	309.06
307.042	309.06
307.272	295.06
307.502	305.06
307.731	321.06
307.961	309.06
308.191	288.06
308.421	289.06
308.651	296.06
308.881	318.06
309.111	313.06
309.341	314.06
309.571	336.06
309.8	326.06
310.03	341.06
310.26	357.06
310.49	360.06
310.72	366.06
310.949	383.06
311.179	373.06
311.409	362.06
311.639	356.06
311.868	353.06
312.098	342.06
312.328	341.06
312.557	370.06
312.787	413.06
313.017	379.06
313.246	365.06
313.476	346.06
313.706	350.06
313.935	354.06
314.165	347.06
314.394	377.06
314.624	349.06
314.853	379.06
315.083	343.06
315.312	333.06
315.542	352.06
315.771	333.06
316.001	338.06
316.23	347.06
316.46	344.06
316.689	362.06
316.919	362.06
317.148	364.06
317.377	348.06
317.607	371.06
317.836	347.06
318.065	339.06
318.295	353.06
318.524	340.06
318.753	358.06
318.983	362.06
319.212	351.06
319.441	350.06
319.67	374.06
319.9	357.06
320.129	355.06
320.358	355.06
320.587	340.06
320.816	376.06
321.046	388.06
321.275	385.06
321.504	389.06
321.733	378.06
321.962	408.06
322.191	395.06
322.42	420.06
322.649	437.06
322.878	432.06
323.108	456.06
323.337	467.06
323.566	480.06
323.795	547.06
324.024	576.06
324.253	726.06
324.482	1035.06
324.71	1580.06
324.939	2337.06
325.168	2036.06
325.397	1075.06
325.626	707.06
325.855	583.06
326.084	533.06
326.313	505.06
326.542	513.06
326.77	555.06
326.999	671.06
327.228	922.06
327.457	1412.06
327.686	1752.06
327.914	1209.06
328.143	795.06
328.372	681.06
328.6	606.06
328.829	596.06
329.058	575.06
329.287	606.06
329.515	544.06
329.744	490.06
329.972	518.06
330.201	537.06
330.43	566.06
330.658	599.06
330.887	644.06
331.115	616.06
331.344	503.06
331.572	483.06
331.801	487.06
332.03	469.06
332.258	452.06
332.486	419.06
332.715	427.06
332.943	416.06
333.172	416.06
333.4	428.06
333.629	424.06
333.857	460.06
334.085	440.06
334.314	463.06
334.542	493.06
334.771	522.06
334.999	486.06
335.227	455.06
335.455	429.06
335.684	435.06
335.912	417.06
336.14	400.06
336.369	392.06
336.597	404.06
336.825	401.06
337.053	416.06
337.281	380.06
337.51	391.06
337.738	413.06
337.966	393.06
338.194	416.06
338.422	412.06
338.65	416.06
338.878	408.06
339.106	387.06
339.334	371.06
339.562	398.06
339.79	382.06
340.018	381.06
340.246	383.06
340.474	396.06
340.702	391.06
340.93	387.06
341.158	395.06
341.386	396.06
341.614	394.06
341.842	411.06
342.07	381.06
342.298	383.06
342.526	374.06
342.754	398.06
342.981	376.06
343.209	368.06
343.437	373.06
343.665	397.06
343.893	388.06
344.12	386.06
344.348	376.06
344.576	381.06
344.804	419.06
345.031	404.06
345.259	438.06
345.487	413.06
345.714	404.06
345.942	407.06
346.17	381.06
346.397	393.06
346.625	374.06
346.853	404.06
347.08	397.06
347.308	392.06
347.535	382.06
347.763	425.06
347.99	397.06
348.218	378.06
348.445	400.06
348.673	397.06
348.9	401.06
349.128	373.06
349.355	363.06
349.583	385.06
349.81	391.06
350.037	381.06
350.265	361.06
350.492	362.06
350.72	382.06
350.947	391.06
351.174	397.06
351.402	400.06
351.629	397.06
351.856	387.06
352.083	406.06
352.311	417.06
352.538	417.06
352.765	409.06
352.992	383.06
353.22	377.06
353.447	382.06
353.674	377.06
353.901	383.06
354.128	358.06
354.355	359.06
354.583	351.06
354.81	364.06
355.037	360.06
355.264	356.06
355.491	337.06
355.718	336.06
355.945	351.06
356.172	366.06
356.399	341.06
356.626	355.06
356.853	341.06
357.08	347.06
357.307	363.06
357.534	347.06
357.761	345.06
357.988	355.06
358.215	334.06
358.441	350.06
358.668	344.06
358.895	372.06
359.122	375.06
359.349	377.06
359.576	395.06
359.802	423.06
360.029	444.06
360.256	460.06
360.483	465.06
360.709	391.06
360.936	382.06
361.163	380.06
361.39	383.06
361.616	383.06
361.843	382.06
362.07	395.06
362.296	387.06
362.523	382.06
362.749	361.06
362.976	341.06
363.203	384.06
363.429	365.06
363.656	361.06
363.882	363.06
364.109	354.06
364.335	355.06
364.562	359.06
364.788	363.06
365.015	394.06
365.241	375.06
365.468	373.06
365.694	367.06
365.92	379.06
366.147	385.06
366.373	356.06
366.599	353.06
366.826	366.06
367.052	353.06
367.278	361.06
367.505	366.06
367.731	372.06
367.957	365.06
368.184	358.06
368.41	358.06
368.636	376.06
368.862	375.06
369.089	382.06
369.315	355.06
369.541	345.06
369.767	362.06
369.993	361.06
370.219	365.06
370.445	347.06
370.672	349.06
370.898	356.06
371.124	365.06
371.35	340.06
371.576	356.06
371.802	357.06
372.028	339.06
372.254	338.06
372.48	361.06
372.706	355.06
372.932	358.06
373.158	357.06
373.384	358.06
373.61	360.06
373.835	351.06
374.061	348.06
374.287	368.06
374.513	347.06
374.739	377.06
374.965	363.06
375.191	357.06
375.416	362.06
375.642	365.06
375.868	348.06
376.094	347.06
376.319	362.06
376.545	358.06
376.771	376.06
376.997	349.06
377.222	359.06
377.448	365.06
377.674	343.06
377.899	360.06
378.125	358.06
378.35	349.06
378.576	343.06
378.802	348.06
379.027	349.06
379.253	352.06
379.478	341.06
379.704	348.06
379.929	341.06
380.155	355.06
380.38	357.06
380.606	362.06
380.831	357.06
381.057	363.06
381.282	351.06
381.507	366.06
381.733	345.06
381.958	357.06
382.184	356.06
382.409	377.06
382.634	381.06
382.86	351.06
383.085	369.06
383.31	366.06
383.535	368.06
383.761	359.06
383.986	355.06
384.211	366.06
384.436	363.06
384.662	360.06
384.887	380.06
385.112	352.06
385.337	371.06
385.562	362.06
385.787	397.06
386.013	381.06
386.238	377.06
386.463	382.06
386.688	373.06
386.913	383.06
387.138	388.06
387.363	371.06
387.588	361.06
387.813	379.06
388.038	369.06
388.263	367.06
388.488	383.06
388.713	391.06
388.938	389.06
389.163	379.06
389.387	387.06
389.612	372.06
389.837	358.06
390.062	365.06
390.287	373.06
390.512	355.06
390.736	372.06
390.961	393.06
391.186	368.06
391.411	364.06
391.636	372.06
391.86	381.06
392.085	380.06
392.31	383.06
392.534	393.06
392.759	364.06
392.984	374.06
393.208	387.06
393.433	373.06
393.658	386.06
393.882	373.06
394.107	379.06
394.331	395.06
394.556	357.06
394.78	377.06
395.005	377.06
395.229	376.06
395.454	375.06
395.678	401.06
395.903	398.06
396.127	428.06
396.352	420.06
396.576	401.06
396.801	379.06
397.025	365.06
397.249	396.06
397.474	395.06
397.698	414.06
397.922	405.06
398.147	410.06
398.371	421.06
398.595	408.06
398.82	398.06
399.044	424.06
399.268	419.06
399.492	415.06
399.717	475.06
399.941	492.06
400.165	507.06
400.389	515.06
400.613	478.06
400.837	457.06
401.062	428.06
401.286	448.06
401.51	432.06
401.734	432.06
401.958	438.06
402.182	445.06
402.406	455.06
402.63	439.06
402.854	422.06
403.078	458.06
403.302	412.06
403.526	438.06
403.75	436.06
403.974	447.06
404.198	437.06
404.422	449.06
404.645	459.06
404.869	456.06
405.093	490.06
405.317	528.06
405.541	553.06
405.765	508.06
405.988	457.06
406.212	497.06
406.436	520.06
406.66	526.06
406.883	504.06
407.107	510.06
407.331	550.06
407.555	601.06
407.778	608.06
408.002	554.06
408.226	483.06
408.449	493.06
408.673	504.06
408.896	526.06
409.12	554.06
409.344	537.06
409.567	481.06
409.791	452.06
410.014	454.06
410.238	442.06
410.461	439.06
410.685	467.06
410.908	454.06
411.132	489.06
411.355	552.06
411.578	512.06
411.802	450.06
412.025	453.06
412.249	464.06
412.472	480.06
412.695	510.06
412.919	515.06
413.142	453.06
413.365	448.06
413.589	453.06
413.812	428.06
414.035	447.06
414.258	416.06
414.482	434.06
414.705	439.06
414.928	399.06
415.151	419.06
415.374	400.06
415.597	392.06
415.821	411.06
416.044	429.06
416.267	412.06
416.49	432.06
416.713	428.06
416.936	415.06
417.159	411.06
417.382	428.06
417.605	440.06
417.828	441.06
418.051	459.06
418.274	444.06
418.497	417.06
418.72	425.06
418.943	417.06
419.166	433.06
419.389	454.06
419.611	457.06
419.834	457.06
420.057	448.06
420.28	445.06
420.503	443.06
420.726	452.06
420.948	483.06
421.171	513.06
421.394	515.06
421.617	477.06
421.839	464.06
422.062	453.06
422.285	460.06
422.507	523.06
422.73	611.06
422.953	576.06
423.175	505.06
423.398	478.06
423.621	489.06
423.843	470.06
424.066	499.06
424.288	484.06
424.511	519.06
424.733	554.06
424.956	639.06
425.178	632.06
425.401	609.06
425.623	643.06
425.846	547.06
426.068	519.06
426.291	515.06
426.513	500.06
426.735	518.06
426.958	528.06
427.18	612.06
427.402	722.06
427.625	820.06
427.847	740.06
428.069	657.06
428.292	565.06
428.514	496.06
428.736	503.06
428.958	494.06
429.181	464.06
429.403	473.06
429.625	474.06
429.847	479.06
430.069	591.06
430.292	564.06
430.514	497.06
430.736	490.06
430.958	453.06
431.18	437.06
431.402	435.06
431.624	429.06
431.846	436.06
432.068	441.06
432.29	414.06
432.512	430.06
432.734	447.06
432.956	439.06
433.178	436.06
433.4	448.06
433.622	441.06
433.844	450.06
434.066	430.06
434.287	418.06
434.509	438.06
434.731	437.06
434.953	421.06
435.175	464.06
435.397	485.06
435.618	504.06
435.84	535.06
436.062	601.06
436.284	693.06
436.505	604.06
436.727	513.06
436.949	481.06
437.17	465.06
437.392	467.06
437.614	509.06
437.835	517.06
438.057	607.06
438.278	709.06
438.5	699.06
438.721	778.06
438.943	744.06
439.165	595.06
439.386	550.06
439.608	537.06
439.829	531.06
440.05	555.06
440.272	611.06
440.493	572.06
440.715	519.06
440.936	481.06
441.158	484.06
441.379	465.06
441.6	506.06
441.822	497.06
442.043	551.06
442.264	608.06
442.486	682.06
442.707	563.06
442.928	544.06
443.149	546.06
443.371	555.06
443.592	601.06
443.813	685.06
444.034	754.06
444.255	613.06
444.476	528.06
444.698	525.06
444.919	488.06
445.14	591.06
445.361	556.06
445.582	573.06
445.803	598.06
446.024	740.06
446.245	729.06
446.466	636.06
446.687	574.06
446.908	521.06
447.129	484.06
447.35	469.06
447.571	458.06
447.792	478.06
448.013	455.06
448.234	486.06
448.455	554.06
448.675	661.06
448.896	747.06
449.117	643.06
449.338	622.06
449.559	730.06
449.779	802.06
450	656.06
450.221	542.06
450.442	490.06
450.662	482.06
450.883	469.06
451.104	487.06
451.324	472.06
451.545	471.06
451.766	441.06
451.986	447.06
452.207	433.06
452.428	424.06
452.648	429.06
452.869	427.06
453.089	425.06
453.31	441.06
453.53	437.06
453.751	432.06
453.971	417.06
454.192	451.06
454.412	461.06
454.633	416.06
454.853	422.06
455.073	396.06
455.294	428.06
455.514	501.06
455.734	509.06
455.955	453.06
456.175	408.06
456.395	392.06
456.616	423.06
456.836	377.06
457.056	373.06
457.276	380.06
457.497	371.06
457.717	387.06
457.937	404.06
458.157	404.06
458.377	417.06
458.598	430.06
458.818	475.06
459.038	576.06
459.258	611.06
459.478	479.06
459.698	441.06
459.918	436.06
460.138	420.06
460.358	413.06
460.578	420.06
460.798	424.06
461.018	448.06
461.238	437.06
461.458	411.06
461.678	412.06
461.898	411.06
462.118	409.06
462.338	445.06
462.558	453.06
462.777	444.06
462.997	448.06
463.217	454.06
463.437	451.06
463.657	443.06
463.876	461.06
464.096	451.06
464.316	433.06
464.536	466.06
464.755	463.06
464.975	468.06
465.195	524.06
465.414	610.06
465.634	536.06
465.854	485.06
466.073	471.06
466.293	453.06
466.512	432.06
466.732	425.06
466.951	413.06
467.171	427.06
467.391	435.06
467.61	430.06
467.829	448.06
468.049	443.06
468.268	429.06
468.488	419.06
468.707	397.06
468.927	396.06
469.146	406.06
469.365	413.06
469.585	401.06
469.804	413.06
470.023	441.06
470.243	435.06
470.462	443.06
470.681	476.06
470.901	433.06
471.12	425.06
471.339	435.06
471.558	447.06
471.777	438.06
471.997	442.06
472.216	442.06
472.435	461.06
472.654	462.06
472.873	441.06
473.092	453.06
473.311	414.06
473.53	427.06
473.749	454.06
473.968	479.06
474.187	569.06
474.406	623.06
474.625	485.06
474.844	436.06
475.063	431.06
475.282	424.06
475.501	455.06
475.72	443.06
475.939	444.06
476.158	448.06
476.377	433.06
476.596	455.06
476.814	451.06
477.033	458.06
477.252	439.06
477.471	458.06
477.69	445.06
477.908	464.06
478.127	436.06
478.346	457.06
478.564	476.06
478.783	485.06
479.002	476.06
479.22	467.06
479.439	502.06
479.658	513.06
479.876	547.06
480.095	520.06
480.313	553.06
480.532	514.06
480.751	532.06
480.969	555.06
481.188	598.06
481.406	652.06
481.624	567.06
481.843	519.06
482.061	505.06
482.28	539.06
482.498	509.06
482.717	499.06
482.935	503.06
483.153	514.06
483.372	514.06
483.59	515.06
483.808	510.06
484.027	523.06
484.245	499.06
484.463	522.06
484.681	523.06
484.9	522.06
485.118	507.06
485.336	502.06
485.554	518.06
485.772	535.06
485.99	508.06
486.209	535.06
486.427	530.06
486.645	543.06
486.863	567.06
487.081	565.06
487.299	530.06
487.517	565.06
487.735	546.06
487.953	552.06
488.171	567.06
488.389	538.06
488.607	550.06
488.825	560.06
489.043	537.06
489.261	562.06
489.479	579.06
489.696	578.06
489.914	552.06
490.132	561.06
490.35	559.06
490.568	590.06
490.786	575.06
491.003	608.06
491.221	611.06
491.439	627.06
491.657	621.06
491.874	625.06
492.092	635.06
492.31	641.06
492.527	625.06
492.745	629.06
492.963	645.06
493.18	666.06
493.398	641.06
493.615	668.06
493.833	649.06
494.05	653.06
494.268	687.06
494.485	684.06
494.703	643.06
494.92	661.06
495.138	648.06
495.355	678.06
495.573	681.06
495.79	673.06
496.008	673.06
496.225	641.06
496.442	658.06
496.66	659.06
496.877	655.06
497.094	688.06
497.312	658.06
497.529	661.06
497.746	677.06
497.963	676.06
498.181	704.06
498.398	688.06
498.615	692.06
498.832	716.06
499.049	709.06
499.267	720.06
499.484	736.06
499.701	769.06
499.918	749.06
500.135	800.06
500.352	781.06
500.569	804.06
500.786	821.06
501.003	816.06
501.22	783.06
501.437	778.06
501.654	777.06
501.871	781.06
