Data from 1980.PennyLincolnUp.Lamp.En5.5.200Scan.071819.P1_HRD10591_16-37-12-956.txt Node
Date: Thu Jul 18 16:37:12 EDT 2019
User: cochatt
Spectrometer: HR+D1059
Trigger mode: 1
Integration Time (sec): 1.000000E-1
Scans to average: 1
Electric dark correction enabled: true
Nonlinearity correction enabled: false
Boxcar width: 0
XAxis mode: Wavelengths
Number of Pixels in Spectrum: 2048
>>>>>Begin Spectral Data<<<<<
223.165	-7.94
223.4	-7.94
223.635	-7.94
223.869	-18.94
224.104	-9.94
224.338	-9.94
224.573	-13.94
224.808	-12.94
225.042	-22.94
225.277	1.06
225.511	-34.94
225.746	3.06
225.98	12.06
226.215	7.06
226.449	18.06
226.683	18.06
226.918	39.06
227.152	33.06
227.387	31.06
227.621	41.06
227.856	37.06
228.09	50.06
228.324	49.06
228.559	41.06
228.793	57.06
229.027	93.06
229.262	115.06
229.496	118.06
229.73	151.06
229.964	158.06
230.199	134.06
230.433	123.06
230.667	119.06
230.901	114.06
231.136	109.06
231.37	109.06
231.604	103.06
231.838	121.06
232.072	109.06
232.306	120.06
232.541	113.06
232.775	110.06
233.009	100.06
233.243	107.06
233.477	105.06
233.711	96.06
233.945	124.06
234.179	108.06
234.413	117.06
234.647	109.06
234.881	118.06
235.115	113.06
235.349	137.06
235.583	115.06
235.817	108.06
236.051	125.06
236.285	128.06
236.519	129.06
236.753	125.06
236.987	159.06
237.221	183.06
237.455	243.06
237.689	187.06
237.922	151.06
238.156	133.06
238.39	121.06
238.624	135.06
238.858	120.06
239.091	116.06
239.325	121.06
239.559	122.06
239.793	121.06
240.027	128.06
240.26	135.06
240.494	160.06
240.728	148.06
240.961	142.06
241.195	148.06
241.429	152.06
241.662	129.06
241.896	155.06
242.13	137.06
242.363	126.06
242.597	135.06
242.83	129.06
243.064	146.06
243.298	124.06
243.531	139.06
243.765	146.06
243.998	135.06
244.232	149.06
244.465	141.06
244.699	148.06
244.932	146.06
245.166	141.06
245.399	139.06
245.633	143.06
245.866	140.06
246.099	137.06
246.333	159.06
246.566	146.06
246.8	157.06
247.033	157.06
247.266	149.06
247.5	165.06
247.733	147.06
247.966	173.06
248.2	174.06
248.433	172.06
248.666	169.06
248.899	181.06
249.133	189.06
249.366	224.06
249.599	193.06
249.832	179.06
250.066	182.06
250.299	182.06
250.532	198.06
250.765	213.06
250.998	218.06
251.231	218.06
251.465	238.06
251.698	211.06
251.931	210.06
252.164	205.06
252.397	211.06
252.63	204.06
252.863	203.06
253.096	202.06
253.329	247.06
253.562	238.06
253.795	208.06
254.028	230.06
254.261	234.06
254.494	225.06
254.727	246.06
254.96	288.06
255.193	270.06
255.426	267.06
255.659	230.06
255.892	236.06
256.124	235.06
256.357	234.06
256.59	234.06
256.823	235.06
257.056	202.06
257.289	206.06
257.521	197.06
257.754	183.06
257.987	223.06
258.22	201.06
258.452	215.06
258.685	219.06
258.918	210.06
259.151	219.06
259.383	218.06
259.616	215.06
259.849	203.06
260.081	235.06
260.314	244.06
260.547	259.06
260.779	246.06
261.012	211.06
261.244	220.06
261.477	237.06
261.71	233.06
261.942	237.06
262.175	262.06
262.407	230.06
262.64	204.06
262.872	207.06
263.105	199.06
263.337	211.06
263.57	201.06
263.802	193.06
264.035	210.06
264.267	210.06
264.499	220.06
264.732	208.06
264.964	183.06
265.197	200.06
265.429	193.06
265.661	214.06
265.894	204.06
266.126	215.06
266.358	219.06
266.591	201.06
266.823	219.06
267.055	220.06
267.287	216.06
267.52	214.06
267.752	218.06
267.984	220.06
268.216	213.06
268.448	242.06
268.681	221.06
268.913	257.06
269.145	257.06
269.377	267.06
269.609	255.06
269.841	257.06
270.073	287.06
270.306	281.06
270.538	295.06
270.77	316.06
271.002	313.06
271.234	293.06
271.466	281.06
271.698	306.06
271.93	316.06
272.162	315.06
272.394	322.06
272.626	308.06
272.858	295.06
273.09	298.06
273.322	264.06
273.553	277.06
273.785	263.06
274.017	263.06
274.249	263.06
274.481	251.06
274.713	258.06
274.945	267.06
275.176	252.06
275.408	279.06
275.64	251.06
275.872	244.06
276.104	257.06
276.335	267.06
276.567	265.06
276.799	285.06
277.031	293.06
277.262	306.06
277.494	301.06
277.726	285.06
277.957	288.06
278.189	268.06
278.421	260.06
278.652	253.06
278.884	258.06
279.115	234.06
279.347	254.06
279.579	247.06
279.81	250.06
280.042	264.06
280.273	252.06
280.505	253.06
280.736	243.06
280.968	237.06
281.199	255.06
281.431	257.06
281.662	270.06
281.894	238.06
282.125	269.06
282.356	283.06
282.588	272.06
282.819	304.06
283.051	245.06
283.282	250.06
283.513	262.06
283.745	259.06
283.976	261.06
284.207	261.06
284.439	246.06
284.67	257.06
284.901	257.06
285.132	242.06
285.364	241.06
285.595	254.06
285.826	235.06
286.057	258.06
286.288	254.06
286.52	245.06
286.751	267.06
286.982	269.06
287.213	272.06
287.444	261.06
287.675	265.06
287.906	282.06
288.138	277.06
288.369	288.06
288.6	289.06
288.831	283.06
289.062	273.06
289.293	287.06
289.524	254.06
289.755	274.06
289.986	281.06
290.217	231.06
290.448	268.06
290.679	263.06
290.91	261.06
291.141	262.06
291.371	268.06
291.602	266.06
291.833	269.06
292.064	282.06
292.295	274.06
292.526	270.06
292.757	276.06
292.987	264.06
293.218	263.06
293.449	276.06
293.68	262.06
293.91	260.06
294.141	277.06
294.372	279.06
294.603	265.06
294.833	262.06
295.064	262.06
295.295	267.06
295.525	267.06
295.756	288.06
295.987	294.06
296.217	311.06
296.448	324.06
296.679	277.06
296.909	263.06
297.14	258.06
297.37	283.06
297.601	282.06
297.831	299.06
298.062	292.06
298.292	285.06
298.523	263.06
298.753	283.06
298.984	270.06
299.214	287.06
299.445	283.06
299.675	290.06
299.905	291.06
300.136	263.06
300.366	299.06
300.597	287.06
300.827	266.06
301.057	299.06
301.288	314.06
301.518	296.06
301.748	297.06
301.979	301.06
302.209	286.06
302.439	303.06
302.669	305.06
302.9	301.06
303.13	293.06
303.36	318.06
303.59	306.06
303.82	314.06
304.051	299.06
304.281	302.06
304.511	283.06
304.741	285.06
304.971	278.06
305.201	297.06
305.431	294.06
305.661	291.06
305.891	288.06
306.121	283.06
306.352	300.06
306.582	313.06
306.812	305.06
307.042	321.06
307.272	299.06
307.502	305.06
307.731	326.06
307.961	320.06
308.191	297.06
308.421	315.06
308.651	315.06
308.881	322.06
309.111	318.06
309.341	320.06
309.571	341.06
309.8	335.06
310.03	330.06
310.26	349.06
310.49	354.06
310.72	364.06
310.949	375.06
311.179	390.06
311.409	367.06
311.639	359.06
311.868	358.06
312.098	342.06
312.328	379.06
312.557	377.06
312.787	392.06
313.017	390.06
313.246	366.06
313.476	355.06
313.706	371.06
313.935	353.06
314.165	376.06
314.394	378.06
314.624	374.06
314.853	357.06
315.083	364.06
315.312	349.06
315.542	333.06
315.771	338.06
316.001	341.06
316.23	356.06
316.46	343.06
316.689	351.06
316.919	350.06
317.148	353.06
317.377	387.06
317.607	365.06
317.836	369.06
318.065	369.06
318.295	351.06
318.524	349.06
318.753	348.06
318.983	346.06
319.212	339.06
319.441	359.06
319.67	373.06
319.9	377.06
320.129	376.06
320.358	354.06
320.587	362.06
320.816	377.06
321.046	393.06
321.275	410.06
321.504	375.06
321.733	373.06
321.962	388.06
322.191	420.06
322.42	428.06
322.649	437.06
322.878	438.06
323.108	448.06
323.337	473.06
323.566	520.06
323.795	549.06
324.024	596.06
324.253	731.06
324.482	1027.06
324.71	1612.06
324.939	2333.06
325.168	2035.06
325.397	1078.06
325.626	679.06
325.855	576.06
326.084	547.06
326.313	521.06
326.542	513.06
326.77	570.06
326.999	692.06
327.228	912.06
327.457	1417.06
327.686	1747.06
327.914	1199.06
328.143	778.06
328.372	663.06
328.6	616.06
328.829	601.06
329.058	599.06
329.287	603.06
329.515	555.06
329.744	511.06
329.972	513.06
330.201	531.06
330.43	567.06
330.658	599.06
330.887	640.06
331.115	618.06
331.344	509.06
331.572	467.06
331.801	483.06
332.03	465.06
332.258	463.06
332.486	428.06
332.715	415.06
332.943	435.06
333.172	408.06
333.4	436.06
333.629	449.06
333.857	456.06
334.085	478.06
334.314	477.06
334.542	489.06
334.771	513.06
334.999	455.06
335.227	430.06
335.455	423.06
335.684	415.06
335.912	411.06
336.14	407.06
336.369	401.06
336.597	425.06
336.825	411.06
337.053	423.06
337.281	406.06
337.51	414.06
337.738	403.06
337.966	384.06
338.194	394.06
338.422	410.06
338.65	397.06
338.878	377.06
339.106	412.06
339.334	381.06
339.562	402.06
339.79	390.06
340.018	387.06
340.246	369.06
340.474	407.06
340.702	395.06
340.93	395.06
341.158	392.06
341.386	397.06
341.614	406.06
341.842	395.06
342.07	381.06
342.298	385.06
342.526	392.06
342.754	384.06
342.981	376.06
343.209	378.06
343.437	374.06
343.665	387.06
343.893	373.06
344.12	393.06
344.348	400.06
344.576	393.06
344.804	405.06
345.031	407.06
345.259	427.06
345.487	426.06
345.714	403.06
345.942	389.06
346.17	397.06
346.397	389.06
346.625	376.06
346.853	389.06
347.08	393.06
347.308	371.06
347.535	412.06
347.763	405.06
347.99	406.06
348.218	397.06
348.445	403.06
348.673	410.06
348.9	387.06
349.128	395.06
349.355	391.06
349.583	379.06
349.81	361.06
350.037	377.06
350.265	381.06
350.492	387.06
350.72	375.06
350.947	381.06
351.174	383.06
351.402	413.06
351.629	385.06
351.856	385.06
352.083	411.06
352.311	410.06
352.538	412.06
352.765	417.06
352.992	407.06
353.22	390.06
353.447	387.06
353.674	366.06
353.901	375.06
354.128	373.06
354.355	374.06
354.583	352.06
354.81	365.06
355.037	367.06
355.264	371.06
355.491	366.06
355.718	353.06
355.945	333.06
356.172	355.06
356.399	346.06
356.626	358.06
356.853	353.06
357.08	350.06
357.307	353.06
357.534	347.06
357.761	365.06
357.988	351.06
358.215	361.06
358.441	354.06
358.668	346.06
358.895	355.06
359.122	374.06
359.349	362.06
359.576	379.06
359.802	422.06
360.029	465.06
360.256	461.06
360.483	426.06
360.709	396.06
360.936	401.06
361.163	391.06
361.39	390.06
361.616	372.06
361.843	395.06
362.07	406.06
362.296	387.06
362.523	382.06
362.749	400.06
362.976	378.06
363.203	376.06
363.429	371.06
363.656	362.06
363.882	372.06
364.109	365.06
364.335	371.06
364.562	366.06
364.788	367.06
365.015	362.06
365.241	360.06
365.468	364.06
365.694	379.06
365.92	379.06
366.147	373.06
366.373	372.06
366.599	376.06
366.826	364.06
367.052	355.06
367.278	386.06
367.505	360.06
367.731	356.06
367.957	361.06
368.184	367.06
368.41	379.06
368.636	391.06
368.862	374.06
369.089	366.06
369.315	369.06
369.541	353.06
369.767	363.06
369.993	341.06
370.219	359.06
370.445	345.06
370.672	358.06
370.898	370.06
371.124	349.06
371.35	362.06
371.576	345.06
371.802	335.06
372.028	342.06
372.254	348.06
372.48	362.06
372.706	378.06
372.932	358.06
373.158	357.06
373.384	361.06
373.61	354.06
373.835	377.06
374.061	361.06
374.287	377.06
374.513	362.06
374.739	364.06
374.965	373.06
375.191	368.06
375.416	357.06
375.642	370.06
375.868	358.06
376.094	348.06
376.319	346.06
376.545	358.06
376.771	363.06
376.997	373.06
377.222	371.06
377.448	351.06
377.674	345.06
377.899	341.06
378.125	327.06
378.35	340.06
378.576	342.06
378.802	363.06
379.027	357.06
379.253	339.06
379.478	342.06
379.704	358.06
379.929	348.06
380.155	357.06
380.38	356.06
380.606	357.06
380.831	370.06
381.057	385.06
381.282	364.06
381.507	351.06
381.733	356.06
381.958	343.06
382.184	353.06
382.409	342.06
382.634	366.06
382.86	378.06
383.085	365.06
383.31	355.06
383.535	354.06
383.761	369.06
383.986	388.06
384.211	367.06
384.436	360.06
384.662	379.06
384.887	371.06
385.112	348.06
385.337	365.06
385.562	388.06
385.787	391.06
386.013	402.06
386.238	375.06
386.463	403.06
386.688	389.06
386.913	368.06
387.138	371.06
387.363	386.06
387.588	379.06
387.813	381.06
388.038	372.06
388.263	372.06
388.488	385.06
388.713	371.06
388.938	377.06
389.163	394.06
389.387	379.06
389.612	353.06
389.837	385.06
390.062	398.06
390.287	378.06
390.512	375.06
390.736	364.06
390.961	371.06
391.186	367.06
391.411	366.06
391.636	362.06
391.86	381.06
392.085	398.06
392.31	380.06
392.534	376.06
392.759	375.06
392.984	382.06
393.208	389.06
393.433	379.06
393.658	376.06
393.882	363.06
394.107	375.06
394.331	383.06
394.556	375.06
394.78	378.06
395.005	377.06
395.229	376.06
395.454	366.06
395.678	379.06
395.903	393.06
396.127	432.06
396.352	439.06
396.576	415.06
396.801	380.06
397.025	375.06
397.249	393.06
397.474	377.06
397.698	415.06
397.922	404.06
398.147	405.06
398.371	435.06
398.595	404.06
398.82	393.06
399.044	421.06
399.268	434.06
399.492	451.06
399.717	463.06
399.941	496.06
400.165	500.06
400.389	548.06
400.613	482.06
400.837	455.06
401.062	431.06
401.286	426.06
401.51	444.06
401.734	438.06
401.958	432.06
402.182	441.06
402.406	461.06
402.63	442.06
402.854	430.06
403.078	458.06
403.302	420.06
403.526	453.06
403.75	466.06
403.974	435.06
404.198	415.06
404.422	445.06
404.645	454.06
404.869	457.06
405.093	468.06
405.317	516.06
405.541	531.06
405.765	507.06
405.988	501.06
406.212	483.06
406.436	502.06
406.66	525.06
406.883	505.06
407.107	507.06
407.331	565.06
407.555	631.06
407.778	605.06
408.002	539.06
408.226	514.06
408.449	525.06
408.673	508.06
408.896	527.06
409.12	566.06
409.344	553.06
409.567	473.06
409.791	484.06
410.014	455.06
410.238	453.06
410.461	468.06
410.685	447.06
410.908	471.06
411.132	490.06
411.355	540.06
411.578	527.06
411.802	454.06
412.025	445.06
412.249	460.06
412.472	481.06
412.695	498.06
412.919	515.06
413.142	467.06
413.365	454.06
413.589	427.06
413.812	439.06
414.035	420.06
414.258	423.06
414.482	414.06
414.705	426.06
414.928	418.06
415.151	413.06
415.374	401.06
415.597	414.06
415.821	417.06
416.044	439.06
416.267	425.06
416.49	424.06
416.713	422.06
416.936	417.06
417.159	432.06
417.382	428.06
417.605	443.06
417.828	475.06
418.051	478.06
418.274	449.06
418.497	429.06
418.72	435.06
418.943	412.06
419.166	444.06
419.389	450.06
419.611	454.06
419.834	438.06
420.057	457.06
420.28	459.06
420.503	440.06
420.726	451.06
420.948	492.06
421.171	500.06
421.394	543.06
421.617	483.06
421.839	463.06
422.062	471.06
422.285	490.06
422.507	542.06
422.73	606.06
422.953	567.06
423.175	507.06
423.398	499.06
423.621	493.06
423.843	505.06
424.066	518.06
424.288	485.06
424.511	526.06
424.733	591.06
424.956	625.06
425.178	616.06
425.401	623.06
425.623	642.06
425.846	544.06
426.068	515.06
426.291	516.06
426.513	510.06
426.735	520.06
426.958	549.06
427.18	616.06
427.402	749.06
427.625	832.06
427.847	756.06
428.069	635.06
428.292	559.06
428.514	521.06
428.736	497.06
428.958	497.06
429.181	470.06
429.403	467.06
429.625	480.06
429.847	514.06
430.069	587.06
430.292	573.06
430.514	492.06
430.736	469.06
430.958	461.06
431.18	447.06
431.402	443.06
431.624	437.06
431.846	450.06
432.068	414.06
432.29	441.06
432.512	443.06
432.734	445.06
432.956	445.06
433.178	453.06
433.4	462.06
433.622	476.06
433.844	439.06
434.066	435.06
434.287	430.06
434.509	429.06
434.731	440.06
434.953	441.06
435.175	470.06
435.397	488.06
435.618	503.06
435.84	554.06
436.062	622.06
436.284	711.06
436.505	604.06
436.727	532.06
436.949	491.06
437.17	469.06
437.392	468.06
437.614	468.06
437.835	542.06
438.057	618.06
438.278	712.06
438.5	716.06
438.721	793.06
438.943	734.06
439.165	588.06
439.386	539.06
439.608	552.06
439.829	550.06
440.05	565.06
440.272	596.06
440.493	574.06
440.715	530.06
440.936	483.06
441.158	490.06
441.379	477.06
441.6	483.06
441.822	508.06
442.043	538.06
442.264	641.06
442.486	674.06
442.707	596.06
442.928	537.06
443.149	537.06
443.371	557.06
443.592	599.06
443.813	689.06
444.034	711.06
444.255	612.06
444.476	535.06
444.698	508.06
444.919	502.06
445.14	605.06
445.361	571.06
445.582	569.06
445.803	626.06
446.024	723.06
446.245	744.06
446.466	645.06
446.687	542.06
446.908	533.06
447.129	483.06
447.35	478.06
447.571	478.06
447.792	445.06
448.013	482.06
448.234	481.06
448.455	530.06
448.675	650.06
448.896	779.06
449.117	647.06
449.338	631.06
449.559	694.06
449.779	794.06
450	637.06
450.221	541.06
450.442	497.06
450.662	488.06
450.883	482.06
451.104	500.06
451.324	478.06
451.545	462.06
451.766	430.06
451.986	424.06
452.207	397.06
452.428	419.06
452.648	414.06
452.869	418.06
453.089	436.06
453.31	468.06
453.53	413.06
453.751	412.06
453.971	429.06
454.192	433.06
454.412	436.06
454.633	436.06
454.853	419.06
455.073	433.06
455.294	471.06
455.514	534.06
455.734	521.06
455.955	433.06
456.175	398.06
456.395	393.06
456.616	379.06
456.836	378.06
457.056	393.06
457.276	394.06
457.497	396.06
457.717	402.06
457.937	397.06
458.157	422.06
458.377	420.06
458.598	441.06
458.818	516.06
459.038	582.06
459.258	590.06
459.478	508.06
459.698	445.06
459.918	443.06
460.138	423.06
460.358	422.06
460.578	442.06
460.798	433.06
461.018	427.06
461.238	440.06
461.458	429.06
461.678	422.06
461.898	421.06
462.118	423.06
462.338	407.06
462.558	443.06
462.777	419.06
462.997	433.06
463.217	466.06
463.437	443.06
463.657	425.06
463.876	430.06
464.096	452.06
464.316	458.06
464.536	451.06
464.755	476.06
464.975	463.06
465.195	555.06
465.414	635.06
465.634	527.06
465.854	490.06
466.073	462.06
466.293	446.06
466.512	437.06
466.732	411.06
466.951	421.06
467.171	433.06
467.391	433.06
467.61	430.06
467.829	433.06
468.049	436.06
468.268	448.06
468.488	424.06
468.707	421.06
468.927	409.06
469.146	419.06
469.365	408.06
469.585	413.06
469.804	429.06
470.023	437.06
470.243	437.06
470.462	429.06
470.681	465.06
470.901	468.06
471.12	450.06
471.339	427.06
471.558	436.06
471.777	443.06
471.997	427.06
472.216	437.06
472.435	467.06
472.654	458.06
472.873	437.06
473.092	434.06
473.311	439.06
473.53	450.06
473.749	425.06
473.968	469.06
474.187	585.06
474.406	631.06
474.625	492.06
474.844	453.06
475.063	434.06
475.282	445.06
475.501	433.06
475.72	443.06
475.939	447.06
476.158	453.06
476.377	445.06
476.596	443.06
476.814	435.06
477.033	459.06
477.252	462.06
477.471	433.06
477.69	457.06
477.908	456.06
478.127	468.06
478.346	457.06
478.564	475.06
478.783	474.06
479.002	473.06
479.22	490.06
479.439	493.06
479.658	516.06
479.876	535.06
480.095	528.06
480.313	555.06
480.532	539.06
480.751	515.06
480.969	544.06
481.188	601.06
481.406	639.06
481.624	573.06
481.843	539.06
482.061	539.06
482.28	530.06
482.498	521.06
482.717	529.06
482.935	505.06
483.153	523.06
483.372	524.06
483.59	504.06
483.808	503.06
484.027	492.06
484.245	503.06
484.463	494.06
484.681	505.06
484.9	511.06
485.118	532.06
485.336	536.06
485.554	543.06
485.772	532.06
485.99	507.06
486.209	523.06
486.427	534.06
486.645	538.06
486.863	575.06
487.081	579.06
487.299	562.06
487.517	548.06
487.735	542.06
487.953	528.06
488.171	572.06
488.389	563.06
488.607	549.06
488.825	579.06
489.043	569.06
489.261	573.06
489.479	563.06
489.696	563.06
489.914	577.06
490.132	576.06
490.35	582.06
490.568	619.06
490.786	609.06
491.003	593.06
491.221	593.06
491.439	625.06
491.657	607.06
491.874	639.06
492.092	633.06
492.31	652.06
492.527	643.06
492.745	654.06
492.963	653.06
493.18	649.06
493.398	668.06
493.615	667.06
493.833	660.06
494.05	702.06
494.268	661.06
494.485	656.06
494.703	659.06
494.92	678.06
495.138	630.06
495.355	660.06
495.573	680.06
495.79	662.06
496.008	660.06
496.225	622.06
496.442	681.06
496.66	702.06
496.877	653.06
497.094	667.06
497.312	669.06
497.529	663.06
497.746	682.06
497.963	681.06
498.181	713.06
498.398	715.06
498.615	707.06
498.832	715.06
499.049	697.06
499.267	718.06
499.484	741.06
499.701	756.06
499.918	771.06
500.135	776.06
500.352	826.06
500.569	807.06
500.786	817.06
501.003	816.06
501.22	821.06
501.437	798.06
501.654	796.06
501.871	782.06
