Data from 1980.PennyLincolnUp.Lamp.En5.5.200Scan.071819.P1_HRD10591_16-37-21-957.txt Node
Date: Thu Jul 18 16:37:21 EDT 2019
User: cochatt
Spectrometer: HR+D1059
Trigger mode: 1
Integration Time (sec): 1.000000E-1
Scans to average: 1
Electric dark correction enabled: true
Nonlinearity correction enabled: false
Boxcar width: 0
XAxis mode: Wavelengths
Number of Pixels in Spectrum: 2048
>>>>>Begin Spectral Data<<<<<
223.165	-9.38
223.4	-9.38
223.635	-9.38
223.869	-7.38
224.104	-25.38
224.338	-12.38
224.573	-15.38
224.808	-14.38
225.042	2.62
225.277	-19.38
225.511	-9.38
225.746	5.62
225.98	11.62
226.215	12.62
226.449	10.62
226.683	10.62
226.918	34.62
227.152	24.62
227.387	29.62
227.621	33.62
227.856	43.62
228.09	54.62
228.324	53.62
228.559	69.62
228.793	76.62
229.027	104.62
229.262	104.62
229.496	112.62
229.73	126.62
229.964	176.62
230.199	136.62
230.433	140.62
230.667	109.62
230.901	126.62
231.136	112.62
231.37	109.62
231.604	106.62
231.838	124.62
232.072	104.62
232.306	116.62
232.541	106.62
232.775	115.62
233.009	121.62
233.243	120.62
233.477	103.62
233.711	107.62
233.945	101.62
234.179	123.62
234.413	112.62
234.647	107.62
234.881	110.62
235.115	107.62
235.349	118.62
235.583	130.62
235.817	116.62
236.051	124.62
236.285	126.62
236.519	117.62
236.753	126.62
236.987	150.62
237.221	182.62
237.455	250.62
237.689	194.62
237.922	160.62
238.156	131.62
238.39	134.62
238.624	137.62
238.858	134.62
239.091	119.62
239.325	115.62
239.559	118.62
239.793	142.62
240.027	117.62
240.26	141.62
240.494	140.62
240.728	153.62
240.961	148.62
241.195	145.62
241.429	137.62
241.662	142.62
241.896	128.62
242.13	146.62
242.363	134.62
242.597	120.62
242.83	143.62
243.064	125.62
243.298	134.62
243.531	128.62
243.765	147.62
243.998	130.62
244.232	140.62
244.465	143.62
244.699	118.62
244.932	147.62
245.166	146.62
245.399	155.62
245.633	156.62
245.866	149.62
246.099	153.62
246.333	146.62
246.566	133.62
246.8	142.62
247.033	159.62
247.266	156.62
247.5	158.62
247.733	174.62
247.966	165.62
248.2	179.62
248.433	180.62
248.666	160.62
248.899	188.62
249.133	219.62
249.366	212.62
249.599	216.62
249.832	194.62
250.066	191.62
250.299	180.62
250.532	202.62
250.765	209.62
250.998	230.62
251.231	227.62
251.465	218.62
251.698	220.62
251.931	203.62
252.164	204.62
252.397	203.62
252.63	206.62
252.863	200.62
253.096	218.62
253.329	244.62
253.562	231.62
253.795	232.62
254.028	230.62
254.261	224.62
254.494	236.62
254.727	277.62
254.96	286.62
255.193	302.62
255.426	259.62
255.659	256.62
255.892	238.62
256.124	216.62
256.357	243.62
256.59	233.62
256.823	202.62
257.056	225.62
257.289	209.62
257.521	198.62
257.754	224.62
257.987	209.62
258.22	207.62
258.452	214.62
258.685	202.62
258.918	209.62
259.151	229.62
259.383	221.62
259.616	210.62
259.849	216.62
260.081	217.62
260.314	233.62
260.547	270.62
260.779	258.62
261.012	245.62
261.244	232.62
261.477	233.62
261.71	234.62
261.942	232.62
262.175	233.62
262.407	246.62
262.64	206.62
262.872	212.62
263.105	211.62
263.337	215.62
263.57	199.62
263.802	197.62
264.035	213.62
264.267	208.62
264.499	203.62
264.732	214.62
264.964	218.62
265.197	214.62
265.429	214.62
265.661	199.62
265.894	205.62
266.126	192.62
266.358	213.62
266.591	219.62
266.823	218.62
267.055	229.62
267.287	214.62
267.52	209.62
267.752	206.62
267.984	232.62
268.216	224.62
268.448	212.62
268.681	234.62
268.913	225.62
269.145	257.62
269.377	262.62
269.609	259.62
269.841	251.62
270.073	290.62
270.306	276.62
270.538	315.62
270.77	293.62
271.002	303.62
271.234	301.62
271.466	298.62
271.698	306.62
271.93	317.62
272.162	327.62
272.394	329.62
272.626	326.62
272.858	293.62
273.09	270.62
273.322	280.62
273.553	254.62
273.785	259.62
274.017	258.62
274.249	259.62
274.481	278.62
274.713	263.62
274.945	256.62
275.176	250.62
275.408	240.62
275.64	269.62
275.872	250.62
276.104	260.62
276.335	261.62
276.567	263.62
276.799	290.62
277.031	299.62
277.262	314.62
277.494	295.62
277.726	304.62
277.957	304.62
278.189	275.62
278.421	272.62
278.652	263.62
278.884	267.62
279.115	245.62
279.347	244.62
279.579	259.62
279.81	260.62
280.042	249.62
280.273	258.62
280.505	244.62
280.736	246.62
280.968	254.62
281.199	245.62
281.431	245.62
281.662	246.62
281.894	246.62
282.125	253.62
282.356	256.62
282.588	288.62
282.819	304.62
283.051	277.62
283.282	258.62
283.513	253.62
283.745	260.62
283.976	264.62
284.207	275.62
284.439	265.62
284.67	256.62
284.901	261.62
285.132	258.62
285.364	252.62
285.595	258.62
285.826	264.62
286.057	251.62
286.288	259.62
286.52	262.62
286.751	254.62
286.982	253.62
287.213	268.62
287.444	263.62
287.675	268.62
287.906	257.62
288.138	270.62
288.369	261.62
288.6	273.62
288.831	296.62
289.062	284.62
289.293	268.62
289.524	277.62
289.755	260.62
289.986	234.62
290.217	260.62
290.448	265.62
290.679	245.62
290.91	262.62
291.141	252.62
291.371	251.62
291.602	265.62
291.833	265.62
292.064	277.62
292.295	264.62
292.526	268.62
292.757	260.62
292.987	266.62
293.218	261.62
293.449	250.62
293.68	252.62
293.91	276.62
294.141	257.62
294.372	254.62
294.603	265.62
294.833	283.62
295.064	259.62
295.295	266.62
295.525	280.62
295.756	262.62
295.987	277.62
296.217	305.62
296.448	323.62
296.679	295.62
296.909	281.62
297.14	275.62
297.37	271.62
297.601	268.62
297.831	256.62
298.062	267.62
298.292	291.62
298.523	262.62
298.753	279.62
298.984	295.62
299.214	268.62
299.445	286.62
299.675	276.62
299.905	288.62
300.136	286.62
300.366	275.62
300.597	293.62
300.827	286.62
301.057	282.62
301.288	312.62
301.518	306.62
301.748	294.62
301.979	302.62
302.209	289.62
302.439	309.62
302.669	286.62
302.9	297.62
303.13	298.62
303.36	289.62
303.59	289.62
303.82	300.62
304.051	320.62
304.281	285.62
304.511	296.62
304.741	290.62
304.971	274.62
305.201	281.62
305.431	285.62
305.661	289.62
305.891	297.62
306.121	283.62
306.352	296.62
306.582	308.62
306.812	298.62
307.042	289.62
307.272	313.62
307.502	288.62
307.731	308.62
307.961	308.62
308.191	325.62
308.421	291.62
308.651	291.62
308.881	310.62
309.111	317.62
309.341	322.62
309.571	339.62
309.8	356.62
310.03	343.62
310.26	376.62
310.49	344.62
310.72	377.62
310.949	378.62
311.179	404.62
311.409	372.62
311.639	360.62
311.868	352.62
312.098	361.62
312.328	353.62
312.557	391.62
312.787	396.62
313.017	378.62
313.246	368.62
313.476	356.62
313.706	358.62
313.935	369.62
314.165	382.62
314.394	385.62
314.624	400.62
314.853	347.62
315.083	356.62
315.312	360.62
315.542	344.62
315.771	337.62
316.001	352.62
316.23	334.62
316.46	344.62
316.689	365.62
316.919	358.62
317.148	366.62
317.377	334.62
317.607	357.62
317.836	374.62
318.065	368.62
318.295	343.62
318.524	337.62
318.753	342.62
318.983	358.62
319.212	332.62
319.441	375.62
319.67	372.62
319.9	368.62
320.129	347.62
320.358	381.62
320.587	359.62
320.816	351.62
321.046	377.62
321.275	380.62
321.504	364.62
321.733	368.62
321.962	386.62
322.191	417.62
322.42	424.62
322.649	424.62
322.878	445.62
323.108	453.62
323.337	476.62
323.566	508.62
323.795	567.62
324.024	604.62
324.253	730.62
324.482	1064.62
324.71	1603.62
324.939	2335.62
325.168	2080.62
325.397	1085.62
325.626	720.62
325.855	584.62
326.084	536.62
326.313	513.62
326.542	522.62
326.77	593.62
326.999	660.62
327.228	962.62
327.457	1420.62
327.686	1762.62
327.914	1209.62
328.143	779.62
328.372	654.62
328.6	623.62
328.829	592.62
329.058	618.62
329.287	604.62
329.515	586.62
329.744	521.62
329.972	529.62
330.201	536.62
330.43	581.62
330.658	602.62
330.887	653.62
331.115	619.62
331.344	523.62
331.572	482.62
331.801	494.62
332.03	497.62
332.258	483.62
332.486	427.62
332.715	429.62
332.943	419.62
333.172	428.62
333.4	439.62
333.629	421.62
333.857	442.62
334.085	457.62
334.314	474.62
334.542	512.62
334.771	519.62
334.999	488.62
335.227	440.62
335.455	419.62
335.684	423.62
335.912	403.62
336.14	402.62
336.369	406.62
336.597	424.62
336.825	411.62
337.053	431.62
337.281	400.62
337.51	414.62
337.738	404.62
337.966	405.62
338.194	424.62
338.422	408.62
338.65	405.62
338.878	401.62
339.106	409.62
339.334	398.62
339.562	385.62
339.79	375.62
340.018	390.62
340.246	406.62
340.474	408.62
340.702	392.62
340.93	387.62
341.158	383.62
341.386	403.62
341.614	414.62
341.842	401.62
342.07	380.62
342.298	395.62
342.526	377.62
342.754	371.62
342.981	360.62
343.209	358.62
343.437	370.62
343.665	373.62
343.893	381.62
344.12	398.62
344.348	380.62
344.576	393.62
344.804	408.62
345.031	419.62
345.259	411.62
345.487	417.62
345.714	407.62
345.942	399.62
346.17	386.62
346.397	384.62
346.625	383.62
346.853	401.62
347.08	393.62
347.308	390.62
347.535	397.62
347.763	385.62
347.99	417.62
348.218	406.62
348.445	423.62
348.673	420.62
348.9	365.62
349.128	384.62
349.355	390.62
349.583	361.62
349.81	386.62
350.037	380.62
350.265	368.62
350.492	363.62
350.72	373.62
350.947	362.62
351.174	396.62
351.402	400.62
351.629	390.62
351.856	392.62
352.083	402.62
352.311	412.62
352.538	405.62
352.765	440.62
352.992	402.62
353.22	404.62
353.447	392.62
353.674	376.62
353.901	361.62
354.128	359.62
354.355	359.62
354.583	363.62
354.81	360.62
355.037	362.62
355.264	345.62
355.491	353.62
355.718	338.62
355.945	337.62
356.172	342.62
356.399	339.62
356.626	357.62
356.853	347.62
357.08	356.62
357.307	345.62
357.534	361.62
357.761	334.62
357.988	352.62
358.215	350.62
358.441	384.62
358.668	355.62
358.895	357.62
359.122	358.62
359.349	381.62
359.576	374.62
359.802	429.62
360.029	439.62
360.256	454.62
360.483	444.62
360.709	396.62
360.936	382.62
361.163	386.62
361.39	384.62
361.616	410.62
361.843	378.62
362.07	390.62
362.296	400.62
362.523	389.62
362.749	375.62
362.976	380.62
363.203	373.62
363.429	379.62
363.656	370.62
363.882	365.62
364.109	365.62
364.335	354.62
364.562	353.62
364.788	367.62
365.015	358.62
365.241	386.62
365.468	374.62
365.694	393.62
365.92	377.62
366.147	356.62
366.373	358.62
366.599	352.62
366.826	353.62
367.052	346.62
367.278	367.62
367.505	361.62
367.731	368.62
367.957	368.62
368.184	371.62
368.41	384.62
368.636	358.62
368.862	355.62
369.089	395.62
369.315	370.62
369.541	348.62
369.767	363.62
369.993	348.62
370.219	358.62
370.445	372.62
370.672	354.62
370.898	350.62
371.124	356.62
371.35	343.62
371.576	349.62
371.802	353.62
372.028	333.62
372.254	349.62
372.48	358.62
372.706	347.62
372.932	354.62
373.158	338.62
373.384	348.62
373.61	366.62
373.835	355.62
374.061	373.62
374.287	354.62
374.513	362.62
374.739	350.62
374.965	362.62
375.191	356.62
375.416	365.62
375.642	363.62
375.868	368.62
376.094	336.62
376.319	342.62
376.545	360.62
376.771	334.62
376.997	348.62
377.222	340.62
377.448	357.62
377.674	379.62
377.899	343.62
378.125	328.62
378.35	346.62
378.576	331.62
378.802	355.62
379.027	353.62
379.253	352.62
379.478	363.62
379.704	349.62
379.929	359.62
380.155	356.62
380.38	355.62
380.606	351.62
380.831	352.62
381.057	343.62
381.282	356.62
381.507	354.62
381.733	357.62
381.958	348.62
382.184	337.62
382.409	347.62
382.634	354.62
382.86	381.62
383.085	353.62
383.31	365.62
383.535	377.62
383.761	366.62
383.986	368.62
384.211	353.62
384.436	364.62
384.662	353.62
384.887	370.62
385.112	342.62
385.337	359.62
385.562	364.62
385.787	373.62
386.013	382.62
386.238	377.62
386.463	379.62
386.688	382.62
386.913	369.62
387.138	358.62
387.363	378.62
387.588	376.62
387.813	379.62
388.038	376.62
388.263	382.62
388.488	374.62
388.713	395.62
388.938	384.62
389.163	380.62
389.387	370.62
389.612	376.62
389.837	376.62
390.062	357.62
390.287	376.62
390.512	369.62
390.736	378.62
390.961	378.62
391.186	359.62
391.411	370.62
391.636	374.62
391.86	373.62
392.085	377.62
392.31	375.62
392.534	377.62
392.759	363.62
392.984	380.62
393.208	358.62
393.433	384.62
393.658	374.62
393.882	358.62
394.107	372.62
394.331	359.62
394.556	371.62
394.78	379.62
395.005	373.62
395.229	368.62
395.454	384.62
395.678	370.62
395.903	398.62
396.127	420.62
396.352	421.62
396.576	398.62
396.801	382.62
397.025	403.62
397.249	394.62
397.474	380.62
397.698	402.62
397.922	418.62
398.147	410.62
398.371	430.62
398.595	422.62
398.82	415.62
399.044	422.62
399.268	411.62
399.492	445.62
399.717	468.62
399.941	480.62
400.165	515.62
400.389	541.62
400.613	488.62
400.837	445.62
401.062	449.62
401.286	421.62
401.51	424.62
401.734	432.62
401.958	418.62
402.182	443.62
402.406	457.62
402.63	448.62
402.854	442.62
403.078	436.62
403.302	448.62
403.526	438.62
403.75	436.62
403.974	426.62
404.198	421.62
404.422	466.62
404.645	430.62
404.869	437.62
405.093	502.62
405.317	513.62
405.541	544.62
405.765	486.62
405.988	494.62
406.212	476.62
406.436	501.62
406.66	493.62
406.883	488.62
407.107	491.62
407.331	537.62
407.555	586.62
407.778	600.62
408.002	537.62
408.226	507.62
408.449	483.62
408.673	492.62
408.896	523.62
409.12	544.62
409.344	512.62
409.567	467.62
409.791	445.62
410.014	440.62
410.238	458.62
410.461	463.62
410.685	458.62
410.908	469.62
411.132	516.62
411.355	533.62
411.578	510.62
411.802	429.62
412.025	453.62
412.249	476.62
412.472	460.62
412.695	508.62
412.919	516.62
413.142	458.62
413.365	459.62
413.589	435.62
413.812	422.62
414.035	408.62
414.258	421.62
414.482	410.62
414.705	424.62
414.928	429.62
415.151	425.62
415.374	435.62
415.597	408.62
415.821	404.62
416.044	415.62
416.267	434.62
416.49	409.62
416.713	422.62
416.936	410.62
417.159	422.62
417.382	435.62
417.605	434.62
417.828	462.62
418.051	454.62
418.274	460.62
418.497	426.62
418.72	406.62
418.943	427.62
419.166	417.62
419.389	456.62
419.611	440.62
419.834	438.62
420.057	473.62
420.28	460.62
420.503	464.62
420.726	435.62
420.948	467.62
421.171	486.62
421.394	537.62
421.617	477.62
421.839	442.62
422.062	443.62
422.285	468.62
422.507	524.62
422.73	582.62
422.953	562.62
423.175	488.62
423.398	475.62
423.621	453.62
423.843	508.62
424.066	514.62
424.288	490.62
424.511	507.62
424.733	571.62
424.956	647.62
425.178	601.62
425.401	631.62
425.623	646.62
425.846	546.62
426.068	511.62
426.291	501.62
426.513	489.62
426.735	532.62
426.958	550.62
427.18	626.62
427.402	755.62
427.625	817.62
427.847	740.62
428.069	636.62
428.292	554.62
428.514	518.62
428.736	487.62
428.958	487.62
429.181	457.62
429.403	464.62
429.625	460.62
429.847	507.62
430.069	600.62
430.292	571.62
430.514	490.62
430.736	456.62
430.958	475.62
431.18	447.62
431.402	449.62
431.624	436.62
431.846	429.62
432.068	429.62
432.29	419.62
432.512	452.62
432.734	436.62
432.956	449.62
433.178	465.62
433.4	448.62
433.622	435.62
433.844	434.62
434.066	435.62
434.287	424.62
434.509	437.62
434.731	449.62
434.953	437.62
435.175	448.62
435.397	490.62
435.618	524.62
435.84	562.62
436.062	642.62
436.284	691.62
436.505	586.62
436.727	528.62
436.949	493.62
437.17	498.62
437.392	475.62
437.614	476.62
437.835	528.62
438.057	624.62
438.278	725.62
438.5	699.62
438.721	753.62
438.943	758.62
439.165	603.62
439.386	546.62
439.608	536.62
439.829	521.62
440.05	556.62
440.272	600.62
440.493	543.62
440.715	507.62
440.936	514.62
441.158	473.62
441.379	456.62
441.6	480.62
441.822	521.62
442.043	542.62
442.264	642.62
442.486	676.62
442.707	577.62
442.928	539.62
443.149	556.62
443.371	580.62
443.592	611.62
443.813	677.62
444.034	724.62
444.255	608.62
444.476	500.62
444.698	502.62
444.919	471.62
445.14	634.62
445.361	588.62
445.582	547.62
445.803	611.62
446.024	710.62
446.245	740.62
446.466	646.62
446.687	564.62
446.908	522.62
447.129	481.62
447.35	467.62
447.571	464.62
447.792	452.62
448.013	469.62
448.234	511.62
448.455	572.62
448.675	647.62
448.896	755.62
449.117	636.62
449.338	613.62
449.559	699.62
449.779	766.62
450	631.62
450.221	545.62
450.442	491.62
450.662	475.62
450.883	500.62
451.104	496.62
451.324	473.62
451.545	451.62
451.766	438.62
451.986	432.62
452.207	410.62
452.428	411.62
452.648	409.62
452.869	405.62
453.089	430.62
453.31	451.62
453.53	441.62
453.751	421.62
453.971	440.62
454.192	454.62
454.412	449.62
454.633	421.62
454.853	434.62
455.073	401.62
455.294	445.62
455.514	546.62
455.734	506.62
455.955	414.62
456.175	402.62
456.395	398.62
456.616	403.62
456.836	384.62
457.056	383.62
457.276	382.62
457.497	397.62
457.717	385.62
457.937	397.62
458.157	407.62
458.377	412.62
458.598	457.62
458.818	507.62
459.038	558.62
459.258	608.62
459.478	504.62
459.698	461.62
459.918	421.62
460.138	432.62
460.358	413.62
460.578	414.62
460.798	417.62
461.018	429.62
461.238	435.62
461.458	410.62
461.678	412.62
461.898	411.62
462.118	399.62
462.338	440.62
462.558	421.62
462.777	430.62
462.997	427.62
463.217	458.62
463.437	448.62
463.657	441.62
463.876	427.62
464.096	446.62
464.316	432.62
464.536	456.62
464.755	450.62
464.975	468.62
465.195	502.62
465.414	636.62
465.634	537.62
465.854	466.62
466.073	444.62
466.293	421.62
466.512	425.62
466.732	424.62
466.951	416.62
467.171	410.62
467.391	420.62
467.61	434.62
467.829	449.62
468.049	449.62
468.268	440.62
468.488	410.62
468.707	416.62
468.927	417.62
469.146	405.62
469.365	420.62
469.585	398.62
469.804	437.62
470.023	438.62
470.243	416.62
470.462	440.62
470.681	460.62
470.901	432.62
471.12	423.62
471.339	421.62
471.558	424.62
471.777	434.62
471.997	416.62
472.216	434.62
472.435	461.62
472.654	467.62
472.873	448.62
473.092	409.62
473.311	423.62
473.53	430.62
473.749	444.62
473.968	489.62
474.187	601.62
474.406	616.62
474.625	494.62
474.844	461.62
475.063	438.62
475.282	428.62
475.501	454.62
475.72	449.62
475.939	432.62
476.158	408.62
476.377	440.62
476.596	443.62
476.814	447.62
477.033	440.62
477.252	452.62
477.471	455.62
477.69	457.62
477.908	466.62
478.127	447.62
478.346	461.62
478.564	461.62
478.783	478.62
479.002	482.62
479.22	480.62
479.439	484.62
479.658	514.62
479.876	525.62
480.095	540.62
480.313	520.62
480.532	538.62
480.751	521.62
480.969	534.62
481.188	598.62
481.406	651.62
481.624	568.62
481.843	533.62
482.061	512.62
482.28	503.62
482.498	516.62
482.717	515.62
482.935	513.62
483.153	516.62
483.372	499.62
483.59	520.62
483.808	519.62
484.027	487.62
484.245	525.62
484.463	532.62
484.681	521.62
484.9	521.62
485.118	517.62
485.336	512.62
485.554	518.62
485.772	522.62
485.99	537.62
486.209	526.62
486.427	512.62
486.645	551.62
486.863	541.62
487.081	564.62
487.299	560.62
487.517	545.62
487.735	538.62
487.953	556.62
488.171	561.62
488.389	530.62
488.607	553.62
488.825	562.62
489.043	555.62
489.261	558.62
489.479	570.62
489.696	566.62
489.914	580.62
490.132	565.62
490.35	581.62
490.568	591.62
490.786	605.62
491.003	603.62
491.221	609.62
491.439	626.62
491.657	640.62
491.874	624.62
492.092	650.62
492.31	617.62
492.527	621.62
492.745	654.62
492.963	648.62
493.18	646.62
493.398	657.62
493.615	670.62
493.833	652.62
494.05	643.62
494.268	662.62
494.485	633.62
494.703	701.62
494.92	649.62
495.138	670.62
495.355	672.62
495.573	665.62
495.79	658.62
496.008	640.62
496.225	670.62
496.442	657.62
496.66	658.62
496.877	681.62
497.094	665.62
497.312	650.62
497.529	672.62
497.746	666.62
497.963	676.62
498.181	711.62
498.398	694.62
498.615	717.62
498.832	723.62
499.049	696.62
499.267	706.62
499.484	722.62
499.701	760.62
499.918	767.62
500.135	766.62
500.352	816.62
500.569	802.62
500.786	804.62
501.003	792.62
501.22	773.62
501.437	794.62
501.654	796.62
501.871	800.62
