Data from 1980.PennyLincolnUp.Lamp.En5.5.200Scan.071819.P1_HRD10591_16-36-27-957.txt Node
Date: Thu Jul 18 16:36:27 EDT 2019
User: cochatt
Spectrometer: HR+D1059
Trigger mode: 1
Integration Time (sec): 1.000000E-1
Scans to average: 1
Electric dark correction enabled: true
Nonlinearity correction enabled: false
Boxcar width: 0
XAxis mode: Wavelengths
Number of Pixels in Spectrum: 2048
>>>>>Begin Spectral Data<<<<<
223.165	-21.44
223.4	-21.44
223.635	-21.44
223.869	-15.44
224.104	-18.44
224.338	-14.44
224.573	-12.44
224.808	-19.44
225.042	9.56
225.277	-0.44
225.511	-6.44
225.746	4.56
225.98	0.56
226.215	6.56
226.449	19.56
226.683	12.56
226.918	20.56
227.152	34.56
227.387	33.56
227.621	38.56
227.856	45.56
228.09	53.56
228.324	50.56
228.559	69.56
228.793	64.56
229.027	90.56
229.262	97.56
229.496	96.56
229.73	119.56
229.964	127.56
230.199	125.56
230.433	118.56
230.667	117.56
230.901	98.56
231.136	107.56
231.37	107.56
231.604	102.56
231.838	108.56
232.072	101.56
232.306	98.56
232.541	101.56
232.775	119.56
233.009	106.56
233.243	88.56
233.477	100.56
233.711	96.56
233.945	109.56
234.179	120.56
234.413	121.56
234.647	116.56
234.881	110.56
235.115	96.56
235.349	113.56
235.583	115.56
235.817	100.56
236.051	116.56
236.285	114.56
236.519	109.56
236.753	127.56
236.987	118.56
237.221	155.56
237.455	212.56
237.689	179.56
237.922	136.56
238.156	121.56
238.39	117.56
238.624	120.56
238.858	120.56
239.091	113.56
239.325	115.56
239.559	103.56
239.793	111.56
240.027	117.56
240.26	127.56
240.494	145.56
240.728	142.56
240.961	133.56
241.195	131.56
241.429	130.56
241.662	119.56
241.896	124.56
242.13	129.56
242.363	127.56
242.597	119.56
242.83	126.56
243.064	132.56
243.298	121.56
243.531	129.56
243.765	140.56
243.998	129.56
244.232	126.56
244.465	122.56
244.699	144.56
244.932	145.56
245.166	142.56
245.399	160.56
245.633	143.56
245.866	142.56
246.099	119.56
246.333	137.56
246.566	136.56
246.8	132.56
247.033	135.56
247.266	149.56
247.5	141.56
247.733	179.56
247.966	165.56
248.2	147.56
248.433	146.56
248.666	163.56
248.899	177.56
249.133	176.56
249.366	197.56
249.599	185.56
249.832	157.56
250.066	173.56
250.299	152.56
250.532	164.56
250.765	168.56
250.998	193.56
251.231	208.56
251.465	208.56
251.698	203.56
251.931	188.56
252.164	178.56
252.397	197.56
252.63	192.56
252.863	178.56
253.096	206.56
253.329	215.56
253.562	207.56
253.795	193.56
254.028	221.56
254.261	228.56
254.494	197.56
254.727	229.56
254.96	258.56
255.193	266.56
255.426	234.56
255.659	231.56
255.892	218.56
256.124	208.56
256.357	196.56
256.59	211.56
256.823	203.56
257.056	193.56
257.289	206.56
257.521	190.56
257.754	180.56
257.987	200.56
258.22	204.56
258.452	181.56
258.685	185.56
258.918	191.56
259.151	201.56
259.383	202.56
259.616	193.56
259.849	194.56
260.081	218.56
260.314	218.56
260.547	227.56
260.779	215.56
261.012	194.56
261.244	200.56
261.477	218.56
261.71	207.56
261.942	198.56
262.175	215.56
262.407	204.56
262.64	174.56
262.872	183.56
263.105	194.56
263.337	189.56
263.57	192.56
263.802	196.56
264.035	191.56
264.267	198.56
264.499	188.56
264.732	181.56
264.964	204.56
265.197	184.56
265.429	187.56
265.661	183.56
265.894	192.56
266.126	206.56
266.358	193.56
266.591	172.56
266.823	191.56
267.055	172.56
267.287	204.56
267.52	193.56
267.752	191.56
267.984	205.56
268.216	194.56
268.448	204.56
268.681	202.56
268.913	209.56
269.145	223.56
269.377	226.56
269.609	234.56
269.841	218.56
270.073	221.56
270.306	247.56
270.538	274.56
270.77	273.56
271.002	247.56
271.234	248.56
271.466	246.56
271.698	260.56
271.93	271.56
272.162	287.56
272.394	270.56
272.626	266.56
272.858	254.56
273.09	243.56
273.322	242.56
273.553	236.56
273.785	225.56
274.017	246.56
274.249	241.56
274.481	216.56
274.713	242.56
274.945	229.56
275.176	205.56
275.408	220.56
275.64	220.56
275.872	220.56
276.104	217.56
276.335	210.56
276.567	239.56
276.799	255.56
277.031	269.56
277.262	264.56
277.494	268.56
277.726	243.56
277.957	262.56
278.189	239.56
278.421	243.56
278.652	237.56
278.884	219.56
279.115	229.56
279.347	227.56
279.579	213.56
279.81	222.56
280.042	230.56
280.273	229.56
280.505	208.56
280.736	218.56
280.968	223.56
281.199	223.56
281.431	223.56
281.662	213.56
281.894	212.56
282.125	237.56
282.356	251.56
282.588	246.56
282.819	262.56
283.051	211.56
283.282	220.56
283.513	223.56
283.745	232.56
283.976	239.56
284.207	240.56
284.439	239.56
284.67	224.56
284.901	210.56
285.132	225.56
285.364	227.56
285.595	242.56
285.826	241.56
286.057	231.56
286.288	221.56
286.52	228.56
286.751	248.56
286.982	222.56
287.213	232.56
287.444	230.56
287.675	232.56
287.906	214.56
288.138	240.56
288.369	239.56
288.6	259.56
288.831	248.56
289.062	231.56
289.293	251.56
289.524	233.56
289.755	250.56
289.986	231.56
290.217	234.56
290.448	237.56
290.679	243.56
290.91	239.56
291.141	226.56
291.371	247.56
291.602	230.56
291.833	226.56
292.064	226.56
292.295	229.56
292.526	234.56
292.757	241.56
292.987	231.56
293.218	226.56
293.449	243.56
293.68	259.56
293.91	228.56
294.141	215.56
294.372	225.56
294.603	216.56
294.833	245.56
295.064	239.56
295.295	247.56
295.525	219.56
295.756	246.56
295.987	253.56
296.217	279.56
296.448	274.56
296.679	253.56
296.909	245.56
297.14	253.56
297.37	244.56
297.601	253.56
297.831	253.56
298.062	250.56
298.292	234.56
298.523	261.56
298.753	246.56
298.984	239.56
299.214	219.56
299.445	240.56
299.675	261.56
299.905	260.56
300.136	255.56
300.366	238.56
300.597	252.56
300.827	261.56
301.057	262.56
301.288	269.56
301.518	251.56
301.748	257.56
301.979	257.56
302.209	276.56
302.439	257.56
302.669	258.56
302.9	280.56
303.13	264.56
303.36	256.56
303.59	273.56
303.82	282.56
304.051	265.56
304.281	277.56
304.511	260.56
304.741	287.56
304.971	258.56
305.201	274.56
305.431	277.56
305.661	268.56
305.891	279.56
306.121	264.56
306.352	289.56
306.582	286.56
306.812	266.56
307.042	261.56
307.272	271.56
307.502	266.56
307.731	267.56
307.961	266.56
308.191	270.56
308.421	265.56
308.651	260.56
308.881	274.56
309.111	278.56
309.341	278.56
309.571	272.56
309.8	291.56
310.03	291.56
310.26	319.56
310.49	296.56
310.72	301.56
310.949	313.56
311.179	323.56
311.409	315.56
311.639	321.56
311.868	313.56
312.098	302.56
312.328	323.56
312.557	333.56
312.787	335.56
313.017	331.56
313.246	320.56
313.476	307.56
313.706	303.56
313.935	321.56
314.165	333.56
314.394	323.56
314.624	319.56
314.853	315.56
315.083	315.56
315.312	317.56
315.542	307.56
315.771	302.56
316.001	301.56
316.23	300.56
316.46	306.56
316.689	318.56
316.919	300.56
317.148	307.56
317.377	310.56
317.607	302.56
317.836	314.56
318.065	306.56
318.295	315.56
318.524	306.56
318.753	309.56
318.983	295.56
319.212	292.56
319.441	301.56
319.67	321.56
319.9	304.56
320.129	308.56
320.358	307.56
320.587	309.56
320.816	317.56
321.046	331.56
321.275	345.56
321.504	318.56
321.733	319.56
321.962	340.56
322.191	347.56
322.42	344.56
322.649	375.56
322.878	373.56
323.108	383.56
323.337	401.56
323.566	411.56
323.795	444.56
324.024	495.56
324.253	578.56
324.482	819.56
324.71	1277.56
324.939	1822.56
325.168	1599.56
325.397	864.56
325.626	576.56
325.855	464.56
326.084	424.56
326.313	415.56
326.542	406.56
326.77	456.56
326.999	529.56
327.228	761.56
327.457	1093.56
327.686	1377.56
327.914	941.56
328.143	617.56
328.372	566.56
328.6	499.56
328.829	469.56
329.058	483.56
329.287	496.56
329.515	446.56
329.744	427.56
329.972	423.56
330.201	449.56
330.43	453.56
330.658	476.56
330.887	529.56
331.115	481.56
331.344	434.56
331.572	395.56
331.801	425.56
332.03	389.56
332.258	385.56
332.486	368.56
332.715	381.56
332.943	364.56
333.172	360.56
333.4	353.56
333.629	370.56
333.857	359.56
334.085	398.56
334.314	403.56
334.542	407.56
334.771	411.56
334.999	386.56
335.227	372.56
335.455	368.56
335.684	358.56
335.912	350.56
336.14	325.56
336.369	356.56
336.597	343.56
336.825	381.56
337.053	356.56
337.281	360.56
337.51	331.56
337.738	370.56
337.966	353.56
338.194	341.56
338.422	354.56
338.65	341.56
338.878	333.56
339.106	328.56
339.334	344.56
339.562	309.56
339.79	328.56
340.018	327.56
340.246	339.56
340.474	345.56
340.702	351.56
340.93	340.56
341.158	344.56
341.386	344.56
341.614	341.56
341.842	357.56
342.07	326.56
342.298	336.56
342.526	348.56
342.754	312.56
342.981	351.56
343.209	303.56
343.437	343.56
343.665	343.56
343.893	330.56
344.12	328.56
344.348	334.56
344.576	336.56
344.804	383.56
345.031	376.56
345.259	362.56
345.487	360.56
345.714	351.56
345.942	331.56
346.17	337.56
346.397	345.56
346.625	343.56
346.853	311.56
347.08	321.56
347.308	333.56
347.535	339.56
347.763	358.56
347.99	356.56
348.218	344.56
348.445	347.56
348.673	344.56
348.9	322.56
349.128	347.56
349.355	359.56
349.583	335.56
349.81	339.56
350.037	312.56
350.265	340.56
350.492	335.56
350.72	322.56
350.947	331.56
351.174	334.56
351.402	341.56
351.629	343.56
351.856	337.56
352.083	367.56
352.311	349.56
352.538	346.56
352.765	353.56
352.992	347.56
353.22	351.56
353.447	352.56
353.674	329.56
353.901	305.56
354.128	326.56
354.355	300.56
354.583	318.56
354.81	312.56
355.037	331.56
355.264	322.56
355.491	322.56
355.718	307.56
355.945	311.56
356.172	317.56
356.399	327.56
356.626	323.56
356.853	324.56
357.08	316.56
357.307	313.56
357.534	313.56
357.761	303.56
357.988	328.56
358.215	306.56
358.441	309.56
358.668	331.56
358.895	306.56
359.122	322.56
359.349	329.56
359.576	349.56
359.802	383.56
360.029	381.56
360.256	407.56
360.483	369.56
360.709	347.56
360.936	319.56
361.163	346.56
361.39	341.56
361.616	338.56
361.843	336.56
362.07	331.56
362.296	331.56
362.523	331.56
362.749	336.56
362.976	323.56
363.203	324.56
363.429	320.56
363.656	326.56
363.882	317.56
364.109	329.56
364.335	317.56
364.562	324.56
364.788	320.56
365.015	337.56
365.241	330.56
365.468	325.56
365.694	331.56
365.92	332.56
366.147	326.56
366.373	319.56
366.599	317.56
366.826	308.56
367.052	314.56
367.278	329.56
367.505	335.56
367.731	331.56
367.957	320.56
368.184	339.56
368.41	319.56
368.636	341.56
368.862	352.56
369.089	342.56
369.315	316.56
369.541	333.56
369.767	323.56
369.993	312.56
370.219	323.56
370.445	327.56
370.672	322.56
370.898	323.56
371.124	309.56
371.35	305.56
371.576	307.56
371.802	320.56
372.028	317.56
372.254	312.56
372.48	317.56
372.706	323.56
372.932	317.56
373.158	319.56
373.384	305.56
373.61	339.56
373.835	321.56
374.061	330.56
374.287	326.56
374.513	315.56
374.739	329.56
374.965	330.56
375.191	330.56
375.416	321.56
375.642	316.56
375.868	328.56
376.094	317.56
376.319	322.56
376.545	315.56
376.771	310.56
376.997	311.56
377.222	301.56
377.448	326.56
377.674	320.56
377.899	313.56
378.125	319.56
378.35	314.56
378.576	307.56
378.802	327.56
379.027	324.56
379.253	311.56
379.478	323.56
379.704	319.56
379.929	317.56
380.155	341.56
380.38	330.56
380.606	327.56
380.831	303.56
381.057	320.56
381.282	332.56
381.507	334.56
381.733	322.56
381.958	317.56
382.184	319.56
382.409	327.56
382.634	332.56
382.86	311.56
383.085	307.56
383.31	323.56
383.535	332.56
383.761	337.56
383.986	324.56
384.211	315.56
384.436	313.56
384.662	342.56
384.887	320.56
385.112	335.56
385.337	335.56
385.562	361.56
385.787	341.56
386.013	356.56
386.238	356.56
386.463	345.56
386.688	337.56
386.913	349.56
387.138	344.56
387.363	344.56
387.588	343.56
387.813	333.56
388.038	337.56
388.263	343.56
388.488	341.56
388.713	359.56
388.938	339.56
389.163	346.56
389.387	341.56
389.612	334.56
389.837	332.56
390.062	344.56
390.287	324.56
390.512	328.56
390.736	336.56
390.961	369.56
391.186	331.56
391.411	351.56
391.636	336.56
391.86	348.56
392.085	355.56
392.31	343.56
392.534	327.56
392.759	359.56
392.984	355.56
393.208	325.56
393.433	375.56
393.658	355.56
393.882	343.56
394.107	333.56
394.331	325.56
394.556	349.56
394.78	354.56
395.005	355.56
395.229	351.56
395.454	328.56
395.678	340.56
395.903	347.56
396.127	377.56
396.352	381.56
396.576	363.56
396.801	343.56
397.025	389.56
397.249	370.56
397.474	360.56
397.698	355.56
397.922	367.56
398.147	383.56
398.371	363.56
398.595	375.56
398.82	374.56
399.044	385.56
399.268	387.56
399.492	393.56
399.717	425.56
399.941	440.56
400.165	457.56
400.389	483.56
400.613	415.56
400.837	402.56
401.062	399.56
401.286	387.56
401.51	388.56
401.734	368.56
401.958	391.56
402.182	378.56
402.406	407.56
402.63	414.56
402.854	405.56
403.078	382.56
403.302	387.56
403.526	393.56
403.75	385.56
403.974	386.56
404.198	412.56
404.422	395.56
404.645	403.56
404.869	410.56
405.093	426.56
405.317	448.56
405.541	469.56
405.765	443.56
405.988	415.56
406.212	435.56
406.436	448.56
406.66	464.56
406.883	451.56
407.107	439.56
407.331	496.56
407.555	551.56
407.778	541.56
408.002	477.56
408.226	437.56
408.449	446.56
408.673	449.56
408.896	457.56
409.12	500.56
409.344	476.56
409.567	439.56
409.791	405.56
410.014	430.56
410.238	398.56
410.461	399.56
410.685	406.56
410.908	404.56
411.132	451.56
411.355	473.56
411.578	455.56
411.802	394.56
412.025	411.56
412.249	414.56
412.472	438.56
412.695	446.56
412.919	450.56
413.142	413.56
413.365	398.56
413.589	409.56
413.812	388.56
414.035	387.56
414.258	377.56
414.482	377.56
414.705	372.56
414.928	375.56
415.151	352.56
415.374	392.56
415.597	390.56
415.821	384.56
416.044	383.56
416.267	388.56
416.49	368.56
416.713	383.56
416.936	389.56
417.159	376.56
417.382	393.56
417.605	387.56
417.828	398.56
418.051	397.56
418.274	397.56
418.497	373.56
418.72	380.56
418.943	391.56
419.166	410.56
419.389	398.56
419.611	409.56
419.834	411.56
420.057	426.56
420.28	405.56
420.503	403.56
420.726	396.56
420.948	436.56
421.171	466.56
421.394	472.56
421.617	420.56
421.839	413.56
422.062	423.56
422.285	433.56
422.507	466.56
422.73	535.56
422.953	517.56
423.175	450.56
423.398	403.56
423.621	422.56
423.843	440.56
424.066	425.56
424.288	442.56
424.511	463.56
424.733	508.56
424.956	575.56
425.178	572.56
425.401	533.56
425.623	571.56
425.846	477.56
426.068	443.56
426.291	436.56
426.513	442.56
426.735	443.56
426.958	487.56
427.18	584.56
427.402	652.56
427.625	715.56
427.847	648.56
428.069	567.56
428.292	488.56
428.514	443.56
428.736	430.56
428.958	433.56
429.181	426.56
429.403	428.56
429.625	423.56
429.847	439.56
430.069	501.56
430.292	521.56
430.514	443.56
430.736	433.56
430.958	412.56
431.18	400.56
431.402	389.56
431.624	408.56
431.846	380.56
432.068	378.56
432.29	406.56
432.512	391.56
432.734	396.56
432.956	374.56
433.178	409.56
433.4	415.56
433.622	376.56
433.844	370.56
434.066	396.56
434.287	391.56
434.509	401.56
434.731	381.56
434.953	378.56
435.175	420.56
435.397	446.56
435.618	444.56
435.84	487.56
436.062	559.56
436.284	616.56
436.505	511.56
436.727	453.56
436.949	431.56
437.17	419.56
437.392	425.56
437.614	427.56
437.835	460.56
438.057	557.56
438.278	623.56
438.5	627.56
438.721	665.56
438.943	638.56
439.165	535.56
439.386	486.56
439.608	482.56
439.829	477.56
440.05	477.56
440.272	524.56
440.493	510.56
440.715	450.56
440.936	435.56
441.158	419.56
441.379	416.56
441.6	426.56
441.822	452.56
442.043	500.56
442.264	566.56
442.486	587.56
442.707	488.56
442.928	472.56
443.149	467.56
443.371	481.56
443.592	533.56
443.813	631.56
444.034	619.56
444.255	531.56
444.476	476.56
444.698	439.56
444.919	454.56
445.14	521.56
445.361	502.56
445.582	474.56
445.803	517.56
446.024	625.56
446.245	651.56
446.466	575.56
446.687	488.56
446.908	441.56
447.129	434.56
447.35	419.56
447.571	404.56
447.792	426.56
448.013	408.56
448.234	457.56
448.455	490.56
448.675	587.56
448.896	662.56
449.117	568.56
449.338	553.56
449.559	607.56
449.779	689.56
450	582.56
450.221	482.56
450.442	426.56
450.662	409.56
450.883	427.56
451.104	424.56
451.324	438.56
451.545	410.56
451.766	396.56
451.986	358.56
452.207	368.56
452.428	379.56
452.648	375.56
452.869	377.56
453.089	384.56
453.31	410.56
453.53	381.56
453.751	369.56
453.971	371.56
454.192	408.56
454.412	403.56
454.633	389.56
454.853	374.56
455.073	351.56
455.294	397.56
455.514	428.56
455.734	454.56
455.955	372.56
456.175	365.56
456.395	351.56
456.616	349.56
456.836	345.56
457.056	344.56
457.276	329.56
457.497	340.56
457.717	349.56
457.937	352.56
458.157	356.56
458.377	361.56
458.598	389.56
458.818	430.56
459.038	520.56
459.258	531.56
459.478	428.56
459.698	390.56
459.918	389.56
460.138	388.56
460.358	364.56
460.578	396.56
460.798	392.56
461.018	394.56
461.238	403.56
461.458	381.56
461.678	365.56
461.898	362.56
462.118	380.56
462.338	376.56
462.558	403.56
462.777	396.56
462.997	393.56
463.217	408.56
463.437	407.56
463.657	403.56
463.876	387.56
464.096	417.56
464.316	417.56
464.536	421.56
464.755	413.56
464.975	406.56
465.195	441.56
465.414	526.56
465.634	452.56
465.854	433.56
466.073	410.56
466.293	381.56
466.512	373.56
466.732	362.56
466.951	363.56
467.171	385.56
467.391	383.56
467.61	387.56
467.829	387.56
468.049	394.56
468.268	364.56
468.488	369.56
468.707	369.56
468.927	374.56
469.146	367.56
469.365	347.56
469.585	370.56
469.804	377.56
470.023	389.56
470.243	363.56
470.462	378.56
470.681	407.56
470.901	399.56
471.12	377.56
471.339	390.56
471.558	370.56
471.777	360.56
471.997	360.56
472.216	388.56
472.435	411.56
472.654	398.56
472.873	376.56
473.092	386.56
473.311	383.56
473.53	387.56
473.749	409.56
473.968	455.56
474.187	515.56
474.406	566.56
474.625	441.56
474.844	401.56
475.063	382.56
475.282	389.56
475.501	381.56
475.72	394.56
475.939	391.56
476.158	390.56
476.377	381.56
476.596	403.56
476.814	390.56
477.033	386.56
477.252	395.56
477.471	413.56
477.69	410.56
477.908	413.56
478.127	412.56
478.346	389.56
478.564	411.56
478.783	431.56
479.002	437.56
479.22	437.56
479.439	440.56
479.658	457.56
479.876	443.56
480.095	457.56
480.313	492.56
480.532	475.56
480.751	477.56
480.969	470.56
481.188	498.56
481.406	542.56
481.624	489.56
481.843	467.56
482.061	438.56
482.28	443.56
482.498	440.56
482.717	465.56
482.935	450.56
483.153	438.56
483.372	451.56
483.59	452.56
483.808	448.56
484.027	445.56
484.245	440.56
484.463	443.56
484.681	436.56
484.9	467.56
485.118	453.56
485.336	460.56
485.554	451.56
485.772	459.56
485.99	469.56
486.209	466.56
486.427	474.56
486.645	482.56
486.863	489.56
487.081	513.56
487.299	506.56
487.517	513.56
487.735	487.56
487.953	472.56
488.171	473.56
488.389	488.56
488.607	482.56
488.825	510.56
489.043	487.56
489.261	493.56
489.479	513.56
489.696	509.56
489.914	522.56
490.132	506.56
490.35	534.56
490.568	515.56
490.786	501.56
491.003	530.56
491.221	550.56
491.439	561.56
491.657	539.56
491.874	559.56
492.092	588.56
492.31	552.56
492.527	565.56
492.745	583.56
492.963	551.56
493.18	579.56
493.398	568.56
493.615	565.56
493.833	592.56
494.05	603.56
494.268	590.56
494.485	582.56
494.703	603.56
494.92	576.56
495.138	569.56
495.355	566.56
495.573	598.56
495.79	599.56
496.008	578.56
496.225	579.56
496.442	581.56
496.66	600.56
496.877	587.56
497.094	614.56
497.312	599.56
497.529	587.56
497.746	593.56
497.963	604.56
498.181	601.56
498.398	617.56
498.615	621.56
498.832	642.56
499.049	628.56
499.267	654.56
499.484	642.56
499.701	673.56
499.918	668.56
500.135	721.56
500.352	711.56
500.569	730.56
500.786	732.56
501.003	729.56
501.22	714.56
501.437	699.56
501.654	685.56
501.871	727.56
502.088	703.56
