Data from 1980.PennyLincolnUp.Lamp.En5.5.200Scan.071819.P1_HRD10591_16-36-21-956.txt Node
Date: Thu Jul 18 16:36:21 EDT 2019
User: cochatt
Spectrometer: HR+D1059
Trigger mode: 1
Integration Time (sec): 1.000000E-1
Scans to average: 1
Electric dark correction enabled: true
Nonlinearity correction enabled: false
Boxcar width: 0
XAxis mode: Wavelengths
Number of Pixels in Spectrum: 2048
>>>>>Begin Spectral Data<<<<<
223.165	-11.19
223.4	-11.19
223.635	-11.19
223.869	-24.19
224.104	-17.19
224.338	-15.19
224.573	-28.19
224.808	-19.19
225.042	-7.19
225.277	-14.19
225.511	-4.19
225.746	9.81
225.98	13.81
226.215	7.81
226.449	20.81
226.683	17.81
226.918	33.81
227.152	36.81
227.387	32.81
227.621	31.81
227.856	28.81
228.09	53.81
228.324	47.81
228.559	66.81
228.793	56.81
229.027	78.81
229.262	96.81
229.496	102.81
229.73	126.81
229.964	126.81
230.199	111.81
230.433	110.81
230.667	111.81
230.901	115.81
231.136	107.81
231.37	107.81
231.604	92.81
231.838	102.81
232.072	100.81
232.306	89.81
232.541	81.81
232.775	95.81
233.009	106.81
233.243	85.81
233.477	99.81
233.711	97.81
233.945	97.81
234.179	116.81
234.413	110.81
234.647	103.81
234.881	106.81
235.115	107.81
235.349	112.81
235.583	108.81
235.817	112.81
236.051	102.81
236.285	110.81
236.519	110.81
236.753	123.81
236.987	138.81
237.221	162.81
237.455	207.81
237.689	157.81
237.922	122.81
238.156	110.81
238.39	116.81
238.624	107.81
238.858	120.81
239.091	124.81
239.325	114.81
239.559	110.81
239.793	114.81
240.027	119.81
240.26	126.81
240.494	124.81
240.728	126.81
240.961	123.81
241.195	119.81
241.429	124.81
241.662	119.81
241.896	124.81
242.13	114.81
242.363	107.81
242.597	124.81
242.83	118.81
243.064	113.81
243.298	103.81
243.531	127.81
243.765	125.81
243.998	142.81
244.232	128.81
244.465	123.81
244.699	126.81
244.932	140.81
245.166	136.81
245.399	130.81
245.633	130.81
245.866	115.81
246.099	117.81
246.333	130.81
246.566	136.81
246.8	138.81
247.033	144.81
247.266	144.81
247.5	133.81
247.733	152.81
247.966	147.81
248.2	169.81
248.433	153.81
248.666	157.81
248.899	162.81
249.133	155.81
249.366	186.81
249.599	185.81
249.832	147.81
250.066	158.81
250.299	174.81
250.532	165.81
250.765	186.81
250.998	187.81
251.231	200.81
251.465	187.81
251.698	176.81
251.931	180.81
252.164	175.81
252.397	170.81
252.63	171.81
252.863	186.81
253.096	194.81
253.329	195.81
253.562	201.81
253.795	207.81
254.028	191.81
254.261	196.81
254.494	212.81
254.727	221.81
254.96	219.81
255.193	230.81
255.426	220.81
255.659	203.81
255.892	208.81
256.124	207.81
256.357	197.81
256.59	183.81
256.823	182.81
257.056	174.81
257.289	176.81
257.521	198.81
257.754	184.81
257.987	182.81
258.22	190.81
258.452	179.81
258.685	175.81
258.918	167.81
259.151	180.81
259.383	174.81
259.616	195.81
259.849	188.81
260.081	194.81
260.314	221.81
260.547	216.81
260.779	222.81
261.012	211.81
261.244	198.81
261.477	210.81
261.71	196.81
261.942	208.81
262.175	189.81
262.407	190.81
262.64	185.81
262.872	182.81
263.105	171.81
263.337	165.81
263.57	178.81
263.802	185.81
264.035	186.81
264.267	183.81
264.499	163.81
264.732	179.81
264.964	184.81
265.197	184.81
265.429	193.81
265.661	187.81
265.894	191.81
266.126	194.81
266.358	165.81
266.591	170.81
266.823	187.81
267.055	205.81
267.287	183.81
267.52	181.81
267.752	204.81
267.984	176.81
268.216	179.81
268.448	186.81
268.681	196.81
268.913	199.81
269.145	206.81
269.377	212.81
269.609	203.81
269.841	222.81
270.073	241.81
270.306	234.81
270.538	253.81
270.77	238.81
271.002	254.81
271.234	240.81
271.466	241.81
271.698	245.81
271.93	238.81
272.162	257.81
272.394	256.81
272.626	254.81
272.858	229.81
273.09	217.81
273.322	229.81
273.553	228.81
273.785	233.81
274.017	214.81
274.249	211.81
274.481	229.81
274.713	219.81
274.945	224.81
275.176	210.81
275.408	216.81
275.64	203.81
275.872	199.81
276.104	199.81
276.335	211.81
276.567	211.81
276.799	229.81
277.031	228.81
277.262	263.81
277.494	266.81
277.726	252.81
277.957	227.81
278.189	214.81
278.421	218.81
278.652	216.81
278.884	195.81
279.115	211.81
279.347	217.81
279.579	215.81
279.81	218.81
280.042	213.81
280.273	224.81
280.505	216.81
280.736	216.81
280.968	204.81
281.199	206.81
281.431	224.81
281.662	204.81
281.894	218.81
282.125	214.81
282.356	225.81
282.588	235.81
282.819	219.81
283.051	217.81
283.282	209.81
283.513	215.81
283.745	233.81
283.976	216.81
284.207	201.81
284.439	224.81
284.67	208.81
284.901	213.81
285.132	210.81
285.364	211.81
285.595	233.81
285.826	224.81
286.057	218.81
286.288	222.81
286.52	220.81
286.751	230.81
286.982	238.81
287.213	216.81
287.444	223.81
287.675	219.81
287.906	231.81
288.138	224.81
288.369	220.81
288.6	243.81
288.831	244.81
289.062	235.81
289.293	235.81
289.524	221.81
289.755	214.81
289.986	215.81
290.217	214.81
290.448	227.81
290.679	225.81
290.91	211.81
291.141	201.81
291.371	226.81
291.602	211.81
291.833	212.81
292.064	228.81
292.295	223.81
292.526	224.81
292.757	209.81
292.987	222.81
293.218	220.81
293.449	225.81
293.68	219.81
293.91	217.81
294.141	217.81
294.372	229.81
294.603	236.81
294.833	206.81
295.064	225.81
295.295	210.81
295.525	234.81
295.756	222.81
295.987	242.81
296.217	243.81
296.448	254.81
296.679	247.81
296.909	242.81
297.14	241.81
297.37	231.81
297.601	217.81
297.831	224.81
298.062	232.81
298.292	233.81
298.523	217.81
298.753	241.81
298.984	240.81
299.214	243.81
299.445	227.81
299.675	233.81
299.905	250.81
300.136	248.81
300.366	232.81
300.597	227.81
300.827	233.81
301.057	244.81
301.288	266.81
301.518	269.81
301.748	234.81
301.979	242.81
302.209	215.81
302.439	233.81
302.669	252.81
302.9	244.81
303.13	231.81
303.36	240.81
303.59	256.81
303.82	260.81
304.051	260.81
304.281	258.81
304.511	246.81
304.741	260.81
304.971	234.81
305.201	242.81
305.431	260.81
305.661	245.81
305.891	240.81
306.121	251.81
306.352	267.81
306.582	259.81
306.812	262.81
307.042	247.81
307.272	271.81
307.502	252.81
307.731	257.81
307.961	260.81
308.191	268.81
308.421	274.81
308.651	256.81
308.881	259.81
309.111	241.81
309.341	265.81
309.571	283.81
309.8	285.81
310.03	282.81
310.26	288.81
310.49	290.81
310.72	291.81
310.949	298.81
311.179	307.81
311.409	295.81
311.639	267.81
311.868	293.81
312.098	288.81
312.328	291.81
312.557	290.81
312.787	320.81
313.017	307.81
313.246	298.81
313.476	288.81
313.706	303.81
313.935	304.81
314.165	310.81
314.394	307.81
314.624	319.81
314.853	298.81
315.083	290.81
315.312	303.81
315.542	284.81
315.771	293.81
316.001	296.81
316.23	272.81
316.46	281.81
316.689	284.81
316.919	296.81
317.148	300.81
317.377	302.81
317.607	312.81
317.836	294.81
318.065	280.81
318.295	283.81
318.524	296.81
318.753	286.81
318.983	280.81
319.212	265.81
319.441	292.81
319.67	310.81
319.9	304.81
320.129	276.81
320.358	267.81
320.587	302.81
320.816	297.81
321.046	329.81
321.275	287.81
321.504	290.81
321.733	312.81
321.962	315.81
322.191	338.81
322.42	330.81
322.649	332.81
322.878	325.81
323.108	353.81
323.337	380.81
323.566	393.81
323.795	438.81
324.024	440.81
324.253	517.81
324.482	776.81
324.71	1136.81
324.939	1673.81
325.168	1461.81
325.397	801.81
325.626	530.81
325.855	435.81
326.084	414.81
326.313	393.81
326.542	383.81
326.77	421.81
326.999	533.81
327.228	670.81
327.457	1014.81
327.686	1258.81
327.914	867.81
328.143	568.81
328.372	490.81
328.6	476.81
328.829	427.81
329.058	445.81
329.287	450.81
329.515	428.81
329.744	380.81
329.972	372.81
330.201	392.81
330.43	421.81
330.658	444.81
330.887	495.81
331.115	471.81
331.344	422.81
331.572	386.81
331.801	376.81
332.03	364.81
332.258	352.81
332.486	331.81
332.715	338.81
332.943	334.81
333.172	346.81
333.4	334.81
333.629	336.81
333.857	360.81
334.085	366.81
334.314	351.81
334.542	389.81
334.771	384.81
334.999	361.81
335.227	351.81
335.455	346.81
335.684	346.81
335.912	326.81
336.14	341.81
336.369	325.81
336.597	325.81
336.825	330.81
337.053	334.81
337.281	338.81
337.51	334.81
337.738	323.81
337.966	319.81
338.194	331.81
338.422	308.81
338.65	309.81
338.878	327.81
339.106	311.81
339.334	308.81
339.562	342.81
339.79	310.81
340.018	307.81
340.246	323.81
340.474	331.81
340.702	336.81
340.93	318.81
341.158	319.81
341.386	330.81
341.614	326.81
341.842	319.81
342.07	326.81
342.298	335.81
342.526	307.81
342.754	297.81
342.981	300.81
343.209	307.81
343.437	320.81
343.665	316.81
343.893	320.81
344.12	332.81
344.348	315.81
344.576	310.81
344.804	318.81
345.031	324.81
345.259	358.81
345.487	343.81
345.714	329.81
345.942	315.81
346.17	328.81
346.397	313.81
346.625	329.81
346.853	321.81
347.08	313.81
347.308	320.81
347.535	320.81
347.763	330.81
347.99	326.81
348.218	331.81
348.445	340.81
348.673	333.81
348.9	319.81
349.128	318.81
349.355	305.81
349.583	304.81
349.81	304.81
350.037	318.81
350.265	320.81
350.492	319.81
350.72	313.81
350.947	311.81
351.174	316.81
351.402	336.81
351.629	323.81
351.856	331.81
352.083	328.81
352.311	326.81
352.538	327.81
352.765	337.81
352.992	319.81
353.22	320.81
353.447	315.81
353.674	312.81
353.901	299.81
354.128	300.81
354.355	277.81
354.583	299.81
354.81	284.81
355.037	291.81
355.264	280.81
355.491	269.81
355.718	295.81
355.945	309.81
356.172	292.81
356.399	280.81
356.626	289.81
356.853	306.81
357.08	291.81
357.307	298.81
357.534	292.81
357.761	290.81
357.988	297.81
358.215	296.81
358.441	299.81
358.668	296.81
358.895	310.81
359.122	298.81
359.349	284.81
359.576	325.81
359.802	350.81
360.029	366.81
360.256	366.81
360.483	360.81
360.709	330.81
360.936	337.81
361.163	320.81
361.39	319.81
361.616	318.81
361.843	303.81
362.07	300.81
362.296	324.81
362.523	343.81
362.749	314.81
362.976	306.81
363.203	317.81
363.429	301.81
363.656	313.81
363.882	299.81
364.109	303.81
364.335	318.81
364.562	304.81
364.788	303.81
365.015	299.81
365.241	282.81
365.468	316.81
365.694	323.81
365.92	316.81
366.147	300.81
366.373	313.81
366.599	304.81
366.826	312.81
367.052	309.81
367.278	288.81
367.505	305.81
367.731	316.81
367.957	301.81
368.184	297.81
368.41	309.81
368.636	327.81
368.862	327.81
369.089	303.81
369.315	309.81
369.541	304.81
369.767	300.81
369.993	294.81
370.219	302.81
370.445	294.81
370.672	312.81
370.898	291.81
371.124	308.81
371.35	313.81
371.576	294.81
371.802	311.81
372.028	306.81
372.254	302.81
372.48	299.81
372.706	308.81
372.932	317.81
373.158	313.81
373.384	314.81
373.61	326.81
373.835	298.81
374.061	300.81
374.287	318.81
374.513	292.81
374.739	304.81
374.965	285.81
375.191	298.81
375.416	303.81
375.642	306.81
375.868	305.81
376.094	294.81
376.319	306.81
376.545	305.81
376.771	292.81
376.997	317.81
377.222	295.81
377.448	295.81
377.674	289.81
377.899	286.81
378.125	288.81
378.35	290.81
378.576	299.81
378.802	297.81
379.027	309.81
379.253	288.81
379.478	309.81
379.704	293.81
379.929	297.81
380.155	312.81
380.38	300.81
380.606	306.81
380.831	292.81
381.057	298.81
381.282	304.81
381.507	308.81
381.733	311.81
381.958	332.81
382.184	315.81
382.409	325.81
382.634	294.81
382.86	308.81
383.085	294.81
383.31	308.81
383.535	302.81
383.761	326.81
383.986	322.81
384.211	309.81
384.436	321.81
384.662	317.81
384.887	325.81
385.112	306.81
385.337	317.81
385.562	296.81
385.787	317.81
386.013	334.81
386.238	323.81
386.463	321.81
386.688	331.81
386.913	319.81
387.138	322.81
387.363	316.81
387.588	315.81
387.813	324.81
388.038	330.81
388.263	314.81
388.488	326.81
388.713	328.81
388.938	327.81
389.163	303.81
389.387	311.81
389.612	314.81
389.837	320.81
390.062	304.81
390.287	316.81
390.512	304.81
390.736	340.81
390.961	334.81
391.186	310.81
391.411	325.81
391.636	312.81
391.86	316.81
392.085	319.81
392.31	329.81
392.534	327.81
392.759	327.81
392.984	314.81
393.208	322.81
393.433	347.81
393.658	330.81
393.882	324.81
394.107	320.81
394.331	317.81
394.556	317.81
394.78	317.81
395.005	311.81
395.229	327.81
395.454	332.81
395.678	330.81
395.903	343.81
396.127	336.81
396.352	359.81
396.576	345.81
396.801	340.81
397.025	347.81
397.249	330.81
397.474	337.81
397.698	360.81
397.922	348.81
398.147	358.81
398.371	382.81
398.595	362.81
398.82	353.81
399.044	367.81
399.268	362.81
399.492	373.81
399.717	395.81
399.941	413.81
400.165	399.81
400.389	453.81
400.613	410.81
400.837	381.81
401.062	367.81
401.286	367.81
401.51	371.81
401.734	367.81
401.958	372.81
402.182	362.81
402.406	367.81
402.63	357.81
402.854	371.81
403.078	356.81
403.302	359.81
403.526	370.81
403.75	389.81
403.974	366.81
404.198	358.81
404.422	356.81
404.645	352.81
404.869	383.81
405.093	394.81
405.317	416.81
405.541	470.81
405.765	427.81
405.988	400.81
406.212	398.81
406.436	420.81
406.66	415.81
406.883	420.81
407.107	411.81
407.331	459.81
407.555	514.81
407.778	511.81
408.002	469.81
408.226	424.81
408.449	420.81
408.673	416.81
408.896	438.81
409.12	463.81
409.344	430.81
409.567	388.81
409.791	399.81
410.014	380.81
410.238	357.81
410.461	370.81
410.685	380.81
410.908	392.81
411.132	409.81
411.355	435.81
411.578	432.81
411.802	395.81
412.025	359.81
412.249	382.81
412.472	391.81
412.695	411.81
412.919	420.81
413.142	394.81
413.365	374.81
413.589	364.81
413.812	356.81
414.035	353.81
414.258	373.81
414.482	372.81
414.705	334.81
414.928	362.81
415.151	366.81
415.374	342.81
415.597	365.81
415.821	355.81
416.044	354.81
416.267	350.81
416.49	364.81
416.713	343.81
416.936	366.81
417.159	352.81
417.382	355.81
417.605	363.81
417.828	381.81
418.051	378.81
418.274	373.81
418.497	342.81
418.72	356.81
418.943	350.81
419.166	370.81
419.389	378.81
419.611	378.81
419.834	380.81
420.057	382.81
420.28	371.81
420.503	368.81
420.726	396.81
420.948	403.81
421.171	421.81
421.394	470.81
421.617	419.81
421.839	397.81
422.062	396.81
422.285	386.81
422.507	452.81
422.73	513.81
422.953	500.81
423.175	418.81
423.398	406.81
423.621	401.81
423.843	406.81
424.066	430.81
424.288	412.81
424.511	415.81
424.733	478.81
424.956	539.81
425.178	535.81
425.401	509.81
425.623	545.81
425.846	458.81
426.068	413.81
426.291	424.81
426.513	407.81
426.735	427.81
426.958	486.81
427.18	527.81
427.402	636.81
427.625	677.81
427.847	616.81
428.069	538.81
428.292	459.81
428.514	416.81
428.736	404.81
428.958	388.81
429.181	385.81
429.403	386.81
429.625	382.81
429.847	423.81
430.069	481.81
430.292	460.81
430.514	429.81
430.736	380.81
430.958	395.81
431.18	366.81
431.402	373.81
431.624	358.81
431.846	353.81
432.068	356.81
432.29	361.81
432.512	368.81
432.734	371.81
432.956	381.81
433.178	375.81
433.4	380.81
433.622	378.81
433.844	358.81
434.066	355.81
434.287	379.81
434.509	355.81
434.731	368.81
434.953	382.81
435.175	385.81
435.397	393.81
435.618	424.81
435.84	430.81
436.062	521.81
436.284	571.81
436.505	495.81
436.727	436.81
436.949	392.81
437.17	418.81
437.392	404.81
437.614	411.81
437.835	445.81
438.057	519.81
438.278	612.81
438.5	594.81
438.721	648.81
438.943	610.81
439.165	482.81
439.386	435.81
439.608	422.81
439.829	438.81
440.05	445.81
440.272	483.81
440.493	452.81
440.715	404.81
440.936	411.81
441.158	416.81
441.379	405.81
441.6	404.81
441.822	407.81
442.043	432.81
442.264	511.81
442.486	555.81
442.707	494.81
442.928	444.81
443.149	437.81
443.371	475.81
443.592	483.81
443.813	576.81
444.034	607.81
444.255	490.81
444.476	448.81
444.698	395.81
444.919	407.81
445.14	494.81
445.361	466.81
445.582	444.81
445.803	507.81
446.024	592.81
446.245	606.81
446.466	527.81
446.687	452.81
446.908	432.81
447.129	411.81
447.35	396.81
447.571	385.81
447.792	389.81
448.013	391.81
448.234	451.81
448.455	465.81
448.675	554.81
448.896	614.81
449.117	537.81
449.338	516.81
449.559	581.81
449.779	659.81
450	546.81
450.221	442.81
450.442	395.81
450.662	387.81
450.883	402.81
451.104	383.81
451.324	404.81
451.545	380.81
451.766	360.81
451.986	340.81
452.207	362.81
452.428	355.81
452.648	344.81
452.869	359.81
453.089	366.81
453.31	363.81
453.53	360.81
453.751	366.81
453.971	360.81
454.192	368.81
454.412	368.81
454.633	354.81
454.853	361.81
455.073	350.81
455.294	372.81
455.514	436.81
455.734	424.81
455.955	358.81
456.175	342.81
456.395	329.81
456.616	324.81
456.836	332.81
457.056	351.81
457.276	312.81
457.497	336.81
457.717	338.81
457.937	329.81
458.157	330.81
458.377	343.81
458.598	355.81
458.818	422.81
459.038	458.81
459.258	482.81
459.478	414.81
459.698	381.81
459.918	363.81
460.138	370.81
460.358	355.81
460.578	348.81
460.798	351.81
461.018	373.81
461.238	342.81
461.458	356.81
461.678	340.81
461.898	350.81
462.118	350.81
462.338	363.81
462.558	362.81
462.777	371.81
462.997	375.81
463.217	368.81
463.437	381.81
463.657	365.81
463.876	392.81
464.096	390.81
464.316	368.81
464.536	380.81
464.755	381.81
464.975	384.81
465.195	430.81
465.414	482.81
465.634	437.81
465.854	408.81
466.073	383.81
466.293	366.81
466.512	354.81
466.732	362.81
466.951	349.81
467.171	350.81
467.391	349.81
467.61	374.81
467.829	364.81
468.049	374.81
468.268	359.81
468.488	347.81
468.707	324.81
468.927	340.81
469.146	343.81
469.365	340.81
469.585	344.81
469.804	345.81
470.023	367.81
470.243	369.81
470.462	347.81
470.681	360.81
470.901	362.81
471.12	348.81
471.339	355.81
471.558	342.81
471.777	363.81
471.997	370.81
472.216	388.81
472.435	381.81
472.654	366.81
472.873	371.81
473.092	357.81
473.311	359.81
473.53	372.81
473.749	362.81
473.968	401.81
474.187	479.81
474.406	509.81
474.625	411.81
474.844	386.81
475.063	370.81
475.282	368.81
475.501	366.81
475.72	371.81
475.939	374.81
476.158	370.81
476.377	366.81
476.596	360.81
476.814	382.81
477.033	388.81
477.252	410.81
477.471	375.81
477.69	386.81
477.908	372.81
478.127	387.81
478.346	400.81
478.564	401.81
478.783	380.81
479.002	407.81
479.22	410.81
479.439	406.81
479.658	417.81
479.876	419.81
480.095	432.81
480.313	448.81
480.532	426.81
480.751	430.81
480.969	438.81
481.188	475.81
481.406	512.81
481.624	442.81
481.843	404.81
482.061	420.81
482.28	418.81
482.498	420.81
482.717	414.81
482.935	433.81
483.153	410.81
483.372	413.81
483.59	416.81
483.808	414.81
484.027	428.81
484.245	422.81
484.463	411.81
484.681	423.81
484.9	433.81
485.118	441.81
485.336	440.81
485.554	446.81
485.772	444.81
485.99	452.81
486.209	437.81
486.427	426.81
486.645	465.81
486.863	472.81
487.081	439.81
487.299	448.81
487.517	465.81
487.735	446.81
487.953	453.81
488.171	455.81
488.389	469.81
488.607	462.81
488.825	472.81
489.043	465.81
489.261	473.81
489.479	475.81
489.696	453.81
489.914	476.81
490.132	482.81
490.35	477.81
490.568	491.81
490.786	470.81
491.003	522.81
491.221	502.81
491.439	521.81
491.657	541.81
491.874	523.81
492.092	522.81
492.31	537.81
492.527	542.81
492.745	534.81
492.963	535.81
493.18	533.81
493.398	555.81
493.615	526.81
493.833	542.81
494.05	528.81
494.268	529.81
494.485	522.81
494.703	542.81
494.92	551.81
495.138	563.81
495.355	543.81
495.573	541.81
495.79	547.81
496.008	554.81
496.225	565.81
496.442	556.81
496.66	536.81
496.877	544.81
497.094	560.81
497.312	551.81
497.529	536.81
497.746	567.81
497.963	583.81
498.181	566.81
498.398	598.81
498.615	587.81
498.832	608.81
499.049	605.81
499.267	607.81
499.484	601.81
499.701	615.81
499.918	655.81
500.135	647.81
500.352	703.81
500.569	658.81
500.786	668.81
501.003	687.81
501.22	683.81
501.437	648.81
501.654	648.81
501.871	669.81
502.088	635.81
