Data from 1980.PennyLincolnUp.Lamp.En5.5.200Scan.071819.P1_HRD10591_16-36-35-957.txt Node
Date: Thu Jul 18 16:36:35 EDT 2019
User: cochatt
Spectrometer: HR+D1059
Trigger mode: 1
Integration Time (sec): 1.000000E-1
Scans to average: 1
Electric dark correction enabled: true
Nonlinearity correction enabled: false
Boxcar width: 0
XAxis mode: Wavelengths
Number of Pixels in Spectrum: 2048
>>>>>Begin Spectral Data<<<<<
223.165	-13.75
223.4	-13.75
223.635	-13.75
223.869	-9.75
224.104	-12.75
224.338	-25.75
224.573	-23.75
224.808	-3.75
225.042	-3.75
225.277	-5.75
225.511	-2.75
225.746	2.25
225.98	-1.75
226.215	-1.75
226.449	13.25
226.683	16.25
226.918	36.25
227.152	37.25
227.387	42.25
227.621	40.25
227.856	43.25
228.09	59.25
228.324	55.25
228.559	72.25
228.793	66.25
229.027	99.25
229.262	114.25
229.496	114.25
229.73	131.25
229.964	164.25
230.199	144.25
230.433	99.25
230.667	118.25
230.901	106.25
231.136	109.25
231.37	103.25
231.604	116.25
231.838	99.25
232.072	116.25
232.306	108.25
232.541	114.25
232.775	120.25
233.009	111.25
233.243	116.25
233.477	116.25
233.711	98.25
233.945	109.25
234.179	115.25
234.413	126.25
234.647	119.25
234.881	110.25
235.115	111.25
235.349	131.25
235.583	104.25
235.817	123.25
236.051	128.25
236.285	117.25
236.519	110.25
236.753	124.25
236.987	141.25
237.221	168.25
237.455	233.25
237.689	176.25
237.922	136.25
238.156	128.25
238.39	125.25
238.624	107.25
238.858	114.25
239.091	116.25
239.325	121.25
239.559	123.25
239.793	125.25
240.027	126.25
240.26	130.25
240.494	152.25
240.728	135.25
240.961	135.25
241.195	135.25
241.429	138.25
241.662	133.25
241.896	123.25
242.13	122.25
242.363	122.25
242.597	141.25
242.83	129.25
243.064	131.25
243.298	139.25
243.531	127.25
243.765	126.25
243.998	146.25
244.232	134.25
244.465	138.25
244.699	143.25
244.932	133.25
245.166	134.25
245.399	141.25
245.633	142.25
245.866	125.25
246.099	135.25
246.333	143.25
246.566	143.25
246.8	152.25
247.033	130.25
247.266	142.25
247.5	150.25
247.733	136.25
247.966	157.25
248.2	172.25
248.433	175.25
248.666	169.25
248.899	180.25
249.133	188.25
249.366	202.25
249.599	195.25
249.832	190.25
250.066	180.25
250.299	163.25
250.532	170.25
250.765	191.25
250.998	205.25
251.231	242.25
251.465	223.25
251.698	196.25
251.931	205.25
252.164	197.25
252.397	188.25
252.63	188.25
252.863	204.25
253.096	204.25
253.329	217.25
253.562	220.25
253.795	225.25
254.028	223.25
254.261	214.25
254.494	224.25
254.727	248.25
254.96	262.25
255.193	280.25
255.426	256.25
255.659	228.25
255.892	209.25
256.124	235.25
256.357	206.25
256.59	201.25
256.823	200.25
257.056	185.25
257.289	210.25
257.521	207.25
257.754	202.25
257.987	194.25
258.22	204.25
258.452	212.25
258.685	188.25
258.918	200.25
259.151	211.25
259.383	222.25
259.616	220.25
259.849	220.25
260.081	212.25
260.314	247.25
260.547	244.25
260.779	242.25
261.012	242.25
261.244	209.25
261.477	219.25
261.71	217.25
261.942	221.25
262.175	206.25
262.407	205.25
262.64	203.25
262.872	203.25
263.105	200.25
263.337	214.25
263.57	189.25
263.802	202.25
264.035	203.25
264.267	197.25
264.499	189.25
264.732	194.25
264.964	202.25
265.197	179.25
265.429	199.25
265.661	199.25
265.894	213.25
266.126	206.25
266.358	186.25
266.591	192.25
266.823	206.25
267.055	211.25
267.287	218.25
267.52	208.25
267.752	219.25
267.984	204.25
268.216	205.25
268.448	199.25
268.681	235.25
268.913	233.25
269.145	235.25
269.377	255.25
269.609	224.25
269.841	260.25
270.073	258.25
270.306	284.25
270.538	292.25
270.77	279.25
271.002	265.25
271.234	282.25
271.466	275.25
271.698	268.25
271.93	286.25
272.162	290.25
272.394	292.25
272.626	268.25
272.858	263.25
273.09	269.25
273.322	248.25
273.553	251.25
273.785	231.25
274.017	245.25
274.249	246.25
274.481	233.25
274.713	236.25
274.945	249.25
275.176	236.25
275.408	233.25
275.64	234.25
275.872	247.25
276.104	253.25
276.335	251.25
276.567	255.25
276.799	265.25
277.031	262.25
277.262	290.25
277.494	284.25
277.726	277.25
277.957	275.25
278.189	262.25
278.421	232.25
278.652	252.25
278.884	235.25
279.115	246.25
279.347	232.25
279.579	223.25
279.81	238.25
280.042	229.25
280.273	226.25
280.505	242.25
280.736	244.25
280.968	238.25
281.199	236.25
281.431	228.25
281.662	240.25
281.894	242.25
282.125	237.25
282.356	231.25
282.588	269.25
282.819	263.25
283.051	235.25
283.282	240.25
283.513	255.25
283.745	238.25
283.976	249.25
284.207	260.25
284.439	255.25
284.67	236.25
284.901	244.25
285.132	255.25
285.364	254.25
285.595	221.25
285.826	228.25
286.057	227.25
286.288	235.25
286.52	251.25
286.751	245.25
286.982	242.25
287.213	248.25
287.444	248.25
287.675	230.25
287.906	268.25
288.138	264.25
288.369	265.25
288.6	251.25
288.831	260.25
289.062	245.25
289.293	278.25
289.524	252.25
289.755	244.25
289.986	231.25
290.217	250.25
290.448	248.25
290.679	254.25
290.91	240.25
291.141	255.25
291.371	254.25
291.602	245.25
291.833	246.25
292.064	244.25
292.295	239.25
292.526	280.25
292.757	266.25
292.987	252.25
293.218	239.25
293.449	238.25
293.68	238.25
293.91	256.25
294.141	247.25
294.372	228.25
294.603	253.25
294.833	247.25
295.064	229.25
295.295	250.25
295.525	223.25
295.756	244.25
295.987	244.25
296.217	291.25
296.448	284.25
296.679	270.25
296.909	243.25
297.14	229.25
297.37	253.25
297.601	239.25
297.831	228.25
298.062	233.25
298.292	269.25
298.523	262.25
298.753	257.25
298.984	273.25
299.214	244.25
299.445	250.25
299.675	256.25
299.905	273.25
300.136	274.25
300.366	252.25
300.597	271.25
300.827	275.25
301.057	277.25
301.288	274.25
301.518	288.25
301.748	275.25
301.979	282.25
302.209	269.25
302.439	271.25
302.669	274.25
302.9	282.25
303.13	267.25
303.36	292.25
303.59	287.25
303.82	287.25
304.051	277.25
304.281	288.25
304.511	268.25
304.741	278.25
304.971	293.25
305.201	260.25
305.431	268.25
305.661	286.25
305.891	270.25
306.121	282.25
306.352	294.25
306.582	286.25
306.812	272.25
307.042	295.25
307.272	277.25
307.502	279.25
307.731	266.25
307.961	282.25
308.191	285.25
308.421	286.25
308.651	279.25
308.881	283.25
309.111	294.25
309.341	297.25
309.571	300.25
309.8	308.25
310.03	339.25
310.26	326.25
310.49	334.25
310.72	356.25
310.949	361.25
311.179	367.25
311.409	330.25
311.639	338.25
311.868	330.25
312.098	330.25
312.328	341.25
312.557	331.25
312.787	366.25
313.017	372.25
313.246	328.25
313.476	318.25
313.706	340.25
313.935	330.25
314.165	335.25
314.394	350.25
314.624	354.25
314.853	330.25
315.083	324.25
315.312	319.25
315.542	318.25
315.771	332.25
316.001	319.25
316.23	317.25
316.46	317.25
316.689	316.25
316.919	331.25
317.148	342.25
317.377	358.25
317.607	331.25
317.836	323.25
318.065	316.25
318.295	321.25
318.524	319.25
318.753	316.25
318.983	319.25
319.212	323.25
319.441	345.25
319.67	333.25
319.9	326.25
320.129	335.25
320.358	335.25
320.587	307.25
320.816	350.25
321.046	328.25
321.275	346.25
321.504	344.25
321.733	348.25
321.962	351.25
322.191	374.25
322.42	382.25
322.649	379.25
322.878	409.25
323.108	420.25
323.337	426.25
323.566	443.25
323.795	486.25
324.024	513.25
324.253	652.25
324.482	907.25
324.71	1391.25
324.939	2015.25
325.168	1805.25
325.397	942.25
325.626	590.25
325.855	491.25
326.084	487.25
326.313	446.25
326.542	451.25
326.77	493.25
326.999	602.25
327.228	798.25
327.457	1255.25
327.686	1540.25
327.914	1066.25
328.143	698.25
328.372	596.25
328.6	534.25
328.829	523.25
329.058	550.25
329.287	532.25
329.515	515.25
329.744	475.25
329.972	463.25
330.201	455.25
330.43	502.25
330.658	530.25
330.887	566.25
331.115	551.25
331.344	459.25
331.572	437.25
331.801	412.25
332.03	425.25
332.258	407.25
332.486	392.25
332.715	392.25
332.943	366.25
333.172	394.25
333.4	394.25
333.629	398.25
333.857	409.25
334.085	411.25
334.314	429.25
334.542	428.25
334.771	460.25
334.999	410.25
335.227	401.25
335.455	403.25
335.684	379.25
335.912	355.25
336.14	351.25
336.369	380.25
336.597	374.25
336.825	379.25
337.053	377.25
337.281	374.25
337.51	355.25
337.738	368.25
337.966	368.25
338.194	377.25
338.422	378.25
338.65	363.25
338.878	380.25
339.106	367.25
339.334	362.25
339.562	351.25
339.79	349.25
340.018	377.25
340.246	358.25
340.474	370.25
340.702	391.25
340.93	360.25
341.158	367.25
341.386	386.25
341.614	344.25
341.842	359.25
342.07	348.25
342.298	361.25
342.526	367.25
342.754	341.25
342.981	340.25
343.209	360.25
343.437	351.25
343.665	348.25
343.893	358.25
344.12	359.25
344.348	347.25
344.576	382.25
344.804	374.25
345.031	382.25
345.259	382.25
345.487	383.25
345.714	363.25
345.942	355.25
346.17	354.25
346.397	358.25
346.625	351.25
346.853	345.25
347.08	349.25
347.308	378.25
347.535	373.25
347.763	370.25
347.99	365.25
348.218	357.25
348.445	353.25
348.673	367.25
348.9	358.25
349.128	358.25
349.355	331.25
349.583	344.25
349.81	353.25
350.037	343.25
350.265	354.25
350.492	349.25
350.72	328.25
350.947	354.25
351.174	359.25
351.402	378.25
351.629	360.25
351.856	368.25
352.083	368.25
352.311	373.25
352.538	394.25
352.765	377.25
352.992	376.25
353.22	345.25
353.447	359.25
353.674	354.25
353.901	347.25
354.128	337.25
354.355	328.25
354.583	317.25
354.81	344.25
355.037	324.25
355.264	316.25
355.491	306.25
355.718	335.25
355.945	327.25
356.172	335.25
356.399	342.25
356.626	340.25
356.853	313.25
357.08	294.25
357.307	310.25
357.534	321.25
357.761	323.25
357.988	313.25
358.215	347.25
358.441	318.25
358.668	333.25
358.895	336.25
359.122	348.25
359.349	358.25
359.576	357.25
359.802	375.25
360.029	412.25
360.256	407.25
360.483	386.25
360.709	351.25
360.936	374.25
361.163	340.25
361.39	350.25
361.616	347.25
361.843	358.25
362.07	362.25
362.296	367.25
362.523	366.25
362.749	365.25
362.976	362.25
363.203	347.25
363.429	343.25
363.656	345.25
363.882	326.25
364.109	311.25
364.335	335.25
364.562	340.25
364.788	333.25
365.015	326.25
365.241	343.25
365.468	350.25
365.694	347.25
365.92	365.25
366.147	338.25
366.373	354.25
366.599	336.25
366.826	351.25
367.052	332.25
367.278	330.25
367.505	338.25
367.731	333.25
367.957	336.25
368.184	364.25
368.41	366.25
368.636	346.25
368.862	352.25
369.089	342.25
369.315	355.25
369.541	334.25
369.767	356.25
369.993	342.25
370.219	331.25
370.445	331.25
370.672	324.25
370.898	317.25
371.124	318.25
371.35	323.25
371.576	326.25
371.802	327.25
372.028	318.25
372.254	336.25
372.48	338.25
372.706	334.25
372.932	340.25
373.158	333.25
373.384	344.25
373.61	346.25
373.835	352.25
374.061	310.25
374.287	343.25
374.513	339.25
374.739	348.25
374.965	344.25
375.191	341.25
375.416	334.25
375.642	326.25
375.868	342.25
376.094	329.25
376.319	345.25
376.545	320.25
376.771	338.25
376.997	328.25
377.222	327.25
377.448	341.25
377.674	330.25
377.899	338.25
378.125	333.25
378.35	325.25
378.576	333.25
378.802	322.25
379.027	315.25
379.253	331.25
379.478	310.25
379.704	342.25
379.929	349.25
380.155	328.25
380.38	341.25
380.606	330.25
380.831	319.25
381.057	357.25
381.282	322.25
381.507	329.25
381.733	331.25
381.958	338.25
382.184	344.25
382.409	332.25
382.634	360.25
382.86	343.25
383.085	349.25
383.31	322.25
383.535	363.25
383.761	345.25
383.986	328.25
384.211	350.25
384.436	344.25
384.662	337.25
384.887	340.25
385.112	348.25
385.337	370.25
385.562	354.25
385.787	366.25
386.013	382.25
386.238	362.25
386.463	359.25
386.688	350.25
386.913	370.25
387.138	348.25
387.363	358.25
387.588	349.25
387.813	359.25
388.038	334.25
388.263	339.25
388.488	362.25
388.713	348.25
388.938	371.25
389.163	356.25
389.387	350.25
389.612	358.25
389.837	359.25
390.062	367.25
390.287	336.25
390.512	341.25
390.736	355.25
390.961	337.25
391.186	339.25
391.411	347.25
391.636	376.25
391.86	363.25
392.085	355.25
392.31	367.25
392.534	347.25
392.759	363.25
392.984	340.25
393.208	387.25
393.433	337.25
393.658	363.25
393.882	367.25
394.107	367.25
394.331	381.25
394.556	372.25
394.78	349.25
395.005	352.25
395.229	358.25
395.454	363.25
395.678	370.25
395.903	379.25
396.127	380.25
396.352	386.25
396.576	379.25
396.801	367.25
397.025	367.25
397.249	363.25
397.474	363.25
397.698	368.25
397.922	383.25
398.147	392.25
398.371	418.25
398.595	380.25
398.82	381.25
399.044	398.25
399.268	388.25
399.492	425.25
399.717	421.25
399.941	447.25
400.165	500.25
400.389	493.25
400.613	469.25
400.837	425.25
401.062	423.25
401.286	418.25
401.51	400.25
401.734	408.25
401.958	399.25
402.182	400.25
402.406	414.25
402.63	421.25
402.854	390.25
403.078	394.25
403.302	399.25
403.526	422.25
403.75	410.25
403.974	403.25
404.198	423.25
404.422	417.25
404.645	424.25
404.869	427.25
405.093	442.25
405.317	489.25
405.541	492.25
405.765	471.25
405.988	466.25
406.212	446.25
406.436	476.25
406.66	495.25
406.883	454.25
407.107	483.25
407.331	528.25
407.555	551.25
407.778	559.25
408.002	502.25
408.226	475.25
408.449	467.25
408.673	425.25
408.896	458.25
409.12	543.25
409.344	515.25
409.567	440.25
409.791	447.25
410.014	402.25
410.238	418.25
410.461	443.25
410.685	423.25
410.908	442.25
411.132	486.25
411.355	502.25
411.578	460.25
411.802	446.25
412.025	415.25
412.249	432.25
412.472	437.25
412.695	476.25
412.919	462.25
413.142	432.25
413.365	405.25
413.589	398.25
413.812	401.25
414.035	410.25
414.258	412.25
414.482	400.25
414.705	387.25
414.928	401.25
415.151	398.25
415.374	388.25
415.597	396.25
415.821	382.25
416.044	380.25
416.267	402.25
416.49	399.25
416.713	404.25
416.936	379.25
417.159	392.25
417.382	400.25
417.605	400.25
417.828	408.25
418.051	418.25
418.274	423.25
418.497	392.25
418.72	395.25
418.943	390.25
419.166	424.25
419.389	403.25
419.611	418.25
419.834	430.25
420.057	431.25
420.28	408.25
420.503	435.25
420.726	428.25
420.948	455.25
421.171	482.25
421.394	496.25
421.617	456.25
421.839	434.25
422.062	412.25
422.285	446.25
422.507	508.25
422.73	569.25
422.953	542.25
423.175	470.25
423.398	439.25
423.621	437.25
423.843	455.25
424.066	466.25
424.288	454.25
424.511	480.25
424.733	513.25
424.956	580.25
425.178	573.25
425.401	581.25
425.623	580.25
425.846	537.25
426.068	484.25
426.291	452.25
426.513	495.25
426.735	463.25
426.958	516.25
427.18	600.25
427.402	686.25
427.625	776.25
427.847	692.25
428.069	577.25
428.292	541.25
428.514	464.25
428.736	455.25
428.958	446.25
429.181	434.25
429.403	442.25
429.625	433.25
429.847	476.25
430.069	533.25
430.292	532.25
430.514	460.25
430.736	430.25
430.958	431.25
431.18	415.25
431.402	408.25
431.624	408.25
431.846	392.25
432.068	418.25
432.29	421.25
432.512	390.25
432.734	402.25
432.956	397.25
433.178	423.25
433.4	434.25
433.622	419.25
433.844	400.25
434.066	391.25
434.287	390.25
434.509	399.25
434.731	408.25
434.953	428.25
435.175	418.25
435.397	432.25
435.618	477.25
435.84	505.25
436.062	610.25
436.284	644.25
436.505	553.25
436.727	488.25
436.949	454.25
437.17	441.25
437.392	447.25
437.614	455.25
437.835	470.25
438.057	578.25
438.278	656.25
438.5	652.25
438.721	727.25
438.943	694.25
439.165	565.25
439.386	513.25
439.608	516.25
439.829	477.25
440.05	520.25
440.272	543.25
440.493	528.25
440.715	471.25
440.936	444.25
441.158	436.25
441.379	445.25
441.6	450.25
441.822	477.25
442.043	495.25
442.264	581.25
442.486	623.25
442.707	522.25
442.928	488.25
443.149	494.25
443.371	513.25
443.592	556.25
443.813	628.25
444.034	668.25
444.255	558.25
444.476	495.25
444.698	481.25
444.919	479.25
445.14	560.25
445.361	496.25
445.582	521.25
445.803	564.25
446.024	656.25
446.245	662.25
446.466	601.25
446.687	517.25
446.908	495.25
447.129	463.25
447.35	445.25
447.571	460.25
447.792	441.25
448.013	447.25
448.234	468.25
448.455	500.25
448.675	598.25
448.896	699.25
449.117	620.25
449.338	554.25
449.559	657.25
449.779	741.25
450	629.25
450.221	504.25
450.442	486.25
450.662	434.25
450.883	422.25
451.104	468.25
451.324	440.25
451.545	407.25
451.766	404.25
451.986	399.25
452.207	399.25
452.428	402.25
452.648	404.25
452.869	380.25
453.089	418.25
453.31	420.25
453.53	403.25
453.751	389.25
453.971	402.25
454.192	422.25
454.412	402.25
454.633	397.25
454.853	390.25
455.073	393.25
455.294	420.25
455.514	490.25
455.734	482.25
455.955	394.25
456.175	372.25
456.395	390.25
456.616	370.25
456.836	374.25
457.056	357.25
457.276	358.25
457.497	357.25
457.717	364.25
457.937	354.25
458.157	362.25
458.377	365.25
458.598	405.25
458.818	476.25
459.038	552.25
459.258	538.25
459.478	455.25
459.698	414.25
459.918	414.25
460.138	404.25
460.358	385.25
460.578	414.25
460.798	397.25
461.018	421.25
461.238	379.25
461.458	395.25
461.678	399.25
461.898	407.25
462.118	403.25
462.338	414.25
462.558	425.25
462.777	390.25
462.997	413.25
463.217	410.25
463.437	399.25
463.657	427.25
463.876	418.25
464.096	416.25
464.316	422.25
464.536	414.25
464.755	414.25
464.975	442.25
465.195	465.25
465.414	570.25
465.634	496.25
465.854	451.25
466.073	430.25
466.293	400.25
466.512	392.25
466.732	401.25
466.951	401.25
467.171	390.25
467.391	374.25
467.61	404.25
467.829	417.25
468.049	399.25
468.268	394.25
468.488	399.25
468.707	388.25
468.927	387.25
469.146	370.25
469.365	370.25
469.585	379.25
469.804	384.25
470.023	410.25
470.243	397.25
470.462	413.25
470.681	439.25
470.901	417.25
471.12	399.25
471.339	415.25
471.558	417.25
471.777	414.25
471.997	386.25
472.216	396.25
472.435	438.25
472.654	406.25
472.873	396.25
473.092	392.25
473.311	407.25
473.53	408.25
473.749	404.25
473.968	439.25
474.187	546.25
474.406	571.25
474.625	450.25
474.844	421.25
475.063	406.25
475.282	416.25
475.501	419.25
475.72	423.25
475.939	438.25
476.158	421.25
476.377	404.25
476.596	391.25
476.814	414.25
477.033	442.25
477.252	416.25
477.471	424.25
477.69	427.25
477.908	420.25
478.127	437.25
478.346	427.25
478.564	450.25
478.783	457.25
479.002	457.25
479.22	448.25
479.439	472.25
479.658	490.25
479.876	474.25
480.095	482.25
480.313	533.25
480.532	471.25
480.751	491.25
480.969	493.25
481.188	528.25
481.406	588.25
481.624	516.25
481.843	493.25
482.061	495.25
482.28	488.25
482.498	485.25
482.717	456.25
482.935	470.25
483.153	489.25
483.372	470.25
483.59	465.25
483.808	476.25
484.027	463.25
484.245	475.25
484.463	471.25
484.681	485.25
484.9	458.25
485.118	482.25
485.336	485.25
485.554	463.25
485.772	470.25
485.99	506.25
486.209	494.25
486.427	482.25
486.645	511.25
486.863	540.25
487.081	544.25
487.299	531.25
487.517	510.25
487.735	512.25
487.953	515.25
488.171	519.25
488.389	491.25
488.607	528.25
488.825	510.25
489.043	515.25
489.261	536.25
489.479	527.25
489.696	516.25
489.914	538.25
490.132	549.25
490.35	529.25
490.568	528.25
490.786	555.25
491.003	555.25
491.221	571.25
491.439	585.25
491.657	568.25
491.874	598.25
492.092	596.25
492.31	582.25
492.527	579.25
492.745	567.25
492.963	598.25
493.18	594.25
493.398	598.25
493.615	612.25
493.833	616.25
494.05	633.25
494.268	618.25
494.485	619.25
494.703	631.25
494.92	590.25
495.138	634.25
495.355	612.25
495.573	636.25
495.79	634.25
496.008	628.25
496.225	621.25
496.442	610.25
496.66	616.25
496.877	590.25
497.094	619.25
497.312	617.25
497.529	639.25
497.746	623.25
497.963	622.25
498.181	632.25
498.398	671.25
498.615	638.25
498.832	660.25
499.049	667.25
499.267	645.25
499.484	677.25
499.701	716.25
499.918	706.25
500.135	717.25
500.352	774.25
500.569	770.25
500.786	740.25
501.003	743.25
501.22	747.25
501.437	757.25
501.654	732.25
501.871	724.25
502.088	725.25
