Data from 1980.PennyLincolnUp.Lamp.En5.5.200Scan.071819.P1_HRD10591_16-39-03-957.txt Node
Date: Thu Jul 18 16:39:03 EDT 2019
User: cochatt
Spectrometer: HR+D1059
Trigger mode: 1
Integration Time (sec): 1.000000E-1
Scans to average: 1
Electric dark correction enabled: true
Nonlinearity correction enabled: false
Boxcar width: 0
XAxis mode: Wavelengths
Number of Pixels in Spectrum: 2048
>>>>>Begin Spectral Data<<<<<
223.165	-3.94
223.4	-3.94
223.635	-3.94
223.869	-12.94
224.104	-27.94
224.338	-22.94
224.573	-11.94
224.808	-19.94
225.042	-6.94
225.277	6.06
225.511	6.06
225.746	16.06
225.98	4.06
226.215	8.06
226.449	5.06
226.683	23.06
226.918	4.06
227.152	34.06
227.387	43.06
227.621	24.06
227.856	50.06
228.09	39.06
228.324	61.06
228.559	55.06
228.793	70.06
229.027	112.06
229.262	112.06
229.496	125.06
229.73	159.06
229.964	166.06
230.199	148.06
230.433	126.06
230.667	117.06
230.901	125.06
231.136	126.06
231.37	126.06
231.604	119.06
231.838	122.06
232.072	105.06
232.306	125.06
232.541	124.06
232.775	111.06
233.009	120.06
233.243	126.06
233.477	122.06
233.711	120.06
233.945	121.06
234.179	121.06
234.413	110.06
234.647	109.06
234.881	126.06
235.115	104.06
235.349	127.06
235.583	125.06
235.817	135.06
236.051	132.06
236.285	138.06
236.519	127.06
236.753	139.06
236.987	150.06
237.221	194.06
237.455	229.06
237.689	211.06
237.922	138.06
238.156	146.06
238.39	137.06
238.624	129.06
238.858	127.06
239.091	126.06
239.325	124.06
239.559	142.06
239.793	138.06
240.027	145.06
240.26	145.06
240.494	183.06
240.728	167.06
240.961	160.06
241.195	162.06
241.429	158.06
241.662	160.06
241.896	126.06
242.13	138.06
242.363	140.06
242.597	125.06
242.83	146.06
243.064	137.06
243.298	160.06
243.531	146.06
243.765	141.06
243.998	153.06
244.232	149.06
244.465	166.06
244.699	147.06
244.932	152.06
245.166	143.06
245.399	159.06
245.633	150.06
245.866	160.06
246.099	148.06
246.333	154.06
246.566	173.06
246.8	164.06
247.033	150.06
247.266	158.06
247.5	160.06
247.733	175.06
247.966	182.06
248.2	175.06
248.433	175.06
248.666	178.06
248.899	196.06
249.133	217.06
249.366	224.06
249.599	214.06
249.832	199.06
250.066	191.06
250.299	199.06
250.532	194.06
250.765	207.06
250.998	225.06
251.231	223.06
251.465	221.06
251.698	230.06
251.931	207.06
252.164	216.06
252.397	223.06
252.63	212.06
252.863	214.06
253.096	231.06
253.329	254.06
253.562	225.06
253.795	234.06
254.028	215.06
254.261	230.06
254.494	255.06
254.727	286.06
254.96	306.06
255.193	275.06
255.426	293.06
255.659	272.06
255.892	260.06
256.124	263.06
256.357	253.06
256.59	242.06
256.823	244.06
257.056	241.06
257.289	241.06
257.521	230.06
257.754	226.06
257.987	211.06
258.22	230.06
258.452	215.06
258.685	222.06
258.918	212.06
259.151	211.06
259.383	225.06
259.616	236.06
259.849	234.06
260.081	237.06
260.314	248.06
260.547	289.06
260.779	264.06
261.012	244.06
261.244	249.06
261.477	251.06
261.71	231.06
261.942	245.06
262.175	241.06
262.407	258.06
262.64	233.06
262.872	228.06
263.105	225.06
263.337	227.06
263.57	214.06
263.802	210.06
264.035	221.06
264.267	218.06
264.499	214.06
264.732	214.06
264.964	241.06
265.197	208.06
265.429	206.06
265.661	214.06
265.894	236.06
266.126	224.06
266.358	206.06
266.591	204.06
266.823	222.06
267.055	215.06
267.287	235.06
267.52	233.06
267.752	228.06
267.984	239.06
268.216	239.06
268.448	241.06
268.681	247.06
268.913	263.06
269.145	268.06
269.377	316.06
269.609	285.06
269.841	270.06
270.073	282.06
270.306	314.06
270.538	351.06
270.77	346.06
271.002	327.06
271.234	322.06
271.466	332.06
271.698	337.06
271.93	341.06
272.162	344.06
272.394	335.06
272.626	324.06
272.858	315.06
273.09	309.06
273.322	284.06
273.553	286.06
273.785	282.06
274.017	283.06
274.249	276.06
274.481	304.06
274.713	291.06
274.945	276.06
275.176	276.06
275.408	293.06
275.64	289.06
275.872	279.06
276.104	274.06
276.335	277.06
276.567	278.06
276.799	294.06
277.031	332.06
277.262	337.06
277.494	331.06
277.726	304.06
277.957	297.06
278.189	308.06
278.421	292.06
278.652	266.06
278.884	265.06
279.115	265.06
279.347	277.06
279.579	272.06
279.81	281.06
280.042	282.06
280.273	276.06
280.505	265.06
280.736	274.06
280.968	256.06
281.199	270.06
281.431	272.06
281.662	269.06
281.894	264.06
282.125	260.06
282.356	292.06
282.588	313.06
282.819	334.06
283.051	264.06
283.282	266.06
283.513	269.06
283.745	273.06
283.976	273.06
284.207	282.06
284.439	270.06
284.67	270.06
284.901	272.06
285.132	262.06
285.364	274.06
285.595	278.06
285.826	289.06
286.057	279.06
286.288	278.06
286.52	280.06
286.751	289.06
286.982	277.06
287.213	293.06
287.444	283.06
287.675	278.06
287.906	296.06
288.138	295.06
288.369	305.06
288.6	299.06
288.831	292.06
289.062	293.06
289.293	278.06
289.524	273.06
289.755	283.06
289.986	273.06
290.217	279.06
290.448	285.06
290.679	293.06
290.91	278.06
291.141	280.06
291.371	278.06
291.602	289.06
291.833	280.06
292.064	286.06
292.295	281.06
292.526	279.06
292.757	298.06
292.987	274.06
293.218	287.06
293.449	270.06
293.68	283.06
293.91	287.06
294.141	279.06
294.372	294.06
294.603	283.06
294.833	277.06
295.064	283.06
295.295	286.06
295.525	261.06
295.756	308.06
295.987	305.06
296.217	316.06
296.448	325.06
296.679	302.06
296.909	291.06
297.14	292.06
297.37	292.06
297.601	287.06
297.831	281.06
298.062	294.06
298.292	286.06
298.523	290.06
298.753	280.06
298.984	292.06
299.214	304.06
299.445	295.06
299.675	317.06
299.905	290.06
300.136	296.06
300.366	298.06
300.597	290.06
300.827	293.06
301.057	323.06
301.288	332.06
301.518	323.06
301.748	320.06
301.979	313.06
302.209	322.06
302.439	329.06
302.669	315.06
302.9	314.06
303.13	289.06
303.36	317.06
303.59	339.06
303.82	327.06
304.051	318.06
304.281	322.06
304.511	321.06
304.741	326.06
304.971	313.06
305.201	314.06
305.431	315.06
305.661	329.06
305.891	324.06
306.121	298.06
306.352	312.06
306.582	321.06
306.812	310.06
307.042	327.06
307.272	314.06
307.502	324.06
307.731	327.06
307.961	299.06
308.191	354.06
308.421	332.06
308.651	328.06
308.881	308.06
309.111	340.06
309.341	342.06
309.571	353.06
309.8	364.06
310.03	387.06
310.26	376.06
310.49	388.06
310.72	386.06
310.949	411.06
311.179	409.06
311.409	394.06
311.639	380.06
311.868	383.06
312.098	382.06
312.328	366.06
312.557	438.06
312.787	422.06
313.017	418.06
313.246	385.06
313.476	376.06
313.706	380.06
313.935	385.06
314.165	396.06
314.394	424.06
314.624	401.06
314.853	390.06
315.083	381.06
315.312	367.06
315.542	360.06
315.771	356.06
316.001	367.06
316.23	364.06
316.46	367.06
316.689	374.06
316.919	377.06
317.148	403.06
317.377	383.06
317.607	360.06
317.836	387.06
318.065	374.06
318.295	383.06
318.524	361.06
318.753	381.06
318.983	383.06
319.212	374.06
319.441	391.06
319.67	396.06
319.9	367.06
320.129	384.06
320.358	382.06
320.587	376.06
320.816	393.06
321.046	406.06
321.275	400.06
321.504	401.06
321.733	408.06
321.962	411.06
322.191	428.06
322.42	447.06
322.649	465.06
322.878	476.06
323.108	493.06
323.337	514.06
323.566	556.06
323.795	579.06
324.024	650.06
324.253	817.06
324.482	1170.06
324.71	1814.06
324.939	2598.06
325.168	2265.06
325.397	1200.06
325.626	786.06
325.855	629.06
326.084	572.06
326.313	546.06
326.542	535.06
326.77	596.06
326.999	740.06
327.228	989.06
327.457	1582.06
327.686	1967.06
327.914	1356.06
328.143	843.06
328.372	742.06
328.6	702.06
328.829	648.06
329.058	666.06
329.287	669.06
329.515	619.06
329.744	572.06
329.972	582.06
330.201	592.06
330.43	633.06
330.658	648.06
330.887	701.06
331.115	652.06
331.344	568.06
331.572	522.06
331.801	518.06
332.03	523.06
332.258	472.06
332.486	463.06
332.715	468.06
332.943	449.06
333.172	456.06
333.4	469.06
333.629	459.06
333.857	464.06
334.085	489.06
334.314	511.06
334.542	536.06
334.771	554.06
334.999	505.06
335.227	487.06
335.455	450.06
335.684	449.06
335.912	418.06
336.14	428.06
336.369	423.06
336.597	445.06
336.825	438.06
337.053	421.06
337.281	423.06
337.51	419.06
337.738	425.06
337.966	421.06
338.194	411.06
338.422	432.06
338.65	411.06
338.878	412.06
339.106	403.06
339.334	417.06
339.562	414.06
339.79	436.06
340.018	410.06
340.246	434.06
340.474	441.06
340.702	416.06
340.93	433.06
341.158	421.06
341.386	408.06
341.614	428.06
341.842	419.06
342.07	396.06
342.298	423.06
342.526	384.06
342.754	405.06
342.981	415.06
343.209	383.06
343.437	424.06
343.665	422.06
343.893	403.06
344.12	398.06
344.348	414.06
344.576	425.06
344.804	431.06
345.031	445.06
345.259	450.06
345.487	429.06
345.714	440.06
345.942	411.06
346.17	422.06
346.397	421.06
346.625	407.06
346.853	391.06
347.08	380.06
347.308	410.06
347.535	425.06
347.763	430.06
347.99	425.06
348.218	425.06
348.445	420.06
348.673	432.06
348.9	413.06
349.128	402.06
349.355	399.06
349.583	395.06
349.81	384.06
350.037	392.06
350.265	390.06
350.492	399.06
350.72	412.06
350.947	408.06
351.174	410.06
351.402	438.06
351.629	415.06
351.856	431.06
352.083	428.06
352.311	428.06
352.538	423.06
352.765	449.06
352.992	415.06
353.22	403.06
353.447	409.06
353.674	400.06
353.901	374.06
354.128	365.06
354.355	380.06
354.583	388.06
354.81	372.06
355.037	386.06
355.264	370.06
355.491	377.06
355.718	355.06
355.945	370.06
356.172	383.06
356.399	369.06
356.626	374.06
356.853	366.06
357.08	370.06
357.307	375.06
357.534	376.06
357.761	373.06
357.988	374.06
358.215	378.06
358.441	370.06
358.668	373.06
358.895	374.06
359.122	381.06
359.349	388.06
359.576	397.06
359.802	445.06
360.029	483.06
360.256	487.06
360.483	462.06
360.709	427.06
360.936	418.06
361.163	415.06
361.39	428.06
361.616	426.06
361.843	402.06
362.07	417.06
362.296	408.06
362.523	423.06
362.749	398.06
362.976	376.06
363.203	402.06
363.429	385.06
363.656	374.06
363.882	388.06
364.109	402.06
364.335	396.06
364.562	384.06
364.788	375.06
365.015	378.06
365.241	391.06
365.468	409.06
365.694	392.06
365.92	409.06
366.147	403.06
366.373	381.06
366.599	384.06
366.826	388.06
367.052	367.06
367.278	378.06
367.505	377.06
367.731	402.06
367.957	375.06
368.184	389.06
368.41	388.06
368.636	417.06
368.862	406.06
369.089	388.06
369.315	386.06
369.541	389.06
369.767	374.06
369.993	382.06
370.219	369.06
370.445	384.06
370.672	365.06
370.898	382.06
371.124	382.06
371.35	361.06
371.576	362.06
371.802	363.06
372.028	374.06
372.254	365.06
372.48	369.06
372.706	381.06
372.932	384.06
373.158	348.06
373.384	363.06
373.61	359.06
373.835	380.06
374.061	373.06
374.287	384.06
374.513	380.06
374.739	393.06
374.965	383.06
375.191	381.06
375.416	374.06
375.642	388.06
375.868	380.06
376.094	376.06
376.319	368.06
376.545	359.06
376.771	341.06
376.997	357.06
377.222	352.06
377.448	359.06
377.674	375.06
377.899	365.06
378.125	360.06
378.35	380.06
378.576	333.06
378.802	360.06
379.027	375.06
379.253	384.06
379.478	360.06
379.704	363.06
379.929	364.06
380.155	381.06
380.38	384.06
380.606	368.06
380.831	362.06
381.057	381.06
381.282	356.06
381.507	349.06
381.733	361.06
381.958	368.06
382.184	369.06
382.409	355.06
382.634	367.06
382.86	356.06
383.085	378.06
383.31	370.06
383.535	390.06
383.761	374.06
383.986	389.06
384.211	364.06
384.436	376.06
384.662	381.06
384.887	372.06
385.112	382.06
385.337	389.06
385.562	371.06
385.787	388.06
386.013	388.06
386.238	394.06
386.463	402.06
386.688	402.06
386.913	389.06
387.138	387.06
387.363	386.06
387.588	386.06
387.813	388.06
388.038	377.06
388.263	392.06
388.488	384.06
388.713	391.06
388.938	395.06
389.163	398.06
389.387	409.06
389.612	385.06
389.837	383.06
390.062	388.06
390.287	390.06
390.512	380.06
390.736	402.06
390.961	385.06
391.186	375.06
391.411	372.06
391.636	392.06
391.86	390.06
392.085	393.06
392.31	410.06
392.534	393.06
392.759	381.06
392.984	381.06
393.208	403.06
393.433	397.06
393.658	386.06
393.882	384.06
394.107	389.06
394.331	396.06
394.556	365.06
394.78	396.06
395.005	384.06
395.229	414.06
395.454	421.06
395.678	389.06
395.903	414.06
396.127	437.06
396.352	445.06
396.576	412.06
396.801	393.06
397.025	404.06
397.249	410.06
397.474	405.06
397.698	396.06
397.922	428.06
398.147	445.06
398.371	441.06
398.595	415.06
398.82	442.06
399.044	444.06
399.268	438.06
399.492	461.06
399.717	469.06
399.941	525.06
400.165	522.06
400.389	544.06
400.613	512.06
400.837	474.06
401.062	461.06
401.286	449.06
401.51	458.06
401.734	452.06
401.958	452.06
402.182	448.06
402.406	474.06
402.63	457.06
402.854	450.06
403.078	437.06
403.302	451.06
403.526	457.06
403.75	478.06
403.974	460.06
404.198	465.06
404.422	458.06
404.645	487.06
404.869	508.06
405.093	500.06
405.317	562.06
405.541	570.06
405.765	535.06
405.988	502.06
406.212	502.06
406.436	543.06
406.66	550.06
406.883	519.06
407.107	553.06
407.331	571.06
407.555	637.06
407.778	623.06
408.002	549.06
408.226	542.06
408.449	526.06
408.673	510.06
408.896	543.06
409.12	584.06
409.344	556.06
409.567	510.06
409.791	480.06
410.014	470.06
410.238	478.06
410.461	475.06
410.685	466.06
410.908	511.06
411.132	528.06
411.355	587.06
411.578	544.06
411.802	483.06
412.025	458.06
412.249	466.06
412.472	492.06
412.695	563.06
412.919	519.06
413.142	487.06
413.365	472.06
413.589	456.06
413.812	448.06
414.035	447.06
414.258	455.06
414.482	448.06
414.705	448.06
414.928	438.06
415.151	432.06
415.374	443.06
415.597	446.06
415.821	436.06
416.044	439.06
416.267	431.06
416.49	437.06
416.713	422.06
416.936	416.06
417.159	449.06
417.382	460.06
417.605	448.06
417.828	450.06
418.051	493.06
418.274	461.06
418.497	455.06
418.72	477.06
418.943	440.06
419.166	476.06
419.389	483.06
419.611	472.06
419.834	482.06
420.057	470.06
420.28	461.06
420.503	480.06
420.726	468.06
420.948	518.06
421.171	524.06
421.394	550.06
421.617	516.06
421.839	493.06
422.062	458.06
422.285	507.06
422.507	545.06
422.73	632.06
422.953	576.06
423.175	527.06
423.398	525.06
423.621	506.06
423.843	537.06
424.066	520.06
424.288	525.06
424.511	508.06
424.733	587.06
424.956	698.06
425.178	655.06
425.401	654.06
425.623	676.06
425.846	578.06
426.068	544.06
426.291	530.06
426.513	536.06
426.735	518.06
426.958	591.06
427.18	652.06
427.402	770.06
427.625	856.06
427.847	803.06
428.069	657.06
428.292	592.06
428.514	568.06
428.736	510.06
428.958	495.06
429.181	478.06
429.403	477.06
429.625	497.06
429.847	542.06
430.069	596.06
430.292	615.06
430.514	509.06
430.736	490.06
430.958	495.06
431.18	455.06
431.402	447.06
431.624	444.06
431.846	430.06
432.068	438.06
432.29	454.06
432.512	462.06
432.734	471.06
432.956	442.06
433.178	464.06
433.4	487.06
433.622	448.06
433.844	461.06
434.066	452.06
434.287	457.06
434.509	454.06
434.731	457.06
434.953	448.06
435.175	493.06
435.397	528.06
435.618	537.06
435.84	575.06
436.062	690.06
436.284	726.06
436.505	636.06
436.727	550.06
436.949	518.06
437.17	486.06
437.392	490.06
437.614	496.06
437.835	550.06
438.057	654.06
438.278	780.06
438.5	744.06
438.721	802.06
438.943	785.06
439.165	609.06
439.386	582.06
439.608	542.06
439.829	562.06
440.05	612.06
440.272	610.06
440.493	583.06
440.715	548.06
440.936	534.06
441.158	515.06
441.379	516.06
441.6	505.06
441.822	523.06
442.043	576.06
442.264	670.06
442.486	703.06
442.707	590.06
442.928	554.06
443.149	556.06
443.371	568.06
443.592	625.06
443.813	724.06
444.034	765.06
444.255	640.06
444.476	564.06
444.698	564.06
444.919	535.06
445.14	609.06
445.361	597.06
445.582	574.06
445.803	642.06
446.024	779.06
446.245	766.06
446.466	725.06
446.687	595.06
446.908	541.06
447.129	515.06
447.35	510.06
447.571	501.06
447.792	486.06
448.013	509.06
448.234	523.06
448.455	549.06
448.675	674.06
448.896	783.06
449.117	675.06
449.338	645.06
449.559	731.06
449.779	824.06
450	658.06
450.221	545.06
450.442	540.06
450.662	494.06
450.883	501.06
451.104	515.06
451.324	512.06
451.545	481.06
451.766	471.06
451.986	444.06
452.207	443.06
452.428	436.06
452.648	441.06
452.869	446.06
453.089	465.06
453.31	490.06
453.53	469.06
453.751	448.06
453.971	462.06
454.192	491.06
454.412	463.06
454.633	464.06
454.853	439.06
455.073	445.06
455.294	485.06
455.514	549.06
455.734	541.06
455.955	467.06
456.175	444.06
456.395	429.06
456.616	394.06
456.836	388.06
457.056	423.06
457.276	408.06
457.497	402.06
457.717	409.06
457.937	408.06
458.157	438.06
458.377	431.06
458.598	456.06
458.818	534.06
459.038	617.06
459.258	641.06
459.478	526.06
459.698	468.06
459.918	448.06
460.138	449.06
460.358	455.06
460.578	448.06
460.798	442.06
461.018	441.06
461.238	452.06
461.458	456.06
461.678	420.06
461.898	446.06
462.118	444.06
462.338	441.06
462.558	438.06
462.777	442.06
462.997	443.06
463.217	461.06
463.437	454.06
463.657	460.06
463.876	456.06
464.096	475.06
464.316	461.06
464.536	464.06
464.755	474.06
464.975	486.06
465.195	565.06
465.414	644.06
465.634	546.06
465.854	493.06
466.073	485.06
466.293	468.06
466.512	441.06
466.732	440.06
466.951	432.06
467.171	440.06
467.391	453.06
467.61	463.06
467.829	467.06
468.049	456.06
468.268	450.06
468.488	451.06
468.707	441.06
468.927	438.06
469.146	446.06
469.365	419.06
469.585	450.06
469.804	440.06
470.023	460.06
470.243	447.06
470.462	458.06
470.681	503.06
470.901	461.06
471.12	460.06
471.339	448.06
471.558	462.06
471.777	457.06
471.997	468.06
472.216	496.06
472.435	511.06
472.654	475.06
472.873	470.06
473.092	454.06
473.311	450.06
473.53	450.06
473.749	442.06
473.968	509.06
474.187	607.06
474.406	653.06
474.625	531.06
474.844	474.06
475.063	475.06
475.282	469.06
475.501	452.06
475.72	469.06
475.939	452.06
476.158	457.06
476.377	468.06
476.596	463.06
476.814	468.06
477.033	497.06
477.252	479.06
477.471	474.06
477.69	469.06
477.908	476.06
478.127	482.06
478.346	491.06
478.564	501.06
478.783	487.06
479.002	493.06
479.22	510.06
479.439	490.06
479.658	566.06
479.876	548.06
480.095	550.06
480.313	568.06
480.532	591.06
480.751	561.06
480.969	546.06
481.188	643.06
481.406	711.06
481.624	604.06
481.843	558.06
482.061	571.06
482.28	570.06
482.498	531.06
482.717	526.06
482.935	557.06
483.153	527.06
483.372	544.06
483.59	542.06
483.808	521.06
484.027	539.06
484.245	537.06
484.463	551.06
484.681	558.06
484.9	543.06
485.118	532.06
485.336	552.06
485.554	560.06
485.772	537.06
485.99	576.06
486.209	554.06
486.427	576.06
486.645	564.06
486.863	600.06
487.081	605.06
487.299	576.06
487.517	586.06
487.735	606.06
487.953	599.06
488.171	585.06
488.389	594.06
488.607	588.06
488.825	590.06
489.043	587.06
489.261	590.06
489.479	615.06
489.696	588.06
489.914	591.06
490.132	600.06
490.35	614.06
490.568	599.06
490.786	616.06
491.003	653.06
491.221	664.06
491.439	656.06
491.657	662.06
491.874	677.06
492.092	669.06
492.31	675.06
492.527	674.06
492.745	657.06
492.963	682.06
493.18	692.06
493.398	694.06
493.615	695.06
493.833	692.06
494.05	714.06
494.268	701.06
494.485	694.06
494.703	689.06
494.92	681.06
495.138	692.06
495.355	689.06
495.573	711.06
495.79	708.06
496.008	713.06
496.225	681.06
496.442	671.06
496.66	687.06
496.877	704.06
497.094	712.06
497.312	713.06
497.529	715.06
497.746	707.06
497.963	737.06
498.181	750.06
498.398	760.06
498.615	729.06
498.832	728.06
499.049	736.06
499.267	746.06
499.484	744.06
499.701	776.06
499.918	789.06
500.135	806.06
500.352	816.06
500.569	844.06
500.786	832.06
501.003	806.06
501.22	840.06
501.437	805.06
501.654	808.06
501.871	816.06
502.088	815.06
