Data from 1980.PennyLincolnUp.Lamp.En5.5.200Scan.071819.P1_HRD10591_16-37-29-957.txt Node
Date: Thu Jul 18 16:37:29 EDT 2019
User: cochatt
Spectrometer: HR+D1059
Trigger mode: 1
Integration Time (sec): 1.000000E-1
Scans to average: 1
Electric dark correction enabled: true
Nonlinearity correction enabled: false
Boxcar width: 0
XAxis mode: Wavelengths
Number of Pixels in Spectrum: 2048
>>>>>Begin Spectral Data<<<<<
223.165	-9.94
223.4	-9.94
223.635	-9.94
223.869	-10.94
224.104	-22.94
224.338	-10.94
224.573	-25.94
224.808	-28.94
225.042	-9.94
225.277	-8.94
225.511	1.06
225.746	9.06
225.98	9.06
226.215	5.06
226.449	24.06
226.683	14.06
226.918	31.06
227.152	35.06
227.387	33.06
227.621	33.06
227.856	41.06
228.09	35.06
228.324	43.06
228.559	52.06
228.793	73.06
229.027	93.06
229.262	102.06
229.496	118.06
229.73	145.06
229.964	171.06
230.199	136.06
230.433	121.06
230.667	114.06
230.901	120.06
231.136	118.06
231.37	115.06
231.604	113.06
231.838	104.06
232.072	90.06
232.306	106.06
232.541	114.06
232.775	115.06
233.009	107.06
233.243	123.06
233.477	118.06
233.711	112.06
233.945	123.06
234.179	111.06
234.413	124.06
234.647	117.06
234.881	115.06
235.115	113.06
235.349	122.06
235.583	126.06
235.817	106.06
236.051	122.06
236.285	124.06
236.519	117.06
236.753	127.06
236.987	144.06
237.221	184.06
237.455	256.06
237.689	204.06
237.922	149.06
238.156	135.06
238.39	140.06
238.624	124.06
238.858	134.06
239.091	114.06
239.325	115.06
239.559	148.06
239.793	141.06
240.027	143.06
240.26	146.06
240.494	164.06
240.728	165.06
240.961	152.06
241.195	151.06
241.429	156.06
241.662	135.06
241.896	119.06
242.13	136.06
242.363	118.06
242.597	124.06
242.83	123.06
243.064	154.06
243.298	146.06
243.531	130.06
243.765	146.06
243.998	148.06
244.232	135.06
244.465	134.06
244.699	125.06
244.932	138.06
245.166	150.06
245.399	155.06
245.633	138.06
245.866	142.06
246.099	139.06
246.333	151.06
246.566	160.06
246.8	160.06
247.033	137.06
247.266	154.06
247.5	157.06
247.733	161.06
247.966	186.06
248.2	174.06
248.433	181.06
248.666	169.06
248.899	188.06
249.133	197.06
249.366	233.06
249.599	198.06
249.832	182.06
250.066	179.06
250.299	178.06
250.532	197.06
250.765	207.06
250.998	220.06
251.231	231.06
251.465	219.06
251.698	215.06
251.931	206.06
252.164	200.06
252.397	195.06
252.63	207.06
252.863	207.06
253.096	228.06
253.329	232.06
253.562	226.06
253.795	235.06
254.028	224.06
254.261	225.06
254.494	227.06
254.727	268.06
254.96	296.06
255.193	271.06
255.426	260.06
255.659	242.06
255.892	237.06
256.124	232.06
256.357	246.06
256.59	216.06
256.823	218.06
257.056	230.06
257.289	201.06
257.521	204.06
257.754	197.06
257.987	218.06
258.22	227.06
258.452	200.06
258.685	209.06
258.918	201.06
259.151	218.06
259.383	218.06
259.616	211.06
259.849	225.06
260.081	244.06
260.314	248.06
260.547	261.06
260.779	259.06
261.012	245.06
261.244	230.06
261.477	227.06
261.71	226.06
261.942	229.06
262.175	227.06
262.407	214.06
262.64	215.06
262.872	217.06
263.105	201.06
263.337	227.06
263.57	216.06
263.802	218.06
264.035	211.06
264.267	221.06
264.499	207.06
264.732	213.06
264.964	204.06
265.197	195.06
265.429	211.06
265.661	213.06
265.894	225.06
266.126	201.06
266.358	203.06
266.591	203.06
266.823	209.06
267.055	224.06
267.287	221.06
267.52	225.06
267.752	223.06
267.984	224.06
268.216	221.06
268.448	234.06
268.681	258.06
268.913	239.06
269.145	254.06
269.377	262.06
269.609	272.06
269.841	286.06
270.073	259.06
270.306	299.06
270.538	314.06
270.77	320.06
271.002	308.06
271.234	295.06
271.466	294.06
271.698	309.06
271.93	321.06
272.162	319.06
272.394	308.06
272.626	314.06
272.858	308.06
273.09	274.06
273.322	281.06
273.553	269.06
273.785	262.06
274.017	281.06
274.249	254.06
274.481	260.06
274.713	247.06
274.945	252.06
275.176	261.06
275.408	254.06
275.64	248.06
275.872	267.06
276.104	270.06
276.335	258.06
276.567	262.06
276.799	286.06
277.031	314.06
277.262	313.06
277.494	308.06
277.726	298.06
277.957	284.06
278.189	271.06
278.421	251.06
278.652	266.06
278.884	245.06
279.115	256.06
279.347	264.06
279.579	252.06
279.81	247.06
280.042	251.06
280.273	250.06
280.505	267.06
280.736	250.06
280.968	252.06
281.199	248.06
281.431	234.06
281.662	261.06
281.894	268.06
282.125	272.06
282.356	262.06
282.588	297.06
282.819	285.06
283.051	266.06
283.282	268.06
283.513	250.06
283.745	255.06
283.976	259.06
284.207	276.06
284.439	265.06
284.67	264.06
284.901	267.06
285.132	245.06
285.364	270.06
285.595	243.06
285.826	247.06
286.057	262.06
286.288	243.06
286.52	245.06
286.751	273.06
286.982	251.06
287.213	265.06
287.444	259.06
287.675	249.06
287.906	275.06
288.138	284.06
288.369	294.06
288.6	279.06
288.831	268.06
289.062	277.06
289.293	284.06
289.524	260.06
289.755	283.06
289.986	263.06
290.217	268.06
290.448	258.06
290.679	260.06
290.91	279.06
291.141	248.06
291.371	272.06
291.602	243.06
291.833	250.06
292.064	250.06
292.295	258.06
292.526	241.06
292.757	264.06
292.987	263.06
293.218	274.06
293.449	269.06
293.68	275.06
293.91	264.06
294.141	265.06
294.372	269.06
294.603	265.06
294.833	271.06
295.064	246.06
295.295	263.06
295.525	270.06
295.756	273.06
295.987	282.06
296.217	295.06
296.448	297.06
296.679	276.06
296.909	279.06
297.14	261.06
297.37	290.06
297.601	282.06
297.831	276.06
298.062	275.06
298.292	267.06
298.523	262.06
298.753	259.06
298.984	261.06
299.214	286.06
299.445	273.06
299.675	266.06
299.905	291.06
300.136	292.06
300.366	291.06
300.597	269.06
300.827	288.06
301.057	292.06
301.288	295.06
301.518	292.06
301.748	298.06
301.979	292.06
302.209	301.06
302.439	309.06
302.669	298.06
302.9	314.06
303.13	293.06
303.36	280.06
303.59	298.06
303.82	314.06
304.051	329.06
304.281	280.06
304.511	290.06
304.741	297.06
304.971	307.06
305.201	301.06
305.431	293.06
305.661	301.06
305.891	295.06
306.121	305.06
306.352	306.06
306.582	305.06
306.812	299.06
307.042	290.06
307.272	289.06
307.502	289.06
307.731	294.06
307.961	290.06
308.191	269.06
308.421	306.06
308.651	319.06
308.881	310.06
309.111	292.06
309.341	322.06
309.571	332.06
309.8	347.06
310.03	355.06
310.26	358.06
310.49	337.06
310.72	384.06
310.949	407.06
311.179	395.06
311.409	347.06
311.639	348.06
311.868	345.06
312.098	349.06
312.328	354.06
312.557	368.06
312.787	390.06
313.017	386.06
313.246	383.06
313.476	346.06
313.706	348.06
313.935	353.06
314.165	377.06
314.394	397.06
314.624	386.06
314.853	351.06
315.083	361.06
315.312	340.06
315.542	357.06
315.771	360.06
316.001	340.06
316.23	357.06
316.46	349.06
316.689	333.06
316.919	353.06
317.148	379.06
317.377	362.06
317.607	371.06
317.836	339.06
318.065	368.06
318.295	346.06
318.524	344.06
318.753	350.06
318.983	352.06
319.212	359.06
319.441	349.06
319.67	362.06
319.9	355.06
320.129	370.06
320.358	372.06
320.587	354.06
320.816	368.06
321.046	377.06
321.275	365.06
321.504	366.06
321.733	387.06
321.962	390.06
322.191	408.06
322.42	425.06
322.649	428.06
322.878	436.06
323.108	468.06
323.337	477.06
323.566	501.06
323.795	575.06
324.024	601.06
324.253	730.06
324.482	1054.06
324.71	1635.06
324.939	2356.06
325.168	2120.06
325.397	1100.06
325.626	709.06
325.855	580.06
326.084	522.06
326.313	526.06
326.542	514.06
326.77	565.06
326.999	669.06
327.228	944.06
327.457	1445.06
327.686	1836.06
327.914	1214.06
328.143	792.06
328.372	703.06
328.6	624.06
328.829	610.06
329.058	594.06
329.287	632.06
329.515	566.06
329.744	540.06
329.972	488.06
330.201	521.06
330.43	588.06
330.658	609.06
330.887	655.06
331.115	647.06
331.344	517.06
331.572	502.06
331.801	485.06
332.03	474.06
332.258	441.06
332.486	426.06
332.715	422.06
332.943	417.06
333.172	416.06
333.4	406.06
333.629	439.06
333.857	438.06
334.085	456.06
334.314	448.06
334.542	491.06
334.771	506.06
334.999	450.06
335.227	442.06
335.455	441.06
335.684	395.06
335.912	393.06
336.14	378.06
336.369	399.06
336.597	422.06
336.825	420.06
337.053	407.06
337.281	380.06
337.51	405.06
337.738	400.06
337.966	390.06
338.194	410.06
338.422	404.06
338.65	409.06
338.878	369.06
339.106	381.06
339.334	383.06
339.562	379.06
339.79	378.06
340.018	382.06
340.246	377.06
340.474	388.06
340.702	401.06
340.93	390.06
341.158	384.06
341.386	393.06
341.614	413.06
341.842	387.06
342.07	397.06
342.298	382.06
342.526	379.06
342.754	349.06
342.981	356.06
343.209	358.06
343.437	372.06
343.665	376.06
343.893	377.06
344.12	389.06
344.348	368.06
344.576	373.06
344.804	390.06
345.031	397.06
345.259	416.06
345.487	408.06
345.714	395.06
345.942	388.06
346.17	379.06
346.397	374.06
346.625	374.06
346.853	385.06
347.08	387.06
347.308	392.06
347.535	377.06
347.763	383.06
347.99	421.06
348.218	390.06
348.445	404.06
348.673	422.06
348.9	403.06
349.128	372.06
349.355	377.06
349.583	378.06
349.81	374.06
350.037	360.06
350.265	380.06
350.492	371.06
350.72	382.06
350.947	376.06
351.174	396.06
351.402	398.06
351.629	385.06
351.856	393.06
352.083	396.06
352.311	397.06
352.538	398.06
352.765	418.06
352.992	421.06
353.22	393.06
353.447	393.06
353.674	378.06
353.901	368.06
354.128	368.06
354.355	361.06
354.583	352.06
354.81	359.06
355.037	352.06
355.264	362.06
355.491	355.06
355.718	357.06
355.945	353.06
356.172	343.06
356.399	332.06
356.626	336.06
356.853	342.06
357.08	343.06
357.307	339.06
357.534	349.06
357.761	372.06
357.988	337.06
358.215	360.06
358.441	343.06
358.668	352.06
358.895	337.06
359.122	374.06
359.349	361.06
359.576	410.06
359.802	406.06
360.029	426.06
360.256	444.06
360.483	430.06
360.709	388.06
360.936	393.06
361.163	392.06
361.39	394.06
361.616	386.06
361.843	394.06
362.07	385.06
362.296	397.06
362.523	391.06
362.749	374.06
362.976	382.06
363.203	370.06
363.429	375.06
363.656	370.06
363.882	368.06
364.109	366.06
364.335	360.06
364.562	355.06
364.788	368.06
365.015	358.06
365.241	360.06
365.468	373.06
365.694	380.06
365.92	379.06
366.147	387.06
366.373	375.06
366.599	351.06
366.826	379.06
367.052	348.06
367.278	368.06
367.505	364.06
367.731	370.06
367.957	348.06
368.184	353.06
368.41	378.06
368.636	378.06
368.862	355.06
369.089	382.06
369.315	362.06
369.541	358.06
369.767	361.06
369.993	370.06
370.219	357.06
370.445	350.06
370.672	365.06
370.898	346.06
371.124	331.06
371.35	342.06
371.576	345.06
371.802	355.06
372.028	347.06
372.254	341.06
372.48	339.06
372.706	356.06
372.932	326.06
373.158	340.06
373.384	355.06
373.61	344.06
373.835	364.06
374.061	358.06
374.287	354.06
374.513	345.06
374.739	361.06
374.965	361.06
375.191	354.06
375.416	353.06
375.642	331.06
375.868	352.06
376.094	343.06
376.319	331.06
376.545	345.06
376.771	321.06
376.997	350.06
377.222	336.06
377.448	350.06
377.674	369.06
377.899	339.06
378.125	339.06
378.35	353.06
378.576	328.06
378.802	343.06
379.027	333.06
379.253	345.06
379.478	351.06
379.704	342.06
379.929	345.06
380.155	331.06
380.38	332.06
380.606	348.06
380.831	334.06
381.057	350.06
381.282	352.06
381.507	361.06
381.733	355.06
381.958	332.06
382.184	361.06
382.409	357.06
382.634	354.06
382.86	370.06
383.085	344.06
383.31	359.06
383.535	345.06
383.761	365.06
383.986	345.06
384.211	354.06
384.436	362.06
384.662	346.06
384.887	365.06
385.112	356.06
385.337	357.06
385.562	376.06
385.787	359.06
386.013	384.06
386.238	394.06
386.463	364.06
386.688	370.06
386.913	361.06
387.138	368.06
387.363	364.06
387.588	374.06
387.813	376.06
388.038	368.06
388.263	364.06
388.488	370.06
388.713	372.06
388.938	375.06
389.163	359.06
389.387	377.06
389.612	362.06
389.837	353.06
390.062	369.06
390.287	363.06
390.512	368.06
390.736	347.06
390.961	374.06
391.186	370.06
391.411	357.06
391.636	349.06
391.86	360.06
392.085	363.06
392.31	383.06
392.534	384.06
392.759	354.06
392.984	370.06
393.208	362.06
393.433	362.06
393.658	371.06
393.882	360.06
394.107	388.06
394.331	380.06
394.556	363.06
394.78	372.06
395.005	356.06
395.229	371.06
395.454	363.06
395.678	386.06
395.903	398.06
396.127	403.06
396.352	412.06
396.576	378.06
396.801	399.06
397.025	379.06
397.249	386.06
397.474	404.06
397.698	400.06
397.922	401.06
398.147	397.06
398.371	423.06
398.595	408.06
398.82	412.06
399.044	392.06
399.268	398.06
399.492	437.06
399.717	459.06
399.941	471.06
400.165	514.06
400.389	514.06
400.613	468.06
400.837	419.06
401.062	422.06
401.286	414.06
401.51	421.06
401.734	418.06
401.958	415.06
402.182	435.06
402.406	435.06
402.63	438.06
402.854	437.06
403.078	418.06
403.302	448.06
403.526	448.06
403.75	457.06
403.974	434.06
404.198	414.06
404.422	415.06
404.645	443.06
404.869	439.06
405.093	481.06
405.317	494.06
405.541	528.06
405.765	505.06
405.988	468.06
406.212	493.06
406.436	483.06
406.66	520.06
406.883	485.06
407.107	510.06
407.331	526.06
407.555	597.06
407.778	609.06
408.002	547.06
408.226	493.06
408.449	469.06
408.673	473.06
408.896	528.06
409.12	539.06
409.344	517.06
409.567	481.06
409.791	444.06
410.014	467.06
410.238	449.06
410.461	426.06
410.685	450.06
410.908	464.06
411.132	498.06
411.355	520.06
411.578	504.06
411.802	461.06
412.025	467.06
412.249	444.06
412.472	494.06
412.695	498.06
412.919	498.06
413.142	456.06
413.365	434.06
413.589	430.06
413.812	426.06
414.035	388.06
414.258	408.06
414.482	408.06
414.705	391.06
414.928	411.06
415.151	425.06
415.374	414.06
415.597	402.06
415.821	418.06
416.044	403.06
416.267	417.06
416.49	408.06
416.713	409.06
416.936	418.06
417.159	413.06
417.382	426.06
417.605	425.06
417.828	417.06
418.051	410.06
418.274	433.06
418.497	428.06
418.72	408.06
418.943	414.06
419.166	428.06
419.389	449.06
419.611	455.06
419.834	434.06
420.057	468.06
420.28	437.06
420.503	454.06
420.726	452.06
420.948	473.06
421.171	518.06
421.394	546.06
421.617	470.06
421.839	448.06
422.062	451.06
422.285	471.06
422.507	492.06
422.73	582.06
422.953	558.06
423.175	500.06
423.398	462.06
423.621	482.06
423.843	514.06
424.066	481.06
424.288	463.06
424.511	506.06
424.733	568.06
424.956	629.06
425.178	626.06
425.401	620.06
425.623	632.06
425.846	533.06
426.068	501.06
426.291	496.06
426.513	481.06
426.735	500.06
426.958	546.06
427.18	648.06
427.402	736.06
427.625	795.06
427.847	762.06
428.069	650.06
428.292	557.06
428.514	514.06
428.736	501.06
428.958	492.06
429.181	486.06
429.403	467.06
429.625	477.06
429.847	510.06
430.069	548.06
430.292	564.06
430.514	499.06
430.736	473.06
430.958	461.06
431.18	433.06
431.402	433.06
431.624	435.06
431.846	427.06
432.068	400.06
432.29	433.06
432.512	434.06
432.734	441.06
432.956	449.06
433.178	436.06
433.4	451.06
433.622	452.06
433.844	443.06
434.066	422.06
434.287	402.06
434.509	422.06
434.731	440.06
434.953	444.06
435.175	435.06
435.397	484.06
435.618	516.06
435.84	534.06
436.062	634.06
436.284	705.06
436.505	571.06
436.727	525.06
436.949	462.06
437.17	452.06
437.392	476.06
437.614	458.06
437.835	524.06
438.057	628.06
438.278	720.06
438.5	710.06
438.721	753.06
438.943	697.06
439.165	603.06
439.386	554.06
439.608	539.06
439.829	526.06
440.05	548.06
440.272	582.06
440.493	565.06
440.715	516.06
440.936	509.06
441.158	468.06
441.379	458.06
441.6	463.06
441.822	485.06
442.043	523.06
442.264	590.06
442.486	673.06
442.707	563.06
442.928	530.06
443.149	533.06
443.371	547.06
443.592	577.06
443.813	654.06
444.034	726.06
444.255	595.06
444.476	531.06
444.698	515.06
444.919	493.06
445.14	626.06
445.361	573.06
445.582	555.06
445.803	620.06
446.024	698.06
446.245	736.06
446.466	644.06
446.687	550.06
446.908	503.06
447.129	468.06
447.35	462.06
447.571	478.06
447.792	457.06
448.013	479.06
448.234	525.06
448.455	532.06
448.675	650.06
448.896	746.06
449.117	637.06
449.338	605.06
449.559	676.06
449.779	794.06
450	653.06
450.221	543.06
450.442	458.06
450.662	462.06
450.883	461.06
451.104	494.06
451.324	469.06
451.545	444.06
451.766	452.06
451.986	437.06
452.207	423.06
452.428	420.06
452.648	442.06
452.869	428.06
453.089	427.06
453.31	443.06
453.53	427.06
453.751	433.06
453.971	424.06
454.192	430.06
454.412	449.06
454.633	434.06
454.853	419.06
455.073	406.06
455.294	463.06
455.514	515.06
455.734	481.06
455.955	415.06
456.175	395.06
456.395	389.06
456.616	401.06
456.836	390.06
457.056	380.06
457.276	386.06
457.497	397.06
457.717	390.06
457.937	399.06
458.157	381.06
458.377	393.06
458.598	436.06
458.818	514.06
459.038	605.06
459.258	622.06
459.478	490.06
459.698	418.06
459.918	435.06
460.138	416.06
460.358	410.06
460.578	412.06
460.798	440.06
461.018	428.06
461.238	415.06
461.458	391.06
461.678	420.06
461.898	444.06
462.118	423.06
462.338	421.06
462.558	419.06
462.777	436.06
462.997	424.06
463.217	434.06
463.437	444.06
463.657	427.06
463.876	420.06
464.096	419.06
464.316	398.06
464.536	434.06
464.755	441.06
464.975	461.06
465.195	516.06
465.414	616.06
465.634	514.06
465.854	469.06
466.073	440.06
466.293	434.06
466.512	433.06
466.732	395.06
466.951	416.06
467.171	410.06
467.391	431.06
467.61	429.06
467.829	453.06
468.049	433.06
468.268	431.06
468.488	406.06
468.707	410.06
468.927	408.06
469.146	399.06
469.365	406.06
469.585	413.06
469.804	407.06
470.023	437.06
470.243	448.06
470.462	422.06
470.681	462.06
470.901	439.06
471.12	421.06
471.339	406.06
471.558	428.06
471.777	416.06
471.997	403.06
472.216	429.06
472.435	469.06
472.654	452.06
472.873	432.06
473.092	426.06
473.311	425.06
473.53	438.06
473.749	449.06
473.968	480.06
474.187	574.06
474.406	603.06
474.625	507.06
474.844	454.06
475.063	425.06
475.282	411.06
475.501	443.06
475.72	441.06
475.939	443.06
476.158	438.06
476.377	445.06
476.596	433.06
476.814	441.06
477.033	436.06
477.252	454.06
477.471	456.06
477.69	451.06
477.908	451.06
478.127	468.06
478.346	474.06
478.564	468.06
478.783	478.06
479.002	465.06
479.22	483.06
479.439	480.06
479.658	512.06
479.876	516.06
480.095	525.06
480.313	562.06
480.532	542.06
480.751	518.06
480.969	545.06
481.188	602.06
481.406	645.06
481.624	544.06
481.843	525.06
482.061	531.06
482.28	507.06
482.498	502.06
482.717	516.06
482.935	544.06
483.153	487.06
483.372	488.06
483.59	504.06
483.808	492.06
484.027	514.06
484.245	502.06
484.463	503.06
484.681	546.06
484.9	521.06
485.118	504.06
485.336	525.06
485.554	521.06
485.772	515.06
485.99	530.06
486.209	522.06
486.427	536.06
486.645	558.06
486.863	577.06
487.081	582.06
487.299	536.06
487.517	564.06
487.735	536.06
487.953	566.06
488.171	551.06
488.389	546.06
488.607	561.06
488.825	562.06
489.043	562.06
489.261	556.06
489.479	565.06
489.696	561.06
489.914	558.06
490.132	583.06
490.35	593.06
490.568	564.06
490.786	584.06
491.003	587.06
491.221	609.06
491.439	630.06
491.657	611.06
491.874	616.06
492.092	627.06
492.31	642.06
492.527	650.06
492.745	662.06
492.963	638.06
493.18	632.06
493.398	662.06
493.615	651.06
493.833	674.06
494.05	676.06
494.268	641.06
494.485	639.06
494.703	646.06
494.92	640.06
495.138	636.06
495.355	652.06
495.573	677.06
495.79	662.06
496.008	678.06
496.225	662.06
496.442	658.06
496.66	652.06
496.877	632.06
497.094	649.06
497.312	654.06
497.529	673.06
497.746	695.06
497.963	669.06
498.181	693.06
498.398	682.06
498.615	704.06
498.832	688.06
499.049	702.06
499.267	734.06
499.484	723.06
499.701	725.06
499.918	728.06
500.135	748.06
500.352	776.06
500.569	806.06
500.786	793.06
501.003	794.06
501.22	776.06
501.437	764.06
501.654	790.06
501.871	777.06
502.088	766.06
