Data from 1980.PennyLincolnUp.Lamp.En5.5.200Scan.071819.P1_HRD10591_16-38-34-957.txt Node
Date: Thu Jul 18 16:38:34 EDT 2019
User: cochatt
Spectrometer: HR+D1059
Trigger mode: 1
Integration Time (sec): 1.000000E-1
Scans to average: 1
Electric dark correction enabled: true
Nonlinearity correction enabled: false
Boxcar width: 0
XAxis mode: Wavelengths
Number of Pixels in Spectrum: 2048
>>>>>Begin Spectral Data<<<<<
223.165	-18.88
223.4	-18.88
223.635	-18.88
223.869	-23.88
224.104	-17.88
224.338	-17.88
224.573	-9.88
224.808	-13.88
225.042	-18.88
225.277	1.12
225.511	1.12
225.746	15.12
225.98	11.12
226.215	11.12
226.449	4.12
226.683	17.12
226.918	31.12
227.152	29.12
227.387	39.12
227.621	32.12
227.856	51.12
228.09	51.12
228.324	51.12
228.559	72.12
228.793	64.12
229.027	106.12
229.262	122.12
229.496	125.12
229.73	135.12
229.964	158.12
230.199	149.12
230.433	117.12
230.667	119.12
230.901	118.12
231.136	110.12
231.37	125.12
231.604	114.12
231.838	130.12
232.072	122.12
232.306	131.12
232.541	118.12
232.775	126.12
233.009	106.12
233.243	121.12
233.477	111.12
233.711	121.12
233.945	104.12
234.179	115.12
234.413	126.12
234.647	135.12
234.881	127.12
235.115	117.12
235.349	131.12
235.583	135.12
235.817	130.12
236.051	130.12
236.285	133.12
236.519	119.12
236.753	138.12
236.987	151.12
237.221	190.12
237.455	246.12
237.689	219.12
237.922	140.12
238.156	149.12
238.39	139.12
238.624	123.12
238.858	129.12
239.091	123.12
239.325	126.12
239.559	128.12
239.793	143.12
240.027	137.12
240.26	149.12
240.494	165.12
240.728	153.12
240.961	148.12
241.195	148.12
241.429	153.12
241.662	144.12
241.896	139.12
242.13	137.12
242.363	137.12
242.597	133.12
242.83	134.12
243.064	115.12
243.298	132.12
243.531	138.12
243.765	142.12
243.998	151.12
244.232	153.12
244.465	156.12
244.699	136.12
244.932	147.12
245.166	148.12
245.399	142.12
245.633	154.12
245.866	144.12
246.099	142.12
246.333	133.12
246.566	147.12
246.8	137.12
247.033	140.12
247.266	170.12
247.5	148.12
247.733	161.12
247.966	184.12
248.2	179.12
248.433	196.12
248.666	189.12
248.899	193.12
249.133	199.12
249.366	229.12
249.599	218.12
249.832	198.12
250.066	199.12
250.299	180.12
250.532	192.12
250.765	193.12
250.998	232.12
251.231	245.12
251.465	230.12
251.698	203.12
251.931	206.12
252.164	212.12
252.397	201.12
252.63	211.12
252.863	209.12
253.096	223.12
253.329	226.12
253.562	242.12
253.795	221.12
254.028	237.12
254.261	228.12
254.494	214.12
254.727	261.12
254.96	299.12
255.193	297.12
255.426	269.12
255.659	255.12
255.892	230.12
256.124	249.12
256.357	241.12
256.59	257.12
256.823	243.12
257.056	210.12
257.289	218.12
257.521	224.12
257.754	221.12
257.987	203.12
258.22	211.12
258.452	220.12
258.685	215.12
258.918	217.12
259.151	227.12
259.383	221.12
259.616	218.12
259.849	222.12
260.081	231.12
260.314	260.12
260.547	264.12
260.779	252.12
261.012	244.12
261.244	245.12
261.477	223.12
261.71	234.12
261.942	248.12
262.175	243.12
262.407	229.12
262.64	229.12
262.872	231.12
263.105	214.12
263.337	226.12
263.57	205.12
263.802	215.12
264.035	214.12
264.267	210.12
264.499	215.12
264.732	195.12
264.964	208.12
265.197	217.12
265.429	198.12
265.661	218.12
265.894	210.12
266.126	227.12
266.358	206.12
266.591	206.12
266.823	243.12
267.055	218.12
267.287	216.12
267.52	211.12
267.752	208.12
267.984	218.12
268.216	229.12
268.448	230.12
268.681	243.12
268.913	250.12
269.145	262.12
269.377	284.12
269.609	267.12
269.841	265.12
270.073	293.12
270.306	307.12
270.538	317.12
270.77	343.12
271.002	314.12
271.234	298.12
271.466	309.12
271.698	310.12
271.93	346.12
272.162	341.12
272.394	315.12
272.626	309.12
272.858	295.12
273.09	310.12
273.322	292.12
273.553	268.12
273.785	277.12
274.017	268.12
274.249	273.12
274.481	277.12
274.713	262.12
274.945	272.12
275.176	275.12
275.408	267.12
275.64	261.12
275.872	241.12
276.104	284.12
276.335	259.12
276.567	280.12
276.799	313.12
277.031	314.12
277.262	323.12
277.494	332.12
277.726	307.12
277.957	304.12
278.189	305.12
278.421	286.12
278.652	275.12
278.884	260.12
279.115	271.12
279.347	259.12
279.579	257.12
279.81	237.12
280.042	285.12
280.273	274.12
280.505	250.12
280.736	261.12
280.968	238.12
281.199	246.12
281.431	249.12
281.662	263.12
281.894	264.12
282.125	265.12
282.356	271.12
282.588	307.12
282.819	332.12
283.051	282.12
283.282	259.12
283.513	264.12
283.745	252.12
283.976	268.12
284.207	286.12
284.439	271.12
284.67	263.12
284.901	267.12
285.132	265.12
285.364	245.12
285.595	266.12
285.826	264.12
286.057	268.12
286.288	264.12
286.52	259.12
286.751	279.12
286.982	272.12
287.213	269.12
287.444	246.12
287.675	275.12
287.906	271.12
288.138	302.12
288.369	279.12
288.6	280.12
288.831	292.12
289.062	280.12
289.293	286.12
289.524	269.12
289.755	281.12
289.986	280.12
290.217	274.12
290.448	277.12
290.679	250.12
290.91	261.12
291.141	267.12
291.371	260.12
291.602	255.12
291.833	267.12
292.064	283.12
292.295	271.12
292.526	269.12
292.757	282.12
292.987	267.12
293.218	275.12
293.449	271.12
293.68	258.12
293.91	279.12
294.141	290.12
294.372	280.12
294.603	275.12
294.833	266.12
295.064	265.12
295.295	260.12
295.525	278.12
295.756	287.12
295.987	289.12
296.217	311.12
296.448	326.12
296.679	283.12
296.909	279.12
297.14	282.12
297.37	285.12
297.601	289.12
297.831	269.12
298.062	271.12
298.292	284.12
298.523	277.12
298.753	294.12
298.984	279.12
299.214	280.12
299.445	273.12
299.675	264.12
299.905	280.12
300.136	293.12
300.366	294.12
300.597	305.12
300.827	307.12
301.057	306.12
301.288	306.12
301.518	314.12
301.748	280.12
301.979	309.12
302.209	330.12
302.439	315.12
302.669	309.12
302.9	306.12
303.13	313.12
303.36	303.12
303.59	307.12
303.82	332.12
304.051	317.12
304.281	314.12
304.511	313.12
304.741	295.12
304.971	299.12
305.201	318.12
305.431	321.12
305.661	307.12
305.891	307.12
306.121	299.12
306.352	297.12
306.582	302.12
306.812	326.12
307.042	306.12
307.272	321.12
307.502	315.12
307.731	329.12
307.961	341.12
308.191	307.12
308.421	313.12
308.651	319.12
308.881	319.12
309.111	337.12
309.341	343.12
309.571	327.12
309.8	352.12
310.03	376.12
310.26	350.12
310.49	356.12
310.72	378.12
310.949	391.12
311.179	411.12
311.409	369.12
311.639	367.12
311.868	371.12
312.098	387.12
312.328	376.12
312.557	422.12
312.787	421.12
313.017	410.12
313.246	377.12
313.476	394.12
313.706	365.12
313.935	369.12
314.165	399.12
314.394	403.12
314.624	405.12
314.853	395.12
315.083	383.12
315.312	359.12
315.542	361.12
315.771	337.12
316.001	356.12
316.23	345.12
316.46	373.12
316.689	361.12
316.919	360.12
317.148	372.12
317.377	373.12
317.607	374.12
317.836	371.12
318.065	360.12
318.295	370.12
318.524	369.12
318.753	357.12
318.983	352.12
319.212	354.12
319.441	383.12
319.67	389.12
319.9	359.12
320.129	370.12
320.358	385.12
320.587	374.12
320.816	403.12
321.046	433.12
321.275	405.12
321.504	381.12
321.733	394.12
321.962	408.12
322.191	420.12
322.42	460.12
322.649	455.12
322.878	470.12
323.108	485.12
323.337	500.12
323.566	526.12
323.795	583.12
324.024	636.12
324.253	793.12
324.482	1116.12
324.71	1751.12
324.939	2547.12
325.168	2235.12
325.397	1196.12
325.626	754.12
325.855	627.12
326.084	537.12
326.313	549.12
326.542	531.12
326.77	617.12
326.999	726.12
327.228	989.12
327.457	1514.12
327.686	1859.12
327.914	1291.12
328.143	842.12
328.372	707.12
328.6	644.12
328.829	621.12
329.058	629.12
329.287	644.12
329.515	601.12
329.744	536.12
329.972	553.12
330.201	562.12
330.43	631.12
330.658	657.12
330.887	689.12
331.115	659.12
331.344	562.12
331.572	490.12
331.801	516.12
332.03	500.12
332.258	484.12
332.486	477.12
332.715	437.12
332.943	419.12
333.172	434.12
333.4	428.12
333.629	454.12
333.857	457.12
334.085	455.12
334.314	486.12
334.542	514.12
334.771	553.12
334.999	524.12
335.227	448.12
335.455	431.12
335.684	429.12
335.912	422.12
336.14	425.12
336.369	430.12
336.597	424.12
336.825	444.12
337.053	430.12
337.281	402.12
337.51	405.12
337.738	400.12
337.966	411.12
338.194	406.12
338.422	422.12
338.65	421.12
338.878	392.12
339.106	394.12
339.334	424.12
339.562	398.12
339.79	379.12
340.018	397.12
340.246	386.12
340.474	413.12
340.702	411.12
340.93	403.12
341.158	409.12
341.386	398.12
341.614	411.12
341.842	405.12
342.07	414.12
342.298	385.12
342.526	400.12
342.754	386.12
342.981	391.12
343.209	385.12
343.437	382.12
343.665	412.12
343.893	394.12
344.12	417.12
344.348	394.12
344.576	393.12
344.804	395.12
345.031	455.12
345.259	440.12
345.487	413.12
345.714	408.12
345.942	422.12
346.17	402.12
346.397	388.12
346.625	407.12
346.853	397.12
347.08	395.12
347.308	407.12
347.535	420.12
347.763	433.12
347.99	432.12
348.218	414.12
348.445	424.12
348.673	429.12
348.9	391.12
349.128	397.12
349.355	371.12
349.583	378.12
349.81	377.12
350.037	386.12
350.265	376.12
350.492	389.12
350.72	385.12
350.947	394.12
351.174	407.12
351.402	392.12
351.629	408.12
351.856	396.12
352.083	422.12
352.311	407.12
352.538	438.12
352.765	434.12
352.992	424.12
353.22	397.12
353.447	396.12
353.674	390.12
353.901	353.12
354.128	379.12
354.355	371.12
354.583	362.12
354.81	367.12
355.037	389.12
355.264	370.12
355.491	357.12
355.718	343.12
355.945	338.12
356.172	355.12
356.399	355.12
356.626	361.12
356.853	343.12
357.08	348.12
357.307	349.12
357.534	361.12
357.761	371.12
357.988	369.12
358.215	366.12
358.441	365.12
358.668	361.12
358.895	371.12
359.122	369.12
359.349	393.12
359.576	390.12
359.802	417.12
360.029	471.12
360.256	491.12
360.483	452.12
360.709	398.12
360.936	401.12
361.163	385.12
361.39	412.12
361.616	411.12
361.843	390.12
362.07	400.12
362.296	408.12
362.523	391.12
362.749	388.12
362.976	367.12
363.203	370.12
363.429	379.12
363.656	391.12
363.882	398.12
364.109	372.12
364.335	395.12
364.562	374.12
364.788	373.12
365.015	374.12
365.241	378.12
365.468	389.12
365.694	394.12
365.92	402.12
366.147	374.12
366.373	347.12
366.599	348.12
366.826	353.12
367.052	358.12
367.278	371.12
367.505	378.12
367.731	372.12
367.957	374.12
368.184	373.12
368.41	382.12
368.636	397.12
368.862	398.12
369.089	372.12
369.315	369.12
369.541	374.12
369.767	378.12
369.993	379.12
370.219	355.12
370.445	354.12
370.672	362.12
370.898	357.12
371.124	357.12
371.35	350.12
371.576	361.12
371.802	362.12
372.028	372.12
372.254	362.12
372.48	363.12
372.706	363.12
372.932	351.12
373.158	369.12
373.384	353.12
373.61	355.12
373.835	357.12
374.061	370.12
374.287	377.12
374.513	362.12
374.739	361.12
374.965	352.12
375.191	371.12
375.416	353.12
375.642	355.12
375.868	355.12
376.094	350.12
376.319	346.12
376.545	367.12
376.771	372.12
376.997	375.12
377.222	362.12
377.448	371.12
377.674	357.12
377.899	360.12
378.125	359.12
378.35	358.12
378.576	357.12
378.802	351.12
379.027	345.12
379.253	349.12
379.478	345.12
379.704	363.12
379.929	357.12
380.155	350.12
380.38	356.12
380.606	361.12
380.831	361.12
381.057	356.12
381.282	359.12
381.507	374.12
381.733	361.12
381.958	359.12
382.184	350.12
382.409	377.12
382.634	363.12
382.86	387.12
383.085	352.12
383.31	361.12
383.535	379.12
383.761	362.12
383.986	355.12
384.211	378.12
384.436	371.12
384.662	371.12
384.887	366.12
385.112	371.12
385.337	380.12
385.562	365.12
385.787	371.12
386.013	381.12
386.238	383.12
386.463	395.12
386.688	379.12
386.913	393.12
387.138	375.12
387.363	377.12
387.588	376.12
387.813	373.12
388.038	391.12
388.263	380.12
388.488	375.12
388.713	374.12
388.938	379.12
389.163	382.12
389.387	372.12
389.612	379.12
389.837	366.12
390.062	385.12
390.287	395.12
390.512	369.12
390.736	369.12
390.961	359.12
391.186	358.12
391.411	370.12
391.636	362.12
391.86	377.12
392.085	387.12
392.31	361.12
392.534	360.12
392.759	373.12
392.984	385.12
393.208	374.12
393.433	384.12
393.658	365.12
393.882	381.12
394.107	378.12
394.331	374.12
394.556	404.12
394.78	391.12
395.005	366.12
395.229	380.12
395.454	381.12
395.678	391.12
395.903	391.12
396.127	429.12
396.352	429.12
396.576	420.12
396.801	383.12
397.025	400.12
397.249	380.12
397.474	393.12
397.698	394.12
397.922	410.12
398.147	465.12
398.371	423.12
398.595	420.12
398.82	413.12
399.044	420.12
399.268	422.12
399.492	435.12
399.717	439.12
399.941	469.12
400.165	508.12
400.389	537.12
400.613	497.12
400.837	446.12
401.062	452.12
401.286	431.12
401.51	425.12
401.734	424.12
401.958	427.12
402.182	454.12
402.406	459.12
402.63	435.12
402.854	433.12
403.078	437.12
403.302	455.12
403.526	464.12
403.75	464.12
403.974	423.12
404.198	459.12
404.422	443.12
404.645	454.12
404.869	462.12
405.093	484.12
405.317	540.12
405.541	553.12
405.765	511.12
405.988	503.12
406.212	514.12
406.436	529.12
406.66	546.12
406.883	481.12
407.107	519.12
407.331	550.12
407.555	612.12
407.778	607.12
408.002	571.12
408.226	514.12
408.449	500.12
408.673	515.12
408.896	538.12
409.12	580.12
409.344	538.12
409.567	492.12
409.791	470.12
410.014	457.12
410.238	452.12
410.461	450.12
410.685	440.12
410.908	475.12
411.132	515.12
411.355	533.12
411.578	524.12
411.802	466.12
412.025	457.12
412.249	475.12
412.472	483.12
412.695	515.12
412.919	519.12
413.142	482.12
413.365	446.12
413.589	443.12
413.812	442.12
414.035	428.12
414.258	408.12
414.482	422.12
414.705	435.12
414.928	417.12
415.151	415.12
415.374	421.12
415.597	437.12
415.821	421.12
416.044	413.12
416.267	406.12
416.49	431.12
416.713	429.12
416.936	416.12
417.159	432.12
417.382	440.12
417.605	461.12
417.828	443.12
418.051	454.12
418.274	465.12
418.497	448.12
418.72	435.12
418.943	437.12
419.166	414.12
419.389	465.12
419.611	448.12
419.834	450.12
420.057	477.12
420.28	484.12
420.503	462.12
420.726	438.12
420.948	474.12
421.171	533.12
421.394	544.12
421.617	477.12
421.839	483.12
422.062	459.12
422.285	475.12
422.507	534.12
422.73	617.12
422.953	585.12
423.175	518.12
423.398	489.12
423.621	476.12
423.843	507.12
424.066	497.12
424.288	532.12
424.511	523.12
424.733	595.12
424.956	663.12
425.178	650.12
425.401	623.12
425.623	647.12
425.846	564.12
426.068	531.12
426.291	502.12
426.513	495.12
426.735	533.12
426.958	589.12
427.18	665.12
427.402	750.12
427.625	835.12
427.847	790.12
428.069	668.12
428.292	597.12
428.514	525.12
428.736	507.12
428.958	499.12
429.181	477.12
429.403	463.12
429.625	479.12
429.847	522.12
430.069	573.12
430.292	578.12
430.514	490.12
430.736	489.12
430.958	460.12
431.18	434.12
431.402	451.12
431.624	449.12
431.846	442.12
432.068	430.12
432.29	434.12
432.512	437.12
432.734	455.12
432.956	445.12
433.178	469.12
433.4	476.12
433.622	445.12
433.844	437.12
434.066	440.12
434.287	443.12
434.509	450.12
434.731	444.12
434.953	448.12
435.175	488.12
435.397	517.12
435.618	515.12
435.84	564.12
436.062	641.12
436.284	705.12
436.505	589.12
436.727	526.12
436.949	504.12
437.17	490.12
437.392	471.12
437.614	477.12
437.835	539.12
438.057	637.12
438.278	730.12
438.5	695.12
438.721	761.12
438.943	751.12
439.165	629.12
439.386	578.12
439.608	553.12
439.829	563.12
440.05	556.12
440.272	625.12
440.493	590.12
440.715	517.12
440.936	487.12
441.158	484.12
441.379	469.12
441.6	514.12
441.822	523.12
442.043	555.12
442.264	659.12
442.486	710.12
442.707	568.12
442.928	535.12
443.149	529.12
443.371	559.12
443.592	558.12
443.813	696.12
444.034	737.12
444.255	621.12
444.476	542.12
444.698	520.12
444.919	527.12
445.14	589.12
445.361	551.12
445.582	561.12
445.803	637.12
446.024	740.12
446.245	743.12
446.466	686.12
446.687	586.12
446.908	549.12
447.129	504.12
447.35	492.12
447.571	527.12
447.792	467.12
448.013	463.12
448.234	508.12
448.455	578.12
448.675	673.12
448.896	757.12
449.117	679.12
449.338	654.12
449.559	731.12
449.779	814.12
450	665.12
450.221	551.12
450.442	534.12
450.662	490.12
450.883	501.12
451.104	503.12
451.324	515.12
451.545	480.12
451.766	446.12
451.986	433.12
452.207	439.12
452.428	430.12
452.648	430.12
452.869	422.12
453.089	449.12
453.31	469.12
453.53	422.12
453.751	433.12
453.971	444.12
454.192	471.12
454.412	451.12
454.633	462.12
454.853	436.12
455.073	429.12
455.294	451.12
455.514	522.12
455.734	524.12
455.955	447.12
456.175	418.12
456.395	415.12
456.616	413.12
456.836	404.12
457.056	407.12
457.276	392.12
457.497	388.12
457.717	409.12
457.937	415.12
458.157	418.12
458.377	425.12
458.598	434.12
458.818	501.12
459.038	623.12
459.258	613.12
459.478	501.12
459.698	459.12
459.918	439.12
460.138	450.12
460.358	456.12
460.578	403.12
460.798	426.12
461.018	441.12
461.238	412.12
461.458	433.12
461.678	426.12
461.898	442.12
462.118	411.12
462.338	446.12
462.558	442.12
462.777	422.12
462.997	430.12
463.217	446.12
463.437	433.12
463.657	443.12
463.876	445.12
464.096	455.12
464.316	438.12
464.536	468.12
464.755	474.12
464.975	473.12
465.195	521.12
465.414	618.12
465.634	541.12
465.854	510.12
466.073	461.12
466.293	463.12
466.512	447.12
466.732	438.12
466.951	430.12
467.171	434.12
467.391	443.12
467.61	447.12
467.829	477.12
468.049	451.12
468.268	430.12
468.488	431.12
468.707	413.12
468.927	412.12
469.146	414.12
469.365	424.12
469.585	431.12
469.804	442.12
470.023	435.12
470.243	449.12
470.462	455.12
470.681	470.12
470.901	458.12
471.12	440.12
471.339	430.12
471.558	440.12
471.777	466.12
471.997	414.12
472.216	444.12
472.435	501.12
472.654	467.12
472.873	453.12
473.092	435.12
473.311	441.12
473.53	421.12
473.749	446.12
473.968	484.12
474.187	614.12
474.406	629.12
474.625	500.12
474.844	464.12
475.063	457.12
475.282	453.12
475.501	464.12
475.72	451.12
475.939	451.12
476.158	473.12
476.377	455.12
476.596	434.12
476.814	481.12
477.033	467.12
477.252	461.12
477.471	478.12
477.69	485.12
477.908	452.12
478.127	456.12
478.346	464.12
478.564	490.12
478.783	490.12
479.002	497.12
479.22	499.12
479.439	501.12
479.658	533.12
479.876	538.12
480.095	532.12
480.313	570.12
480.532	550.12
480.751	544.12
480.969	557.12
481.188	636.12
481.406	679.12
481.624	599.12
481.843	541.12
482.061	539.12
482.28	553.12
482.498	523.12
482.717	531.12
482.935	516.12
483.153	537.12
483.372	519.12
483.59	524.12
483.808	516.12
484.027	530.12
484.245	542.12
484.463	536.12
484.681	530.12
484.9	523.12
485.118	519.12
485.336	526.12
485.554	545.12
485.772	527.12
485.99	545.12
486.209	536.12
486.427	542.12
486.645	558.12
486.863	569.12
487.081	595.12
487.299	579.12
487.517	552.12
487.735	565.12
487.953	561.12
488.171	555.12
488.389	571.12
488.607	582.12
488.825	589.12
489.043	559.12
489.261	585.12
489.479	572.12
489.696	585.12
489.914	586.12
490.132	586.12
490.35	574.12
490.568	606.12
490.786	595.12
491.003	610.12
491.221	639.12
491.439	653.12
491.657	655.12
491.874	637.12
492.092	658.12
492.31	676.12
492.527	658.12
492.745	685.12
492.963	649.12
493.18	641.12
493.398	689.12
493.615	682.12
493.833	682.12
494.05	692.12
494.268	699.12
494.485	681.12
494.703	678.12
494.92	678.12
495.138	673.12
495.355	688.12
495.573	679.12
495.79	667.12
496.008	682.12
496.225	664.12
496.442	681.12
496.66	669.12
496.877	679.12
497.094	669.12
497.312	655.12
497.529	682.12
497.746	683.12
497.963	704.12
498.181	709.12
498.398	720.12
498.615	710.12
498.832	726.12
499.049	722.12
499.267	695.12
499.484	745.12
499.701	749.12
499.918	762.12
500.135	785.12
500.352	813.12
500.569	779.12
500.786	823.12
501.003	801.12
501.22	779.12
501.437	783.12
501.654	815.12
501.871	798.12
