Data from 1980.PennyLincolnUp.Lamp.En5.5.200Scan.071819.P1_HRD10591_16-37-34-957.txt Node
Date: Thu Jul 18 16:37:34 EDT 2019
User: cochatt
Spectrometer: HR+D1059
Trigger mode: 1
Integration Time (sec): 1.000000E-1
Scans to average: 1
Electric dark correction enabled: true
Nonlinearity correction enabled: false
Boxcar width: 0
XAxis mode: Wavelengths
Number of Pixels in Spectrum: 2048
>>>>>Begin Spectral Data<<<<<
223.165	-19.44
223.4	-19.44
223.635	-19.44
223.869	-23.44
224.104	-10.44
224.338	-4.44
224.573	-9.44
224.808	-15.44
225.042	-20.44
225.277	-5.44
225.511	-8.44
225.746	12.56
225.98	8.56
226.215	2.56
226.449	16.56
226.683	21.56
226.918	26.56
227.152	28.56
227.387	38.56
227.621	18.56
227.856	27.56
228.09	52.56
228.324	50.56
228.559	50.56
228.793	78.56
229.027	87.56
229.262	106.56
229.496	122.56
229.73	133.56
229.964	152.56
230.199	141.56
230.433	124.56
230.667	115.56
230.901	106.56
231.136	117.56
231.37	101.56
231.604	102.56
231.838	103.56
232.072	108.56
232.306	119.56
232.541	102.56
232.775	110.56
233.009	109.56
233.243	119.56
233.477	114.56
233.711	109.56
233.945	118.56
234.179	113.56
234.413	118.56
234.647	119.56
234.881	118.56
235.115	113.56
235.349	110.56
235.583	107.56
235.817	121.56
236.051	125.56
236.285	124.56
236.519	119.56
236.753	127.56
236.987	148.56
237.221	192.56
237.455	247.56
237.689	198.56
237.922	143.56
238.156	129.56
238.39	130.56
238.624	128.56
238.858	123.56
239.091	126.56
239.325	126.56
239.559	130.56
239.793	132.56
240.027	143.56
240.26	143.56
240.494	154.56
240.728	156.56
240.961	155.56
241.195	157.56
241.429	139.56
241.662	132.56
241.896	122.56
242.13	129.56
242.363	143.56
242.597	134.56
242.83	135.56
243.064	138.56
243.298	153.56
243.531	139.56
243.765	130.56
243.998	127.56
244.232	141.56
244.465	120.56
244.699	151.56
244.932	146.56
245.166	142.56
245.399	145.56
245.633	144.56
245.866	132.56
246.099	156.56
246.333	148.56
246.566	142.56
246.8	160.56
247.033	146.56
247.266	150.56
247.5	160.56
247.733	166.56
247.966	163.56
248.2	173.56
248.433	162.56
248.666	175.56
248.899	201.56
249.133	205.56
249.366	201.56
249.599	200.56
249.832	200.56
250.066	189.56
250.299	184.56
250.532	189.56
250.765	211.56
250.998	204.56
251.231	237.56
251.465	212.56
251.698	199.56
251.931	190.56
252.164	204.56
252.397	191.56
252.63	202.56
252.863	219.56
253.096	215.56
253.329	231.56
253.562	237.56
253.795	201.56
254.028	211.56
254.261	222.56
254.494	235.56
254.727	249.56
254.96	273.56
255.193	297.56
255.426	257.56
255.659	245.56
255.892	234.56
256.124	244.56
256.357	247.56
256.59	228.56
256.823	218.56
257.056	201.56
257.289	208.56
257.521	219.56
257.754	222.56
257.987	204.56
258.22	212.56
258.452	201.56
258.685	215.56
258.918	224.56
259.151	199.56
259.383	219.56
259.616	222.56
259.849	226.56
260.081	234.56
260.314	240.56
260.547	268.56
260.779	254.56
261.012	230.56
261.244	216.56
261.477	229.56
261.71	223.56
261.942	223.56
262.175	233.56
262.407	232.56
262.64	220.56
262.872	229.56
263.105	209.56
263.337	224.56
263.57	213.56
263.802	208.56
264.035	215.56
264.267	206.56
264.499	214.56
264.732	204.56
264.964	207.56
265.197	197.56
265.429	202.56
265.661	212.56
265.894	206.56
266.126	201.56
266.358	228.56
266.591	191.56
266.823	205.56
267.055	217.56
267.287	226.56
267.52	229.56
267.752	199.56
267.984	215.56
268.216	216.56
268.448	222.56
268.681	222.56
268.913	239.56
269.145	275.56
269.377	282.56
269.609	266.56
269.841	263.56
270.073	276.56
270.306	272.56
270.538	312.56
270.77	325.56
271.002	317.56
271.234	298.56
271.466	298.56
271.698	319.56
271.93	336.56
272.162	311.56
272.394	327.56
272.626	291.56
272.858	289.56
273.09	273.56
273.322	266.56
273.553	264.56
273.785	259.56
274.017	249.56
274.249	242.56
274.481	233.56
274.713	232.56
274.945	245.56
275.176	261.56
275.408	262.56
275.64	260.56
275.872	252.56
276.104	240.56
276.335	270.56
276.567	253.56
276.799	282.56
277.031	287.56
277.262	308.56
277.494	281.56
277.726	280.56
277.957	275.56
278.189	274.56
278.421	261.56
278.652	279.56
278.884	273.56
279.115	246.56
279.347	265.56
279.579	242.56
279.81	253.56
280.042	261.56
280.273	240.56
280.505	229.56
280.736	254.56
280.968	243.56
281.199	245.56
281.431	242.56
281.662	235.56
281.894	258.56
282.125	261.56
282.356	274.56
282.588	297.56
282.819	297.56
283.051	269.56
283.282	256.56
283.513	243.56
283.745	263.56
283.976	253.56
284.207	262.56
284.439	263.56
284.67	258.56
284.901	264.56
285.132	253.56
285.364	264.56
285.595	264.56
285.826	243.56
286.057	266.56
286.288	238.56
286.52	250.56
286.751	269.56
286.982	267.56
287.213	256.56
287.444	259.56
287.675	249.56
287.906	274.56
288.138	276.56
288.369	285.56
288.6	276.56
288.831	271.56
289.062	274.56
289.293	277.56
289.524	249.56
289.755	245.56
289.986	254.56
290.217	248.56
290.448	263.56
290.679	283.56
290.91	268.56
291.141	243.56
291.371	271.56
291.602	269.56
291.833	242.56
292.064	250.56
292.295	255.56
292.526	248.56
292.757	258.56
292.987	257.56
293.218	264.56
293.449	271.56
293.68	261.56
293.91	254.56
294.141	267.56
294.372	246.56
294.603	257.56
294.833	261.56
295.064	248.56
295.295	264.56
295.525	268.56
295.756	275.56
295.987	272.56
296.217	291.56
296.448	326.56
296.679	282.56
296.909	273.56
297.14	254.56
297.37	266.56
297.601	274.56
297.831	273.56
298.062	278.56
298.292	278.56
298.523	286.56
298.753	276.56
298.984	290.56
299.214	267.56
299.445	273.56
299.675	273.56
299.905	279.56
300.136	271.56
300.366	276.56
300.597	263.56
300.827	287.56
301.057	303.56
301.288	304.56
301.518	291.56
301.748	273.56
301.979	273.56
302.209	293.56
302.439	281.56
302.669	290.56
302.9	302.56
303.13	289.56
303.36	294.56
303.59	290.56
303.82	302.56
304.051	308.56
304.281	281.56
304.511	287.56
304.741	302.56
304.971	295.56
305.201	303.56
305.431	280.56
305.661	305.56
305.891	285.56
306.121	287.56
306.352	279.56
306.582	294.56
306.812	273.56
307.042	296.56
307.272	292.56
307.502	279.56
307.731	321.56
307.961	308.56
308.191	288.56
308.421	282.56
308.651	301.56
308.881	313.56
309.111	293.56
309.341	314.56
309.571	313.56
309.8	351.56
310.03	346.56
310.26	342.56
310.49	363.56
310.72	357.56
310.949	368.56
311.179	372.56
311.409	354.56
311.639	345.56
311.868	343.56
312.098	353.56
312.328	323.56
312.557	369.56
312.787	392.56
313.017	401.56
313.246	373.56
313.476	346.56
313.706	352.56
313.935	361.56
314.165	372.56
314.394	377.56
314.624	386.56
314.853	366.56
315.083	374.56
315.312	346.56
315.542	349.56
315.771	343.56
316.001	317.56
316.23	348.56
316.46	340.56
316.689	343.56
316.919	348.56
317.148	359.56
317.377	353.56
317.607	332.56
317.836	356.56
318.065	345.56
318.295	334.56
318.524	333.56
318.753	333.56
318.983	354.56
319.212	362.56
319.441	367.56
319.67	370.56
319.9	337.56
320.129	329.56
320.358	354.56
320.587	339.56
320.816	372.56
321.046	371.56
321.275	374.56
321.504	381.56
321.733	354.56
321.962	391.56
322.191	391.56
322.42	431.56
322.649	426.56
322.878	414.56
323.108	473.56
323.337	477.56
323.566	508.56
323.795	540.56
324.024	601.56
324.253	699.56
324.482	1053.56
324.71	1616.56
324.939	2333.56
325.168	2032.56
325.397	1098.56
325.626	741.56
325.855	569.56
326.084	495.56
326.313	523.56
326.542	519.56
326.77	565.56
326.999	652.56
327.228	939.56
327.457	1429.56
327.686	1732.56
327.914	1226.56
328.143	795.56
328.372	647.56
328.6	625.56
328.829	590.56
329.058	584.56
329.287	615.56
329.515	563.56
329.744	521.56
329.972	514.56
330.201	503.56
330.43	587.56
330.658	590.56
330.887	614.56
331.115	623.56
331.344	527.56
331.572	486.56
331.801	466.56
332.03	481.56
332.258	440.56
332.486	425.56
332.715	433.56
332.943	415.56
333.172	416.56
333.4	431.56
333.629	418.56
333.857	435.56
334.085	447.56
334.314	445.56
334.542	475.56
334.771	527.56
334.999	465.56
335.227	457.56
335.455	419.56
335.684	415.56
335.912	380.56
336.14	416.56
336.369	384.56
336.597	405.56
336.825	410.56
337.053	400.56
337.281	394.56
337.51	384.56
337.738	388.56
337.966	388.56
338.194	422.56
338.422	398.56
338.65	383.56
338.878	379.56
339.106	392.56
339.334	399.56
339.562	378.56
339.79	370.56
340.018	399.56
340.246	421.56
340.474	391.56
340.702	378.56
340.93	377.56
341.158	386.56
341.386	393.56
341.614	377.56
341.842	380.56
342.07	386.56
342.298	363.56
342.526	393.56
342.754	369.56
342.981	372.56
343.209	378.56
343.437	373.56
343.665	368.56
343.893	363.56
344.12	385.56
344.348	395.56
344.576	404.56
344.804	402.56
345.031	415.56
345.259	431.56
345.487	414.56
345.714	373.56
345.942	377.56
346.17	382.56
346.397	390.56
346.625	408.56
346.853	401.56
347.08	378.56
347.308	386.56
347.535	393.56
347.763	387.56
347.99	398.56
348.218	397.56
348.445	403.56
348.673	395.56
348.9	381.56
349.128	375.56
349.355	369.56
349.583	378.56
349.81	369.56
350.037	352.56
350.265	349.56
350.492	378.56
350.72	367.56
350.947	376.56
351.174	397.56
351.402	396.56
351.629	388.56
351.856	387.56
352.083	386.56
352.311	399.56
352.538	386.56
352.765	410.56
352.992	409.56
353.22	399.56
353.447	376.56
353.674	379.56
353.901	373.56
354.128	337.56
354.355	350.56
354.583	339.56
354.81	343.56
355.037	352.56
355.264	348.56
355.491	362.56
355.718	349.56
355.945	344.56
356.172	341.56
356.399	355.56
356.626	352.56
356.853	335.56
357.08	355.56
357.307	367.56
357.534	330.56
357.761	345.56
357.988	335.56
358.215	348.56
358.441	362.56
358.668	339.56
358.895	344.56
359.122	377.56
359.349	352.56
359.576	377.56
359.802	427.56
360.029	455.56
360.256	466.56
360.483	431.56
360.709	393.56
360.936	372.56
361.163	395.56
361.39	386.56
361.616	401.56
361.843	384.56
362.07	373.56
362.296	387.56
362.523	391.56
362.749	382.56
362.976	369.56
363.203	365.56
363.429	362.56
363.656	360.56
363.882	379.56
364.109	359.56
364.335	354.56
364.562	370.56
364.788	362.56
365.015	368.56
365.241	365.56
365.468	373.56
365.694	358.56
365.92	391.56
366.147	361.56
366.373	365.56
366.599	361.56
366.826	340.56
367.052	359.56
367.278	354.56
367.505	342.56
367.731	356.56
367.957	343.56
368.184	362.56
368.41	340.56
368.636	395.56
368.862	383.56
369.089	348.56
369.315	360.56
369.541	346.56
369.767	360.56
369.993	362.56
370.219	339.56
370.445	346.56
370.672	349.56
370.898	356.56
371.124	341.56
371.35	349.56
371.576	358.56
371.802	352.56
372.028	363.56
372.254	338.56
372.48	335.56
372.706	330.56
372.932	334.56
373.158	345.56
373.384	349.56
373.61	355.56
373.835	371.56
374.061	358.56
374.287	329.56
374.513	339.56
374.739	351.56
374.965	353.56
375.191	346.56
375.416	356.56
375.642	349.56
375.868	338.56
376.094	361.56
376.319	334.56
376.545	354.56
376.771	334.56
376.997	342.56
377.222	345.56
377.448	352.56
377.674	353.56
377.899	327.56
378.125	342.56
378.35	355.56
378.576	320.56
378.802	330.56
379.027	351.56
379.253	345.56
379.478	341.56
379.704	351.56
379.929	346.56
380.155	341.56
380.38	343.56
380.606	354.56
380.831	337.56
381.057	370.56
381.282	327.56
381.507	365.56
381.733	357.56
381.958	350.56
382.184	366.56
382.409	355.56
382.634	349.56
382.86	333.56
383.085	345.56
383.31	347.56
383.535	344.56
383.761	361.56
383.986	358.56
384.211	357.56
384.436	358.56
384.662	360.56
384.887	349.56
385.112	354.56
385.337	354.56
385.562	368.56
385.787	362.56
386.013	381.56
386.238	393.56
386.463	381.56
386.688	368.56
386.913	367.56
387.138	354.56
387.363	365.56
387.588	375.56
387.813	364.56
388.038	369.56
388.263	361.56
388.488	357.56
388.713	368.56
388.938	380.56
389.163	380.56
389.387	376.56
389.612	364.56
389.837	369.56
390.062	383.56
390.287	373.56
390.512	370.56
390.736	349.56
390.961	373.56
391.186	349.56
391.411	369.56
391.636	359.56
391.86	379.56
392.085	385.56
392.31	388.56
392.534	383.56
392.759	390.56
392.984	346.56
393.208	379.56
393.433	373.56
393.658	381.56
393.882	362.56
394.107	384.56
394.331	360.56
394.556	381.56
394.78	357.56
395.005	354.56
395.229	368.56
395.454	375.56
395.678	366.56
395.903	398.56
396.127	401.56
396.352	400.56
396.576	396.56
396.801	370.56
397.025	379.56
397.249	370.56
397.474	390.56
397.698	395.56
397.922	391.56
398.147	432.56
398.371	403.56
398.595	421.56
398.82	407.56
399.044	416.56
399.268	402.56
399.492	402.56
399.717	447.56
399.941	456.56
400.165	505.56
400.389	529.56
400.613	477.56
400.837	434.56
401.062	420.56
401.286	418.56
401.51	419.56
401.734	393.56
401.958	418.56
402.182	413.56
402.406	440.56
402.63	413.56
402.854	411.56
403.078	416.56
403.302	410.56
403.526	445.56
403.75	431.56
403.974	442.56
404.198	427.56
404.422	434.56
404.645	442.56
404.869	444.56
405.093	474.56
405.317	511.56
405.541	531.56
405.765	476.56
405.988	477.56
406.212	470.56
406.436	499.56
406.66	508.56
406.883	487.56
407.107	476.56
407.331	549.56
407.555	598.56
407.778	592.56
408.002	537.56
408.226	479.56
408.449	473.56
408.673	480.56
408.896	493.56
409.12	542.56
409.344	511.56
409.567	478.56
409.791	458.56
410.014	442.56
410.238	435.56
410.461	441.56
410.685	433.56
410.908	469.56
411.132	502.56
411.355	550.56
411.578	524.56
411.802	464.56
412.025	435.56
412.249	431.56
412.472	470.56
412.695	495.56
412.919	478.56
413.142	450.56
413.365	422.56
413.589	425.56
413.812	413.56
414.035	423.56
414.258	408.56
414.482	442.56
414.705	407.56
414.928	417.56
415.151	412.56
415.374	399.56
415.597	414.56
415.821	428.56
416.044	397.56
416.267	410.56
416.49	406.56
416.713	406.56
416.936	400.56
417.159	409.56
417.382	428.56
417.605	429.56
417.828	432.56
418.051	448.56
418.274	447.56
418.497	413.56
418.72	421.56
418.943	406.56
419.166	435.56
419.389	438.56
419.611	469.56
419.834	436.56
420.057	446.56
420.28	440.56
420.503	431.56
420.726	460.56
420.948	465.56
421.171	509.56
421.394	522.56
421.617	463.56
421.839	448.56
422.062	452.56
422.285	464.56
422.507	526.56
422.73	578.56
422.953	569.56
423.175	498.56
423.398	486.56
423.621	456.56
423.843	490.56
424.066	485.56
424.288	475.56
424.511	486.56
424.733	537.56
424.956	626.56
425.178	608.56
425.401	595.56
425.623	605.56
425.846	534.56
426.068	502.56
426.291	478.56
426.513	489.56
426.735	519.56
426.958	556.56
427.18	623.56
427.402	706.56
427.625	815.56
427.847	723.56
428.069	636.56
428.292	574.56
428.514	512.56
428.736	484.56
428.958	482.56
429.181	465.56
429.403	472.56
429.625	473.56
429.847	513.56
430.069	546.56
430.292	570.56
430.514	481.56
430.736	425.56
430.958	457.56
431.18	433.56
431.402	433.56
431.624	436.56
431.846	418.56
432.068	424.56
432.29	443.56
432.512	440.56
432.734	442.56
432.956	439.56
433.178	444.56
433.4	429.56
433.622	438.56
433.844	430.56
434.066	412.56
434.287	418.56
434.509	445.56
434.731	427.56
434.953	432.56
435.175	470.56
435.397	486.56
435.618	523.56
435.84	553.56
436.062	641.56
436.284	669.56
436.505	595.56
436.727	519.56
436.949	483.56
437.17	474.56
437.392	469.56
437.614	480.56
437.835	526.56
438.057	621.56
438.278	723.56
438.5	716.56
438.721	762.56
438.943	721.56
439.165	585.56
439.386	520.56
439.608	519.56
439.829	529.56
440.05	538.56
440.272	589.56
440.493	565.56
440.715	511.56
440.936	480.56
441.158	456.56
441.379	458.56
441.6	481.56
441.822	506.56
442.043	532.56
442.264	609.56
442.486	644.56
442.707	577.56
442.928	502.56
443.149	536.56
443.371	544.56
443.592	580.56
443.813	643.56
444.034	709.56
444.255	600.56
444.476	527.56
444.698	500.56
444.919	480.56
445.14	639.56
445.361	557.56
445.582	530.56
445.803	613.56
446.024	710.56
446.245	711.56
446.466	651.56
446.687	570.56
446.908	507.56
447.129	489.56
447.35	466.56
447.571	464.56
447.792	469.56
448.013	476.56
448.234	495.56
448.455	535.56
448.675	658.56
448.896	761.56
449.117	620.56
449.338	598.56
449.559	733.56
449.779	780.56
450	625.56
450.221	529.56
450.442	487.56
450.662	469.56
450.883	480.56
451.104	521.56
451.324	487.56
451.545	464.56
451.766	434.56
451.986	430.56
452.207	425.56
452.428	421.56
452.648	423.56
452.869	420.56
453.089	427.56
453.31	442.56
453.53	437.56
453.751	411.56
453.971	434.56
454.192	435.56
454.412	437.56
454.633	432.56
454.853	414.56
455.073	437.56
455.294	451.56
455.514	517.56
455.734	523.56
455.955	436.56
456.175	394.56
456.395	386.56
456.616	386.56
456.836	381.56
457.056	393.56
457.276	375.56
457.497	377.56
457.717	357.56
457.937	389.56
458.157	392.56
458.377	393.56
458.598	423.56
458.818	491.56
459.038	599.56
459.258	608.56
459.478	480.56
459.698	440.56
459.918	443.56
460.138	395.56
460.358	407.56
460.578	419.56
460.798	414.56
461.018	416.56
461.238	411.56
461.458	438.56
461.678	397.56
461.898	410.56
462.118	403.56
462.338	407.56
462.558	417.56
462.777	407.56
462.997	417.56
463.217	407.56
463.437	460.56
463.657	439.56
463.876	445.56
464.096	439.56
464.316	433.56
464.536	450.56
464.755	466.56
464.975	467.56
465.195	509.56
465.414	598.56
465.634	517.56
465.854	472.56
466.073	450.56
466.293	447.56
466.512	419.56
466.732	420.56
466.951	405.56
467.171	404.56
467.391	414.56
467.61	434.56
467.829	439.56
468.049	430.56
468.268	439.56
468.488	417.56
468.707	404.56
468.927	408.56
469.146	389.56
469.365	390.56
469.585	406.56
469.804	393.56
470.023	431.56
470.243	433.56
470.462	449.56
470.681	437.56
470.901	442.56
471.12	427.56
471.339	416.56
471.558	433.56
471.777	441.56
471.997	430.56
472.216	443.56
472.435	477.56
472.654	455.56
472.873	418.56
473.092	433.56
473.311	409.56
473.53	422.56
473.749	439.56
473.968	481.56
474.187	579.56
474.406	603.56
474.625	480.56
474.844	447.56
475.063	438.56
475.282	426.56
475.501	425.56
475.72	430.56
475.939	420.56
476.158	439.56
476.377	436.56
476.596	430.56
476.814	450.56
477.033	458.56
477.252	448.56
477.471	452.56
477.69	464.56
477.908	464.56
478.127	430.56
478.346	451.56
478.564	465.56
478.783	466.56
479.002	458.56
479.22	461.56
479.439	527.56
479.658	514.56
479.876	523.56
480.095	511.56
480.313	533.56
480.532	531.56
480.751	504.56
480.969	533.56
481.188	595.56
481.406	632.56
481.624	549.56
481.843	506.56
482.061	517.56
482.28	522.56
482.498	487.56
482.717	503.56
482.935	497.56
483.153	499.56
483.372	494.56
483.59	501.56
483.808	493.56
484.027	515.56
484.245	500.56
484.463	515.56
484.681	520.56
484.9	502.56
485.118	527.56
485.336	513.56
485.554	511.56
485.772	500.56
485.99	515.56
486.209	527.56
486.427	517.56
486.645	549.56
486.863	552.56
487.081	570.56
487.299	562.56
487.517	564.56
487.735	530.56
487.953	554.56
488.171	559.56
488.389	541.56
488.607	563.56
488.825	559.56
489.043	538.56
489.261	553.56
489.479	543.56
489.696	541.56
489.914	575.56
490.132	567.56
490.35	586.56
490.568	590.56
490.786	585.56
491.003	601.56
491.221	622.56
491.439	611.56
491.657	623.56
491.874	617.56
492.092	629.56
492.31	654.56
492.527	620.56
492.745	657.56
492.963	648.56
493.18	649.56
493.398	644.56
493.615	650.56
493.833	656.56
494.05	661.56
494.268	651.56
494.485	626.56
494.703	671.56
494.92	652.56
495.138	659.56
495.355	696.56
495.573	667.56
495.79	651.56
496.008	645.56
496.225	642.56
496.442	642.56
496.66	666.56
496.877	641.56
497.094	655.56
497.312	688.56
497.529	671.56
497.746	675.56
497.963	702.56
498.181	702.56
498.398	679.56
498.615	721.56
498.832	715.56
499.049	699.56
499.267	704.56
499.484	712.56
499.701	727.56
499.918	741.56
500.135	759.56
500.352	785.56
500.569	785.56
500.786	772.56
501.003	786.56
501.22	757.56
501.437	765.56
501.654	790.56
501.871	786.56
