Data from 1980.PennyLincolnUp.Lamp.En5.5.200Scan.071819.P1_HRD10591_16-39-05-957.txt Node
Date: Thu Jul 18 16:39:05 EDT 2019
User: cochatt
Spectrometer: HR+D1059
Trigger mode: 1
Integration Time (sec): 1.000000E-1
Scans to average: 1
Electric dark correction enabled: true
Nonlinearity correction enabled: false
Boxcar width: 0
XAxis mode: Wavelengths
Number of Pixels in Spectrum: 2048
>>>>>Begin Spectral Data<<<<<
223.165	-9.81
223.4	-9.81
223.635	-9.81
223.869	-15.81
224.104	-20.81
224.338	-19.81
224.573	-16.81
224.808	-16.81
225.042	-11.81
225.277	2.19
225.511	-0.81
225.746	-12.81
225.98	-4.81
226.215	20.19
226.449	3.19
226.683	32.19
226.918	29.19
227.152	43.19
227.387	51.19
227.621	27.19
227.856	41.19
228.09	29.19
228.324	52.19
228.559	59.19
228.793	70.19
229.027	103.19
229.262	116.19
229.496	130.19
229.73	145.19
229.964	157.19
230.199	148.19
230.433	123.19
230.667	119.19
230.901	92.19
231.136	109.19
231.37	96.19
231.604	115.19
231.838	120.19
232.072	116.19
232.306	120.19
232.541	124.19
232.775	123.19
233.009	123.19
233.243	131.19
233.477	115.19
233.711	109.19
233.945	122.19
234.179	123.19
234.413	121.19
234.647	136.19
234.881	112.19
235.115	114.19
235.349	116.19
235.583	113.19
235.817	121.19
236.051	144.19
236.285	124.19
236.519	131.19
236.753	140.19
236.987	149.19
237.221	204.19
237.455	264.19
237.689	215.19
237.922	159.19
238.156	147.19
238.39	153.19
238.624	136.19
238.858	134.19
239.091	120.19
239.325	114.19
239.559	134.19
239.793	129.19
240.027	148.19
240.26	150.19
240.494	166.19
240.728	164.19
240.961	168.19
241.195	148.19
241.429	154.19
241.662	113.19
241.896	145.19
242.13	131.19
242.363	129.19
242.597	127.19
242.83	139.19
243.064	131.19
243.298	132.19
243.531	136.19
243.765	136.19
243.998	130.19
244.232	136.19
244.465	141.19
244.699	154.19
244.932	151.19
245.166	140.19
245.399	149.19
245.633	148.19
245.866	135.19
246.099	146.19
246.333	157.19
246.566	166.19
246.8	145.19
247.033	155.19
247.266	163.19
247.5	137.19
247.733	164.19
247.966	179.19
248.2	170.19
248.433	178.19
248.666	175.19
248.899	184.19
249.133	213.19
249.366	208.19
249.599	215.19
249.832	189.19
250.066	204.19
250.299	183.19
250.532	209.19
250.765	217.19
250.998	233.19
251.231	257.19
251.465	228.19
251.698	230.19
251.931	239.19
252.164	210.19
252.397	212.19
252.63	218.19
252.863	218.19
253.096	226.19
253.329	227.19
253.562	260.19
253.795	240.19
254.028	237.19
254.261	249.19
254.494	242.19
254.727	273.19
254.96	308.19
255.193	307.19
255.426	265.19
255.659	241.19
255.892	243.19
256.124	247.19
256.357	261.19
256.59	235.19
256.823	235.19
257.056	222.19
257.289	235.19
257.521	231.19
257.754	230.19
257.987	220.19
258.22	225.19
258.452	199.19
258.685	221.19
258.918	224.19
259.151	219.19
259.383	223.19
259.616	224.19
259.849	243.19
260.081	252.19
260.314	275.19
260.547	274.19
260.779	275.19
261.012	247.19
261.244	225.19
261.477	259.19
261.71	260.19
261.942	242.19
262.175	270.19
262.407	255.19
262.64	220.19
262.872	233.19
263.105	221.19
263.337	217.19
263.57	221.19
263.802	223.19
264.035	215.19
264.267	208.19
264.499	219.19
264.732	219.19
264.964	198.19
265.197	203.19
265.429	202.19
265.661	204.19
265.894	247.19
266.126	232.19
266.358	207.19
266.591	223.19
266.823	219.19
267.055	211.19
267.287	236.19
267.52	242.19
267.752	223.19
267.984	241.19
268.216	247.19
268.448	242.19
268.681	222.19
268.913	253.19
269.145	261.19
269.377	300.19
269.609	273.19
269.841	275.19
270.073	288.19
270.306	304.19
270.538	326.19
270.77	327.19
271.002	318.19
271.234	300.19
271.466	317.19
271.698	326.19
271.93	348.19
272.162	340.19
272.394	337.19
272.626	325.19
272.858	305.19
273.09	281.19
273.322	296.19
273.553	277.19
273.785	269.19
274.017	272.19
274.249	266.19
274.481	269.19
274.713	269.19
274.945	264.19
275.176	264.19
275.408	287.19
275.64	270.19
275.872	255.19
276.104	278.19
276.335	267.19
276.567	267.19
276.799	320.19
277.031	332.19
277.262	341.19
277.494	328.19
277.726	317.19
277.957	280.19
278.189	284.19
278.421	274.19
278.652	276.19
278.884	267.19
279.115	257.19
279.347	263.19
279.579	267.19
279.81	275.19
280.042	263.19
280.273	267.19
280.505	274.19
280.736	255.19
280.968	278.19
281.199	259.19
281.431	260.19
281.662	274.19
281.894	266.19
282.125	292.19
282.356	289.19
282.588	320.19
282.819	329.19
283.051	275.19
283.282	289.19
283.513	263.19
283.745	261.19
283.976	281.19
284.207	298.19
284.439	267.19
284.67	272.19
284.901	267.19
285.132	268.19
285.364	285.19
285.595	267.19
285.826	258.19
286.057	275.19
286.288	262.19
286.52	281.19
286.751	280.19
286.982	266.19
287.213	281.19
287.444	292.19
287.675	284.19
287.906	307.19
288.138	303.19
288.369	308.19
288.6	291.19
288.831	300.19
289.062	286.19
289.293	275.19
289.524	265.19
289.755	297.19
289.986	288.19
290.217	279.19
290.448	260.19
290.679	266.19
290.91	283.19
291.141	285.19
291.371	278.19
291.602	284.19
291.833	273.19
292.064	263.19
292.295	278.19
292.526	265.19
292.757	283.19
292.987	263.19
293.218	272.19
293.449	281.19
293.68	279.19
293.91	282.19
294.141	277.19
294.372	272.19
294.603	299.19
294.833	283.19
295.064	276.19
295.295	267.19
295.525	268.19
295.756	282.19
295.987	291.19
296.217	328.19
296.448	344.19
296.679	315.19
296.909	284.19
297.14	287.19
297.37	290.19
297.601	296.19
297.831	274.19
298.062	287.19
298.292	284.19
298.523	301.19
298.753	298.19
298.984	291.19
299.214	294.19
299.445	283.19
299.675	292.19
299.905	297.19
300.136	300.19
300.366	282.19
300.597	306.19
300.827	307.19
301.057	315.19
301.288	329.19
301.518	294.19
301.748	315.19
301.979	313.19
302.209	320.19
302.439	313.19
302.669	312.19
302.9	304.19
303.13	303.19
303.36	319.19
303.59	320.19
303.82	339.19
304.051	330.19
304.281	293.19
304.511	303.19
304.741	284.19
304.971	299.19
305.201	316.19
305.431	319.19
305.661	319.19
305.891	320.19
306.121	309.19
306.352	319.19
306.582	330.19
306.812	308.19
307.042	311.19
307.272	319.19
307.502	309.19
307.731	322.19
307.961	322.19
308.191	315.19
308.421	322.19
308.651	313.19
308.881	315.19
309.111	329.19
309.341	326.19
309.571	356.19
309.8	357.19
310.03	384.19
310.26	376.19
310.49	379.19
310.72	383.19
310.949	412.19
311.179	419.19
311.409	392.19
311.639	385.19
311.868	377.19
312.098	377.19
312.328	386.19
312.557	402.19
312.787	430.19
313.017	435.19
313.246	381.19
313.476	371.19
313.706	379.19
313.935	391.19
314.165	398.19
314.394	385.19
314.624	405.19
314.853	394.19
315.083	400.19
315.312	375.19
315.542	356.19
315.771	371.19
316.001	359.19
316.23	369.19
316.46	352.19
316.689	361.19
316.919	370.19
317.148	387.19
317.377	388.19
317.607	392.19
317.836	378.19
318.065	376.19
318.295	366.19
318.524	360.19
318.753	367.19
318.983	371.19
319.212	377.19
319.441	381.19
319.67	401.19
319.9	370.19
320.129	377.19
320.358	388.19
320.587	390.19
320.816	377.19
321.046	399.19
321.275	408.19
321.504	393.19
321.733	409.19
321.962	395.19
322.191	421.19
322.42	435.19
322.649	453.19
322.878	484.19
323.108	487.19
323.337	517.19
323.566	549.19
323.795	600.19
324.024	643.19
324.253	795.19
324.482	1161.19
324.71	1817.19
324.939	2601.19
325.168	2274.19
325.397	1203.19
325.626	781.19
325.855	632.19
326.084	574.19
326.313	546.19
326.542	550.19
326.77	616.19
326.999	742.19
327.228	1032.19
327.457	1598.19
327.686	2003.19
327.914	1327.19
328.143	853.19
328.372	723.19
328.6	699.19
328.829	656.19
329.058	686.19
329.287	647.19
329.515	610.19
329.744	539.19
329.972	536.19
330.201	586.19
330.43	627.19
330.658	666.19
330.887	689.19
331.115	661.19
331.344	579.19
331.572	512.19
331.801	513.19
332.03	499.19
332.258	483.19
332.486	459.19
332.715	457.19
332.943	456.19
333.172	447.19
333.4	450.19
333.629	452.19
333.857	472.19
334.085	467.19
334.314	516.19
334.542	523.19
334.771	547.19
334.999	515.19
335.227	475.19
335.455	465.19
335.684	432.19
335.912	449.19
336.14	416.19
336.369	444.19
336.597	451.19
336.825	443.19
337.053	446.19
337.281	430.19
337.51	431.19
337.738	427.19
337.966	431.19
338.194	428.19
338.422	425.19
338.65	425.19
338.878	415.19
339.106	425.19
339.334	417.19
339.562	404.19
339.79	423.19
340.018	414.19
340.246	417.19
340.474	415.19
340.702	404.19
340.93	427.19
341.158	405.19
341.386	412.19
341.614	432.19
341.842	419.19
342.07	409.19
342.298	401.19
342.526	414.19
342.754	385.19
342.981	386.19
343.209	377.19
343.437	390.19
343.665	407.19
343.893	401.19
344.12	413.19
344.348	424.19
344.576	428.19
344.804	410.19
345.031	448.19
345.259	448.19
345.487	437.19
345.714	415.19
345.942	433.19
346.17	415.19
346.397	411.19
346.625	408.19
346.853	423.19
347.08	418.19
347.308	416.19
347.535	439.19
347.763	439.19
347.99	424.19
348.218	431.19
348.445	432.19
348.673	436.19
348.9	416.19
349.128	400.19
349.355	380.19
349.583	395.19
349.81	391.19
350.037	387.19
350.265	392.19
350.492	383.19
350.72	392.19
350.947	394.19
351.174	401.19
351.402	419.19
351.629	411.19
351.856	413.19
352.083	417.19
352.311	438.19
352.538	449.19
352.765	435.19
352.992	427.19
353.22	411.19
353.447	412.19
353.674	389.19
353.901	396.19
354.128	381.19
354.355	362.19
354.583	363.19
354.81	365.19
355.037	379.19
355.264	351.19
355.491	389.19
355.718	377.19
355.945	347.19
356.172	385.19
356.399	372.19
356.626	355.19
356.853	397.19
357.08	399.19
357.307	368.19
357.534	353.19
357.761	356.19
357.988	370.19
358.215	364.19
358.441	379.19
358.668	379.19
358.895	373.19
359.122	396.19
359.349	389.19
359.576	421.19
359.802	438.19
360.029	465.19
360.256	474.19
360.483	475.19
360.709	415.19
360.936	411.19
361.163	408.19
361.39	413.19
361.616	417.19
361.843	415.19
362.07	408.19
362.296	429.19
362.523	432.19
362.749	396.19
362.976	378.19
363.203	403.19
363.429	388.19
363.656	401.19
363.882	390.19
364.109	376.19
364.335	395.19
364.562	377.19
364.788	388.19
365.015	390.19
365.241	385.19
365.468	397.19
365.694	392.19
365.92	395.19
366.147	407.19
366.373	380.19
366.599	384.19
366.826	363.19
367.052	360.19
367.278	379.19
367.505	379.19
367.731	376.19
367.957	392.19
368.184	367.19
368.41	400.19
368.636	375.19
368.862	384.19
369.089	385.19
369.315	370.19
369.541	353.19
369.767	367.19
369.993	368.19
370.219	403.19
370.445	362.19
370.672	358.19
370.898	365.19
371.124	353.19
371.35	355.19
371.576	372.19
371.802	377.19
372.028	367.19
372.254	353.19
372.48	381.19
372.706	365.19
372.932	377.19
373.158	373.19
373.384	357.19
373.61	358.19
373.835	365.19
374.061	379.19
374.287	374.19
374.513	388.19
374.739	386.19
374.965	354.19
375.191	365.19
375.416	334.19
375.642	358.19
375.868	372.19
376.094	363.19
376.319	365.19
376.545	364.19
376.771	369.19
376.997	369.19
377.222	361.19
377.448	364.19
377.674	374.19
377.899	349.19
378.125	359.19
378.35	372.19
378.576	364.19
378.802	361.19
379.027	348.19
379.253	370.19
379.478	344.19
379.704	368.19
379.929	371.19
380.155	384.19
380.38	384.19
380.606	387.19
380.831	355.19
381.057	373.19
381.282	355.19
381.507	358.19
381.733	373.19
381.958	367.19
382.184	356.19
382.409	351.19
382.634	371.19
382.86	362.19
383.085	379.19
383.31	380.19
383.535	379.19
383.761	368.19
383.986	410.19
384.211	384.19
384.436	393.19
384.662	388.19
384.887	387.19
385.112	397.19
385.337	383.19
385.562	373.19
385.787	377.19
386.013	409.19
386.238	403.19
386.463	418.19
386.688	390.19
386.913	392.19
387.138	395.19
387.363	381.19
387.588	400.19
387.813	397.19
388.038	397.19
388.263	371.19
388.488	380.19
388.713	397.19
388.938	379.19
389.163	394.19
389.387	381.19
389.612	391.19
389.837	373.19
390.062	403.19
390.287	402.19
390.512	392.19
390.736	386.19
390.961	363.19
391.186	383.19
391.411	389.19
391.636	396.19
391.86	389.19
392.085	394.19
392.31	392.19
392.534	409.19
392.759	389.19
392.984	385.19
393.208	384.19
393.433	394.19
393.658	378.19
393.882	388.19
394.107	394.19
394.331	402.19
394.556	397.19
394.78	399.19
395.005	414.19
395.229	396.19
395.454	407.19
395.678	404.19
395.903	411.19
396.127	437.19
396.352	432.19
396.576	405.19
396.801	415.19
397.025	413.19
397.249	383.19
397.474	399.19
397.698	420.19
397.922	413.19
398.147	449.19
398.371	459.19
398.595	427.19
398.82	441.19
399.044	436.19
399.268	448.19
399.492	491.19
399.717	470.19
399.941	513.19
400.165	551.19
400.389	522.19
400.613	509.19
400.837	460.19
401.062	446.19
401.286	438.19
401.51	457.19
401.734	431.19
401.958	449.19
402.182	464.19
402.406	473.19
402.63	462.19
402.854	463.19
403.078	461.19
403.302	472.19
403.526	465.19
403.75	477.19
403.974	454.19
404.198	437.19
404.422	490.19
404.645	465.19
404.869	492.19
405.093	489.19
405.317	543.19
405.541	578.19
405.765	525.19
405.988	507.19
406.212	508.19
406.436	552.19
406.66	522.19
406.883	513.19
407.107	501.19
407.331	559.19
407.555	644.19
407.778	644.19
408.002	594.19
408.226	548.19
408.449	518.19
408.673	523.19
408.896	544.19
409.12	594.19
409.344	537.19
409.567	489.19
409.791	487.19
410.014	465.19
410.238	474.19
410.461	463.19
410.685	468.19
410.908	491.19
411.132	548.19
411.355	561.19
411.578	545.19
411.802	469.19
412.025	455.19
412.249	466.19
412.472	515.19
412.695	559.19
412.919	534.19
413.142	513.19
413.365	466.19
413.589	439.19
413.812	442.19
414.035	455.19
414.258	451.19
414.482	439.19
414.705	436.19
414.928	438.19
415.151	439.19
415.374	423.19
415.597	444.19
415.821	426.19
416.044	456.19
416.267	450.19
416.49	437.19
416.713	424.19
416.936	450.19
417.159	436.19
417.382	449.19
417.605	466.19
417.828	467.19
418.051	499.19
418.274	484.19
418.497	483.19
418.72	431.19
418.943	452.19
419.166	459.19
419.389	467.19
419.611	486.19
419.834	468.19
420.057	470.19
420.28	475.19
420.503	482.19
420.726	478.19
420.948	495.19
421.171	527.19
421.394	562.19
421.617	512.19
421.839	475.19
422.062	472.19
422.285	479.19
422.507	533.19
422.73	611.19
422.953	599.19
423.175	510.19
423.398	526.19
423.621	487.19
423.843	501.19
424.066	526.19
424.288	513.19
424.511	557.19
424.733	580.19
424.956	693.19
425.178	673.19
425.401	672.19
425.623	703.19
425.846	575.19
426.068	539.19
426.291	526.19
426.513	522.19
426.735	552.19
426.958	575.19
427.18	676.19
427.402	791.19
427.625	863.19
427.847	833.19
428.069	689.19
428.292	614.19
428.514	566.19
428.736	532.19
428.958	523.19
429.181	487.19
429.403	476.19
429.625	499.19
429.847	553.19
430.069	621.19
430.292	617.19
430.514	524.19
430.736	490.19
430.958	479.19
431.18	460.19
431.402	442.19
431.624	460.19
431.846	436.19
432.068	465.19
432.29	455.19
432.512	466.19
432.734	470.19
432.956	452.19
433.178	482.19
433.4	476.19
433.622	474.19
433.844	454.19
434.066	445.19
434.287	435.19
434.509	455.19
434.731	460.19
434.953	471.19
435.175	479.19
435.397	516.19
435.618	540.19
435.84	560.19
436.062	689.19
436.284	719.19
436.505	601.19
436.727	546.19
436.949	479.19
437.17	515.19
437.392	480.19
437.614	502.19
437.835	552.19
438.057	667.19
438.278	785.19
438.5	737.19
438.721	812.19
438.943	791.19
439.165	629.19
439.386	567.19
439.608	591.19
439.829	570.19
440.05	591.19
440.272	642.19
440.493	614.19
440.715	560.19
440.936	513.19
441.158	516.19
441.379	501.19
441.6	511.19
441.822	514.19
442.043	582.19
442.264	667.19
442.486	709.19
442.707	620.19
442.928	562.19
443.149	552.19
443.371	593.19
443.592	641.19
443.813	707.19
444.034	782.19
444.255	644.19
444.476	555.19
444.698	538.19
444.919	517.19
445.14	618.19
445.361	580.19
445.582	581.19
445.803	636.19
446.024	773.19
446.245	778.19
446.466	693.19
446.687	596.19
446.908	539.19
447.129	552.19
447.35	488.19
447.571	512.19
447.792	503.19
448.013	516.19
448.234	538.19
448.455	565.19
448.675	724.19
448.896	809.19
449.117	710.19
449.338	639.19
449.559	756.19
449.779	833.19
450	696.19
450.221	558.19
450.442	496.19
450.662	488.19
450.883	530.19
451.104	550.19
451.324	521.19
451.545	482.19
451.766	460.19
451.986	476.19
452.207	453.19
452.428	441.19
452.648	452.19
452.869	455.19
453.089	464.19
453.31	460.19
453.53	457.19
453.751	433.19
453.971	482.19
454.192	468.19
454.412	471.19
454.633	445.19
454.853	447.19
455.073	449.19
455.294	489.19
455.514	563.19
455.734	546.19
455.955	468.19
456.175	433.19
456.395	419.19
456.616	411.19
456.836	409.19
457.056	413.19
457.276	383.19
457.497	415.19
457.717	424.19
457.937	411.19
458.157	418.19
458.377	411.19
458.598	450.19
458.818	553.19
459.038	631.19
459.258	635.19
459.478	517.19
459.698	483.19
459.918	449.19
460.138	451.19
460.358	438.19
460.578	443.19
460.798	452.19
461.018	452.19
461.238	450.19
461.458	444.19
461.678	436.19
461.898	445.19
462.118	442.19
462.338	435.19
462.558	431.19
462.777	438.19
462.997	435.19
463.217	466.19
463.437	473.19
463.657	460.19
463.876	444.19
464.096	460.19
464.316	459.19
464.536	470.19
464.755	471.19
464.975	489.19
465.195	557.19
465.414	649.19
465.634	578.19
465.854	495.19
466.073	492.19
466.293	453.19
466.512	467.19
466.732	436.19
466.951	443.19
467.171	433.19
467.391	460.19
467.61	447.19
467.829	464.19
468.049	470.19
468.268	461.19
468.488	448.19
468.707	437.19
468.927	428.19
469.146	426.19
469.365	417.19
469.585	412.19
469.804	449.19
470.023	443.19
470.243	464.19
470.462	457.19
470.681	485.19
470.901	476.19
471.12	457.19
471.339	438.19
471.558	457.19
471.777	448.19
471.997	435.19
472.216	448.19
472.435	500.19
472.654	499.19
472.873	481.19
473.092	458.19
473.311	442.19
473.53	464.19
473.749	452.19
473.968	488.19
474.187	634.19
474.406	642.19
474.625	530.19
474.844	475.19
475.063	459.19
475.282	477.19
475.501	471.19
475.72	458.19
475.939	473.19
476.158	473.19
476.377	473.19
476.596	467.19
476.814	471.19
477.033	491.19
477.252	491.19
477.471	484.19
477.69	503.19
477.908	482.19
478.127	486.19
478.346	483.19
478.564	460.19
478.783	460.19
479.002	520.19
479.22	494.19
479.439	538.19
479.658	548.19
479.876	545.19
480.095	547.19
480.313	585.19
480.532	568.19
480.751	559.19
480.969	561.19
481.188	651.19
481.406	696.19
481.624	604.19
481.843	563.19
482.061	543.19
482.28	558.19
482.498	547.19
482.717	541.19
482.935	537.19
483.153	536.19
483.372	548.19
483.59	545.19
483.808	552.19
484.027	547.19
484.245	535.19
484.463	545.19
484.681	543.19
484.9	555.19
485.118	550.19
485.336	550.19
485.554	549.19
485.772	577.19
485.99	540.19
486.209	581.19
486.427	565.19
486.645	579.19
486.863	614.19
487.081	591.19
487.299	595.19
487.517	585.19
487.735	581.19
487.953	562.19
488.171	584.19
488.389	567.19
488.607	584.19
488.825	613.19
489.043	580.19
489.261	575.19
489.479	606.19
489.696	600.19
489.914	584.19
490.132	614.19
490.35	590.19
490.568	615.19
490.786	654.19
491.003	637.19
491.221	663.19
491.439	665.19
491.657	671.19
491.874	679.19
492.092	701.19
492.31	710.19
492.527	684.19
492.745	683.19
492.963	694.19
493.18	693.19
493.398	683.19
493.615	690.19
493.833	703.19
494.05	697.19
494.268	695.19
494.485	712.19
494.703	700.19
494.92	687.19
495.138	712.19
495.355	702.19
495.573	698.19
495.79	702.19
496.008	712.19
496.225	699.19
496.442	708.19
496.66	671.19
496.877	692.19
497.094	699.19
497.312	703.19
497.529	733.19
497.746	724.19
497.963	711.19
498.181	730.19
498.398	759.19
498.615	754.19
498.832	761.19
499.049	723.19
499.267	771.19
499.484	771.19
499.701	791.19
499.918	778.19
500.135	835.19
500.352	815.19
500.569	846.19
500.786	842.19
501.003	848.19
501.22	828.19
501.437	822.19
501.654	810.19
501.871	804.19
