Data from 1980.PennyLincolnUp.Lamp.En5.5.200Scan.071819.P1_HRD10591_16-38-03-957.txt Node
Date: Thu Jul 18 16:38:03 EDT 2019
User: cochatt
Spectrometer: HR+D1059
Trigger mode: 1
Integration Time (sec): 1.000000E-1
Scans to average: 1
Electric dark correction enabled: true
Nonlinearity correction enabled: false
Boxcar width: 0
XAxis mode: Wavelengths
Number of Pixels in Spectrum: 2048
>>>>>Begin Spectral Data<<<<<
223.165	-8.12
223.4	-8.12
223.635	-8.12
223.869	-12.12
224.104	-16.12
224.338	-15.12
224.573	-20.12
224.808	-16.12
225.042	0.88
225.277	8.88
225.511	-1.12
225.746	6.88
225.98	7.88
226.215	-0.12
226.449	10.88
226.683	14.88
226.918	15.88
227.152	22.88
227.387	30.88
227.621	23.88
227.856	38.88
228.09	46.88
228.324	50.88
228.559	47.88
228.793	63.88
229.027	99.88
229.262	116.88
229.496	124.88
229.73	138.88
229.964	165.88
230.199	135.88
230.433	117.88
230.667	126.88
230.901	121.88
231.136	99.88
231.37	119.88
231.604	102.88
231.838	113.88
232.072	115.88
232.306	114.88
232.541	113.88
232.775	127.88
233.009	113.88
233.243	119.88
233.477	110.88
233.711	113.88
233.945	116.88
234.179	109.88
234.413	111.88
234.647	109.88
234.881	113.88
235.115	121.88
235.349	120.88
235.583	109.88
235.817	123.88
236.051	130.88
236.285	124.88
236.519	130.88
236.753	141.88
236.987	154.88
237.221	201.88
237.455	241.88
237.689	197.88
237.922	148.88
238.156	141.88
238.39	134.88
238.624	139.88
238.858	118.88
239.091	115.88
239.325	131.88
239.559	142.88
239.793	129.88
240.027	133.88
240.26	153.88
240.494	141.88
240.728	153.88
240.961	151.88
241.195	159.88
241.429	132.88
241.662	139.88
241.896	134.88
242.13	139.88
242.363	144.88
242.597	139.88
242.83	147.88
243.064	132.88
243.298	134.88
243.531	153.88
243.765	125.88
243.998	129.88
244.232	157.88
244.465	129.88
244.699	139.88
244.932	154.88
245.166	131.88
245.399	147.88
245.633	130.88
245.866	145.88
246.099	152.88
246.333	145.88
246.566	149.88
246.8	145.88
247.033	149.88
247.266	161.88
247.5	166.88
247.733	162.88
247.966	164.88
248.2	181.88
248.433	151.88
248.666	193.88
248.899	194.88
249.133	194.88
249.366	226.88
249.599	213.88
249.832	194.88
250.066	175.88
250.299	189.88
250.532	199.88
250.765	220.88
250.998	234.88
251.231	242.88
251.465	219.88
251.698	203.88
251.931	203.88
252.164	222.88
252.397	196.88
252.63	208.88
252.863	230.88
253.096	231.88
253.329	238.88
253.562	246.88
253.795	245.88
254.028	233.88
254.261	208.88
254.494	244.88
254.727	273.88
254.96	319.88
255.193	292.88
255.426	261.88
255.659	239.88
255.892	253.88
256.124	243.88
256.357	266.88
256.59	227.88
256.823	243.88
257.056	214.88
257.289	213.88
257.521	217.88
257.754	226.88
257.987	218.88
258.22	211.88
258.452	209.88
258.685	213.88
258.918	216.88
259.151	228.88
259.383	221.88
259.616	213.88
259.849	217.88
260.081	240.88
260.314	254.88
260.547	273.88
260.779	261.88
261.012	239.88
261.244	236.88
261.477	239.88
261.71	222.88
261.942	214.88
262.175	267.88
262.407	257.88
262.64	231.88
262.872	222.88
263.105	240.88
263.337	201.88
263.57	224.88
263.802	222.88
264.035	223.88
264.267	222.88
264.499	207.88
264.732	226.88
264.964	185.88
265.197	209.88
265.429	209.88
265.661	214.88
265.894	193.88
266.126	220.88
266.358	211.88
266.591	202.88
266.823	230.88
267.055	237.88
267.287	231.88
267.52	232.88
267.752	228.88
267.984	245.88
268.216	228.88
268.448	231.88
268.681	254.88
268.913	272.88
269.145	250.88
269.377	269.88
269.609	287.88
269.841	264.88
270.073	280.88
270.306	302.88
270.538	330.88
270.77	345.88
271.002	330.88
271.234	302.88
271.466	318.88
271.698	337.88
271.93	346.88
272.162	345.88
272.394	343.88
272.626	329.88
272.858	304.88
273.09	300.88
273.322	286.88
273.553	280.88
273.785	282.88
274.017	287.88
274.249	262.88
274.481	282.88
274.713	268.88
274.945	266.88
275.176	267.88
275.408	283.88
275.64	281.88
275.872	265.88
276.104	270.88
276.335	268.88
276.567	283.88
276.799	295.88
277.031	314.88
277.262	324.88
277.494	347.88
277.726	327.88
277.957	311.88
278.189	288.88
278.421	287.88
278.652	275.88
278.884	253.88
279.115	270.88
279.347	271.88
279.579	280.88
279.81	287.88
280.042	265.88
280.273	266.88
280.505	264.88
280.736	255.88
280.968	271.88
281.199	266.88
281.431	259.88
281.662	277.88
281.894	253.88
282.125	257.88
282.356	276.88
282.588	307.88
282.819	319.88
283.051	278.88
283.282	276.88
283.513	281.88
283.745	278.88
283.976	278.88
284.207	278.88
284.439	272.88
284.67	279.88
284.901	274.88
285.132	271.88
285.364	287.88
285.595	285.88
285.826	296.88
286.057	282.88
286.288	271.88
286.52	273.88
286.751	265.88
286.982	260.88
287.213	255.88
287.444	261.88
287.675	300.88
287.906	295.88
288.138	307.88
288.369	294.88
288.6	295.88
288.831	273.88
289.062	296.88
289.293	298.88
289.524	289.88
289.755	262.88
289.986	271.88
290.217	273.88
290.448	288.88
290.679	265.88
290.91	268.88
291.141	270.88
291.371	282.88
291.602	265.88
291.833	281.88
292.064	273.88
292.295	283.88
292.526	289.88
292.757	290.88
292.987	279.88
293.218	277.88
293.449	284.88
293.68	280.88
293.91	276.88
294.141	297.88
294.372	278.88
294.603	288.88
294.833	288.88
295.064	289.88
295.295	287.88
295.525	289.88
295.756	302.88
295.987	294.88
296.217	343.88
296.448	327.88
296.679	308.88
296.909	282.88
297.14	274.88
297.37	296.88
297.601	297.88
297.831	305.88
298.062	286.88
298.292	303.88
298.523	294.88
298.753	301.88
298.984	279.88
299.214	315.88
299.445	296.88
299.675	292.88
299.905	312.88
300.136	291.88
300.366	287.88
300.597	288.88
300.827	314.88
301.057	287.88
301.288	312.88
301.518	335.88
301.748	341.88
301.979	321.88
302.209	319.88
302.439	324.88
302.669	293.88
302.9	306.88
303.13	297.88
303.36	314.88
303.59	323.88
303.82	331.88
304.051	328.88
304.281	318.88
304.511	310.88
304.741	315.88
304.971	314.88
305.201	306.88
305.431	326.88
305.661	309.88
305.891	305.88
306.121	298.88
306.352	327.88
306.582	323.88
306.812	308.88
307.042	313.88
307.272	321.88
307.502	311.88
307.731	324.88
307.961	301.88
308.191	323.88
308.421	317.88
308.651	338.88
308.881	341.88
309.111	349.88
309.341	337.88
309.571	341.88
309.8	344.88
310.03	373.88
310.26	395.88
310.49	381.88
310.72	421.88
310.949	398.88
311.179	413.88
311.409	382.88
311.639	369.88
311.868	387.88
312.098	372.88
312.328	378.88
312.557	405.88
312.787	415.88
313.017	423.88
313.246	399.88
313.476	379.88
313.706	397.88
313.935	389.88
314.165	380.88
314.394	414.88
314.624	395.88
314.853	376.88
315.083	371.88
315.312	370.88
315.542	359.88
315.771	367.88
316.001	359.88
316.23	349.88
316.46	385.88
316.689	365.88
316.919	375.88
317.148	390.88
317.377	385.88
317.607	388.88
317.836	370.88
318.065	381.88
318.295	373.88
318.524	381.88
318.753	362.88
318.983	373.88
319.212	382.88
319.441	378.88
319.67	400.88
319.9	389.88
320.129	364.88
320.358	370.88
320.587	372.88
320.816	386.88
321.046	417.88
321.275	401.88
321.504	391.88
321.733	414.88
321.962	410.88
322.191	419.88
322.42	455.88
322.649	462.88
322.878	470.88
323.108	497.88
323.337	512.88
323.566	560.88
323.795	575.88
324.024	649.88
324.253	799.88
324.482	1184.88
324.71	1797.88
324.939	2561.88
325.168	2261.88
325.397	1177.88
325.626	788.88
325.855	619.88
326.084	565.88
326.313	589.88
326.542	584.88
326.77	618.88
326.999	735.88
327.228	1018.88
327.457	1617.88
327.686	1937.88
327.914	1344.88
328.143	869.88
328.372	752.88
328.6	678.88
328.829	633.88
329.058	669.88
329.287	689.88
329.515	631.88
329.744	562.88
329.972	547.88
330.201	587.88
330.43	628.88
330.658	675.88
330.887	699.88
331.115	662.88
331.344	557.88
331.572	538.88
331.801	529.88
332.03	501.88
332.258	503.88
332.486	465.88
332.715	453.88
332.943	443.88
333.172	448.88
333.4	444.88
333.629	459.88
333.857	496.88
334.085	486.88
334.314	531.88
334.542	538.88
334.771	551.88
334.999	502.88
335.227	483.88
335.455	463.88
335.684	445.88
335.912	425.88
336.14	429.88
336.369	425.88
336.597	449.88
336.825	458.88
337.053	424.88
337.281	404.88
337.51	432.88
337.738	434.88
337.966	431.88
338.194	426.88
338.422	452.88
338.65	424.88
338.878	421.88
339.106	438.88
339.334	427.88
339.562	427.88
339.79	401.88
340.018	427.88
340.246	410.88
340.474	445.88
340.702	414.88
340.93	416.88
341.158	420.88
341.386	406.88
341.614	419.88
341.842	426.88
342.07	418.88
342.298	409.88
342.526	411.88
342.754	406.88
342.981	394.88
343.209	391.88
343.437	389.88
343.665	404.88
343.893	394.88
344.12	424.88
344.348	430.88
344.576	414.88
344.804	446.88
345.031	427.88
345.259	453.88
345.487	436.88
345.714	427.88
345.942	431.88
346.17	406.88
346.397	379.88
346.625	414.88
346.853	412.88
347.08	414.88
347.308	424.88
347.535	411.88
347.763	441.88
347.99	434.88
348.218	447.88
348.445	421.88
348.673	431.88
348.9	415.88
349.128	427.88
349.355	389.88
349.583	396.88
349.81	382.88
350.037	399.88
350.265	389.88
350.492	381.88
350.72	409.88
350.947	404.88
351.174	411.88
351.402	419.88
351.629	417.88
351.856	421.88
352.083	445.88
352.311	427.88
352.538	440.88
352.765	459.88
352.992	437.88
353.22	427.88
353.447	411.88
353.674	413.88
353.901	395.88
354.128	377.88
354.355	380.88
354.583	398.88
354.81	381.88
355.037	378.88
355.264	364.88
355.491	369.88
355.718	368.88
355.945	366.88
356.172	372.88
356.399	372.88
356.626	386.88
356.853	380.88
357.08	370.88
357.307	346.88
357.534	350.88
357.761	386.88
357.988	372.88
358.215	375.88
358.441	353.88
358.668	360.88
358.895	371.88
359.122	399.88
359.349	397.88
359.576	410.88
359.802	454.88
360.029	469.88
360.256	499.88
360.483	458.88
360.709	442.88
360.936	408.88
361.163	417.88
361.39	414.88
361.616	407.88
361.843	407.88
362.07	414.88
362.296	413.88
362.523	422.88
362.749	420.88
362.976	411.88
363.203	406.88
363.429	387.88
363.656	422.88
363.882	400.88
364.109	398.88
364.335	406.88
364.562	402.88
364.788	405.88
365.015	391.88
365.241	384.88
365.468	384.88
365.694	395.88
365.92	389.88
366.147	414.88
366.373	385.88
366.599	405.88
366.826	366.88
367.052	385.88
367.278	385.88
367.505	395.88
367.731	376.88
367.957	375.88
368.184	376.88
368.41	391.88
368.636	385.88
368.862	400.88
369.089	395.88
369.315	385.88
369.541	381.88
369.767	381.88
369.993	379.88
370.219	389.88
370.445	388.88
370.672	378.88
370.898	365.88
371.124	378.88
371.35	361.88
371.576	380.88
371.802	369.88
372.028	371.88
372.254	365.88
372.48	375.88
372.706	372.88
372.932	376.88
373.158	380.88
373.384	391.88
373.61	362.88
373.835	359.88
374.061	373.88
374.287	385.88
374.513	387.88
374.739	372.88
374.965	374.88
375.191	381.88
375.416	361.88
375.642	383.88
375.868	376.88
376.094	373.88
376.319	380.88
376.545	373.88
376.771	371.88
376.997	389.88
377.222	356.88
377.448	333.88
377.674	352.88
377.899	339.88
378.125	360.88
378.35	346.88
378.576	359.88
378.802	356.88
379.027	368.88
379.253	386.88
379.478	352.88
379.704	370.88
379.929	378.88
380.155	373.88
380.38	360.88
380.606	359.88
380.831	388.88
381.057	367.88
381.282	374.88
381.507	370.88
381.733	388.88
381.958	357.88
382.184	372.88
382.409	373.88
382.634	371.88
382.86	385.88
383.085	387.88
383.31	373.88
383.535	386.88
383.761	387.88
383.986	368.88
384.211	365.88
384.436	404.88
384.662	381.88
384.887	386.88
385.112	389.88
385.337	401.88
385.562	397.88
385.787	390.88
386.013	406.88
386.238	405.88
386.463	403.88
386.688	388.88
386.913	376.88
387.138	383.88
387.363	375.88
387.588	406.88
387.813	377.88
388.038	386.88
388.263	403.88
388.488	397.88
388.713	383.88
388.938	400.88
389.163	397.88
389.387	402.88
389.612	375.88
389.837	369.88
390.062	396.88
390.287	401.88
390.512	381.88
390.736	397.88
390.961	395.88
391.186	393.88
391.411	398.88
391.636	410.88
391.86	399.88
392.085	424.88
392.31	412.88
392.534	367.88
392.759	402.88
392.984	384.88
393.208	384.88
393.433	394.88
393.658	384.88
393.882	379.88
394.107	383.88
394.331	376.88
394.556	387.88
394.78	393.88
395.005	389.88
395.229	375.88
395.454	400.88
395.678	390.88
395.903	424.88
396.127	434.88
396.352	459.88
396.576	425.88
396.801	419.88
397.025	419.88
397.249	414.88
397.474	429.88
397.698	392.88
397.922	454.88
398.147	441.88
398.371	454.88
398.595	456.88
398.82	427.88
399.044	446.88
399.268	453.88
399.492	475.88
399.717	487.88
399.941	522.88
400.165	561.88
400.389	568.88
400.613	512.88
400.837	484.88
401.062	473.88
401.286	462.88
401.51	469.88
401.734	465.88
401.958	458.88
402.182	463.88
402.406	465.88
402.63	465.88
402.854	448.88
403.078	466.88
403.302	483.88
403.526	480.88
403.75	474.88
403.974	465.88
404.198	467.88
404.422	477.88
404.645	482.88
404.869	496.88
405.093	518.88
405.317	553.88
405.541	616.88
405.765	537.88
405.988	521.88
406.212	521.88
406.436	534.88
406.66	533.88
406.883	521.88
407.107	534.88
407.331	575.88
407.555	671.88
407.778	627.88
408.002	577.88
408.226	530.88
408.449	500.88
408.673	531.88
408.896	552.88
409.12	564.88
409.344	579.88
409.567	490.88
409.791	489.88
410.014	462.88
410.238	477.88
410.461	492.88
410.685	495.88
410.908	493.88
411.132	522.88
411.355	561.88
411.578	557.88
411.802	491.88
412.025	487.88
412.249	495.88
412.472	499.88
412.695	550.88
412.919	537.88
413.142	506.88
413.365	456.88
413.589	456.88
413.812	445.88
414.035	453.88
414.258	448.88
414.482	439.88
414.705	446.88
414.928	430.88
415.151	439.88
415.374	442.88
415.597	456.88
415.821	421.88
416.044	426.88
416.267	457.88
416.49	452.88
416.713	450.88
416.936	451.88
417.159	429.88
417.382	458.88
417.605	453.88
417.828	473.88
418.051	481.88
418.274	468.88
418.497	453.88
418.72	452.88
418.943	463.88
419.166	470.88
419.389	479.88
419.611	475.88
419.834	484.88
420.057	476.88
420.28	478.88
420.503	479.88
420.726	481.88
420.948	510.88
421.171	545.88
421.394	592.88
421.617	511.88
421.839	479.88
422.062	485.88
422.285	498.88
422.507	570.88
422.73	616.88
422.953	609.88
423.175	533.88
423.398	485.88
423.621	509.88
423.843	529.88
424.066	519.88
424.288	542.88
424.511	568.88
424.733	612.88
424.956	673.88
425.178	666.88
425.401	641.88
425.623	697.88
425.846	586.88
426.068	519.88
426.291	536.88
426.513	520.88
426.735	561.88
426.958	594.88
427.18	680.88
427.402	794.88
427.625	898.88
427.847	803.88
428.069	687.88
428.292	631.88
428.514	534.88
428.736	549.88
428.958	522.88
429.181	517.88
429.403	511.88
429.625	497.88
429.847	542.88
430.069	601.88
430.292	628.88
430.514	527.88
430.736	498.88
430.958	497.88
431.18	466.88
431.402	453.88
431.624	447.88
431.846	465.88
432.068	471.88
432.29	450.88
432.512	457.88
432.734	475.88
432.956	457.88
433.178	483.88
433.4	493.88
433.622	455.88
433.844	465.88
434.066	461.88
434.287	437.88
434.509	448.88
434.731	470.88
434.953	487.88
435.175	496.88
435.397	509.88
435.618	527.88
435.84	565.88
436.062	697.88
436.284	741.88
436.505	622.88
436.727	567.88
436.949	517.88
437.17	500.88
437.392	489.88
437.614	530.88
437.835	573.88
438.057	671.88
438.278	769.88
438.5	755.88
438.721	842.88
438.943	790.88
439.165	653.88
439.386	576.88
439.608	559.88
439.829	573.88
440.05	604.88
440.272	636.88
440.493	614.88
440.715	544.88
440.936	519.88
441.158	491.88
441.379	485.88
441.6	524.88
441.822	526.88
442.043	579.88
442.264	664.88
442.486	733.88
442.707	603.88
442.928	579.88
443.149	545.88
443.371	603.88
443.592	633.88
443.813	700.88
444.034	787.88
444.255	634.88
444.476	563.88
444.698	537.88
444.919	545.88
445.14	642.88
445.361	605.88
445.582	593.88
445.803	651.88
446.024	773.88
446.245	784.88
446.466	731.88
446.687	622.88
446.908	561.88
447.129	500.88
447.35	497.88
447.571	523.88
447.792	491.88
448.013	493.88
448.234	549.88
448.455	617.88
448.675	701.88
448.896	813.88
449.117	701.88
449.338	649.88
449.559	757.88
449.779	843.88
450	673.88
450.221	588.88
450.442	523.88
450.662	515.88
450.883	514.88
451.104	526.88
451.324	531.88
451.545	495.88
451.766	485.88
451.986	453.88
452.207	445.88
452.428	443.88
452.648	433.88
452.869	484.88
453.089	458.88
453.31	491.88
453.53	463.88
453.751	439.88
453.971	478.88
454.192	477.88
454.412	457.88
454.633	459.88
454.853	454.88
455.073	426.88
455.294	473.88
455.514	558.88
455.734	532.88
455.955	453.88
456.175	419.88
456.395	430.88
456.616	405.88
456.836	428.88
457.056	409.88
457.276	402.88
457.497	414.88
457.717	410.88
457.937	409.88
458.157	429.88
458.377	418.88
458.598	457.88
458.818	521.88
459.038	630.88
459.258	663.88
459.478	520.88
459.698	481.88
459.918	475.88
460.138	437.88
460.358	448.88
460.578	469.88
460.798	455.88
461.018	459.88
461.238	464.88
461.458	450.88
461.678	453.88
461.898	431.88
462.118	432.88
462.338	441.88
462.558	448.88
462.777	462.88
462.997	462.88
463.217	466.88
463.437	444.88
463.657	455.88
463.876	456.88
464.096	491.88
464.316	464.88
464.536	495.88
464.755	498.88
464.975	507.88
465.195	528.88
465.414	646.88
465.634	579.88
465.854	522.88
466.073	466.88
466.293	452.88
466.512	459.88
466.732	447.88
466.951	464.88
467.171	440.88
467.391	454.88
467.61	462.88
467.829	458.88
468.049	433.88
468.268	451.88
468.488	440.88
468.707	416.88
468.927	437.88
469.146	435.88
469.365	433.88
469.585	433.88
469.804	447.88
470.023	493.88
470.243	452.88
470.462	473.88
470.681	483.88
470.901	505.88
471.12	475.88
471.339	435.88
471.558	456.88
471.777	451.88
471.997	448.88
472.216	467.88
472.435	508.88
472.654	482.88
472.873	466.88
473.092	465.88
473.311	456.88
473.53	474.88
473.749	458.88
473.968	510.88
474.187	610.88
474.406	657.88
474.625	534.88
474.844	479.88
475.063	481.88
475.282	455.88
475.501	464.88
475.72	475.88
475.939	480.88
476.158	476.88
476.377	462.88
476.596	454.88
476.814	465.88
477.033	467.88
477.252	492.88
477.471	513.88
477.69	499.88
477.908	492.88
478.127	482.88
478.346	493.88
478.564	497.88
478.783	470.88
479.002	498.88
479.22	519.88
479.439	532.88
479.658	546.88
479.876	553.88
480.095	584.88
480.313	579.88
480.532	582.88
480.751	549.88
480.969	577.88
481.188	637.88
481.406	672.88
481.624	601.88
481.843	599.88
482.061	582.88
482.28	523.88
482.498	545.88
482.717	552.88
482.935	557.88
483.153	554.88
483.372	529.88
483.59	546.88
483.808	531.88
484.027	524.88
484.245	542.88
484.463	529.88
484.681	554.88
484.9	559.88
485.118	562.88
485.336	556.88
485.554	557.88
485.772	580.88
485.99	568.88
486.209	565.88
486.427	549.88
486.645	595.88
486.863	600.88
487.081	586.88
487.299	617.88
487.517	578.88
487.735	573.88
487.953	582.88
488.171	584.88
488.389	571.88
488.607	589.88
488.825	575.88
489.043	591.88
489.261	606.88
489.479	595.88
489.696	619.88
489.914	606.88
490.132	626.88
490.35	605.88
490.568	597.88
490.786	632.88
491.003	637.88
491.221	645.88
491.439	669.88
491.657	656.88
491.874	664.88
492.092	691.88
492.31	694.88
492.527	703.88
492.745	694.88
492.963	702.88
493.18	710.88
493.398	708.88
493.615	713.88
493.833	695.88
494.05	729.88
494.268	712.88
494.485	708.88
494.703	715.88
494.92	689.88
495.138	705.88
495.355	710.88
495.573	693.88
495.79	709.88
496.008	705.88
496.225	707.88
496.442	695.88
496.66	704.88
496.877	712.88
497.094	682.88
497.312	706.88
497.529	714.88
497.746	712.88
497.963	717.88
498.181	738.88
498.398	775.88
498.615	761.88
498.832	771.88
499.049	734.88
499.267	790.88
499.484	788.88
499.701	794.88
499.918	829.88
500.135	823.88
500.352	841.88
500.569	848.88
500.786	834.88
501.003	860.88
501.22	854.88
501.437	884.88
501.654	841.88
501.871	851.88
