Data from 1980.PennyLincolnUp.Lamp.En5.5.200Scan.071819.P1_HRD10591_16-36-10-956.txt Node
Date: Thu Jul 18 16:36:10 EDT 2019
User: cochatt
Spectrometer: HR+D1059
Trigger mode: 1
Integration Time (sec): 1.000000E-1
Scans to average: 1
Electric dark correction enabled: true
Nonlinearity correction enabled: false
Boxcar width: 0
XAxis mode: Wavelengths
Number of Pixels in Spectrum: 2048
>>>>>Begin Spectral Data<<<<<
223.165	-15.88
223.4	-15.88
223.635	-15.88
223.869	-13.88
224.104	-17.88
224.338	-19.88
224.573	-20.88
224.808	-10.88
225.042	-8.88
225.277	-4.88
225.511	2.12
225.746	11.12
225.98	11.12
226.215	5.12
226.449	19.12
226.683	20.12
226.918	10.12
227.152	34.12
227.387	32.12
227.621	39.12
227.856	44.12
228.09	40.12
228.324	46.12
228.559	48.12
228.793	60.12
229.027	100.12
229.262	98.12
229.496	96.12
229.73	109.12
229.964	134.12
230.199	114.12
230.433	102.12
230.667	117.12
230.901	112.12
231.136	114.12
231.37	110.12
231.604	106.12
231.838	100.12
232.072	100.12
232.306	99.12
232.541	85.12
232.775	101.12
233.009	95.12
233.243	116.12
233.477	106.12
233.711	106.12
233.945	110.12
234.179	114.12
234.413	92.12
234.647	106.12
234.881	114.12
235.115	111.12
235.349	110.12
235.583	115.12
235.817	102.12
236.051	115.12
236.285	116.12
236.519	130.12
236.753	132.12
236.987	112.12
237.221	135.12
237.455	196.12
237.689	157.12
237.922	132.12
238.156	112.12
238.39	119.12
238.624	100.12
238.858	110.12
239.091	111.12
239.325	119.12
239.559	109.12
239.793	122.12
240.027	120.12
240.26	129.12
240.494	132.12
240.728	127.12
240.961	116.12
241.195	137.12
241.429	130.12
241.662	124.12
241.896	122.12
242.13	118.12
242.363	104.12
242.597	123.12
242.83	109.12
243.064	118.12
243.298	124.12
243.531	143.12
243.765	114.12
243.998	124.12
244.232	124.12
244.465	110.12
244.699	142.12
244.932	128.12
245.166	125.12
245.399	138.12
245.633	136.12
245.866	122.12
246.099	118.12
246.333	123.12
246.566	134.12
246.8	130.12
247.033	121.12
247.266	141.12
247.5	150.12
247.733	153.12
247.966	158.12
248.2	149.12
248.433	142.12
248.666	154.12
248.899	163.12
249.133	162.12
249.366	172.12
249.599	159.12
249.832	139.12
250.066	144.12
250.299	138.12
250.532	160.12
250.765	166.12
250.998	179.12
251.231	194.12
251.465	188.12
251.698	163.12
251.931	168.12
252.164	178.12
252.397	163.12
252.63	171.12
252.863	177.12
253.096	176.12
253.329	214.12
253.562	181.12
253.795	170.12
254.028	193.12
254.261	203.12
254.494	212.12
254.727	215.12
254.96	224.12
255.193	226.12
255.426	193.12
255.659	198.12
255.892	194.12
256.124	199.12
256.357	175.12
256.59	189.12
256.823	170.12
257.056	180.12
257.289	165.12
257.521	180.12
257.754	186.12
257.987	174.12
258.22	177.12
258.452	168.12
258.685	173.12
258.918	174.12
259.151	173.12
259.383	191.12
259.616	201.12
259.849	178.12
260.081	196.12
260.314	205.12
260.547	196.12
260.779	220.12
261.012	187.12
261.244	203.12
261.477	189.12
261.71	188.12
261.942	191.12
262.175	196.12
262.407	188.12
262.64	172.12
262.872	197.12
263.105	189.12
263.337	172.12
263.57	168.12
263.802	183.12
264.035	166.12
264.267	169.12
264.499	185.12
264.732	165.12
264.964	171.12
265.197	182.12
265.429	172.12
265.661	188.12
265.894	169.12
266.126	171.12
266.358	170.12
266.591	159.12
266.823	178.12
267.055	201.12
267.287	186.12
267.52	179.12
267.752	171.12
267.984	188.12
268.216	181.12
268.448	180.12
268.681	200.12
268.913	200.12
269.145	197.12
269.377	218.12
269.609	214.12
269.841	217.12
270.073	209.12
270.306	203.12
270.538	227.12
270.77	228.12
271.002	230.12
271.234	235.12
271.466	233.12
271.698	239.12
271.93	249.12
272.162	262.12
272.394	237.12
272.626	240.12
272.858	216.12
273.09	211.12
273.322	215.12
273.553	216.12
273.785	202.12
274.017	206.12
274.249	213.12
274.481	202.12
274.713	203.12
274.945	221.12
275.176	203.12
275.408	199.12
275.64	211.12
275.872	203.12
276.104	202.12
276.335	206.12
276.567	199.12
276.799	206.12
277.031	218.12
277.262	235.12
277.494	249.12
277.726	236.12
277.957	231.12
278.189	221.12
278.421	207.12
278.652	208.12
278.884	223.12
279.115	201.12
279.347	200.12
279.579	199.12
279.81	205.12
280.042	210.12
280.273	208.12
280.505	210.12
280.736	190.12
280.968	194.12
281.199	189.12
281.431	209.12
281.662	197.12
281.894	206.12
282.125	199.12
282.356	212.12
282.588	237.12
282.819	235.12
283.051	203.12
283.282	221.12
283.513	215.12
283.745	199.12
283.976	225.12
284.207	230.12
284.439	220.12
284.67	208.12
284.901	200.12
285.132	203.12
285.364	212.12
285.595	206.12
285.826	208.12
286.057	216.12
286.288	212.12
286.52	209.12
286.751	234.12
286.982	214.12
287.213	226.12
287.444	207.12
287.675	199.12
287.906	239.12
288.138	234.12
288.369	249.12
288.6	237.12
288.831	226.12
289.062	218.12
289.293	244.12
289.524	218.12
289.755	207.12
289.986	216.12
290.217	205.12
290.448	217.12
290.679	219.12
290.91	215.12
291.141	200.12
291.371	217.12
291.602	219.12
291.833	224.12
292.064	217.12
292.295	221.12
292.526	217.12
292.757	212.12
292.987	217.12
293.218	210.12
293.449	219.12
293.68	223.12
293.91	227.12
294.141	215.12
294.372	208.12
294.603	211.12
294.833	211.12
295.064	220.12
295.295	234.12
295.525	221.12
295.756	228.12
295.987	228.12
296.217	224.12
296.448	243.12
296.679	213.12
296.909	217.12
297.14	235.12
297.37	219.12
297.601	219.12
297.831	226.12
298.062	232.12
298.292	218.12
298.523	213.12
298.753	236.12
298.984	213.12
299.214	228.12
299.445	222.12
299.675	222.12
299.905	238.12
300.136	238.12
300.366	222.12
300.597	246.12
300.827	223.12
301.057	222.12
301.288	236.12
301.518	237.12
301.748	234.12
301.979	227.12
302.209	241.12
302.439	234.12
302.669	240.12
302.9	242.12
303.13	229.12
303.36	249.12
303.59	243.12
303.82	248.12
304.051	263.12
304.281	262.12
304.511	240.12
304.741	246.12
304.971	238.12
305.201	231.12
305.431	250.12
305.661	249.12
305.891	235.12
306.121	245.12
306.352	244.12
306.582	239.12
306.812	242.12
307.042	246.12
307.272	233.12
307.502	224.12
307.731	245.12
307.961	248.12
308.191	226.12
308.421	252.12
308.651	254.12
308.881	240.12
309.111	250.12
309.341	264.12
309.571	275.12
309.8	272.12
310.03	259.12
310.26	264.12
310.49	273.12
310.72	278.12
310.949	280.12
311.179	300.12
311.409	258.12
311.639	274.12
311.868	265.12
312.098	262.12
312.328	277.12
312.557	294.12
312.787	302.12
313.017	294.12
313.246	298.12
313.476	277.12
313.706	256.12
313.935	283.12
314.165	278.12
314.394	289.12
314.624	280.12
314.853	261.12
315.083	279.12
315.312	269.12
315.542	268.12
315.771	280.12
316.001	260.12
316.23	267.12
316.46	275.12
316.689	274.12
316.919	278.12
317.148	282.12
317.377	275.12
317.607	281.12
317.836	285.12
318.065	286.12
318.295	291.12
318.524	267.12
318.753	272.12
318.983	278.12
319.212	284.12
319.441	268.12
319.67	282.12
319.9	278.12
320.129	268.12
320.358	267.12
320.587	274.12
320.816	290.12
321.046	293.12
321.275	284.12
321.504	295.12
321.733	288.12
321.962	295.12
322.191	299.12
322.42	313.12
322.649	328.12
322.878	304.12
323.108	319.12
323.337	343.12
323.566	343.12
323.795	362.12
324.024	386.12
324.253	460.12
324.482	643.12
324.71	980.12
324.939	1386.12
325.168	1250.12
325.397	663.12
325.626	457.12
325.855	400.12
326.084	356.12
326.313	363.12
326.542	360.12
326.77	377.12
326.999	438.12
327.228	559.12
327.457	868.12
327.686	1088.12
327.914	739.12
328.143	487.12
328.372	407.12
328.6	379.12
328.829	390.12
329.058	379.12
329.287	396.12
329.515	383.12
329.744	361.12
329.972	346.12
330.201	352.12
330.43	365.12
330.658	371.12
330.887	418.12
331.115	414.12
331.344	374.12
331.572	335.12
331.801	355.12
332.03	346.12
332.258	320.12
332.486	322.12
332.715	310.12
332.943	328.12
333.172	315.12
333.4	297.12
333.629	334.12
333.857	322.12
334.085	317.12
334.314	329.12
334.542	345.12
334.771	349.12
334.999	335.12
335.227	338.12
335.455	320.12
335.684	300.12
335.912	314.12
336.14	319.12
336.369	324.12
336.597	310.12
336.825	312.12
337.053	312.12
337.281	310.12
337.51	298.12
337.738	310.12
337.966	327.12
338.194	298.12
338.422	320.12
338.65	321.12
338.878	325.12
339.106	294.12
339.334	318.12
339.562	308.12
339.79	291.12
340.018	302.12
340.246	308.12
340.474	320.12
340.702	298.12
340.93	312.12
341.158	298.12
341.386	312.12
341.614	301.12
341.842	298.12
342.07	294.12
342.298	284.12
342.526	311.12
342.754	302.12
342.981	293.12
343.209	314.12
343.437	298.12
343.665	297.12
343.893	316.12
344.12	302.12
344.348	311.12
344.576	306.12
344.804	313.12
345.031	314.12
345.259	308.12
345.487	322.12
345.714	317.12
345.942	297.12
346.17	292.12
346.397	298.12
346.625	299.12
346.853	287.12
347.08	286.12
347.308	314.12
347.535	303.12
347.763	327.12
347.99	306.12
348.218	300.12
348.445	314.12
348.673	293.12
348.9	294.12
349.128	314.12
349.355	295.12
349.583	306.12
349.81	291.12
350.037	287.12
350.265	288.12
350.492	315.12
350.72	295.12
350.947	294.12
351.174	302.12
351.402	299.12
351.629	307.12
351.856	307.12
352.083	320.12
352.311	301.12
352.538	323.12
352.765	327.12
352.992	294.12
353.22	309.12
353.447	276.12
353.674	300.12
353.901	303.12
354.128	290.12
354.355	294.12
354.583	307.12
354.81	302.12
355.037	285.12
355.264	287.12
355.491	273.12
355.718	281.12
355.945	278.12
356.172	279.12
356.399	278.12
356.626	284.12
356.853	282.12
357.08	306.12
357.307	279.12
357.534	286.12
357.761	283.12
357.988	290.12
358.215	313.12
358.441	299.12
358.668	297.12
358.895	296.12
359.122	298.12
359.349	285.12
359.576	314.12
359.802	326.12
360.029	346.12
360.256	327.12
360.483	323.12
360.709	301.12
360.936	314.12
361.163	315.12
361.39	301.12
361.616	301.12
361.843	296.12
362.07	302.12
362.296	312.12
362.523	305.12
362.749	323.12
362.976	314.12
363.203	322.12
363.429	273.12
363.656	296.12
363.882	283.12
364.109	301.12
364.335	288.12
364.562	292.12
364.788	318.12
365.015	278.12
365.241	295.12
365.468	317.12
365.694	286.12
365.92	296.12
366.147	299.12
366.373	294.12
366.599	294.12
366.826	292.12
367.052	290.12
367.278	280.12
367.505	284.12
367.731	296.12
367.957	298.12
368.184	296.12
368.41	292.12
368.636	322.12
368.862	314.12
369.089	301.12
369.315	286.12
369.541	281.12
369.767	281.12
369.993	290.12
370.219	287.12
370.445	274.12
370.672	286.12
370.898	285.12
371.124	293.12
371.35	307.12
371.576	303.12
371.802	306.12
372.028	287.12
372.254	306.12
372.48	310.12
372.706	305.12
372.932	279.12
373.158	303.12
373.384	306.12
373.61	296.12
373.835	300.12
374.061	296.12
374.287	303.12
374.513	298.12
374.739	310.12
374.965	300.12
375.191	320.12
375.416	311.12
375.642	296.12
375.868	300.12
376.094	303.12
376.319	304.12
376.545	296.12
376.771	317.12
376.997	288.12
377.222	306.12
377.448	310.12
377.674	295.12
377.899	296.12
378.125	301.12
378.35	298.12
378.576	305.12
378.802	292.12
379.027	304.12
379.253	295.12
379.478	284.12
379.704	299.12
379.929	308.12
380.155	289.12
380.38	295.12
380.606	303.12
380.831	298.12
381.057	312.12
381.282	287.12
381.507	290.12
381.733	302.12
381.958	296.12
382.184	316.12
382.409	314.12
382.634	302.12
382.86	290.12
383.085	307.12
383.31	304.12
383.535	317.12
383.761	310.12
383.986	311.12
384.211	300.12
384.436	315.12
384.662	306.12
384.887	312.12
385.112	315.12
385.337	309.12
385.562	326.12
385.787	327.12
386.013	327.12
386.238	346.12
386.463	331.12
386.688	343.12
386.913	341.12
387.138	315.12
387.363	328.12
387.588	326.12
387.813	326.12
388.038	310.12
388.263	315.12
388.488	309.12
388.713	311.12
388.938	316.12
389.163	302.12
389.387	303.12
389.612	312.12
389.837	320.12
390.062	330.12
390.287	326.12
390.512	308.12
390.736	311.12
390.961	315.12
391.186	313.12
391.411	326.12
391.636	333.12
391.86	315.12
392.085	323.12
392.31	346.12
392.534	319.12
392.759	338.12
392.984	324.12
393.208	326.12
393.433	333.12
393.658	347.12
393.882	306.12
394.107	332.12
394.331	335.12
394.556	295.12
394.78	316.12
395.005	311.12
395.229	310.12
395.454	341.12
395.678	331.12
395.903	333.12
396.127	348.12
396.352	351.12
396.576	339.12
396.801	343.12
397.025	328.12
397.249	331.12
397.474	336.12
397.698	324.12
397.922	351.12
398.147	357.12
398.371	381.12
398.595	357.12
398.82	355.12
399.044	363.12
399.268	377.12
399.492	372.12
399.717	376.12
399.941	399.12
400.165	432.12
400.389	441.12
400.613	405.12
400.837	360.12
401.062	380.12
401.286	346.12
401.51	367.12
401.734	341.12
401.958	345.12
402.182	359.12
402.406	357.12
402.63	357.12
402.854	332.12
403.078	359.12
403.302	382.12
403.526	388.12
403.75	365.12
403.974	360.12
404.198	361.12
404.422	354.12
404.645	380.12
404.869	372.12
405.093	395.12
405.317	416.12
405.541	448.12
405.765	407.12
405.988	396.12
406.212	388.12
406.436	413.12
406.66	442.12
406.883	396.12
407.107	400.12
407.331	443.12
407.555	492.12
407.778	499.12
408.002	446.12
408.226	420.12
408.449	410.12
408.673	415.12
408.896	410.12
409.12	470.12
409.344	416.12
409.567	379.12
409.791	380.12
410.014	391.12
410.238	365.12
410.461	382.12
410.685	384.12
410.908	400.12
411.132	409.12
411.355	434.12
411.578	392.12
411.802	382.12
412.025	363.12
412.249	369.12
412.472	414.12
412.695	404.12
412.919	399.12
413.142	374.12
413.365	372.12
413.589	365.12
413.812	364.12
414.035	358.12
414.258	366.12
414.482	365.12
414.705	349.12
414.928	352.12
415.151	347.12
415.374	346.12
415.597	337.12
415.821	355.12
416.044	356.12
416.267	361.12
416.49	355.12
416.713	338.12
416.936	377.12
417.159	334.12
417.382	360.12
417.605	358.12
417.828	363.12
418.051	374.12
418.274	370.12
418.497	363.12
418.72	359.12
418.943	336.12
419.166	354.12
419.389	378.12
419.611	383.12
419.834	382.12
420.057	355.12
420.28	368.12
420.503	371.12
420.726	362.12
420.948	384.12
421.171	401.12
421.394	412.12
421.617	391.12
421.839	384.12
422.062	373.12
422.285	384.12
422.507	410.12
422.73	478.12
422.953	460.12
423.175	424.12
423.398	391.12
423.621	384.12
423.843	390.12
424.066	400.12
424.288	408.12
424.511	408.12
424.733	428.12
424.956	513.12
425.178	492.12
425.401	492.12
425.623	492.12
425.846	437.12
426.068	406.12
426.291	383.12
426.513	405.12
426.735	407.12
426.958	436.12
427.18	486.12
427.402	575.12
427.625	650.12
427.847	554.12
428.069	485.12
428.292	446.12
428.514	416.12
428.736	380.12
428.958	390.12
429.181	379.12
429.403	363.12
429.625	367.12
429.847	411.12
430.069	450.12
430.292	447.12
430.514	410.12
430.736	372.12
430.958	390.12
431.18	353.12
431.402	356.12
431.624	351.12
431.846	360.12
432.068	360.12
432.29	372.12
432.512	350.12
432.734	367.12
432.956	368.12
433.178	365.12
433.4	373.12
433.622	355.12
433.844	372.12
434.066	344.12
434.287	370.12
434.509	364.12
434.731	364.12
434.953	336.12
435.175	353.12
435.397	378.12
435.618	398.12
435.84	419.12
436.062	495.12
436.284	545.12
436.505	459.12
436.727	420.12
436.949	391.12
437.17	377.12
437.392	372.12
437.614	387.12
437.835	400.12
438.057	478.12
438.278	562.12
438.5	556.12
438.721	611.12
438.943	578.12
439.165	470.12
439.386	440.12
439.608	429.12
439.829	420.12
440.05	445.12
440.272	452.12
440.493	454.12
440.715	387.12
440.936	381.12
441.158	378.12
441.379	381.12
441.6	380.12
441.822	396.12
442.043	424.12
442.264	499.12
442.486	511.12
442.707	475.12
442.928	402.12
443.149	418.12
443.371	449.12
443.592	451.12
443.813	536.12
444.034	571.12
444.255	478.12
444.476	408.12
444.698	406.12
444.919	410.12
445.14	523.12
445.361	470.12
445.582	443.12
445.803	475.12
446.024	548.12
446.245	533.12
446.466	514.12
446.687	412.12
446.908	404.12
447.129	390.12
447.35	390.12
447.571	387.12
447.792	381.12
448.013	380.12
448.234	382.12
448.455	426.12
448.675	521.12
448.896	592.12
449.117	517.12
449.338	474.12
449.559	552.12
449.779	644.12
450	510.12
450.221	442.12
450.442	396.12
450.662	362.12
450.883	376.12
451.104	386.12
451.324	361.12
451.545	366.12
451.766	345.12
451.986	344.12
452.207	347.12
452.428	330.12
452.648	337.12
452.869	344.12
453.089	349.12
453.31	350.12
453.53	349.12
453.751	359.12
453.971	336.12
454.192	354.12
454.412	343.12
454.633	337.12
454.853	351.12
455.073	336.12
455.294	357.12
455.514	411.12
455.734	422.12
455.955	349.12
456.175	334.12
456.395	329.12
456.616	302.12
456.836	316.12
457.056	319.12
457.276	330.12
457.497	323.12
457.717	325.12
457.937	312.12
458.157	327.12
458.377	320.12
458.598	338.12
458.818	392.12
459.038	434.12
459.258	450.12
459.478	379.12
459.698	371.12
459.918	351.12
460.138	360.12
460.358	347.12
460.578	353.12
460.798	361.12
461.018	373.12
461.238	368.12
461.458	335.12
461.678	345.12
461.898	341.12
462.118	347.12
462.338	355.12
462.558	356.12
462.777	383.12
462.997	378.12
463.217	374.12
463.437	374.12
463.657	378.12
463.876	367.12
464.096	357.12
464.316	362.12
464.536	376.12
464.755	372.12
464.975	387.12
465.195	391.12
465.414	451.12
465.634	391.12
465.854	364.12
466.073	354.12
466.293	339.12
466.512	342.12
466.732	357.12
466.951	335.12
467.171	350.12
467.391	350.12
467.61	347.12
467.829	339.12
468.049	344.12
468.268	333.12
468.488	348.12
468.707	348.12
468.927	348.12
469.146	330.12
469.365	347.12
469.585	325.12
469.804	342.12
470.023	351.12
470.243	330.12
470.462	351.12
470.681	350.12
470.901	362.12
471.12	353.12
471.339	364.12
471.558	356.12
471.777	351.12
471.997	344.12
472.216	364.12
472.435	374.12
472.654	352.12
472.873	349.12
473.092	336.12
473.311	327.12
473.53	354.12
473.749	352.12
473.968	383.12
474.187	451.12
474.406	486.12
474.625	385.12
474.844	378.12
475.063	354.12
475.282	360.12
475.501	360.12
475.72	373.12
475.939	372.12
476.158	373.12
476.377	379.12
476.596	355.12
476.814	361.12
477.033	360.12
477.252	376.12
477.471	356.12
477.69	363.12
477.908	376.12
478.127	380.12
478.346	386.12
478.564	386.12
478.783	385.12
479.002	389.12
479.22	388.12
479.439	397.12
479.658	407.12
479.876	394.12
480.095	437.12
480.313	444.12
480.532	425.12
480.751	427.12
480.969	417.12
481.188	432.12
481.406	457.12
481.624	438.12
481.843	430.12
482.061	394.12
482.28	420.12
482.498	412.12
482.717	415.12
482.935	411.12
483.153	406.12
483.372	396.12
483.59	394.12
483.808	414.12
484.027	408.12
484.245	413.12
484.463	395.12
484.681	426.12
484.9	434.12
485.118	422.12
485.336	417.12
485.554	441.12
485.772	416.12
485.99	424.12
486.209	438.12
486.427	425.12
486.645	442.12
486.863	458.12
487.081	456.12
487.299	428.12
487.517	445.12
487.735	454.12
487.953	477.12
488.171	447.12
488.389	440.12
488.607	455.12
488.825	475.12
489.043	462.12
489.261	479.12
489.479	460.12
489.696	426.12
489.914	467.12
490.132	442.12
490.35	453.12
490.568	488.12
490.786	484.12
491.003	493.12
491.221	478.12
491.439	491.12
491.657	486.12
491.874	494.12
492.092	488.12
492.31	511.12
492.527	500.12
492.745	526.12
492.963	518.12
493.18	507.12
493.398	502.12
493.615	494.12
493.833	529.12
494.05	512.12
494.268	523.12
494.485	525.12
494.703	532.12
494.92	523.12
495.138	527.12
495.355	519.12
495.573	536.12
495.79	505.12
496.008	529.12
496.225	528.12
496.442	530.12
496.66	519.12
496.877	529.12
497.094	534.12
497.312	544.12
497.529	541.12
497.746	552.12
497.963	545.12
498.181	577.12
498.398	550.12
498.615	596.12
498.832	587.12
499.049	596.12
499.267	596.12
499.484	584.12
499.701	624.12
499.918	621.12
500.135	646.12
500.352	717.12
500.569	648.12
500.786	683.12
501.003	663.12
501.22	668.12
501.437	655.12
501.654	653.12
501.871	630.12
502.088	627.12
