Data from 1980.PennyLincolnUp.Lamp.En5.5.200Scan.071819.P1_HRD10591_16-39-12-957.txt Node
Date: Thu Jul 18 16:39:12 EDT 2019
User: cochatt
Spectrometer: HR+D1059
Trigger mode: 1
Integration Time (sec): 1.000000E-1
Scans to average: 1
Electric dark correction enabled: true
Nonlinearity correction enabled: false
Boxcar width: 0
XAxis mode: Wavelengths
Number of Pixels in Spectrum: 2048
>>>>>Begin Spectral Data<<<<<
223.165	-28.31
223.4	-28.31
223.635	-28.31
223.869	-12.31
224.104	-23.31
224.338	-10.31
224.573	-18.31
224.808	-6.31
225.042	-15.31
225.277	-0.31
225.511	-5.31
225.746	5.69
225.98	3.69
226.215	13.69
226.449	29.69
226.683	15.69
226.918	28.69
227.152	22.69
227.387	35.69
227.621	41.69
227.856	33.69
228.09	43.69
228.324	52.69
228.559	47.69
228.793	68.69
229.027	83.69
229.262	103.69
229.496	126.69
229.73	144.69
229.964	139.69
230.199	143.69
230.433	116.69
230.667	111.69
230.901	135.69
231.136	112.69
231.37	102.69
231.604	122.69
231.838	118.69
232.072	121.69
232.306	100.69
232.541	113.69
232.775	103.69
233.009	114.69
233.243	118.69
233.477	104.69
233.711	124.69
233.945	123.69
234.179	120.69
234.413	118.69
234.647	121.69
234.881	135.69
235.115	118.69
235.349	118.69
235.583	104.69
235.817	130.69
236.051	137.69
236.285	135.69
236.519	133.69
236.753	129.69
236.987	147.69
237.221	198.69
237.455	251.69
237.689	216.69
237.922	142.69
238.156	132.69
238.39	131.69
238.624	142.69
238.858	125.69
239.091	135.69
239.325	126.69
239.559	139.69
239.793	133.69
240.027	125.69
240.26	149.69
240.494	175.69
240.728	156.69
240.961	169.69
241.195	135.69
241.429	145.69
241.662	140.69
241.896	129.69
242.13	135.69
242.363	131.69
242.597	123.69
242.83	141.69
243.064	135.69
243.298	143.69
243.531	149.69
243.765	143.69
243.998	141.69
244.232	154.69
244.465	140.69
244.699	144.69
244.932	149.69
245.166	138.69
245.399	149.69
245.633	151.69
245.866	141.69
246.099	144.69
246.333	149.69
246.566	152.69
246.8	151.69
247.033	160.69
247.266	153.69
247.5	159.69
247.733	177.69
247.966	173.69
248.2	169.69
248.433	172.69
248.666	175.69
248.899	194.69
249.133	212.69
249.366	220.69
249.599	206.69
249.832	180.69
250.066	205.69
250.299	180.69
250.532	188.69
250.765	208.69
250.998	227.69
251.231	240.69
251.465	224.69
251.698	229.69
251.931	209.69
252.164	212.69
252.397	210.69
252.63	203.69
252.863	216.69
253.096	217.69
253.329	226.69
253.562	240.69
253.795	239.69
254.028	225.69
254.261	225.69
254.494	242.69
254.727	279.69
254.96	300.69
255.193	309.69
255.426	271.69
255.659	240.69
255.892	253.69
256.124	251.69
256.357	259.69
256.59	236.69
256.823	212.69
257.056	213.69
257.289	233.69
257.521	224.69
257.754	218.69
257.987	214.69
258.22	212.69
258.452	208.69
258.685	197.69
258.918	211.69
259.151	211.69
259.383	248.69
259.616	225.69
259.849	233.69
260.081	236.69
260.314	263.69
260.547	258.69
260.779	269.69
261.012	252.69
261.244	242.69
261.477	230.69
261.71	241.69
261.942	218.69
262.175	217.69
262.407	229.69
262.64	230.69
262.872	217.69
263.105	227.69
263.337	205.69
263.57	209.69
263.802	229.69
264.035	212.69
264.267	232.69
264.499	219.69
264.732	210.69
264.964	222.69
265.197	214.69
265.429	225.69
265.661	196.69
265.894	207.69
266.126	225.69
266.358	215.69
266.591	219.69
266.823	221.69
267.055	217.69
267.287	214.69
267.52	248.69
267.752	238.69
267.984	234.69
268.216	235.69
268.448	251.69
268.681	237.69
268.913	263.69
269.145	260.69
269.377	269.69
269.609	279.69
269.841	280.69
270.073	288.69
270.306	306.69
270.538	306.69
270.77	339.69
271.002	321.69
271.234	307.69
271.466	323.69
271.698	320.69
271.93	330.69
272.162	332.69
272.394	337.69
272.626	301.69
272.858	302.69
273.09	297.69
273.322	275.69
273.553	273.69
273.785	249.69
274.017	272.69
274.249	266.69
274.481	262.69
274.713	271.69
274.945	290.69
275.176	288.69
275.408	272.69
275.64	274.69
275.872	282.69
276.104	278.69
276.335	267.69
276.567	277.69
276.799	284.69
277.031	334.69
277.262	335.69
277.494	323.69
277.726	310.69
277.957	295.69
278.189	285.69
278.421	283.69
278.652	260.69
278.884	268.69
279.115	277.69
279.347	260.69
279.579	265.69
279.81	265.69
280.042	257.69
280.273	252.69
280.505	282.69
280.736	277.69
280.968	252.69
281.199	255.69
281.431	249.69
281.662	275.69
281.894	293.69
282.125	279.69
282.356	276.69
282.588	310.69
282.819	327.69
283.051	266.69
283.282	256.69
283.513	282.69
283.745	274.69
283.976	275.69
284.207	277.69
284.439	271.69
284.67	270.69
284.901	268.69
285.132	269.69
285.364	263.69
285.595	273.69
285.826	261.69
286.057	275.69
286.288	269.69
286.52	273.69
286.751	269.69
286.982	268.69
287.213	259.69
287.444	263.69
287.675	286.69
287.906	271.69
288.138	308.69
288.369	292.69
288.6	291.69
288.831	294.69
289.062	296.69
289.293	274.69
289.524	269.69
289.755	273.69
289.986	281.69
290.217	282.69
290.448	275.69
290.679	269.69
290.91	264.69
291.141	277.69
291.371	265.69
291.602	274.69
291.833	267.69
292.064	281.69
292.295	250.69
292.526	285.69
292.757	267.69
292.987	265.69
293.218	273.69
293.449	266.69
293.68	287.69
293.91	281.69
294.141	293.69
294.372	270.69
294.603	271.69
294.833	277.69
295.064	279.69
295.295	280.69
295.525	280.69
295.756	286.69
295.987	283.69
296.217	321.69
296.448	325.69
296.679	290.69
296.909	278.69
297.14	278.69
297.37	291.69
297.601	283.69
297.831	276.69
298.062	287.69
298.292	273.69
298.523	293.69
298.753	293.69
298.984	281.69
299.214	308.69
299.445	278.69
299.675	292.69
299.905	297.69
300.136	311.69
300.366	289.69
300.597	310.69
300.827	311.69
301.057	315.69
301.288	317.69
301.518	313.69
301.748	307.69
301.979	320.69
302.209	305.69
302.439	297.69
302.669	321.69
302.9	314.69
303.13	309.69
303.36	309.69
303.59	297.69
303.82	313.69
304.051	329.69
304.281	309.69
304.511	308.69
304.741	307.69
304.971	283.69
305.201	314.69
305.431	311.69
305.661	298.69
305.891	281.69
306.121	313.69
306.352	314.69
306.582	312.69
306.812	323.69
307.042	316.69
307.272	304.69
307.502	312.69
307.731	310.69
307.961	301.69
308.191	312.69
308.421	343.69
308.651	321.69
308.881	323.69
309.111	315.69
309.341	343.69
309.571	334.69
309.8	343.69
310.03	345.69
310.26	361.69
310.49	380.69
310.72	380.69
310.949	375.69
311.179	399.69
311.409	357.69
311.639	380.69
311.868	385.69
312.098	381.69
312.328	387.69
312.557	389.69
312.787	396.69
313.017	426.69
313.246	380.69
313.476	387.69
313.706	373.69
313.935	379.69
314.165	362.69
314.394	399.69
314.624	411.69
314.853	382.69
315.083	384.69
315.312	344.69
315.542	356.69
315.771	342.69
316.001	347.69
316.23	359.69
316.46	347.69
316.689	350.69
316.919	373.69
317.148	389.69
317.377	384.69
317.607	387.69
317.836	377.69
318.065	374.69
318.295	360.69
318.524	342.69
318.753	346.69
318.983	363.69
319.212	357.69
319.441	373.69
319.67	378.69
319.9	369.69
320.129	383.69
320.358	376.69
320.587	373.69
320.816	377.69
321.046	378.69
321.275	397.69
321.504	397.69
321.733	414.69
321.962	401.69
322.191	408.69
322.42	449.69
322.649	452.69
322.878	460.69
323.108	468.69
323.337	503.69
323.566	532.69
323.795	569.69
324.024	637.69
324.253	776.69
324.482	1140.69
324.71	1795.69
324.939	2513.69
325.168	2196.69
325.397	1162.69
325.626	773.69
325.855	610.69
326.084	567.69
326.313	509.69
326.542	546.69
326.77	595.69
326.999	727.69
327.228	973.69
327.457	1536.69
327.686	1905.69
327.914	1292.69
328.143	842.69
328.372	728.69
328.6	661.69
328.829	617.69
329.058	641.69
329.287	651.69
329.515	595.69
329.744	538.69
329.972	531.69
330.201	562.69
330.43	629.69
330.658	663.69
330.887	680.69
331.115	651.69
331.344	540.69
331.572	509.69
331.801	518.69
332.03	499.69
332.258	474.69
332.486	441.69
332.715	460.69
332.943	443.69
333.172	437.69
333.4	444.69
333.629	459.69
333.857	452.69
334.085	473.69
334.314	508.69
334.542	548.69
334.771	561.69
334.999	492.69
335.227	454.69
335.455	443.69
335.684	420.69
335.912	426.69
336.14	418.69
336.369	417.69
336.597	418.69
336.825	423.69
337.053	405.69
337.281	396.69
337.51	431.69
337.738	421.69
337.966	400.69
338.194	415.69
338.422	438.69
338.65	422.69
338.878	427.69
339.106	395.69
339.334	404.69
339.562	400.69
339.79	405.69
340.018	416.69
340.246	407.69
340.474	430.69
340.702	431.69
340.93	412.69
341.158	401.69
341.386	396.69
341.614	436.69
341.842	407.69
342.07	404.69
342.298	419.69
342.526	396.69
342.754	388.69
342.981	385.69
343.209	393.69
343.437	392.69
343.665	388.69
343.893	394.69
344.12	377.69
344.348	398.69
344.576	399.69
344.804	440.69
345.031	397.69
345.259	432.69
345.487	422.69
345.714	397.69
345.942	400.69
346.17	383.69
346.397	427.69
346.625	396.69
346.853	397.69
347.08	397.69
347.308	387.69
347.535	421.69
347.763	427.69
347.99	425.69
348.218	432.69
348.445	415.69
348.673	419.69
348.9	416.69
349.128	404.69
349.355	392.69
349.583	377.69
349.81	377.69
350.037	377.69
350.265	377.69
350.492	385.69
350.72	382.69
350.947	394.69
351.174	392.69
351.402	417.69
351.629	411.69
351.856	401.69
352.083	431.69
352.311	442.69
352.538	436.69
352.765	421.69
352.992	428.69
353.22	394.69
353.447	412.69
353.674	381.69
353.901	380.69
354.128	361.69
354.355	358.69
354.583	369.69
354.81	375.69
355.037	375.69
355.264	365.69
355.491	349.69
355.718	367.69
355.945	348.69
356.172	377.69
356.399	351.69
356.626	373.69
356.853	373.69
357.08	352.69
357.307	360.69
357.534	358.69
357.761	352.69
357.988	374.69
358.215	357.69
358.441	360.69
358.668	367.69
358.895	345.69
359.122	354.69
359.349	387.69
359.576	396.69
359.802	432.69
360.029	450.69
360.256	481.69
360.483	447.69
360.709	417.69
360.936	404.69
361.163	404.69
361.39	394.69
361.616	407.69
361.843	414.69
362.07	398.69
362.296	389.69
362.523	394.69
362.749	393.69
362.976	406.69
363.203	383.69
363.429	383.69
363.656	364.69
363.882	388.69
364.109	400.69
364.335	379.69
364.562	362.69
364.788	367.69
365.015	379.69
365.241	401.69
365.468	387.69
365.694	389.69
365.92	393.69
366.147	378.69
366.373	379.69
366.599	379.69
366.826	371.69
367.052	373.69
367.278	364.69
367.505	369.69
367.731	373.69
367.957	367.69
368.184	387.69
368.41	367.69
368.636	388.69
368.862	386.69
369.089	397.69
369.315	371.69
369.541	371.69
369.767	374.69
369.993	364.69
370.219	368.69
370.445	349.69
370.672	375.69
370.898	363.69
371.124	340.69
371.35	373.69
371.576	367.69
371.802	373.69
372.028	367.69
372.254	360.69
372.48	352.69
372.706	361.69
372.932	368.69
373.158	387.69
373.384	371.69
373.61	355.69
373.835	371.69
374.061	372.69
374.287	383.69
374.513	362.69
374.739	369.69
374.965	348.69
375.191	363.69
375.416	341.69
375.642	375.69
375.868	364.69
376.094	363.69
376.319	347.69
376.545	368.69
376.771	369.69
376.997	363.69
377.222	360.69
377.448	362.69
377.674	374.69
377.899	357.69
378.125	356.69
378.35	330.69
378.576	337.69
378.802	361.69
379.027	360.69
379.253	364.69
379.478	343.69
379.704	376.69
379.929	355.69
380.155	350.69
380.38	359.69
380.606	359.69
380.831	360.69
381.057	373.69
381.282	371.69
381.507	353.69
381.733	350.69
381.958	344.69
382.184	350.69
382.409	357.69
382.634	362.69
382.86	347.69
383.085	371.69
383.31	357.69
383.535	369.69
383.761	371.69
383.986	379.69
384.211	379.69
384.436	380.69
384.662	361.69
384.887	389.69
385.112	383.69
385.337	362.69
385.562	383.69
385.787	377.69
386.013	387.69
386.238	397.69
386.463	378.69
386.688	380.69
386.913	373.69
387.138	385.69
387.363	391.69
387.588	391.69
387.813	402.69
388.038	379.69
388.263	375.69
388.488	373.69
388.713	371.69
388.938	383.69
389.163	392.69
389.387	412.69
389.612	392.69
389.837	378.69
390.062	402.69
390.287	379.69
390.512	375.69
390.736	389.69
390.961	386.69
391.186	387.69
391.411	393.69
391.636	376.69
391.86	379.69
392.085	375.69
392.31	362.69
392.534	378.69
392.759	380.69
392.984	380.69
393.208	380.69
393.433	387.69
393.658	385.69
393.882	379.69
394.107	407.69
394.331	393.69
394.556	383.69
394.78	357.69
395.005	361.69
395.229	381.69
395.454	393.69
395.678	401.69
395.903	396.69
396.127	439.69
396.352	421.69
396.576	425.69
396.801	419.69
397.025	396.69
397.249	396.69
397.474	392.69
397.698	411.69
397.922	437.69
398.147	431.69
398.371	450.69
398.595	439.69
398.82	420.69
399.044	426.69
399.268	433.69
399.492	461.69
399.717	479.69
399.941	498.69
400.165	501.69
400.389	550.69
400.613	505.69
400.837	467.69
401.062	441.69
401.286	445.69
401.51	451.69
401.734	445.69
401.958	407.69
402.182	418.69
402.406	450.69
402.63	473.69
402.854	457.69
403.078	462.69
403.302	453.69
403.526	461.69
403.75	450.69
403.974	441.69
404.198	448.69
404.422	473.69
404.645	464.69
404.869	454.69
405.093	492.69
405.317	531.69
405.541	570.69
405.765	504.69
405.988	498.69
406.212	519.69
406.436	552.69
406.66	531.69
406.883	502.69
407.107	513.69
407.331	556.69
407.555	616.69
407.778	628.69
408.002	564.69
408.226	527.69
408.449	489.69
408.673	481.69
408.896	550.69
409.12	565.69
409.344	545.69
409.567	491.69
409.791	472.69
410.014	463.69
410.238	461.69
410.461	458.69
410.685	465.69
410.908	464.69
411.132	503.69
411.355	537.69
411.578	527.69
411.802	479.69
412.025	462.69
412.249	460.69
412.472	495.69
412.695	557.69
412.919	534.69
413.142	487.69
413.365	451.69
413.589	453.69
413.812	435.69
414.035	433.69
414.258	439.69
414.482	433.69
414.705	437.69
414.928	421.69
415.151	427.69
415.374	422.69
415.597	412.69
415.821	427.69
416.044	449.69
416.267	431.69
416.49	423.69
416.713	451.69
416.936	434.69
417.159	427.69
417.382	443.69
417.605	439.69
417.828	454.69
418.051	481.69
418.274	447.69
418.497	466.69
418.72	427.69
418.943	429.69
419.166	419.69
419.389	473.69
419.611	453.69
419.834	465.69
420.057	490.69
420.28	456.69
420.503	458.69
420.726	449.69
420.948	479.69
421.171	531.69
421.394	548.69
421.617	496.69
421.839	460.69
422.062	463.69
422.285	475.69
422.507	556.69
422.73	637.69
422.953	606.69
423.175	507.69
423.398	492.69
423.621	496.69
423.843	506.69
424.066	530.69
424.288	517.69
424.511	532.69
424.733	573.69
424.956	672.69
425.178	637.69
425.401	638.69
425.623	654.69
425.846	576.69
426.068	517.69
426.291	523.69
426.513	522.69
426.735	553.69
426.958	563.69
427.18	650.69
427.402	762.69
427.625	892.69
427.847	811.69
428.069	670.69
428.292	587.69
428.514	533.69
428.736	509.69
428.958	491.69
429.181	494.69
429.403	453.69
429.625	495.69
429.847	545.69
430.069	594.69
430.292	595.69
430.514	522.69
430.736	495.69
430.958	455.69
431.18	449.69
431.402	454.69
431.624	427.69
431.846	449.69
432.068	448.69
432.29	448.69
432.512	446.69
432.734	453.69
432.956	450.69
433.178	478.69
433.4	488.69
433.622	446.69
433.844	441.69
434.066	448.69
434.287	424.69
434.509	451.69
434.731	438.69
434.953	457.69
435.175	460.69
435.397	517.69
435.618	514.69
435.84	561.69
436.062	668.69
436.284	711.69
436.505	621.69
436.727	546.69
436.949	504.69
437.17	495.69
437.392	475.69
437.614	495.69
437.835	543.69
438.057	665.69
438.278	741.69
438.5	732.69
438.721	787.69
438.943	772.69
439.165	598.69
439.386	577.69
439.608	553.69
439.829	561.69
440.05	588.69
440.272	641.69
440.493	605.69
440.715	537.69
440.936	502.69
441.158	495.69
441.379	502.69
441.6	488.69
441.822	518.69
442.043	572.69
442.264	651.69
442.486	709.69
442.707	581.69
442.928	572.69
443.149	549.69
443.371	589.69
443.592	618.69
443.813	701.69
444.034	733.69
444.255	616.69
444.476	548.69
444.698	498.69
444.919	520.69
445.14	621.69
445.361	563.69
445.582	583.69
445.803	677.69
446.024	757.69
446.245	734.69
446.466	714.69
446.687	575.69
446.908	555.69
447.129	511.69
447.35	498.69
447.571	515.69
447.792	495.69
448.013	505.69
448.234	510.69
448.455	581.69
448.675	679.69
448.896	803.69
449.117	671.69
449.338	634.69
449.559	707.69
449.779	829.69
450	662.69
450.221	583.69
450.442	515.69
450.662	488.69
450.883	491.69
451.104	523.69
451.324	489.69
451.545	479.69
451.766	445.69
451.986	472.69
452.207	425.69
452.428	435.69
452.648	439.69
452.869	442.69
453.089	448.69
453.31	475.69
453.53	459.69
453.751	447.69
453.971	442.69
454.192	474.69
454.412	461.69
454.633	439.69
454.853	441.69
455.073	440.69
455.294	454.69
455.514	556.69
455.734	512.69
455.955	449.69
456.175	436.69
456.395	417.69
456.616	405.69
456.836	392.69
457.056	405.69
457.276	410.69
457.497	418.69
457.717	416.69
457.937	401.69
458.157	418.69
458.377	426.69
458.598	427.69
458.818	525.69
459.038	619.69
459.258	621.69
459.478	519.69
459.698	466.69
459.918	442.69
460.138	442.69
460.358	459.69
460.578	449.69
460.798	424.69
461.018	433.69
461.238	423.69
461.458	457.69
461.678	410.69
461.898	438.69
462.118	422.69
462.338	461.69
462.558	451.69
462.777	443.69
462.997	455.69
463.217	455.69
463.437	451.69
463.657	449.69
463.876	455.69
464.096	457.69
464.316	454.69
464.536	469.69
464.755	481.69
464.975	493.69
465.195	536.69
465.414	651.69
465.634	539.69
465.854	504.69
466.073	490.69
466.293	441.69
466.512	444.69
466.732	437.69
466.951	438.69
467.171	419.69
467.391	441.69
467.61	442.69
467.829	452.69
468.049	459.69
468.268	464.69
468.488	437.69
468.707	427.69
468.927	419.69
469.146	393.69
469.365	424.69
469.585	419.69
469.804	445.69
470.023	416.69
470.243	450.69
470.462	457.69
470.681	461.69
470.901	475.69
471.12	432.69
471.339	443.69
471.558	435.69
471.777	433.69
471.997	461.69
472.216	462.69
472.435	505.69
472.654	479.69
472.873	447.69
473.092	456.69
473.311	454.69
473.53	443.69
473.749	440.69
473.968	521.69
474.187	627.69
474.406	623.69
474.625	518.69
474.844	492.69
475.063	459.69
475.282	439.69
475.501	445.69
475.72	445.69
475.939	451.69
476.158	451.69
476.377	461.69
476.596	457.69
476.814	475.69
477.033	445.69
477.252	450.69
477.471	481.69
477.69	479.69
477.908	472.69
478.127	499.69
478.346	467.69
478.564	473.69
478.783	470.69
479.002	514.69
479.22	511.69
479.439	523.69
479.658	509.69
479.876	544.69
480.095	557.69
480.313	589.69
480.532	568.69
480.751	557.69
480.969	577.69
481.188	648.69
481.406	709.69
481.624	611.69
481.843	555.69
482.061	546.69
482.28	564.69
482.498	532.69
482.717	543.69
482.935	537.69
483.153	537.69
483.372	540.69
483.59	535.69
483.808	554.69
484.027	521.69
484.245	561.69
484.463	539.69
484.681	557.69
484.9	537.69
485.118	517.69
485.336	534.69
485.554	534.69
485.772	541.69
485.99	547.69
486.209	553.69
486.427	538.69
486.645	568.69
486.863	584.69
487.081	596.69
487.299	573.69
487.517	569.69
487.735	567.69
487.953	581.69
488.171	598.69
488.389	580.69
488.607	588.69
488.825	559.69
489.043	566.69
489.261	602.69
489.479	591.69
489.696	593.69
489.914	608.69
490.132	590.69
490.35	606.69
490.568	597.69
490.786	604.69
491.003	601.69
491.221	679.69
491.439	650.69
491.657	652.69
491.874	678.69
492.092	669.69
492.31	666.69
492.527	658.69
492.745	665.69
492.963	669.69
493.18	672.69
493.398	705.69
493.615	695.69
493.833	703.69
494.05	686.69
494.268	652.69
494.485	704.69
494.703	664.69
494.92	679.69
495.138	689.69
495.355	697.69
495.573	713.69
495.79	702.69
496.008	682.69
496.225	693.69
496.442	676.69
496.66	672.69
496.877	683.69
497.094	695.69
497.312	693.69
497.529	695.69
497.746	696.69
497.963	699.69
498.181	705.69
498.398	706.69
498.615	718.69
498.832	741.69
499.049	739.69
499.267	737.69
499.484	782.69
499.701	770.69
499.918	778.69
500.135	823.69
500.352	836.69
500.569	818.69
500.786	841.69
501.003	820.69
501.22	815.69
501.437	818.69
501.654	822.69
501.871	819.69
