Data from 1980.PennyLincolnUp.Lamp.En5.5.200Scan.071819.P1_HRD10591_16-39-04-958.txt Node
Date: Thu Jul 18 16:39:04 EDT 2019
User: cochatt
Spectrometer: HR+D1059
Trigger mode: 1
Integration Time (sec): 1.000000E-1
Scans to average: 1
Electric dark correction enabled: true
Nonlinearity correction enabled: false
Boxcar width: 0
XAxis mode: Wavelengths
Number of Pixels in Spectrum: 2048
>>>>>Begin Spectral Data<<<<<
223.165	-5.12
223.4	-5.12
223.635	-5.12
223.869	-15.12
224.104	-17.12
224.338	-17.12
224.573	-12.12
224.808	-18.12
225.042	-10.12
225.277	-13.12
225.511	3.88
225.746	-5.12
225.98	8.88
226.215	11.88
226.449	24.88
226.683	11.88
226.918	30.88
227.152	20.88
227.387	42.88
227.621	40.88
227.856	63.88
228.09	57.88
228.324	41.88
228.559	62.88
228.793	68.88
229.027	81.88
229.262	96.88
229.496	117.88
229.73	123.88
229.964	160.88
230.199	138.88
230.433	120.88
230.667	130.88
230.901	114.88
231.136	107.88
231.37	104.88
231.604	113.88
231.838	115.88
232.072	114.88
232.306	104.88
232.541	104.88
232.775	102.88
233.009	118.88
233.243	113.88
233.477	105.88
233.711	111.88
233.945	111.88
234.179	115.88
234.413	127.88
234.647	126.88
234.881	121.88
235.115	111.88
235.349	129.88
235.583	114.88
235.817	123.88
236.051	131.88
236.285	117.88
236.519	116.88
236.753	129.88
236.987	166.88
237.221	186.88
237.455	239.88
237.689	183.88
237.922	143.88
238.156	118.88
238.39	132.88
238.624	138.88
238.858	126.88
239.091	116.88
239.325	128.88
239.559	124.88
239.793	132.88
240.027	137.88
240.26	147.88
240.494	156.88
240.728	151.88
240.961	139.88
241.195	138.88
241.429	149.88
241.662	119.88
241.896	129.88
242.13	124.88
242.363	129.88
242.597	124.88
242.83	140.88
243.064	134.88
243.298	121.88
243.531	137.88
243.765	136.88
243.998	135.88
244.232	152.88
244.465	147.88
244.699	150.88
244.932	147.88
245.166	138.88
245.399	148.88
245.633	149.88
245.866	140.88
246.099	132.88
246.333	153.88
246.566	146.88
246.8	147.88
247.033	155.88
247.266	155.88
247.5	153.88
247.733	165.88
247.966	179.88
248.2	172.88
248.433	154.88
248.666	174.88
248.899	180.88
249.133	202.88
249.366	217.88
249.599	202.88
249.832	195.88
250.066	203.88
250.299	184.88
250.532	204.88
250.765	212.88
250.998	234.88
251.231	237.88
251.465	206.88
251.698	206.88
251.931	199.88
252.164	193.88
252.397	191.88
252.63	217.88
252.863	221.88
253.096	215.88
253.329	234.88
253.562	232.88
253.795	238.88
254.028	239.88
254.261	237.88
254.494	242.88
254.727	265.88
254.96	301.88
255.193	293.88
255.426	267.88
255.659	247.88
255.892	250.88
256.124	258.88
256.357	246.88
256.59	231.88
256.823	222.88
257.056	217.88
257.289	225.88
257.521	208.88
257.754	209.88
257.987	199.88
258.22	207.88
258.452	192.88
258.685	201.88
258.918	177.88
259.151	213.88
259.383	229.88
259.616	229.88
259.849	231.88
260.081	232.88
260.314	257.88
260.547	265.88
260.779	249.88
261.012	251.88
261.244	235.88
261.477	242.88
261.71	218.88
261.942	230.88
262.175	229.88
262.407	239.88
262.64	227.88
262.872	216.88
263.105	192.88
263.337	211.88
263.57	194.88
263.802	221.88
264.035	208.88
264.267	211.88
264.499	194.88
264.732	191.88
264.964	217.88
265.197	198.88
265.429	195.88
265.661	209.88
265.894	201.88
266.126	193.88
266.358	202.88
266.591	214.88
266.823	216.88
267.055	230.88
267.287	222.88
267.52	225.88
267.752	217.88
267.984	218.88
268.216	233.88
268.448	219.88
268.681	229.88
268.913	220.88
269.145	253.88
269.377	283.88
269.609	275.88
269.841	278.88
270.073	257.88
270.306	308.88
270.538	323.88
270.77	314.88
271.002	303.88
271.234	287.88
271.466	310.88
271.698	329.88
271.93	343.88
272.162	321.88
272.394	301.88
272.626	298.88
272.858	291.88
273.09	274.88
273.322	275.88
273.553	276.88
273.785	261.88
274.017	277.88
274.249	267.88
274.481	255.88
274.713	256.88
274.945	249.88
275.176	261.88
275.408	258.88
275.64	231.88
275.872	279.88
276.104	272.88
276.335	266.88
276.567	268.88
276.799	287.88
277.031	305.88
277.262	321.88
277.494	317.88
277.726	306.88
277.957	287.88
278.189	278.88
278.421	274.88
278.652	273.88
278.884	265.88
279.115	256.88
279.347	273.88
279.579	247.88
279.81	255.88
280.042	250.88
280.273	253.88
280.505	263.88
280.736	241.88
280.968	253.88
281.199	254.88
281.431	253.88
281.662	252.88
281.894	264.88
282.125	247.88
282.356	263.88
282.588	319.88
282.819	303.88
283.051	285.88
283.282	250.88
283.513	265.88
283.745	279.88
283.976	277.88
284.207	246.88
284.439	252.88
284.67	240.88
284.901	242.88
285.132	272.88
285.364	257.88
285.595	254.88
285.826	254.88
286.057	274.88
286.288	272.88
286.52	261.88
286.751	263.88
286.982	257.88
287.213	259.88
287.444	254.88
287.675	277.88
287.906	268.88
288.138	257.88
288.369	280.88
288.6	284.88
288.831	286.88
289.062	257.88
289.293	263.88
289.524	268.88
289.755	266.88
289.986	271.88
290.217	269.88
290.448	264.88
290.679	271.88
290.91	237.88
291.141	272.88
291.371	267.88
291.602	249.88
291.833	275.88
292.064	265.88
292.295	258.88
292.526	280.88
292.757	256.88
292.987	257.88
293.218	272.88
293.449	266.88
293.68	270.88
293.91	262.88
294.141	247.88
294.372	257.88
294.603	261.88
294.833	271.88
295.064	255.88
295.295	278.88
295.525	276.88
295.756	265.88
295.987	287.88
296.217	309.88
296.448	304.88
296.679	297.88
296.909	251.88
297.14	246.88
297.37	273.88
297.601	283.88
297.831	262.88
298.062	287.88
298.292	280.88
298.523	282.88
298.753	274.88
298.984	282.88
299.214	286.88
299.445	281.88
299.675	274.88
299.905	285.88
300.136	285.88
300.366	270.88
300.597	291.88
300.827	297.88
301.057	308.88
301.288	324.88
301.518	298.88
301.748	282.88
301.979	293.88
302.209	295.88
302.439	287.88
302.669	283.88
302.9	281.88
303.13	303.88
303.36	285.88
303.59	310.88
303.82	311.88
304.051	302.88
304.281	297.88
304.511	281.88
304.741	292.88
304.971	287.88
305.201	296.88
305.431	284.88
305.661	302.88
305.891	304.88
306.121	294.88
306.352	293.88
306.582	313.88
306.812	306.88
307.042	301.88
307.272	310.88
307.502	289.88
307.731	299.88
307.961	303.88
308.191	293.88
308.421	319.88
308.651	309.88
308.881	323.88
309.111	301.88
309.341	304.88
309.571	323.88
309.8	324.88
310.03	348.88
310.26	362.88
310.49	377.88
310.72	387.88
310.949	383.88
311.179	398.88
311.409	365.88
311.639	355.88
311.868	364.88
312.098	371.88
312.328	361.88
312.557	381.88
312.787	391.88
313.017	396.88
313.246	375.88
313.476	381.88
313.706	361.88
313.935	366.88
314.165	371.88
314.394	387.88
314.624	392.88
314.853	375.88
315.083	372.88
315.312	345.88
315.542	366.88
315.771	343.88
316.001	347.88
316.23	346.88
316.46	343.88
316.689	353.88
316.919	362.88
317.148	354.88
317.377	358.88
317.607	359.88
317.836	362.88
318.065	362.88
318.295	337.88
318.524	330.88
318.753	349.88
318.983	346.88
319.212	352.88
319.441	369.88
319.67	362.88
319.9	367.88
320.129	359.88
320.358	354.88
320.587	358.88
320.816	377.88
321.046	391.88
321.275	387.88
321.504	375.88
321.733	374.88
321.962	411.88
322.191	401.88
322.42	434.88
322.649	449.88
322.878	460.88
323.108	483.88
323.337	501.88
323.566	546.88
323.795	549.88
324.024	646.88
324.253	770.88
324.482	1115.88
324.71	1706.88
324.939	2495.88
325.168	2179.88
325.397	1150.88
325.626	752.88
325.855	591.88
326.084	558.88
326.313	537.88
326.542	543.88
326.77	593.88
326.999	685.88
327.228	966.88
327.457	1518.88
327.686	1897.88
327.914	1283.88
328.143	827.88
328.372	711.88
328.6	636.88
328.829	613.88
329.058	621.88
329.287	634.88
329.515	585.88
329.744	524.88
329.972	530.88
330.201	563.88
330.43	569.88
330.658	641.88
330.887	658.88
331.115	631.88
331.344	538.88
331.572	488.88
331.801	481.88
332.03	485.88
332.258	464.88
332.486	436.88
332.715	433.88
332.943	439.88
333.172	445.88
333.4	421.88
333.629	441.88
333.857	435.88
334.085	488.88
334.314	471.88
334.542	518.88
334.771	538.88
334.999	454.88
335.227	430.88
335.455	420.88
335.684	413.88
335.912	399.88
336.14	396.88
336.369	407.88
336.597	418.88
336.825	423.88
337.053	393.88
337.281	432.88
337.51	387.88
337.738	418.88
337.966	413.88
338.194	409.88
338.422	416.88
338.65	414.88
338.878	376.88
339.106	386.88
339.334	396.88
339.562	396.88
339.79	376.88
340.018	398.88
340.246	405.88
340.474	408.88
340.702	399.88
340.93	384.88
341.158	369.88
341.386	371.88
341.614	398.88
341.842	385.88
342.07	385.88
342.298	388.88
342.526	404.88
342.754	386.88
342.981	379.88
343.209	375.88
343.437	361.88
343.665	381.88
343.893	375.88
344.12	400.88
344.348	405.88
344.576	409.88
344.804	392.88
345.031	406.88
345.259	411.88
345.487	379.88
345.714	389.88
345.942	389.88
346.17	392.88
346.397	374.88
346.625	392.88
346.853	375.88
347.08	384.88
347.308	394.88
347.535	396.88
347.763	405.88
347.99	399.88
348.218	412.88
348.445	422.88
348.673	391.88
348.9	392.88
349.128	390.88
349.355	357.88
349.583	358.88
349.81	377.88
350.037	381.88
350.265	362.88
350.492	359.88
350.72	367.88
350.947	405.88
351.174	391.88
351.402	391.88
351.629	393.88
351.856	389.88
352.083	398.88
352.311	407.88
352.538	417.88
352.765	420.88
352.992	392.88
353.22	406.88
353.447	381.88
353.674	401.88
353.901	374.88
354.128	345.88
354.355	352.88
354.583	354.88
354.81	346.88
355.037	350.88
355.264	325.88
355.491	338.88
355.718	342.88
355.945	341.88
356.172	346.88
356.399	341.88
356.626	338.88
356.853	357.88
357.08	359.88
357.307	351.88
357.534	365.88
357.761	361.88
357.988	353.88
358.215	343.88
358.441	370.88
358.668	347.88
358.895	364.88
359.122	365.88
359.349	367.88
359.576	390.88
359.802	426.88
360.029	450.88
360.256	484.88
360.483	419.88
360.709	411.88
360.936	391.88
361.163	394.88
361.39	413.88
361.616	395.88
361.843	374.88
362.07	404.88
362.296	394.88
362.523	404.88
362.749	365.88
362.976	385.88
363.203	356.88
363.429	373.88
363.656	373.88
363.882	359.88
364.109	375.88
364.335	360.88
364.562	360.88
364.788	371.88
365.015	359.88
365.241	367.88
365.468	355.88
365.694	382.88
365.92	393.88
366.147	361.88
366.373	370.88
366.599	347.88
366.826	350.88
367.052	372.88
367.278	373.88
367.505	350.88
367.731	353.88
367.957	351.88
368.184	372.88
368.41	361.88
368.636	350.88
368.862	394.88
369.089	365.88
369.315	366.88
369.541	376.88
369.767	367.88
369.993	356.88
370.219	356.88
370.445	370.88
370.672	352.88
370.898	349.88
371.124	351.88
371.35	336.88
371.576	360.88
371.802	366.88
372.028	330.88
372.254	338.88
372.48	340.88
372.706	365.88
372.932	358.88
373.158	351.88
373.384	322.88
373.61	333.88
373.835	370.88
374.061	349.88
374.287	339.88
374.513	345.88
374.739	346.88
374.965	358.88
375.191	354.88
375.416	349.88
375.642	353.88
375.868	360.88
376.094	343.88
376.319	351.88
376.545	337.88
376.771	332.88
376.997	347.88
377.222	346.88
377.448	345.88
377.674	339.88
377.899	323.88
378.125	332.88
378.35	342.88
378.576	346.88
378.802	335.88
379.027	342.88
379.253	335.88
379.478	345.88
379.704	339.88
379.929	353.88
380.155	358.88
380.38	345.88
380.606	334.88
380.831	336.88
381.057	346.88
381.282	335.88
381.507	335.88
381.733	366.88
381.958	340.88
382.184	352.88
382.409	367.88
382.634	355.88
382.86	345.88
383.085	345.88
383.31	338.88
383.535	371.88
383.761	366.88
383.986	337.88
384.211	354.88
384.436	347.88
384.662	375.88
384.887	367.88
385.112	350.88
385.337	363.88
385.562	361.88
385.787	362.88
386.013	377.88
386.238	370.88
386.463	361.88
386.688	385.88
386.913	362.88
387.138	366.88
387.363	358.88
387.588	369.88
387.813	371.88
388.038	368.88
388.263	374.88
388.488	356.88
388.713	362.88
388.938	365.88
389.163	355.88
389.387	379.88
389.612	376.88
389.837	359.88
390.062	362.88
390.287	365.88
390.512	365.88
390.736	367.88
390.961	360.88
391.186	358.88
391.411	367.88
391.636	368.88
391.86	360.88
392.085	374.88
392.31	367.88
392.534	360.88
392.759	369.88
392.984	368.88
393.208	367.88
393.433	362.88
393.658	371.88
393.882	358.88
394.107	346.88
394.331	367.88
394.556	369.88
394.78	362.88
395.005	380.88
395.229	357.88
395.454	350.88
395.678	386.88
395.903	393.88
396.127	413.88
396.352	404.88
396.576	385.88
396.801	374.88
397.025	383.88
397.249	377.88
397.474	397.88
397.698	382.88
397.922	408.88
398.147	423.88
398.371	422.88
398.595	387.88
398.82	428.88
399.044	433.88
399.268	421.88
399.492	450.88
399.717	434.88
399.941	474.88
400.165	509.88
400.389	521.88
400.613	482.88
400.837	447.88
401.062	441.88
401.286	418.88
401.51	425.88
401.734	418.88
401.958	421.88
402.182	424.88
402.406	437.88
402.63	434.88
402.854	443.88
403.078	438.88
403.302	433.88
403.526	436.88
403.75	438.88
403.974	438.88
404.198	423.88
404.422	442.88
404.645	460.88
404.869	458.88
405.093	489.88
405.317	509.88
405.541	532.88
405.765	499.88
405.988	490.88
406.212	503.88
406.436	521.88
406.66	507.88
406.883	484.88
407.107	483.88
407.331	521.88
407.555	611.88
407.778	607.88
408.002	533.88
408.226	493.88
408.449	483.88
408.673	491.88
408.896	513.88
409.12	551.88
409.344	518.88
409.567	474.88
409.791	451.88
410.014	442.88
410.238	446.88
410.461	431.88
410.685	435.88
410.908	440.88
411.132	500.88
411.355	532.88
411.578	519.88
411.802	452.88
412.025	459.88
412.249	462.88
412.472	472.88
412.695	510.88
412.919	525.88
413.142	452.88
413.365	436.88
413.589	424.88
413.812	421.88
414.035	425.88
414.258	411.88
414.482	421.88
414.705	421.88
414.928	414.88
415.151	419.88
415.374	408.88
415.597	412.88
415.821	409.88
416.044	382.88
416.267	419.88
416.49	391.88
416.713	420.88
416.936	407.88
417.159	418.88
417.382	418.88
417.605	439.88
417.828	426.88
418.051	447.88
418.274	450.88
418.497	423.88
418.72	429.88
418.943	405.88
419.166	450.88
419.389	439.88
419.611	435.88
419.834	468.88
420.057	467.88
420.28	460.88
420.503	458.88
420.726	439.88
420.948	449.88
421.171	524.88
421.394	557.88
421.617	488.88
421.839	441.88
422.062	461.88
422.285	461.88
422.507	530.88
422.73	580.88
422.953	587.88
423.175	528.88
423.398	486.88
423.621	467.88
423.843	495.88
424.066	489.88
424.288	482.88
424.511	494.88
424.733	581.88
424.956	635.88
425.178	612.88
425.401	601.88
425.623	624.88
425.846	545.88
426.068	506.88
426.291	507.88
426.513	486.88
426.735	499.88
426.958	567.88
427.18	621.88
427.402	751.88
427.625	834.88
427.847	761.88
428.069	643.88
428.292	558.88
428.514	517.88
428.736	480.88
428.958	482.88
429.181	466.88
429.403	499.88
429.625	476.88
429.847	499.88
430.069	573.88
430.292	567.88
430.514	486.88
430.736	467.88
430.958	459.88
431.18	435.88
431.402	425.88
431.624	430.88
431.846	401.88
432.068	404.88
432.29	422.88
432.512	437.88
432.734	465.88
432.956	435.88
433.178	459.88
433.4	438.88
433.622	434.88
433.844	442.88
434.066	421.88
434.287	439.88
434.509	441.88
434.731	436.88
434.953	427.88
435.175	446.88
435.397	510.88
435.618	489.88
435.84	548.88
436.062	636.88
436.284	689.88
436.505	594.88
436.727	535.88
436.949	490.88
437.17	458.88
437.392	453.88
437.614	479.88
437.835	510.88
438.057	619.88
438.278	693.88
438.5	699.88
438.721	750.88
438.943	738.88
439.165	602.88
439.386	539.88
439.608	524.88
439.829	508.88
440.05	555.88
440.272	590.88
440.493	565.88
440.715	506.88
440.936	464.88
441.158	469.88
441.379	479.88
441.6	485.88
441.822	487.88
442.043	540.88
442.264	615.88
442.486	666.88
442.707	575.88
442.928	533.88
443.149	541.88
443.371	546.88
443.592	597.88
443.813	702.88
444.034	735.88
444.255	628.88
444.476	534.88
444.698	494.88
444.919	520.88
445.14	592.88
445.361	548.88
445.582	543.88
445.803	627.88
446.024	695.88
446.245	724.88
446.466	658.88
446.687	574.88
446.908	523.88
447.129	489.88
447.35	468.88
447.571	478.88
447.792	464.88
448.013	480.88
448.234	493.88
448.455	552.88
448.675	653.88
448.896	730.88
449.117	645.88
449.338	616.88
449.559	712.88
449.779	797.88
450	639.88
450.221	533.88
450.442	460.88
450.662	484.88
450.883	498.88
451.104	530.88
451.324	509.88
451.545	479.88
451.766	450.88
451.986	427.88
452.207	407.88
452.428	405.88
452.648	416.88
452.869	420.88
453.089	409.88
453.31	457.88
453.53	446.88
453.751	432.88
453.971	424.88
454.192	470.88
454.412	455.88
454.633	447.88
454.853	419.88
455.073	425.88
455.294	453.88
455.514	534.88
455.734	507.88
455.955	446.88
456.175	410.88
456.395	395.88
456.616	390.88
456.836	388.88
457.056	369.88
457.276	360.88
457.497	373.88
457.717	391.88
457.937	403.88
458.157	415.88
458.377	412.88
458.598	410.88
458.818	510.88
459.038	603.88
459.258	590.88
459.478	505.88
459.698	458.88
459.918	454.88
460.138	419.88
460.358	418.88
460.578	413.88
460.798	422.88
461.018	431.88
461.238	435.88
461.458	417.88
461.678	422.88
461.898	415.88
462.118	393.88
462.338	402.88
462.558	423.88
462.777	421.88
462.997	423.88
463.217	433.88
463.437	429.88
463.657	425.88
463.876	433.88
464.096	453.88
464.316	432.88
464.536	425.88
464.755	445.88
464.975	464.88
465.195	519.88
465.414	613.88
465.634	557.88
465.854	478.88
466.073	456.88
466.293	436.88
466.512	439.88
466.732	414.88
466.951	430.88
467.171	431.88
467.391	432.88
467.61	442.88
467.829	435.88
468.049	431.88
468.268	436.88
468.488	406.88
468.707	412.88
468.927	382.88
469.146	383.88
469.365	405.88
469.585	401.88
469.804	406.88
470.023	423.88
470.243	440.88
470.462	447.88
470.681	443.88
470.901	453.88
471.12	432.88
471.339	444.88
471.558	447.88
471.777	424.88
471.997	416.88
472.216	408.88
472.435	479.88
472.654	449.88
472.873	432.88
473.092	434.88
473.311	427.88
473.53	426.88
473.749	439.88
473.968	507.88
474.187	610.88
474.406	643.88
474.625	507.88
474.844	438.88
475.063	451.88
475.282	438.88
475.501	445.88
475.72	427.88
475.939	440.88
476.158	456.88
476.377	444.88
476.596	439.88
476.814	471.88
477.033	454.88
477.252	448.88
477.471	455.88
477.69	453.88
477.908	485.88
478.127	465.88
478.346	473.88
478.564	478.88
478.783	456.88
479.002	464.88
479.22	493.88
479.439	511.88
479.658	529.88
479.876	509.88
480.095	526.88
480.313	545.88
480.532	539.88
480.751	542.88
480.969	549.88
481.188	615.88
481.406	677.88
481.624	586.88
481.843	521.88
482.061	518.88
482.28	524.88
482.498	511.88
482.717	494.88
482.935	520.88
483.153	521.88
483.372	512.88
483.59	509.88
483.808	512.88
484.027	522.88
484.245	505.88
484.463	494.88
484.681	529.88
484.9	524.88
485.118	531.88
485.336	521.88
485.554	509.88
485.772	552.88
485.99	523.88
486.209	521.88
486.427	534.88
486.645	534.88
486.863	585.88
487.081	563.88
487.299	569.88
487.517	534.88
487.735	554.88
487.953	540.88
488.171	558.88
488.389	555.88
488.607	556.88
488.825	554.88
489.043	544.88
489.261	558.88
489.479	557.88
489.696	579.88
489.914	566.88
490.132	581.88
490.35	591.88
490.568	591.88
490.786	617.88
491.003	608.88
491.221	589.88
491.439	642.88
491.657	633.88
491.874	618.88
492.092	649.88
492.31	643.88
492.527	647.88
492.745	639.88
492.963	676.88
493.18	634.88
493.398	690.88
493.615	663.88
493.833	675.88
494.05	653.88
494.268	647.88
494.485	662.88
494.703	653.88
494.92	662.88
495.138	664.88
495.355	663.88
495.573	671.88
495.79	668.88
496.008	670.88
496.225	663.88
496.442	667.88
496.66	660.88
496.877	649.88
497.094	651.88
497.312	665.88
497.529	664.88
497.746	673.88
497.963	691.88
498.181	710.88
498.398	689.88
498.615	695.88
498.832	742.88
499.049	695.88
499.267	726.88
499.484	702.88
499.701	719.88
499.918	754.88
500.135	763.88
500.352	788.88
500.569	766.88
500.786	777.88
501.003	800.88
501.22	799.88
501.437	799.88
501.654	777.88
501.871	808.88
