Data from 1980.PennyLincolnUp.Lamp.En5.5.200Scan.071819.P1_HRD10591_16-38-31-958.txt Node
Date: Thu Jul 18 16:38:31 EDT 2019
User: cochatt
Spectrometer: HR+D1059
Trigger mode: 1
Integration Time (sec): 1.000000E-1
Scans to average: 1
Electric dark correction enabled: true
Nonlinearity correction enabled: false
Boxcar width: 0
XAxis mode: Wavelengths
Number of Pixels in Spectrum: 2048
>>>>>Begin Spectral Data<<<<<
223.165	-18.56
223.4	-18.56
223.635	-18.56
223.869	-16.56
224.104	-31.56
224.338	-17.56
224.573	-15.56
224.808	-9.56
225.042	-11.56
225.277	-10.56
225.511	-0.56
225.746	3.44
225.98	8.44
226.215	25.44
226.449	16.44
226.683	17.44
226.918	30.44
227.152	30.44
227.387	28.44
227.621	22.44
227.856	60.44
228.09	43.44
228.324	57.44
228.559	65.44
228.793	84.44
229.027	91.44
229.262	117.44
229.496	128.44
229.73	145.44
229.964	170.44
230.199	136.44
230.433	105.44
230.667	115.44
230.901	112.44
231.136	113.44
231.37	103.44
231.604	115.44
231.838	100.44
232.072	104.44
232.306	126.44
232.541	121.44
232.775	113.44
233.009	111.44
233.243	117.44
233.477	120.44
233.711	117.44
233.945	120.44
234.179	118.44
234.413	119.44
234.647	119.44
234.881	132.44
235.115	115.44
235.349	112.44
235.583	117.44
235.817	116.44
236.051	124.44
236.285	121.44
236.519	135.44
236.753	130.44
236.987	150.44
237.221	199.44
237.455	247.44
237.689	213.44
237.922	155.44
238.156	150.44
238.39	120.44
238.624	136.44
238.858	140.44
239.091	123.44
239.325	123.44
239.559	138.44
239.793	139.44
240.027	129.44
240.26	164.44
240.494	171.44
240.728	168.44
240.961	142.44
241.195	154.44
241.429	149.44
241.662	145.44
241.896	143.44
242.13	143.44
242.363	159.44
242.597	138.44
242.83	131.44
243.064	153.44
243.298	142.44
243.531	147.44
243.765	137.44
243.998	155.44
244.232	139.44
244.465	145.44
244.699	152.44
244.932	138.44
245.166	146.44
245.399	137.44
245.633	144.44
245.866	135.44
246.099	145.44
246.333	151.44
246.566	151.44
246.8	166.44
247.033	161.44
247.266	163.44
247.5	154.44
247.733	169.44
247.966	162.44
248.2	171.44
248.433	184.44
248.666	167.44
248.899	190.44
249.133	201.44
249.366	217.44
249.599	207.44
249.832	193.44
250.066	200.44
250.299	198.44
250.532	184.44
250.765	205.44
250.998	247.44
251.231	253.44
251.465	230.44
251.698	212.44
251.931	205.44
252.164	219.44
252.397	207.44
252.63	206.44
252.863	221.44
253.096	228.44
253.329	251.44
253.562	234.44
253.795	218.44
254.028	230.44
254.261	242.44
254.494	234.44
254.727	274.44
254.96	301.44
255.193	298.44
255.426	293.44
255.659	263.44
255.892	225.44
256.124	245.44
256.357	255.44
256.59	246.44
256.823	241.44
257.056	223.44
257.289	209.44
257.521	231.44
257.754	215.44
257.987	218.44
258.22	207.44
258.452	203.44
258.685	216.44
258.918	211.44
259.151	210.44
259.383	221.44
259.616	229.44
259.849	224.44
260.081	251.44
260.314	265.44
260.547	264.44
260.779	273.44
261.012	266.44
261.244	235.44
261.477	226.44
261.71	252.44
261.942	220.44
262.175	250.44
262.407	240.44
262.64	225.44
262.872	222.44
263.105	210.44
263.337	225.44
263.57	203.44
263.802	198.44
264.035	216.44
264.267	228.44
264.499	219.44
264.732	205.44
264.964	209.44
265.197	201.44
265.429	198.44
265.661	209.44
265.894	222.44
266.126	227.44
266.358	211.44
266.591	215.44
266.823	218.44
267.055	231.44
267.287	216.44
267.52	217.44
267.752	219.44
267.984	217.44
268.216	230.44
268.448	224.44
268.681	223.44
268.913	236.44
269.145	263.44
269.377	295.44
269.609	287.44
269.841	277.44
270.073	284.44
270.306	297.44
270.538	337.44
270.77	342.44
271.002	327.44
271.234	313.44
271.466	325.44
271.698	342.44
271.93	327.44
272.162	331.44
272.394	340.44
272.626	342.44
272.858	312.44
273.09	303.44
273.322	282.44
273.553	270.44
273.785	263.44
274.017	248.44
274.249	270.44
274.481	282.44
274.713	260.44
274.945	271.44
275.176	282.44
275.408	273.44
275.64	267.44
275.872	257.44
276.104	280.44
276.335	265.44
276.567	274.44
276.799	294.44
277.031	317.44
277.262	324.44
277.494	325.44
277.726	308.44
277.957	287.44
278.189	282.44
278.421	280.44
278.652	269.44
278.884	265.44
279.115	243.44
279.347	255.44
279.579	262.44
279.81	253.44
280.042	257.44
280.273	272.44
280.505	260.44
280.736	262.44
280.968	257.44
281.199	261.44
281.431	254.44
281.662	267.44
281.894	256.44
282.125	269.44
282.356	272.44
282.588	300.44
282.819	323.44
283.051	277.44
283.282	253.44
283.513	259.44
283.745	263.44
283.976	251.44
284.207	274.44
284.439	261.44
284.67	260.44
284.901	272.44
285.132	268.44
285.364	270.44
285.595	283.44
285.826	251.44
286.057	263.44
286.288	269.44
286.52	272.44
286.751	243.44
286.982	284.44
287.213	260.44
287.444	284.44
287.675	271.44
287.906	297.44
288.138	295.44
288.369	296.44
288.6	295.44
288.831	276.44
289.062	267.44
289.293	259.44
289.524	245.44
289.755	269.44
289.986	283.44
290.217	276.44
290.448	287.44
290.679	285.44
290.91	271.44
291.141	264.44
291.371	279.44
291.602	269.44
291.833	275.44
292.064	247.44
292.295	265.44
292.526	280.44
292.757	278.44
292.987	289.44
293.218	277.44
293.449	283.44
293.68	288.44
293.91	277.44
294.141	269.44
294.372	268.44
294.603	279.44
294.833	284.44
295.064	267.44
295.295	273.44
295.525	279.44
295.756	294.44
295.987	297.44
296.217	315.44
296.448	325.44
296.679	299.44
296.909	264.44
297.14	255.44
297.37	268.44
297.601	266.44
297.831	285.44
298.062	287.44
298.292	281.44
298.523	277.44
298.753	294.44
298.984	268.44
299.214	283.44
299.445	277.44
299.675	285.44
299.905	290.44
300.136	273.44
300.366	298.44
300.597	300.44
300.827	294.44
301.057	296.44
301.288	324.44
301.518	293.44
301.748	285.44
301.979	310.44
302.209	315.44
302.439	304.44
302.669	320.44
302.9	304.44
303.13	290.44
303.36	320.44
303.59	325.44
303.82	323.44
304.051	318.44
304.281	289.44
304.511	311.44
304.741	311.44
304.971	292.44
305.201	294.44
305.431	304.44
305.661	297.44
305.891	309.44
306.121	297.44
306.352	312.44
306.582	312.44
306.812	305.44
307.042	305.44
307.272	318.44
307.502	302.44
307.731	312.44
307.961	319.44
308.191	302.44
308.421	313.44
308.651	329.44
308.881	291.44
309.111	309.44
309.341	311.44
309.571	348.44
309.8	351.44
310.03	351.44
310.26	368.44
310.49	363.44
310.72	390.44
310.949	399.44
311.179	411.44
311.409	382.44
311.639	350.44
311.868	366.44
312.098	355.44
312.328	373.44
312.557	413.44
312.787	411.44
313.017	396.44
313.246	377.44
313.476	353.44
313.706	366.44
313.935	384.44
314.165	377.44
314.394	396.44
314.624	405.44
314.853	387.44
315.083	391.44
315.312	386.44
315.542	353.44
315.771	359.44
316.001	360.44
316.23	355.44
316.46	364.44
316.689	391.44
316.919	376.44
317.148	389.44
317.377	394.44
317.607	368.44
317.836	362.44
318.065	383.44
318.295	349.44
318.524	366.44
318.753	361.44
318.983	351.44
319.212	369.44
319.441	366.44
319.67	372.44
319.9	373.44
320.129	357.44
320.358	371.44
320.587	366.44
320.816	373.44
321.046	405.44
321.275	385.44
321.504	384.44
321.733	405.44
321.962	391.44
322.191	415.44
322.42	438.44
322.649	433.44
322.878	461.44
323.108	470.44
323.337	494.44
323.566	535.44
323.795	559.44
324.024	622.44
324.253	756.44
324.482	1108.44
324.71	1726.44
324.939	2467.44
325.168	2177.44
325.397	1159.44
325.626	759.44
325.855	639.44
326.084	548.44
326.313	551.44
326.542	548.44
326.77	585.44
326.999	720.44
327.228	992.44
327.457	1514.44
327.686	1867.44
327.914	1279.44
328.143	820.44
328.372	705.44
328.6	657.44
328.829	614.44
329.058	638.44
329.287	645.44
329.515	604.44
329.744	543.44
329.972	536.44
330.201	561.44
330.43	613.44
330.658	673.44
330.887	689.44
331.115	659.44
331.344	527.44
331.572	521.44
331.801	513.44
332.03	517.44
332.258	468.44
332.486	441.44
332.715	418.44
332.943	431.44
333.172	431.44
333.4	443.44
333.629	443.44
333.857	445.44
334.085	486.44
334.314	490.44
334.542	527.44
334.771	547.44
334.999	503.44
335.227	460.44
335.455	427.44
335.684	419.44
335.912	428.44
336.14	401.44
336.369	412.44
336.597	426.44
336.825	418.44
337.053	401.44
337.281	435.44
337.51	401.44
337.738	388.44
337.966	412.44
338.194	429.44
338.422	422.44
338.65	401.44
338.878	403.44
339.106	389.44
339.334	400.44
339.562	401.44
339.79	408.44
340.018	402.44
340.246	402.44
340.474	401.44
340.702	401.44
340.93	389.44
341.158	381.44
341.386	383.44
341.614	413.44
341.842	393.44
342.07	396.44
342.298	398.44
342.526	405.44
342.754	379.44
342.981	390.44
343.209	383.44
343.437	405.44
343.665	386.44
343.893	391.44
344.12	425.44
344.348	420.44
344.576	404.44
344.804	395.44
345.031	403.44
345.259	428.44
345.487	417.44
345.714	405.44
345.942	400.44
346.17	390.44
346.397	384.44
346.625	389.44
346.853	397.44
347.08	400.44
347.308	421.44
347.535	413.44
347.763	409.44
347.99	398.44
348.218	411.44
348.445	434.44
348.673	406.44
348.9	402.44
349.128	393.44
349.355	397.44
349.583	381.44
349.81	386.44
350.037	361.44
350.265	383.44
350.492	383.44
350.72	394.44
350.947	397.44
351.174	429.44
351.402	413.44
351.629	409.44
351.856	407.44
352.083	427.44
352.311	432.44
352.538	423.44
352.765	418.44
352.992	405.44
353.22	408.44
353.447	406.44
353.674	384.44
353.901	383.44
354.128	364.44
354.355	363.44
354.583	366.44
354.81	364.44
355.037	372.44
355.264	339.44
355.491	355.44
355.718	352.44
355.945	347.44
356.172	336.44
356.399	360.44
356.626	364.44
356.853	375.44
357.08	342.44
357.307	364.44
357.534	358.44
357.761	357.44
357.988	350.44
358.215	360.44
358.441	350.44
358.668	362.44
358.895	363.44
359.122	376.44
359.349	371.44
359.576	383.44
359.802	407.44
360.029	457.44
360.256	494.44
360.483	473.44
360.709	428.44
360.936	392.44
361.163	408.44
361.39	402.44
361.616	414.44
361.843	407.44
362.07	400.44
362.296	399.44
362.523	400.44
362.749	362.44
362.976	387.44
363.203	371.44
363.429	371.44
363.656	358.44
363.882	372.44
364.109	371.44
364.335	368.44
364.562	363.44
364.788	372.44
365.015	383.44
365.241	369.44
365.468	386.44
365.694	390.44
365.92	385.44
366.147	387.44
366.373	373.44
366.599	360.44
366.826	379.44
367.052	369.44
367.278	372.44
367.505	365.44
367.731	375.44
367.957	360.44
368.184	379.44
368.41	387.44
368.636	375.44
368.862	381.44
369.089	383.44
369.315	355.44
369.541	365.44
369.767	369.44
369.993	379.44
370.219	391.44
370.445	356.44
370.672	350.44
370.898	348.44
371.124	359.44
371.35	355.44
371.576	348.44
371.802	347.44
372.028	359.44
372.254	354.44
372.48	370.44
372.706	365.44
372.932	343.44
373.158	364.44
373.384	361.44
373.61	353.44
373.835	350.44
374.061	361.44
374.287	358.44
374.513	377.44
374.739	367.44
374.965	365.44
375.191	362.44
375.416	339.44
375.642	346.44
375.868	357.44
376.094	366.44
376.319	355.44
376.545	372.44
376.771	356.44
376.997	355.44
377.222	343.44
377.448	377.44
377.674	334.44
377.899	356.44
378.125	346.44
378.35	340.44
378.576	334.44
378.802	357.44
379.027	358.44
379.253	359.44
379.478	344.44
379.704	356.44
379.929	358.44
380.155	353.44
380.38	356.44
380.606	358.44
380.831	352.44
381.057	327.44
381.282	350.44
381.507	336.44
381.733	368.44
381.958	365.44
382.184	363.44
382.409	373.44
382.634	351.44
382.86	363.44
383.085	371.44
383.31	365.44
383.535	379.44
383.761	373.44
383.986	356.44
384.211	368.44
384.436	368.44
384.662	381.44
384.887	379.44
385.112	376.44
385.337	367.44
385.562	384.44
385.787	375.44
386.013	385.44
386.238	388.44
386.463	387.44
386.688	379.44
386.913	357.44
387.138	362.44
387.363	382.44
387.588	371.44
387.813	360.44
388.038	350.44
388.263	375.44
388.488	385.44
388.713	382.44
388.938	375.44
389.163	378.44
389.387	376.44
389.612	370.44
389.837	373.44
390.062	387.44
390.287	371.44
390.512	389.44
390.736	381.44
390.961	374.44
391.186	374.44
391.411	379.44
391.636	363.44
391.86	375.44
392.085	397.44
392.31	381.44
392.534	367.44
392.759	405.44
392.984	383.44
393.208	367.44
393.433	389.44
393.658	373.44
393.882	377.44
394.107	358.44
394.331	363.44
394.556	382.44
394.78	366.44
395.005	375.44
395.229	363.44
395.454	384.44
395.678	383.44
395.903	395.44
396.127	424.44
396.352	421.44
396.576	391.44
396.801	399.44
397.025	375.44
397.249	391.44
397.474	400.44
397.698	390.44
397.922	401.44
398.147	411.44
398.371	438.44
398.595	409.44
398.82	411.44
399.044	413.44
399.268	429.44
399.492	430.44
399.717	462.44
399.941	492.44
400.165	525.44
400.389	500.44
400.613	488.44
400.837	435.44
401.062	429.44
401.286	415.44
401.51	428.44
401.734	432.44
401.958	449.44
402.182	433.44
402.406	449.44
402.63	437.44
402.854	450.44
403.078	437.44
403.302	427.44
403.526	447.44
403.75	435.44
403.974	439.44
404.198	448.44
404.422	428.44
404.645	432.44
404.869	457.44
405.093	464.44
405.317	489.44
405.541	547.44
405.765	507.44
405.988	489.44
406.212	468.44
406.436	513.44
406.66	513.44
406.883	507.44
407.107	523.44
407.331	554.44
407.555	636.44
407.778	609.44
408.002	559.44
408.226	485.44
408.449	504.44
408.673	479.44
408.896	514.44
409.12	569.44
409.344	530.44
409.567	478.44
409.791	451.44
410.014	467.44
410.238	448.44
410.461	451.44
410.685	463.44
410.908	468.44
411.132	518.44
411.355	542.44
411.578	516.44
411.802	459.44
412.025	479.44
412.249	470.44
412.472	491.44
412.695	535.44
412.919	519.44
413.142	459.44
413.365	467.44
413.589	424.44
413.812	417.44
414.035	429.44
414.258	435.44
414.482	423.44
414.705	421.44
414.928	405.44
415.151	436.44
415.374	404.44
415.597	406.44
415.821	424.44
416.044	413.44
416.267	447.44
416.49	429.44
416.713	413.44
416.936	412.44
417.159	428.44
417.382	436.44
417.605	435.44
417.828	460.44
418.051	462.44
418.274	468.44
418.497	459.44
418.72	440.44
418.943	417.44
419.166	435.44
419.389	441.44
419.611	436.44
419.834	475.44
420.057	462.44
420.28	468.44
420.503	465.44
420.726	459.44
420.948	474.44
421.171	520.44
421.394	548.44
421.617	483.44
421.839	490.44
422.062	455.44
422.285	492.44
422.507	530.44
422.73	606.44
422.953	573.44
423.175	505.44
423.398	469.44
423.621	477.44
423.843	499.44
424.066	505.44
424.288	506.44
424.511	527.44
424.733	585.44
424.956	640.44
425.178	636.44
425.401	630.44
425.623	657.44
425.846	559.44
426.068	530.44
426.291	500.44
426.513	509.44
426.735	521.44
426.958	561.44
427.18	639.44
427.402	763.44
427.625	856.44
427.847	781.44
428.069	661.44
428.292	589.44
428.514	523.44
428.736	484.44
428.958	473.44
429.181	459.44
429.403	465.44
429.625	472.44
429.847	498.44
430.069	578.44
430.292	572.44
430.514	500.44
430.736	473.44
430.958	448.44
431.18	442.44
431.402	454.44
431.624	424.44
431.846	457.44
432.068	435.44
432.29	439.44
432.512	422.44
432.734	428.44
432.956	450.44
433.178	447.44
433.4	462.44
433.622	427.44
433.844	452.44
434.066	430.44
434.287	432.44
434.509	454.44
434.731	448.44
434.953	457.44
435.175	477.44
435.397	485.44
435.618	543.44
435.84	526.44
436.062	649.44
436.284	704.44
436.505	603.44
436.727	522.44
436.949	486.44
437.17	490.44
437.392	492.44
437.614	496.44
437.835	525.44
438.057	609.44
438.278	729.44
438.5	746.44
438.721	787.44
438.943	751.44
439.165	608.44
439.386	553.44
439.608	516.44
439.829	535.44
440.05	565.44
440.272	627.44
440.493	587.44
440.715	519.44
440.936	504.44
441.158	477.44
441.379	487.44
441.6	471.44
441.822	510.44
442.043	552.44
442.264	651.44
442.486	690.44
442.707	582.44
442.928	553.44
443.149	563.44
443.371	548.44
443.592	586.44
443.813	699.44
444.034	725.44
444.255	604.44
444.476	531.44
444.698	505.44
444.919	503.44
445.14	597.44
445.361	569.44
445.582	549.44
445.803	641.44
446.024	731.44
446.245	726.44
446.466	677.44
446.687	571.44
446.908	538.44
447.129	520.44
447.35	495.44
447.571	467.44
447.792	491.44
448.013	499.44
448.234	519.44
448.455	560.44
448.675	670.44
448.896	767.44
449.117	668.44
449.338	603.44
449.559	706.44
449.779	791.44
450	688.44
450.221	560.44
450.442	515.44
450.662	494.44
450.883	483.44
451.104	522.44
451.324	504.44
451.545	485.44
451.766	467.44
451.986	427.44
452.207	436.44
452.428	419.44
452.648	436.44
452.869	449.44
453.089	446.44
453.31	441.44
453.53	447.44
453.751	407.44
453.971	432.44
454.192	452.44
454.412	449.44
454.633	457.44
454.853	439.44
455.073	414.44
455.294	453.44
455.514	544.44
455.734	539.44
455.955	430.44
456.175	391.44
456.395	385.44
456.616	392.44
456.836	387.44
457.056	405.44
457.276	395.44
457.497	398.44
457.717	389.44
457.937	404.44
458.157	399.44
458.377	413.44
458.598	455.44
458.818	500.44
459.038	591.44
459.258	602.44
459.478	510.44
459.698	469.44
459.918	451.44
460.138	430.44
460.358	416.44
460.578	431.44
460.798	432.44
461.018	428.44
461.238	423.44
461.458	425.44
461.678	410.44
461.898	422.44
462.118	403.44
462.338	426.44
462.558	412.44
462.777	421.44
462.997	440.44
463.217	449.44
463.437	445.44
463.657	444.44
463.876	444.44
464.096	441.44
464.316	445.44
464.536	445.44
464.755	459.44
464.975	467.44
465.195	525.44
465.414	622.44
465.634	568.44
465.854	498.44
466.073	461.44
466.293	449.44
466.512	437.44
466.732	419.44
466.951	423.44
467.171	429.44
467.391	415.44
467.61	440.44
467.829	467.44
468.049	450.44
468.268	458.44
468.488	426.44
468.707	435.44
468.927	409.44
469.146	385.44
469.365	403.44
469.585	414.44
469.804	412.44
470.023	447.44
470.243	441.44
470.462	429.44
470.681	463.44
470.901	469.44
471.12	441.44
471.339	448.44
471.558	454.44
471.777	463.44
471.997	424.44
472.216	424.44
472.435	484.44
472.654	454.44
472.873	457.44
473.092	444.44
473.311	446.44
473.53	447.44
473.749	471.44
473.968	510.44
474.187	617.44
474.406	647.44
474.625	521.44
474.844	475.44
475.063	450.44
475.282	436.44
475.501	435.44
475.72	445.44
475.939	451.44
476.158	449.44
476.377	439.44
476.596	441.44
476.814	440.44
477.033	435.44
477.252	452.44
477.471	468.44
477.69	465.44
477.908	471.44
478.127	483.44
478.346	460.44
478.564	475.44
478.783	477.44
479.002	486.44
479.22	469.44
479.439	522.44
479.658	523.44
479.876	518.44
480.095	547.44
480.313	564.44
480.532	539.44
480.751	541.44
480.969	560.44
481.188	615.44
481.406	691.44
481.624	587.44
481.843	546.44
482.061	541.44
482.28	520.44
482.498	535.44
482.717	519.44
482.935	534.44
483.153	496.44
483.372	518.44
483.59	500.44
483.808	509.44
484.027	509.44
484.245	509.44
484.463	496.44
484.681	539.44
484.9	533.44
485.118	516.44
485.336	515.44
485.554	533.44
485.772	533.44
485.99	529.44
486.209	550.44
486.427	524.44
486.645	559.44
486.863	546.44
487.081	577.44
487.299	574.44
487.517	549.44
487.735	543.44
487.953	579.44
488.171	533.44
488.389	557.44
488.607	541.44
488.825	549.44
489.043	545.44
489.261	604.44
489.479	574.44
489.696	571.44
489.914	587.44
490.132	588.44
490.35	587.44
490.568	615.44
490.786	627.44
491.003	580.44
491.221	602.44
491.439	604.44
491.657	620.44
491.874	622.44
492.092	659.44
492.31	659.44
492.527	661.44
492.745	656.44
492.963	644.44
493.18	681.44
493.398	659.44
493.615	668.44
493.833	674.44
494.05	676.44
494.268	674.44
494.485	675.44
494.703	652.44
494.92	684.44
495.138	685.44
495.355	676.44
495.573	687.44
495.79	673.44
496.008	688.44
496.225	659.44
496.442	667.44
496.66	650.44
496.877	652.44
497.094	693.44
497.312	656.44
497.529	676.44
497.746	679.44
497.963	707.44
498.181	728.44
498.398	699.44
498.615	713.44
498.832	714.44
499.049	700.44
499.267	713.44
499.484	763.44
499.701	728.44
499.918	773.44
500.135	787.44
500.352	799.44
500.569	785.44
500.786	816.44
501.003	800.44
501.22	769.44
501.437	782.44
501.654	768.44
501.871	803.44
