Data from 1980.PennyLincolnUp.Lamp.En5.5.200Scan.071819.P1_HRD10591_16-37-50-957.txt Node
Date: Thu Jul 18 16:37:50 EDT 2019
User: cochatt
Spectrometer: HR+D1059
Trigger mode: 1
Integration Time (sec): 1.000000E-1
Scans to average: 1
Electric dark correction enabled: true
Nonlinearity correction enabled: false
Boxcar width: 0
XAxis mode: Wavelengths
Number of Pixels in Spectrum: 2048
>>>>>Begin Spectral Data<<<<<
223.165	-14.56
223.4	-14.56
223.635	-14.56
223.869	-12.56
224.104	-17.56
224.338	-14.56
224.573	-11.56
224.808	-19.56
225.042	-13.56
225.277	9.44
225.511	1.44
225.746	5.44
225.98	17.44
226.215	1.44
226.449	19.44
226.683	2.44
226.918	14.44
227.152	32.44
227.387	33.44
227.621	30.44
227.856	31.44
228.09	58.44
228.324	57.44
228.559	61.44
228.793	58.44
229.027	116.44
229.262	110.44
229.496	118.44
229.73	135.44
229.964	197.44
230.199	147.44
230.433	123.44
230.667	117.44
230.901	116.44
231.136	110.44
231.37	110.44
231.604	102.44
231.838	115.44
232.072	114.44
232.306	106.44
232.541	131.44
232.775	125.44
233.009	95.44
233.243	119.44
233.477	121.44
233.711	121.44
233.945	117.44
234.179	109.44
234.413	113.44
234.647	125.44
234.881	118.44
235.115	109.44
235.349	126.44
235.583	129.44
235.817	120.44
236.051	136.44
236.285	135.44
236.519	117.44
236.753	129.44
236.987	144.44
237.221	203.44
237.455	257.44
237.689	202.44
237.922	158.44
238.156	139.44
238.39	153.44
238.624	125.44
238.858	130.44
239.091	126.44
239.325	126.44
239.559	124.44
239.793	132.44
240.027	148.44
240.26	143.44
240.494	169.44
240.728	159.44
240.961	156.44
241.195	138.44
241.429	140.44
241.662	144.44
241.896	154.44
242.13	133.44
242.363	138.44
242.597	135.44
242.83	137.44
243.064	127.44
243.298	155.44
243.531	143.44
243.765	143.44
243.998	139.44
244.232	133.44
244.465	148.44
244.699	144.44
244.932	157.44
245.166	140.44
245.399	141.44
245.633	139.44
245.866	143.44
246.099	134.44
246.333	147.44
246.566	155.44
246.8	167.44
247.033	153.44
247.266	157.44
247.5	157.44
247.733	156.44
247.966	181.44
248.2	192.44
248.433	163.44
248.666	183.44
248.899	198.44
249.133	207.44
249.366	209.44
249.599	206.44
249.832	179.44
250.066	197.44
250.299	187.44
250.532	207.44
250.765	221.44
250.998	239.44
251.231	234.44
251.465	220.44
251.698	210.44
251.931	207.44
252.164	208.44
252.397	197.44
252.63	197.44
252.863	226.44
253.096	220.44
253.329	228.44
253.562	225.44
253.795	230.44
254.028	230.44
254.261	214.44
254.494	237.44
254.727	287.44
254.96	302.44
255.193	289.44
255.426	261.44
255.659	250.44
255.892	238.44
256.124	235.44
256.357	243.44
256.59	218.44
256.823	239.44
257.056	226.44
257.289	209.44
257.521	227.44
257.754	211.44
257.987	206.44
258.22	206.44
258.452	228.44
258.685	220.44
258.918	216.44
259.151	202.44
259.383	225.44
259.616	229.44
259.849	204.44
260.081	236.44
260.314	253.44
260.547	270.44
260.779	256.44
261.012	244.44
261.244	236.44
261.477	228.44
261.71	214.44
261.942	237.44
262.175	248.44
262.407	240.44
262.64	234.44
262.872	220.44
263.105	201.44
263.337	230.44
263.57	234.44
263.802	216.44
264.035	209.44
264.267	211.44
264.499	208.44
264.732	218.44
264.964	212.44
265.197	218.44
265.429	209.44
265.661	196.44
265.894	206.44
266.126	223.44
266.358	201.44
266.591	227.44
266.823	233.44
267.055	230.44
267.287	227.44
267.52	227.44
267.752	211.44
267.984	218.44
268.216	234.44
268.448	229.44
268.681	214.44
268.913	265.44
269.145	261.44
269.377	277.44
269.609	301.44
269.841	274.44
270.073	278.44
270.306	288.44
270.538	331.44
270.77	329.44
271.002	307.44
271.234	303.44
271.466	300.44
271.698	320.44
271.93	330.44
272.162	332.44
272.394	322.44
272.626	307.44
272.858	291.44
273.09	274.44
273.322	267.44
273.553	280.44
273.785	265.44
274.017	255.44
274.249	266.44
274.481	253.44
274.713	265.44
274.945	266.44
275.176	278.44
275.408	274.44
275.64	261.44
275.872	281.44
276.104	250.44
276.335	260.44
276.567	268.44
276.799	296.44
277.031	314.44
277.262	341.44
277.494	314.44
277.726	297.44
277.957	298.44
278.189	284.44
278.421	282.44
278.652	277.44
278.884	289.44
279.115	260.44
279.347	238.44
279.579	264.44
279.81	266.44
280.042	242.44
280.273	270.44
280.505	252.44
280.736	257.44
280.968	247.44
281.199	257.44
281.431	257.44
281.662	243.44
281.894	261.44
282.125	256.44
282.356	286.44
282.588	310.44
282.819	308.44
283.051	288.44
283.282	251.44
283.513	257.44
283.745	264.44
283.976	264.44
284.207	284.44
284.439	268.44
284.67	258.44
284.901	257.44
285.132	250.44
285.364	247.44
285.595	264.44
285.826	256.44
286.057	258.44
286.288	263.44
286.52	264.44
286.751	258.44
286.982	255.44
287.213	241.44
287.444	279.44
287.675	274.44
287.906	270.44
288.138	306.44
288.369	294.44
288.6	305.44
288.831	279.44
289.062	279.44
289.293	277.44
289.524	262.44
289.755	277.44
289.986	270.44
290.217	270.44
290.448	259.44
290.679	282.44
290.91	265.44
291.141	261.44
291.371	277.44
291.602	276.44
291.833	279.44
292.064	249.44
292.295	266.44
292.526	277.44
292.757	290.44
292.987	279.44
293.218	278.44
293.449	279.44
293.68	264.44
293.91	276.44
294.141	259.44
294.372	280.44
294.603	252.44
294.833	275.44
295.064	270.44
295.295	277.44
295.525	266.44
295.756	258.44
295.987	297.44
296.217	301.44
296.448	327.44
296.679	302.44
296.909	272.44
297.14	275.44
297.37	290.44
297.601	276.44
297.831	291.44
298.062	302.44
298.292	274.44
298.523	276.44
298.753	281.44
298.984	270.44
299.214	277.44
299.445	289.44
299.675	278.44
299.905	266.44
300.136	291.44
300.366	273.44
300.597	295.44
300.827	293.44
301.057	291.44
301.288	314.44
301.518	313.44
301.748	301.44
301.979	291.44
302.209	311.44
302.439	305.44
302.669	293.44
302.9	301.44
303.13	313.44
303.36	307.44
303.59	316.44
303.82	316.44
304.051	310.44
304.281	306.44
304.511	311.44
304.741	296.44
304.971	277.44
305.201	310.44
305.431	282.44
305.661	291.44
305.891	302.44
306.121	289.44
306.352	315.44
306.582	309.44
306.812	300.44
307.042	309.44
307.272	321.44
307.502	321.44
307.731	315.44
307.961	307.44
308.191	307.44
308.421	299.44
308.651	322.44
308.881	331.44
309.111	315.44
309.341	317.44
309.571	329.44
309.8	341.44
310.03	353.44
310.26	364.44
310.49	356.44
310.72	367.44
310.949	386.44
311.179	385.44
311.409	377.44
311.639	345.44
311.868	363.44
312.098	366.44
312.328	364.44
312.557	373.44
312.787	403.44
313.017	404.44
313.246	378.44
313.476	341.44
313.706	377.44
313.935	364.44
314.165	385.44
314.394	374.44
314.624	375.44
314.853	365.44
315.083	374.44
315.312	355.44
315.542	377.44
315.771	342.44
316.001	337.44
316.23	354.44
316.46	351.44
316.689	360.44
316.919	367.44
317.148	380.44
317.377	379.44
317.607	373.44
317.836	378.44
318.065	367.44
318.295	366.44
318.524	349.44
318.753	348.44
318.983	343.44
319.212	367.44
319.441	367.44
319.67	381.44
319.9	341.44
320.129	345.44
320.358	371.44
320.587	383.44
320.816	373.44
321.046	385.44
321.275	400.44
321.504	372.44
321.733	387.44
321.962	404.44
322.191	402.44
322.42	410.44
322.649	450.44
322.878	455.44
323.108	480.44
323.337	482.44
323.566	535.44
323.795	570.44
324.024	605.44
324.253	760.44
324.482	1091.44
324.71	1687.44
324.939	2447.44
325.168	2136.44
325.397	1124.44
325.626	757.44
325.855	588.44
326.084	518.44
326.313	521.44
326.542	528.44
326.77	589.44
326.999	699.44
327.228	967.44
327.457	1490.44
327.686	1821.44
327.914	1237.44
328.143	812.44
328.372	685.44
328.6	646.44
328.829	605.44
329.058	627.44
329.287	635.44
329.515	586.44
329.744	549.44
329.972	509.44
330.201	545.44
330.43	590.44
330.658	618.44
330.887	667.44
331.115	651.44
331.344	540.44
331.572	504.44
331.801	500.44
332.03	471.44
332.258	466.44
332.486	425.44
332.715	428.44
332.943	426.44
333.172	405.44
333.4	437.44
333.629	436.44
333.857	455.44
334.085	466.44
334.314	475.44
334.542	503.44
334.771	550.44
334.999	469.44
335.227	427.44
335.455	431.44
335.684	397.44
335.912	423.44
336.14	404.44
336.369	430.44
336.597	426.44
336.825	439.44
337.053	424.44
337.281	400.44
337.51	406.44
337.738	417.44
337.966	405.44
338.194	416.44
338.422	414.44
338.65	390.44
338.878	409.44
339.106	393.44
339.334	377.44
339.562	382.44
339.79	378.44
340.018	399.44
340.246	393.44
340.474	418.44
340.702	382.44
340.93	392.44
341.158	397.44
341.386	418.44
341.614	421.44
341.842	404.44
342.07	403.44
342.298	394.44
342.526	379.44
342.754	384.44
342.981	386.44
343.209	384.44
343.437	369.44
343.665	387.44
343.893	405.44
344.12	383.44
344.348	404.44
344.576	386.44
344.804	400.44
345.031	425.44
345.259	434.44
345.487	418.44
345.714	429.44
345.942	411.44
346.17	388.44
346.397	390.44
346.625	390.44
346.853	397.44
347.08	389.44
347.308	399.44
347.535	397.44
347.763	426.44
347.99	417.44
348.218	401.44
348.445	414.44
348.673	420.44
348.9	398.44
349.128	389.44
349.355	383.44
349.583	375.44
349.81	371.44
350.037	370.44
350.265	389.44
350.492	389.44
350.72	390.44
350.947	393.44
351.174	394.44
351.402	405.44
351.629	415.44
351.856	410.44
352.083	390.44
352.311	415.44
352.538	418.44
352.765	435.44
352.992	413.44
353.22	393.44
353.447	390.44
353.674	389.44
353.901	370.44
354.128	349.44
354.355	364.44
354.583	374.44
354.81	357.44
355.037	346.44
355.264	362.44
355.491	353.44
355.718	352.44
355.945	371.44
356.172	351.44
356.399	358.44
356.626	345.44
356.853	367.44
357.08	372.44
357.307	353.44
357.534	347.44
357.761	346.44
357.988	362.44
358.215	359.44
358.441	347.44
358.668	356.44
358.895	350.44
359.122	360.44
359.349	378.44
359.576	395.44
359.802	423.44
360.029	457.44
360.256	481.44
360.483	431.44
360.709	398.44
360.936	386.44
361.163	397.44
361.39	397.44
361.616	404.44
361.843	391.44
362.07	398.44
362.296	403.44
362.523	391.44
362.749	392.44
362.976	381.44
363.203	379.44
363.429	382.44
363.656	366.44
363.882	388.44
364.109	386.44
364.335	364.44
364.562	401.44
364.788	371.44
365.015	367.44
365.241	381.44
365.468	373.44
365.694	378.44
365.92	399.44
366.147	390.44
366.373	363.44
366.599	354.44
366.826	369.44
367.052	362.44
367.278	338.44
367.505	355.44
367.731	383.44
367.957	381.44
368.184	359.44
368.41	387.44
368.636	391.44
368.862	385.44
369.089	393.44
369.315	372.44
369.541	348.44
369.767	373.44
369.993	359.44
370.219	381.44
370.445	385.44
370.672	355.44
370.898	356.44
371.124	347.44
371.35	354.44
371.576	346.44
371.802	346.44
372.028	355.44
372.254	359.44
372.48	348.44
372.706	357.44
372.932	354.44
373.158	354.44
373.384	349.44
373.61	354.44
373.835	357.44
374.061	362.44
374.287	375.44
374.513	376.44
374.739	369.44
374.965	380.44
375.191	366.44
375.416	378.44
375.642	345.44
375.868	359.44
376.094	347.44
376.319	350.44
376.545	355.44
376.771	348.44
376.997	350.44
377.222	350.44
377.448	334.44
377.674	360.44
377.899	339.44
378.125	348.44
378.35	339.44
378.576	340.44
378.802	351.44
379.027	353.44
379.253	342.44
379.478	343.44
379.704	357.44
379.929	349.44
380.155	350.44
380.38	365.44
380.606	354.44
380.831	332.44
381.057	376.44
381.282	330.44
381.507	356.44
381.733	380.44
381.958	360.44
382.184	365.44
382.409	353.44
382.634	377.44
382.86	356.44
383.085	351.44
383.31	377.44
383.535	365.44
383.761	357.44
383.986	358.44
384.211	357.44
384.436	376.44
384.662	372.44
384.887	369.44
385.112	378.44
385.337	364.44
385.562	363.44
385.787	379.44
386.013	391.44
386.238	374.44
386.463	392.44
386.688	378.44
386.913	379.44
387.138	359.44
387.363	375.44
387.588	366.44
387.813	397.44
388.038	349.44
388.263	357.44
388.488	351.44
388.713	390.44
388.938	400.44
389.163	391.44
389.387	391.44
389.612	379.44
389.837	370.44
390.062	389.44
390.287	380.44
390.512	360.44
390.736	385.44
390.961	363.44
391.186	367.44
391.411	379.44
391.636	381.44
391.86	380.44
392.085	382.44
392.31	390.44
392.534	372.44
392.759	375.44
392.984	375.44
393.208	394.44
393.433	387.44
393.658	395.44
393.882	373.44
394.107	377.44
394.331	392.44
394.556	360.44
394.78	369.44
395.005	379.44
395.229	386.44
395.454	383.44
395.678	364.44
395.903	387.44
396.127	417.44
396.352	422.44
396.576	414.44
396.801	402.44
397.025	395.44
397.249	387.44
397.474	395.44
397.698	394.44
397.922	398.44
398.147	435.44
398.371	428.44
398.595	405.44
398.82	418.44
399.044	418.44
399.268	421.44
399.492	453.44
399.717	470.44
399.941	482.44
400.165	508.44
400.389	530.44
400.613	487.44
400.837	463.44
401.062	430.44
401.286	436.44
401.51	427.44
401.734	415.44
401.958	436.44
402.182	443.44
402.406	436.44
402.63	457.44
402.854	439.44
403.078	416.44
403.302	428.44
403.526	454.44
403.75	447.44
403.974	441.44
404.198	437.44
404.422	430.44
404.645	441.44
404.869	458.44
405.093	502.44
405.317	520.44
405.541	564.44
405.765	497.44
405.988	486.44
406.212	487.44
406.436	517.44
406.66	524.44
406.883	480.44
407.107	516.44
407.331	556.44
407.555	625.44
407.778	604.44
408.002	551.44
408.226	525.44
408.449	497.44
408.673	485.44
408.896	533.44
409.12	539.44
409.344	534.44
409.567	473.44
409.791	460.44
410.014	433.44
410.238	460.44
410.461	469.44
410.685	467.44
410.908	451.44
411.132	501.44
411.355	521.44
411.578	525.44
411.802	473.44
412.025	456.44
412.249	479.44
412.472	493.44
412.695	531.44
412.919	521.44
413.142	484.44
413.365	451.44
413.589	447.44
413.812	430.44
414.035	428.44
414.258	429.44
414.482	431.44
414.705	426.44
414.928	427.44
415.151	403.44
415.374	430.44
415.597	425.44
415.821	439.44
416.044	439.44
416.267	437.44
416.49	423.44
416.713	421.44
416.936	440.44
417.159	441.44
417.382	410.44
417.605	449.44
417.828	452.44
418.051	462.44
418.274	446.44
418.497	417.44
418.72	437.44
418.943	424.44
419.166	461.44
419.389	475.44
419.611	471.44
419.834	446.44
420.057	455.44
420.28	472.44
420.503	460.44
420.726	467.44
420.948	470.44
421.171	517.44
421.394	556.44
421.617	487.44
421.839	461.44
422.062	473.44
422.285	476.44
422.507	505.44
422.73	590.44
422.953	573.44
423.175	521.44
423.398	491.44
423.621	473.44
423.843	492.44
424.066	477.44
424.288	500.44
424.511	520.44
424.733	558.44
424.956	649.44
425.178	649.44
425.401	612.44
425.623	666.44
425.846	558.44
426.068	502.44
426.291	515.44
426.513	511.44
426.735	563.44
426.958	565.44
427.18	615.44
427.402	759.44
427.625	828.44
427.847	777.44
428.069	666.44
428.292	596.44
428.514	533.44
428.736	494.44
428.958	477.44
429.181	485.44
429.403	485.44
429.625	494.44
429.847	526.44
430.069	582.44
430.292	606.44
430.514	509.44
430.736	460.44
430.958	454.44
431.18	450.44
431.402	428.44
431.624	424.44
431.846	422.44
432.068	414.44
432.29	432.44
432.512	443.44
432.734	443.44
432.956	428.44
433.178	435.44
433.4	462.44
433.622	456.44
433.844	446.44
434.066	441.44
434.287	441.44
434.509	468.44
434.731	444.44
434.953	442.44
435.175	473.44
435.397	485.44
435.618	496.44
435.84	564.44
436.062	647.44
436.284	695.44
436.505	594.44
436.727	545.44
436.949	501.44
437.17	501.44
437.392	482.44
437.614	487.44
437.835	561.44
438.057	633.44
438.278	735.44
438.5	693.44
438.721	782.44
438.943	723.44
439.165	601.44
439.386	543.44
439.608	554.44
439.829	551.44
440.05	571.44
440.272	589.44
440.493	571.44
440.715	525.44
440.936	491.44
441.158	482.44
441.379	483.44
441.6	474.44
441.822	502.44
442.043	540.44
442.264	635.44
442.486	669.44
442.707	558.44
442.928	531.44
443.149	523.44
443.371	567.44
443.592	595.44
443.813	695.44
444.034	724.44
444.255	613.44
444.476	537.44
444.698	533.44
444.919	510.44
445.14	559.44
445.361	571.44
445.582	573.44
445.803	621.44
446.024	717.44
446.245	736.44
446.466	668.44
446.687	573.44
446.908	526.44
447.129	504.44
447.35	468.44
447.571	489.44
447.792	451.44
448.013	473.44
448.234	519.44
448.455	565.44
448.675	682.44
448.896	766.44
449.117	673.44
449.338	603.44
449.559	716.44
449.779	798.44
450	663.44
450.221	549.44
450.442	489.44
450.662	487.44
450.883	503.44
451.104	503.44
451.324	490.44
451.545	473.44
451.766	456.44
451.986	419.44
452.207	427.44
452.428	414.44
452.648	447.44
452.869	436.44
453.089	436.44
453.31	461.44
453.53	429.44
453.751	429.44
453.971	439.44
454.192	469.44
454.412	446.44
454.633	426.44
454.853	443.44
455.073	419.44
455.294	442.44
455.514	525.44
455.734	502.44
455.955	417.44
456.175	417.44
456.395	402.44
456.616	398.44
456.836	399.44
457.056	382.44
457.276	377.44
457.497	387.44
457.717	398.44
457.937	396.44
458.157	402.44
458.377	412.44
458.598	433.44
458.818	514.44
459.038	597.44
459.258	618.44
459.478	522.44
459.698	439.44
459.918	421.44
460.138	427.44
460.358	415.44
460.578	421.44
460.798	436.44
461.018	445.44
461.238	445.44
461.458	421.44
461.678	416.44
461.898	419.44
462.118	399.44
462.338	422.44
462.558	419.44
462.777	452.44
462.997	435.44
463.217	466.44
463.437	467.44
463.657	446.44
463.876	447.44
464.096	447.44
464.316	449.44
464.536	454.44
464.755	467.44
464.975	489.44
465.195	550.44
465.414	605.44
465.634	547.44
465.854	475.44
466.073	465.44
466.293	452.44
466.512	439.44
466.732	435.44
466.951	442.44
467.171	424.44
467.391	419.44
467.61	462.44
467.829	449.44
468.049	459.44
468.268	459.44
468.488	418.44
468.707	409.44
468.927	425.44
469.146	421.44
469.365	390.44
469.585	420.44
469.804	433.44
470.023	437.44
470.243	427.44
470.462	440.44
470.681	473.44
470.901	456.44
471.12	438.44
471.339	453.44
471.558	450.44
471.777	439.44
471.997	422.44
472.216	442.44
472.435	483.44
472.654	452.44
472.873	435.44
473.092	435.44
473.311	408.44
473.53	450.44
473.749	459.44
473.968	486.44
474.187	605.44
474.406	620.44
474.625	513.44
474.844	453.44
475.063	440.44
475.282	447.44
475.501	435.44
475.72	441.44
475.939	443.44
476.158	434.44
476.377	443.44
476.596	445.44
476.814	428.44
477.033	473.44
477.252	433.44
477.471	452.44
477.69	484.44
477.908	467.44
478.127	473.44
478.346	471.44
478.564	464.44
478.783	460.44
479.002	488.44
479.22	485.44
479.439	486.44
479.658	523.44
479.876	538.44
480.095	525.44
480.313	550.44
480.532	530.44
480.751	523.44
480.969	547.44
481.188	595.44
481.406	658.44
481.624	589.44
481.843	537.44
482.061	521.44
482.28	523.44
482.498	500.44
482.717	532.44
482.935	511.44
483.153	520.44
483.372	520.44
483.59	524.44
483.808	511.44
484.027	490.44
484.245	522.44
484.463	530.44
484.681	514.44
484.9	511.44
485.118	516.44
485.336	523.44
485.554	525.44
485.772	520.44
485.99	533.44
486.209	564.44
486.427	538.44
486.645	554.44
486.863	582.44
487.081	588.44
487.299	561.44
487.517	537.44
487.735	577.44
487.953	568.44
488.171	565.44
488.389	555.44
488.607	571.44
488.825	579.44
489.043	548.44
489.261	577.44
489.479	562.44
489.696	551.44
489.914	573.44
490.132	585.44
490.35	587.44
490.568	572.44
490.786	573.44
491.003	628.44
491.221	638.44
491.439	626.44
491.657	633.44
491.874	628.44
492.092	651.44
492.31	649.44
492.527	653.44
492.745	663.44
492.963	650.44
493.18	671.44
493.398	670.44
493.615	641.44
493.833	693.44
494.05	654.44
494.268	691.44
494.485	649.44
494.703	662.44
494.92	663.44
495.138	691.44
495.355	670.44
495.573	681.44
495.79	683.44
496.008	662.44
496.225	656.44
496.442	690.44
496.66	646.44
496.877	665.44
497.094	670.44
497.312	638.44
497.529	702.44
497.746	676.44
497.963	674.44
498.181	710.44
498.398	720.44
498.615	725.44
498.832	745.44
499.049	713.44
499.267	732.44
499.484	750.44
499.701	769.44
499.918	759.44
500.135	772.44
500.352	796.44
500.569	817.44
500.786	804.44
501.003	846.44
501.22	821.44
501.437	844.44
501.654	810.44
501.871	810.44
