Data from 1980.PennyLincolnUp.Lamp.En5.5.200Scan.071819.P1_HRD10591_16-37-41-957.txt Node
Date: Thu Jul 18 16:37:41 EDT 2019
User: cochatt
Spectrometer: HR+D1059
Trigger mode: 1
Integration Time (sec): 1.000000E-1
Scans to average: 1
Electric dark correction enabled: true
Nonlinearity correction enabled: false
Boxcar width: 0
XAxis mode: Wavelengths
Number of Pixels in Spectrum: 2048
>>>>>Begin Spectral Data<<<<<
223.165	-20.19
223.4	-20.19
223.635	-20.19
223.869	-20.19
224.104	-21.19
224.338	-20.19
224.573	1.81
224.808	-1.19
225.042	0.81
225.277	-4.19
225.511	0.81
225.746	0.81
225.98	15.81
226.215	8.81
226.449	2.81
226.683	13.81
226.918	14.81
227.152	26.81
227.387	43.81
227.621	31.81
227.856	45.81
228.09	33.81
228.324	53.81
228.559	58.81
228.793	70.81
229.027	87.81
229.262	121.81
229.496	119.81
229.73	160.81
229.964	184.81
230.199	124.81
230.433	129.81
230.667	120.81
230.901	123.81
231.136	113.81
231.37	112.81
231.604	116.81
231.838	128.81
232.072	114.81
232.306	119.81
232.541	116.81
232.775	121.81
233.009	105.81
233.243	112.81
233.477	107.81
233.711	126.81
233.945	116.81
234.179	106.81
234.413	128.81
234.647	124.81
234.881	116.81
235.115	139.81
235.349	128.81
235.583	108.81
235.817	109.81
236.051	128.81
236.285	126.81
236.519	132.81
236.753	134.81
236.987	144.81
237.221	192.81
237.455	236.81
237.689	188.81
237.922	138.81
238.156	123.81
238.39	122.81
238.624	134.81
238.858	127.81
239.091	128.81
239.325	132.81
239.559	128.81
239.793	142.81
240.027	141.81
240.26	131.81
240.494	156.81
240.728	141.81
240.961	140.81
241.195	154.81
241.429	148.81
241.662	138.81
241.896	142.81
242.13	124.81
242.363	128.81
242.597	122.81
242.83	148.81
243.064	134.81
243.298	121.81
243.531	140.81
243.765	144.81
243.998	141.81
244.232	136.81
244.465	148.81
244.699	131.81
244.932	144.81
245.166	146.81
245.399	148.81
245.633	142.81
245.866	139.81
246.099	146.81
246.333	157.81
246.566	146.81
246.8	172.81
247.033	173.81
247.266	160.81
247.5	169.81
247.733	161.81
247.966	161.81
248.2	178.81
248.433	174.81
248.666	181.81
248.899	185.81
249.133	196.81
249.366	225.81
249.599	205.81
249.832	193.81
250.066	190.81
250.299	186.81
250.532	197.81
250.765	204.81
250.998	232.81
251.231	235.81
251.465	230.81
251.698	204.81
251.931	205.81
252.164	183.81
252.397	206.81
252.63	201.81
252.863	222.81
253.096	211.81
253.329	232.81
253.562	241.81
253.795	227.81
254.028	242.81
254.261	235.81
254.494	240.81
254.727	266.81
254.96	296.81
255.193	281.81
255.426	253.81
255.659	231.81
255.892	226.81
256.124	244.81
256.357	234.81
256.59	236.81
256.823	225.81
257.056	216.81
257.289	224.81
257.521	220.81
257.754	224.81
257.987	207.81
258.22	214.81
258.452	217.81
258.685	218.81
258.918	209.81
259.151	215.81
259.383	214.81
259.616	212.81
259.849	227.81
260.081	249.81
260.314	267.81
260.547	261.81
260.779	267.81
261.012	251.81
261.244	246.81
261.477	233.81
261.71	208.81
261.942	231.81
262.175	235.81
262.407	225.81
262.64	214.81
262.872	215.81
263.105	220.81
263.337	234.81
263.57	205.81
263.802	208.81
264.035	216.81
264.267	220.81
264.499	217.81
264.732	215.81
264.964	210.81
265.197	206.81
265.429	222.81
265.661	212.81
265.894	196.81
266.126	209.81
266.358	216.81
266.591	215.81
266.823	209.81
267.055	219.81
267.287	218.81
267.52	208.81
267.752	219.81
267.984	231.81
268.216	232.81
268.448	225.81
268.681	229.81
268.913	240.81
269.145	264.81
269.377	278.81
269.609	251.81
269.841	271.81
270.073	277.81
270.306	301.81
270.538	302.81
270.77	311.81
271.002	309.81
271.234	306.81
271.466	312.81
271.698	298.81
271.93	330.81
272.162	326.81
272.394	306.81
272.626	324.81
272.858	303.81
273.09	281.81
273.322	280.81
273.553	268.81
273.785	265.81
274.017	280.81
274.249	255.81
274.481	274.81
274.713	249.81
274.945	262.81
275.176	259.81
275.408	271.81
275.64	247.81
275.872	251.81
276.104	246.81
276.335	266.81
276.567	264.81
276.799	270.81
277.031	302.81
277.262	314.81
277.494	312.81
277.726	295.81
277.957	288.81
278.189	274.81
278.421	266.81
278.652	248.81
278.884	242.81
279.115	255.81
279.347	278.81
279.579	257.81
279.81	252.81
280.042	243.81
280.273	238.81
280.505	267.81
280.736	260.81
280.968	248.81
281.199	244.81
281.431	268.81
281.662	263.81
281.894	253.81
282.125	256.81
282.356	264.81
282.588	280.81
282.819	302.81
283.051	258.81
283.282	260.81
283.513	262.81
283.745	268.81
283.976	260.81
284.207	264.81
284.439	250.81
284.67	257.81
284.901	242.81
285.132	269.81
285.364	268.81
285.595	267.81
285.826	282.81
286.057	273.81
286.288	265.81
286.52	264.81
286.751	232.81
286.982	266.81
287.213	274.81
287.444	270.81
287.675	255.81
287.906	254.81
288.138	264.81
288.369	287.81
288.6	297.81
288.831	288.81
289.062	272.81
289.293	267.81
289.524	274.81
289.755	280.81
289.986	251.81
290.217	273.81
290.448	264.81
290.679	264.81
290.91	254.81
291.141	271.81
291.371	269.81
291.602	258.81
291.833	261.81
292.064	274.81
292.295	276.81
292.526	266.81
292.757	275.81
292.987	246.81
293.218	252.81
293.449	270.81
293.68	266.81
293.91	254.81
294.141	260.81
294.372	261.81
294.603	285.81
294.833	266.81
295.064	272.81
295.295	262.81
295.525	256.81
295.756	295.81
295.987	283.81
296.217	329.81
296.448	307.81
296.679	292.81
296.909	264.81
297.14	269.81
297.37	267.81
297.601	269.81
297.831	264.81
298.062	292.81
298.292	250.81
298.523	268.81
298.753	275.81
298.984	289.81
299.214	285.81
299.445	297.81
299.675	286.81
299.905	298.81
300.136	293.81
300.366	290.81
300.597	278.81
300.827	292.81
301.057	285.81
301.288	304.81
301.518	297.81
301.748	285.81
301.979	293.81
302.209	298.81
302.439	311.81
302.669	302.81
302.9	293.81
303.13	284.81
303.36	305.81
303.59	310.81
303.82	301.81
304.051	296.81
304.281	291.81
304.511	282.81
304.741	299.81
304.971	292.81
305.201	284.81
305.431	301.81
305.661	307.81
305.891	301.81
306.121	304.81
306.352	304.81
306.582	306.81
306.812	311.81
307.042	299.81
307.272	308.81
307.502	323.81
307.731	318.81
307.961	310.81
308.191	307.81
308.421	304.81
308.651	299.81
308.881	316.81
309.111	309.81
309.341	326.81
309.571	332.81
309.8	335.81
310.03	355.81
310.26	360.81
310.49	360.81
310.72	346.81
310.949	387.81
311.179	380.81
311.409	371.81
311.639	332.81
311.868	347.81
312.098	352.81
312.328	373.81
312.557	386.81
312.787	415.81
313.017	394.81
313.246	355.81
313.476	372.81
313.706	328.81
313.935	363.81
314.165	379.81
314.394	391.81
314.624	397.81
314.853	351.81
315.083	358.81
315.312	341.81
315.542	334.81
315.771	345.81
316.001	332.81
316.23	363.81
316.46	342.81
316.689	343.81
316.919	359.81
317.148	359.81
317.377	380.81
317.607	353.81
317.836	333.81
318.065	350.81
318.295	339.81
318.524	346.81
318.753	330.81
318.983	349.81
319.212	346.81
319.441	366.81
319.67	366.81
319.9	355.81
320.129	356.81
320.358	355.81
320.587	340.81
320.816	362.81
321.046	389.81
321.275	379.81
321.504	378.81
321.733	384.81
321.962	386.81
322.191	416.81
322.42	434.81
322.649	422.81
322.878	456.81
323.108	472.81
323.337	469.81
323.566	494.81
323.795	562.81
324.024	586.81
324.253	748.81
324.482	1078.81
324.71	1650.81
324.939	2372.81
325.168	2096.81
325.397	1111.81
325.626	743.81
325.855	593.81
326.084	539.81
326.313	501.81
326.542	519.81
326.77	580.81
326.999	703.81
327.228	951.81
327.457	1442.81
327.686	1781.81
327.914	1226.81
328.143	812.81
328.372	684.81
328.6	615.81
328.829	608.81
329.058	598.81
329.287	631.81
329.515	608.81
329.744	519.81
329.972	512.81
330.201	530.81
330.43	599.81
330.658	640.81
330.887	640.81
331.115	620.81
331.344	532.81
331.572	507.81
331.801	488.81
332.03	468.81
332.258	462.81
332.486	433.81
332.715	425.81
332.943	418.81
333.172	424.81
333.4	434.81
333.629	434.81
333.857	442.81
334.085	462.81
334.314	455.81
334.542	511.81
334.771	514.81
334.999	468.81
335.227	436.81
335.455	402.81
335.684	428.81
335.912	414.81
336.14	406.81
336.369	401.81
336.597	406.81
336.825	442.81
337.053	388.81
337.281	423.81
337.51	412.81
337.738	383.81
337.966	392.81
338.194	412.81
338.422	411.81
338.65	400.81
338.878	373.81
339.106	387.81
339.334	376.81
339.562	402.81
339.79	383.81
340.018	412.81
340.246	407.81
340.474	397.81
340.702	409.81
340.93	395.81
341.158	393.81
341.386	402.81
341.614	378.81
341.842	402.81
342.07	395.81
342.298	387.81
342.526	368.81
342.754	388.81
342.981	360.81
343.209	390.81
343.437	370.81
343.665	396.81
343.893	398.81
344.12	392.81
344.348	389.81
344.576	418.81
344.804	418.81
345.031	409.81
345.259	433.81
345.487	419.81
345.714	394.81
345.942	386.81
346.17	392.81
346.397	377.81
346.625	362.81
346.853	381.81
347.08	378.81
347.308	374.81
347.535	383.81
347.763	393.81
347.99	411.81
348.218	384.81
348.445	398.81
348.673	398.81
348.9	395.81
349.128	368.81
349.355	384.81
349.583	366.81
349.81	353.81
350.037	368.81
350.265	368.81
350.492	353.81
350.72	380.81
350.947	374.81
351.174	395.81
351.402	393.81
351.629	391.81
351.856	411.81
352.083	399.81
352.311	393.81
352.538	416.81
352.765	405.81
352.992	398.81
353.22	378.81
353.447	402.81
353.674	377.81
353.901	361.81
354.128	378.81
354.355	356.81
354.583	338.81
354.81	358.81
355.037	349.81
355.264	365.81
355.491	345.81
355.718	359.81
355.945	340.81
356.172	345.81
356.399	341.81
356.626	333.81
356.853	356.81
357.08	354.81
357.307	335.81
357.534	345.81
357.761	342.81
357.988	347.81
358.215	353.81
358.441	347.81
358.668	343.81
358.895	361.81
359.122	353.81
359.349	377.81
359.576	382.81
359.802	428.81
360.029	456.81
360.256	467.81
360.483	448.81
360.709	392.81
360.936	392.81
361.163	390.81
361.39	387.81
361.616	380.81
361.843	383.81
362.07	378.81
362.296	370.81
362.523	392.81
362.749	385.81
362.976	388.81
363.203	380.81
363.429	372.81
363.656	371.81
363.882	363.81
364.109	350.81
364.335	360.81
364.562	369.81
364.788	356.81
365.015	373.81
365.241	384.81
365.468	376.81
365.694	364.81
365.92	376.81
366.147	376.81
366.373	365.81
366.599	347.81
366.826	337.81
367.052	348.81
367.278	368.81
367.505	374.81
367.731	356.81
367.957	361.81
368.184	370.81
368.41	360.81
368.636	372.81
368.862	384.81
369.089	370.81
369.315	372.81
369.541	356.81
369.767	371.81
369.993	352.81
370.219	347.81
370.445	355.81
370.672	360.81
370.898	354.81
371.124	372.81
371.35	328.81
371.576	336.81
371.802	337.81
372.028	350.81
372.254	352.81
372.48	359.81
372.706	362.81
372.932	330.81
373.158	341.81
373.384	350.81
373.61	351.81
373.835	353.81
374.061	353.81
374.287	362.81
374.513	373.81
374.739	358.81
374.965	361.81
375.191	362.81
375.416	355.81
375.642	339.81
375.868	353.81
376.094	350.81
376.319	347.81
376.545	364.81
376.771	352.81
376.997	344.81
377.222	347.81
377.448	341.81
377.674	356.81
377.899	351.81
378.125	350.81
378.35	350.81
378.576	347.81
378.802	349.81
379.027	341.81
379.253	359.81
379.478	348.81
379.704	357.81
379.929	350.81
380.155	349.81
380.38	356.81
380.606	353.81
380.831	354.81
381.057	344.81
381.282	351.81
381.507	369.81
381.733	352.81
381.958	366.81
382.184	365.81
382.409	358.81
382.634	353.81
382.86	343.81
383.085	353.81
383.31	376.81
383.535	358.81
383.761	353.81
383.986	353.81
384.211	363.81
384.436	353.81
384.662	368.81
384.887	368.81
385.112	389.81
385.337	368.81
385.562	364.81
385.787	363.81
386.013	389.81
386.238	373.81
386.463	389.81
386.688	384.81
386.913	348.81
387.138	365.81
387.363	379.81
387.588	380.81
387.813	392.81
388.038	360.81
388.263	360.81
388.488	368.81
388.713	364.81
388.938	368.81
389.163	369.81
389.387	374.81
389.612	377.81
389.837	377.81
390.062	376.81
390.287	378.81
390.512	375.81
390.736	388.81
390.961	347.81
391.186	374.81
391.411	371.81
391.636	371.81
391.86	376.81
392.085	367.81
392.31	404.81
392.534	357.81
392.759	356.81
392.984	366.81
393.208	373.81
393.433	366.81
393.658	363.81
393.882	359.81
394.107	378.81
394.331	374.81
394.556	378.81
394.78	383.81
395.005	389.81
395.229	368.81
395.454	381.81
395.678	378.81
395.903	410.81
396.127	425.81
396.352	403.81
396.576	413.81
396.801	376.81
397.025	378.81
397.249	381.81
397.474	383.81
397.698	394.81
397.922	416.81
398.147	435.81
398.371	431.81
398.595	406.81
398.82	412.81
399.044	396.81
399.268	419.81
399.492	437.81
399.717	452.81
399.941	486.81
400.165	500.81
400.389	516.81
400.613	489.81
400.837	456.81
401.062	434.81
401.286	419.81
401.51	434.81
401.734	406.81
401.958	432.81
402.182	427.81
402.406	461.81
402.63	437.81
402.854	428.81
403.078	442.81
403.302	437.81
403.526	450.81
403.75	462.81
403.974	419.81
404.198	438.81
404.422	443.81
404.645	426.81
404.869	436.81
405.093	465.81
405.317	508.81
405.541	533.81
405.765	481.81
405.988	472.81
406.212	487.81
406.436	492.81
406.66	509.81
406.883	498.81
407.107	482.81
407.331	556.81
407.555	600.81
407.778	579.81
408.002	546.81
408.226	481.81
408.449	486.81
408.673	484.81
408.896	517.81
409.12	555.81
409.344	515.81
409.567	480.81
409.791	448.81
410.014	430.81
410.238	435.81
410.461	457.81
410.685	456.81
410.908	470.81
411.132	499.81
411.355	525.81
411.578	506.81
411.802	450.81
412.025	426.81
412.249	453.81
412.472	477.81
412.695	514.81
412.919	494.81
413.142	441.81
413.365	442.81
413.589	429.81
413.812	423.81
414.035	434.81
414.258	427.81
414.482	406.81
414.705	416.81
414.928	419.81
415.151	405.81
415.374	414.81
415.597	410.81
415.821	418.81
416.044	419.81
416.267	433.81
416.49	429.81
416.713	418.81
416.936	424.81
417.159	412.81
417.382	427.81
417.605	418.81
417.828	444.81
418.051	431.81
418.274	445.81
418.497	409.81
418.72	409.81
418.943	411.81
419.166	434.81
419.389	448.81
419.611	464.81
419.834	450.81
420.057	450.81
420.28	447.81
420.503	454.81
420.726	455.81
420.948	463.81
421.171	510.81
421.394	557.81
421.617	492.81
421.839	436.81
422.062	443.81
422.285	466.81
422.507	509.81
422.73	616.81
422.953	562.81
423.175	503.81
423.398	441.81
423.621	489.81
423.843	514.81
424.066	484.81
424.288	511.81
424.511	505.81
424.733	538.81
424.956	668.81
425.178	617.81
425.401	609.81
425.623	620.81
425.846	562.81
426.068	502.81
426.291	501.81
426.513	491.81
426.735	530.81
426.958	538.81
427.18	609.81
427.402	729.81
427.625	845.81
427.847	779.81
428.069	647.81
428.292	566.81
428.514	524.81
428.736	497.81
428.958	491.81
429.181	454.81
429.403	466.81
429.625	476.81
429.847	508.81
430.069	590.81
430.292	576.81
430.514	519.81
430.736	454.81
430.958	444.81
431.18	430.81
431.402	434.81
431.624	430.81
431.846	415.81
432.068	418.81
432.29	416.81
432.512	416.81
432.734	432.81
432.956	448.81
433.178	425.81
433.4	474.81
433.622	447.81
433.844	430.81
434.066	440.81
434.287	437.81
434.509	445.81
434.731	443.81
434.953	442.81
435.175	444.81
435.397	500.81
435.618	484.81
435.84	543.81
436.062	617.81
436.284	694.81
436.505	604.81
436.727	536.81
436.949	508.81
437.17	491.81
437.392	474.81
437.614	486.81
437.835	528.81
438.057	635.81
438.278	734.81
438.5	721.81
438.721	737.81
438.943	729.81
439.165	582.81
439.386	554.81
439.608	527.81
439.829	522.81
440.05	560.81
440.272	594.81
440.493	565.81
440.715	523.81
440.936	490.81
441.158	470.81
441.379	485.81
441.6	467.81
441.822	508.81
442.043	543.81
442.264	605.81
442.486	673.81
442.707	588.81
442.928	537.81
443.149	522.81
443.371	566.81
443.592	597.81
443.813	681.81
444.034	725.81
444.255	596.81
444.476	530.81
444.698	488.81
444.919	475.81
445.14	637.81
445.361	557.81
445.582	562.81
445.803	620.81
446.024	715.81
446.245	726.81
446.466	661.81
446.687	600.81
446.908	514.81
447.129	477.81
447.35	468.81
447.571	462.81
447.792	462.81
448.013	455.81
448.234	501.81
448.455	554.81
448.675	637.81
448.896	778.81
449.117	634.81
449.338	593.81
449.559	698.81
449.779	793.81
450	658.81
450.221	551.81
450.442	488.81
450.662	479.81
450.883	468.81
451.104	519.81
451.324	476.81
451.545	459.81
451.766	440.81
451.986	420.81
452.207	429.81
452.428	430.81
452.648	422.81
452.869	404.81
453.089	442.81
453.31	458.81
453.53	420.81
453.751	427.81
453.971	437.81
454.192	462.81
454.412	458.81
454.633	432.81
454.853	419.81
455.073	419.81
455.294	434.81
455.514	511.81
455.734	512.81
455.955	422.81
456.175	398.81
456.395	402.81
456.616	399.81
456.836	399.81
457.056	371.81
457.276	365.81
457.497	377.81
457.717	400.81
457.937	379.81
458.157	399.81
458.377	426.81
458.598	446.81
458.818	491.81
459.038	601.81
459.258	583.81
459.478	504.81
459.698	432.81
459.918	437.81
460.138	428.81
460.358	432.81
460.578	439.81
460.798	425.81
461.018	422.81
461.238	425.81
461.458	424.81
461.678	398.81
461.898	408.81
462.118	412.81
462.338	399.81
462.558	422.81
462.777	421.81
462.997	439.81
463.217	424.81
463.437	449.81
463.657	426.81
463.876	443.81
464.096	440.81
464.316	451.81
464.536	451.81
464.755	449.81
464.975	465.81
465.195	516.81
465.414	628.81
465.634	520.81
465.854	480.81
466.073	460.81
466.293	434.81
466.512	420.81
466.732	436.81
466.951	417.81
467.171	413.81
467.391	430.81
467.61	431.81
467.829	458.81
468.049	443.81
468.268	449.81
468.488	455.81
468.707	423.81
468.927	413.81
469.146	406.81
469.365	391.81
469.585	411.81
469.804	394.81
470.023	438.81
470.243	432.81
470.462	429.81
470.681	467.81
470.901	441.81
471.12	437.81
471.339	422.81
471.558	433.81
471.777	443.81
471.997	437.81
472.216	461.81
472.435	469.81
472.654	466.81
472.873	428.81
473.092	395.81
473.311	423.81
473.53	405.81
473.749	453.81
473.968	490.81
474.187	605.81
474.406	614.81
474.625	499.81
474.844	454.81
475.063	429.81
475.282	427.81
475.501	432.81
475.72	424.81
475.939	445.81
476.158	450.81
476.377	434.81
476.596	440.81
476.814	444.81
477.033	458.81
477.252	442.81
477.471	455.81
477.69	449.81
477.908	480.81
478.127	453.81
478.346	465.81
478.564	436.81
478.783	478.81
479.002	467.81
479.22	463.81
479.439	501.81
479.658	499.81
479.876	536.81
480.095	532.81
480.313	562.81
480.532	546.81
480.751	511.81
480.969	540.81
481.188	624.81
481.406	668.81
481.624	561.81
481.843	527.81
482.061	523.81
482.28	518.81
482.498	515.81
482.717	512.81
482.935	522.81
483.153	524.81
483.372	524.81
483.59	525.81
483.808	507.81
484.027	511.81
484.245	510.81
484.463	514.81
484.681	521.81
484.9	518.81
485.118	523.81
485.336	513.81
485.554	541.81
485.772	548.81
485.99	506.81
486.209	566.81
486.427	515.81
486.645	547.81
486.863	594.81
487.081	584.81
487.299	561.81
487.517	554.81
487.735	544.81
487.953	546.81
488.171	550.81
488.389	547.81
488.607	578.81
488.825	548.81
489.043	556.81
489.261	548.81
489.479	571.81
489.696	563.81
489.914	550.81
490.132	568.81
490.35	578.81
490.568	595.81
490.786	597.81
491.003	611.81
491.221	629.81
491.439	610.81
491.657	624.81
491.874	634.81
492.092	633.81
492.31	645.81
492.527	650.81
492.745	645.81
492.963	637.81
493.18	663.81
493.398	636.81
493.615	669.81
493.833	661.81
494.05	662.81
494.268	683.81
494.485	654.81
494.703	647.81
494.92	646.81
495.138	657.81
495.355	655.81
495.573	653.81
495.79	646.81
496.008	682.81
496.225	668.81
496.442	672.81
496.66	654.81
496.877	662.81
497.094	673.81
497.312	677.81
497.529	693.81
497.746	669.81
497.963	669.81
498.181	677.81
498.398	696.81
498.615	704.81
498.832	696.81
499.049	708.81
499.267	748.81
499.484	722.81
499.701	742.81
499.918	777.81
500.135	750.81
500.352	793.81
500.569	791.81
500.786	799.81
501.003	816.81
501.22	756.81
501.437	799.81
501.654	775.81
501.871	772.81
502.088	769.81
