Data from 1980.PennyLincolnUp.Lamp.En5.5.200Scan.071819.P1_HRD10591_16-38-52-957.txt Node
Date: Thu Jul 18 16:38:52 EDT 2019
User: cochatt
Spectrometer: HR+D1059
Trigger mode: 1
Integration Time (sec): 1.000000E-1
Scans to average: 1
Electric dark correction enabled: true
Nonlinearity correction enabled: false
Boxcar width: 0
XAxis mode: Wavelengths
Number of Pixels in Spectrum: 2048
>>>>>Begin Spectral Data<<<<<
223.165	-17.44
223.4	-17.44
223.635	-17.44
223.869	-7.44
224.104	-13.44
224.338	-18.44
224.573	-19.44
224.808	-12.44
225.042	-4.44
225.277	-20.44
225.511	5.56
225.746	-8.44
225.98	-0.44
226.215	16.56
226.449	12.56
226.683	31.56
226.918	25.56
227.152	30.56
227.387	29.56
227.621	35.56
227.856	54.56
228.09	29.56
228.324	40.56
228.559	68.56
228.793	78.56
229.027	93.56
229.262	118.56
229.496	115.56
229.73	132.56
229.964	177.56
230.199	150.56
230.433	129.56
230.667	131.56
230.901	116.56
231.136	103.56
231.37	112.56
231.604	104.56
231.838	106.56
232.072	121.56
232.306	139.56
232.541	117.56
232.775	113.56
233.009	102.56
233.243	106.56
233.477	122.56
233.711	122.56
233.945	138.56
234.179	109.56
234.413	133.56
234.647	122.56
234.881	119.56
235.115	122.56
235.349	130.56
235.583	108.56
235.817	107.56
236.051	137.56
236.285	126.56
236.519	138.56
236.753	137.56
236.987	168.56
237.221	212.56
237.455	267.56
237.689	217.56
237.922	149.56
238.156	123.56
238.39	145.56
238.624	124.56
238.858	131.56
239.091	129.56
239.325	130.56
239.559	127.56
239.793	146.56
240.027	146.56
240.26	159.56
240.494	187.56
240.728	161.56
240.961	156.56
241.195	142.56
241.429	131.56
241.662	136.56
241.896	151.56
242.13	133.56
242.363	149.56
242.597	132.56
242.83	143.56
243.064	141.56
243.298	141.56
243.531	140.56
243.765	142.56
243.998	148.56
244.232	142.56
244.465	147.56
244.699	145.56
244.932	139.56
245.166	141.56
245.399	151.56
245.633	146.56
245.866	159.56
246.099	142.56
246.333	146.56
246.566	133.56
246.8	158.56
247.033	168.56
247.266	170.56
247.5	165.56
247.733	167.56
247.966	167.56
248.2	164.56
248.433	178.56
248.666	183.56
248.899	188.56
249.133	207.56
249.366	214.56
249.599	200.56
249.832	216.56
250.066	186.56
250.299	204.56
250.532	201.56
250.765	220.56
250.998	230.56
251.231	235.56
251.465	210.56
251.698	206.56
251.931	201.56
252.164	226.56
252.397	214.56
252.63	214.56
252.863	210.56
253.096	229.56
253.329	246.56
253.562	229.56
253.795	231.56
254.028	229.56
254.261	215.56
254.494	275.56
254.727	271.56
254.96	289.56
255.193	300.56
255.426	290.56
255.659	238.56
255.892	241.56
256.124	233.56
256.357	255.56
256.59	235.56
256.823	227.56
257.056	224.56
257.289	219.56
257.521	238.56
257.754	219.56
257.987	225.56
258.22	217.56
258.452	210.56
258.685	214.56
258.918	216.56
259.151	214.56
259.383	228.56
259.616	228.56
259.849	231.56
260.081	235.56
260.314	277.56
260.547	261.56
260.779	274.56
261.012	264.56
261.244	251.56
261.477	257.56
261.71	223.56
261.942	244.56
262.175	245.56
262.407	250.56
262.64	230.56
262.872	217.56
263.105	213.56
263.337	222.56
263.57	221.56
263.802	202.56
264.035	216.56
264.267	208.56
264.499	222.56
264.732	233.56
264.964	202.56
265.197	225.56
265.429	207.56
265.661	206.56
265.894	205.56
266.126	199.56
266.358	205.56
266.591	223.56
266.823	222.56
267.055	215.56
267.287	235.56
267.52	223.56
267.752	224.56
267.984	230.56
268.216	212.56
268.448	228.56
268.681	244.56
268.913	260.56
269.145	271.56
269.377	268.56
269.609	294.56
269.841	280.56
270.073	268.56
270.306	285.56
270.538	329.56
270.77	337.56
271.002	322.56
271.234	317.56
271.466	295.56
271.698	330.56
271.93	325.56
272.162	345.56
272.394	359.56
272.626	319.56
272.858	293.56
273.09	283.56
273.322	267.56
273.553	278.56
273.785	267.56
274.017	258.56
274.249	282.56
274.481	282.56
274.713	264.56
274.945	271.56
275.176	275.56
275.408	261.56
275.64	259.56
275.872	259.56
276.104	279.56
276.335	270.56
276.567	286.56
276.799	285.56
277.031	311.56
277.262	351.56
277.494	346.56
277.726	315.56
277.957	290.56
278.189	278.56
278.421	272.56
278.652	290.56
278.884	279.56
279.115	259.56
279.347	273.56
279.579	259.56
279.81	261.56
280.042	254.56
280.273	273.56
280.505	266.56
280.736	271.56
280.968	249.56
281.199	263.56
281.431	254.56
281.662	248.56
281.894	258.56
282.125	262.56
282.356	279.56
282.588	302.56
282.819	307.56
283.051	275.56
283.282	262.56
283.513	261.56
283.745	258.56
283.976	247.56
284.207	278.56
284.439	271.56
284.67	258.56
284.901	285.56
285.132	281.56
285.364	267.56
285.595	279.56
285.826	261.56
286.057	274.56
286.288	267.56
286.52	267.56
286.751	271.56
286.982	261.56
287.213	274.56
287.444	258.56
287.675	269.56
287.906	292.56
288.138	290.56
288.369	285.56
288.6	302.56
288.831	294.56
289.062	287.56
289.293	284.56
289.524	282.56
289.755	272.56
289.986	292.56
290.217	266.56
290.448	270.56
290.679	253.56
290.91	279.56
291.141	268.56
291.371	274.56
291.602	263.56
291.833	267.56
292.064	273.56
292.295	267.56
292.526	258.56
292.757	270.56
292.987	261.56
293.218	264.56
293.449	271.56
293.68	280.56
293.91	275.56
294.141	270.56
294.372	271.56
294.603	275.56
294.833	271.56
295.064	272.56
295.295	267.56
295.525	271.56
295.756	310.56
295.987	282.56
296.217	316.56
296.448	335.56
296.679	286.56
296.909	277.56
297.14	269.56
297.37	293.56
297.601	289.56
297.831	290.56
298.062	297.56
298.292	279.56
298.523	290.56
298.753	287.56
298.984	285.56
299.214	303.56
299.445	289.56
299.675	295.56
299.905	301.56
300.136	277.56
300.366	299.56
300.597	293.56
300.827	313.56
301.057	286.56
301.288	289.56
301.518	303.56
301.748	301.56
301.979	306.56
302.209	293.56
302.439	316.56
302.669	308.56
302.9	311.56
303.13	314.56
303.36	284.56
303.59	308.56
303.82	318.56
304.051	322.56
304.281	322.56
304.511	319.56
304.741	293.56
304.971	309.56
305.201	293.56
305.431	307.56
305.661	290.56
305.891	297.56
306.121	301.56
306.352	319.56
306.582	334.56
306.812	310.56
307.042	318.56
307.272	307.56
307.502	315.56
307.731	318.56
307.961	309.56
308.191	321.56
308.421	319.56
308.651	323.56
308.881	300.56
309.111	315.56
309.341	339.56
309.571	340.56
309.8	359.56
310.03	345.56
310.26	368.56
310.49	388.56
310.72	375.56
310.949	403.56
311.179	398.56
311.409	385.56
311.639	379.56
311.868	390.56
312.098	383.56
312.328	387.56
312.557	395.56
312.787	398.56
313.017	403.56
313.246	381.56
313.476	366.56
313.706	373.56
313.935	366.56
314.165	399.56
314.394	417.56
314.624	403.56
314.853	385.56
315.083	384.56
315.312	364.56
315.542	374.56
315.771	355.56
316.001	358.56
316.23	390.56
316.46	359.56
316.689	378.56
316.919	387.56
317.148	397.56
317.377	383.56
317.607	378.56
317.836	381.56
318.065	359.56
318.295	362.56
318.524	345.56
318.753	372.56
318.983	375.56
319.212	350.56
319.441	389.56
319.67	369.56
319.9	380.56
320.129	357.56
320.358	354.56
320.587	386.56
320.816	388.56
321.046	405.56
321.275	393.56
321.504	401.56
321.733	398.56
321.962	415.56
322.191	412.56
322.42	423.56
322.649	437.56
322.878	444.56
323.108	476.56
323.337	503.56
323.566	509.56
323.795	576.56
324.024	608.56
324.253	801.56
324.482	1141.56
324.71	1721.56
324.939	2488.56
325.168	2209.56
325.397	1185.56
325.626	751.56
325.855	603.56
326.084	561.56
326.313	539.56
326.542	547.56
326.77	610.56
326.999	719.56
327.228	994.56
327.457	1565.56
327.686	1906.56
327.914	1309.56
328.143	845.56
328.372	742.56
328.6	661.56
328.829	619.56
329.058	647.56
329.287	663.56
329.515	604.56
329.744	549.56
329.972	543.56
330.201	560.56
330.43	604.56
330.658	642.56
330.887	671.56
331.115	654.56
331.344	569.56
331.572	501.56
331.801	499.56
332.03	522.56
332.258	482.56
332.486	468.56
332.715	456.56
332.943	448.56
333.172	435.56
333.4	440.56
333.629	451.56
333.857	465.56
334.085	465.56
334.314	494.56
334.542	517.56
334.771	551.56
334.999	490.56
335.227	483.56
335.455	453.56
335.684	426.56
335.912	435.56
336.14	422.56
336.369	427.56
336.597	442.56
336.825	437.56
337.053	418.56
337.281	398.56
337.51	390.56
337.738	415.56
337.966	424.56
338.194	423.56
338.422	422.56
338.65	413.56
338.878	398.56
339.106	405.56
339.334	409.56
339.562	396.56
339.79	398.56
340.018	405.56
340.246	410.56
340.474	409.56
340.702	414.56
340.93	423.56
341.158	395.56
341.386	406.56
341.614	413.56
341.842	400.56
342.07	406.56
342.298	396.56
342.526	397.56
342.754	385.56
342.981	388.56
343.209	396.56
343.437	383.56
343.665	370.56
343.893	383.56
344.12	381.56
344.348	380.56
344.576	406.56
344.804	434.56
345.031	442.56
345.259	452.56
345.487	421.56
345.714	412.56
345.942	425.56
346.17	426.56
346.397	395.56
346.625	386.56
346.853	382.56
347.08	393.56
347.308	399.56
347.535	399.56
347.763	413.56
347.99	406.56
348.218	401.56
348.445	427.56
348.673	407.56
348.9	395.56
349.128	383.56
349.355	390.56
349.583	394.56
349.81	382.56
350.037	394.56
350.265	373.56
350.492	370.56
350.72	374.56
350.947	387.56
351.174	410.56
351.402	414.56
351.629	413.56
351.856	414.56
352.083	424.56
352.311	437.56
352.538	415.56
352.765	417.56
352.992	430.56
353.22	399.56
353.447	408.56
353.674	410.56
353.901	398.56
354.128	378.56
354.355	390.56
354.583	378.56
354.81	372.56
355.037	375.56
355.264	361.56
355.491	341.56
355.718	357.56
355.945	366.56
356.172	361.56
356.399	356.56
356.626	363.56
356.853	354.56
357.08	356.56
357.307	338.56
357.534	363.56
357.761	378.56
357.988	372.56
358.215	364.56
358.441	353.56
358.668	380.56
358.895	374.56
359.122	371.56
359.349	400.56
359.576	410.56
359.802	423.56
360.029	493.56
360.256	474.56
360.483	424.56
360.709	399.56
360.936	404.56
361.163	398.56
361.39	425.56
361.616	414.56
361.843	388.56
362.07	392.56
362.296	397.56
362.523	410.56
362.749	389.56
362.976	409.56
363.203	386.56
363.429	393.56
363.656	370.56
363.882	387.56
364.109	377.56
364.335	373.56
364.562	375.56
364.788	367.56
365.015	381.56
365.241	375.56
365.468	377.56
365.694	391.56
365.92	395.56
366.147	367.56
366.373	368.56
366.599	375.56
366.826	371.56
367.052	349.56
367.278	364.56
367.505	363.56
367.731	350.56
367.957	361.56
368.184	371.56
368.41	374.56
368.636	381.56
368.862	398.56
369.089	370.56
369.315	365.56
369.541	349.56
369.767	343.56
369.993	363.56
370.219	354.56
370.445	358.56
370.672	367.56
370.898	359.56
371.124	352.56
371.35	358.56
371.576	350.56
371.802	369.56
372.028	355.56
372.254	373.56
372.48	371.56
372.706	354.56
372.932	371.56
373.158	364.56
373.384	367.56
373.61	378.56
373.835	351.56
374.061	366.56
374.287	373.56
374.513	387.56
374.739	357.56
374.965	371.56
375.191	363.56
375.416	373.56
375.642	377.56
375.868	369.56
376.094	350.56
376.319	367.56
376.545	361.56
376.771	349.56
376.997	371.56
377.222	366.56
377.448	371.56
377.674	362.56
377.899	358.56
378.125	354.56
378.35	348.56
378.576	343.56
378.802	366.56
379.027	379.56
379.253	359.56
379.478	339.56
379.704	345.56
379.929	351.56
380.155	370.56
380.38	361.56
380.606	351.56
380.831	354.56
381.057	369.56
381.282	353.56
381.507	343.56
381.733	340.56
381.958	360.56
382.184	350.56
382.409	366.56
382.634	350.56
382.86	348.56
383.085	355.56
383.31	363.56
383.535	378.56
383.761	369.56
383.986	379.56
384.211	376.56
384.436	357.56
384.662	365.56
384.887	378.56
385.112	367.56
385.337	377.56
385.562	367.56
385.787	383.56
386.013	381.56
386.238	388.56
386.463	392.56
386.688	388.56
386.913	398.56
387.138	378.56
387.363	393.56
387.588	381.56
387.813	388.56
388.038	380.56
388.263	371.56
388.488	375.56
388.713	357.56
388.938	385.56
389.163	394.56
389.387	412.56
389.612	368.56
389.837	380.56
390.062	387.56
390.287	358.56
390.512	369.56
390.736	346.56
390.961	362.56
391.186	382.56
391.411	389.56
391.636	366.56
391.86	377.56
392.085	375.56
392.31	397.56
392.534	380.56
392.759	377.56
392.984	379.56
393.208	392.56
393.433	369.56
393.658	378.56
393.882	373.56
394.107	387.56
394.331	391.56
394.556	383.56
394.78	398.56
395.005	377.56
395.229	376.56
395.454	394.56
395.678	403.56
395.903	394.56
396.127	419.56
396.352	414.56
396.576	415.56
396.801	386.56
397.025	401.56
397.249	403.56
397.474	398.56
397.698	394.56
397.922	411.56
398.147	427.56
398.371	437.56
398.595	428.56
398.82	422.56
399.044	435.56
399.268	435.56
399.492	438.56
399.717	442.56
399.941	483.56
400.165	517.56
400.389	536.56
400.613	489.56
400.837	468.56
401.062	442.56
401.286	418.56
401.51	422.56
401.734	436.56
401.958	425.56
402.182	435.56
402.406	460.56
402.63	471.56
402.854	417.56
403.078	454.56
403.302	459.56
403.526	471.56
403.75	447.56
403.974	442.56
404.198	441.56
404.422	441.56
404.645	465.56
404.869	445.56
405.093	484.56
405.317	547.56
405.541	556.56
405.765	514.56
405.988	497.56
406.212	482.56
406.436	538.56
406.66	539.56
406.883	519.56
407.107	521.56
407.331	552.56
407.555	611.56
407.778	616.56
408.002	564.56
408.226	543.56
408.449	490.56
408.673	509.56
408.896	527.56
409.12	571.56
409.344	527.56
409.567	491.56
409.791	468.56
410.014	471.56
410.238	437.56
410.461	484.56
410.685	468.56
410.908	477.56
411.132	509.56
411.355	558.56
411.578	525.56
411.802	462.56
412.025	461.56
412.249	455.56
412.472	490.56
412.695	539.56
412.919	521.56
413.142	482.56
413.365	443.56
413.589	454.56
413.812	453.56
414.035	441.56
414.258	449.56
414.482	447.56
414.705	443.56
414.928	439.56
415.151	408.56
415.374	439.56
415.597	435.56
415.821	446.56
416.044	429.56
416.267	429.56
416.49	420.56
416.713	421.56
416.936	423.56
417.159	415.56
417.382	438.56
417.605	421.56
417.828	447.56
418.051	472.56
418.274	443.56
418.497	448.56
418.72	445.56
418.943	442.56
419.166	447.56
419.389	487.56
419.611	469.56
419.834	459.56
420.057	455.56
420.28	469.56
420.503	464.56
420.726	445.56
420.948	482.56
421.171	548.56
421.394	552.56
421.617	494.56
421.839	480.56
422.062	483.56
422.285	465.56
422.507	549.56
422.73	609.56
422.953	563.56
423.175	522.56
423.398	494.56
423.621	497.56
423.843	497.56
424.066	502.56
424.288	514.56
424.511	527.56
424.733	587.56
424.956	659.56
425.178	623.56
425.401	633.56
425.623	661.56
425.846	559.56
426.068	545.56
426.291	538.56
426.513	502.56
426.735	517.56
426.958	581.56
427.18	644.56
427.402	782.56
427.625	839.56
427.847	769.56
428.069	692.56
428.292	596.56
428.514	538.56
428.736	491.56
428.958	503.56
429.181	477.56
429.403	474.56
429.625	502.56
429.847	521.56
430.069	604.56
430.292	595.56
430.514	513.56
430.736	479.56
430.958	476.56
431.18	439.56
431.402	462.56
431.624	443.56
431.846	437.56
432.068	440.56
432.29	438.56
432.512	441.56
432.734	435.56
432.956	463.56
433.178	455.56
433.4	482.56
433.622	439.56
433.844	450.56
434.066	444.56
434.287	446.56
434.509	451.56
434.731	443.56
434.953	453.56
435.175	469.56
435.397	503.56
435.618	549.56
435.84	575.56
436.062	653.56
436.284	720.56
436.505	622.56
436.727	532.56
436.949	500.56
437.17	477.56
437.392	477.56
437.614	501.56
437.835	553.56
438.057	650.56
438.278	720.56
438.5	743.56
438.721	801.56
438.943	744.56
439.165	609.56
439.386	561.56
439.608	536.56
439.829	560.56
440.05	577.56
440.272	631.56
440.493	589.56
440.715	542.56
440.936	492.56
441.158	484.56
441.379	496.56
441.6	507.56
441.822	542.56
442.043	558.56
442.264	637.56
442.486	706.56
442.707	582.56
442.928	548.56
443.149	560.56
443.371	569.56
443.592	613.56
443.813	700.56
444.034	748.56
444.255	639.56
444.476	539.56
444.698	507.56
444.919	501.56
445.14	595.56
445.361	579.56
445.582	554.56
445.803	601.56
446.024	727.56
446.245	724.56
446.466	699.56
446.687	566.56
446.908	541.56
447.129	521.56
447.35	482.56
447.571	502.56
447.792	490.56
448.013	486.56
448.234	503.56
448.455	555.56
448.675	681.56
448.896	777.56
449.117	654.56
449.338	638.56
449.559	724.56
449.779	822.56
450	673.56
450.221	557.56
450.442	514.56
450.662	486.56
450.883	511.56
451.104	513.56
451.324	515.56
451.545	483.56
451.766	456.56
451.986	438.56
452.207	439.56
452.428	437.56
452.648	423.56
452.869	449.56
453.089	441.56
453.31	450.56
453.53	469.56
453.751	441.56
453.971	450.56
454.192	461.56
454.412	482.56
454.633	428.56
454.853	428.56
455.073	424.56
455.294	476.56
455.514	550.56
455.734	524.56
455.955	427.56
456.175	413.56
456.395	408.56
456.616	396.56
456.836	414.56
457.056	385.56
457.276	382.56
457.497	391.56
457.717	388.56
457.937	407.56
458.157	417.56
458.377	412.56
458.598	439.56
458.818	510.56
459.038	602.56
459.258	627.56
459.478	535.56
459.698	466.56
459.918	450.56
460.138	477.56
460.358	441.56
460.578	439.56
460.798	428.56
461.018	421.56
461.238	422.56
461.458	446.56
461.678	420.56
461.898	443.56
462.118	418.56
462.338	433.56
462.558	449.56
462.777	425.56
462.997	460.56
463.217	454.56
463.437	454.56
463.657	450.56
463.876	439.56
464.096	459.56
464.316	461.56
464.536	456.56
464.755	485.56
464.975	477.56
465.195	528.56
465.414	632.56
465.634	549.56
465.854	481.56
466.073	440.56
466.293	437.56
466.512	430.56
466.732	435.56
466.951	452.56
467.171	414.56
467.391	439.56
467.61	441.56
467.829	462.56
468.049	454.56
468.268	450.56
468.488	456.56
468.707	419.56
468.927	413.56
469.146	415.56
469.365	430.56
469.585	420.56
469.804	423.56
470.023	443.56
470.243	450.56
470.462	448.56
470.681	479.56
470.901	463.56
471.12	444.56
471.339	459.56
471.558	458.56
471.777	440.56
471.997	460.56
472.216	447.56
472.435	483.56
472.654	483.56
472.873	449.56
473.092	448.56
473.311	442.56
473.53	429.56
473.749	459.56
473.968	505.56
474.187	636.56
474.406	631.56
474.625	519.56
474.844	467.56
475.063	453.56
475.282	435.56
475.501	416.56
475.72	458.56
475.939	453.56
476.158	436.56
476.377	459.56
476.596	449.56
476.814	459.56
477.033	476.56
477.252	458.56
477.471	455.56
477.69	479.56
477.908	492.56
478.127	471.56
478.346	465.56
478.564	488.56
478.783	472.56
479.002	486.56
479.22	501.56
479.439	495.56
479.658	532.56
479.876	523.56
480.095	543.56
480.313	569.56
480.532	570.56
480.751	561.56
480.969	568.56
481.188	642.56
481.406	673.56
481.624	596.56
481.843	561.56
482.061	539.56
482.28	545.56
482.498	530.56
482.717	527.56
482.935	533.56
483.153	511.56
483.372	515.56
483.59	534.56
483.808	544.56
484.027	521.56
484.245	525.56
484.463	525.56
484.681	557.56
484.9	520.56
485.118	525.56
485.336	542.56
485.554	549.56
485.772	519.56
485.99	527.56
486.209	547.56
486.427	571.56
486.645	548.56
486.863	574.56
487.081	586.56
487.299	570.56
487.517	573.56
487.735	558.56
487.953	555.56
488.171	579.56
488.389	587.56
488.607	567.56
488.825	573.56
489.043	560.56
489.261	564.56
489.479	582.56
489.696	592.56
489.914	581.56
490.132	585.56
490.35	604.56
490.568	586.56
490.786	611.56
491.003	613.56
491.221	631.56
491.439	623.56
491.657	667.56
491.874	662.56
492.092	662.56
492.31	659.56
492.527	677.56
492.745	663.56
492.963	669.56
493.18	675.56
493.398	671.56
493.615	684.56
493.833	666.56
494.05	679.56
494.268	657.56
494.485	683.56
494.703	674.56
494.92	675.56
495.138	708.56
495.355	691.56
495.573	693.56
495.79	684.56
496.008	682.56
496.225	662.56
496.442	675.56
496.66	681.56
496.877	686.56
497.094	661.56
497.312	673.56
497.529	708.56
497.746	700.56
497.963	712.56
498.181	745.56
498.398	729.56
498.615	719.56
498.832	728.56
499.049	733.56
499.267	725.56
499.484	754.56
499.701	767.56
499.918	768.56
500.135	834.56
500.352	820.56
500.569	822.56
500.786	828.56
501.003	814.56
501.22	807.56
501.437	811.56
501.654	821.56
501.871	817.56
