Data from 1980.PennyLincolnUp.Lamp.En5.5.200Scan.071819.P1_HRD10591_16-37-19-957.txt Node
Date: Thu Jul 18 16:37:19 EDT 2019
User: cochatt
Spectrometer: HR+D1059
Trigger mode: 1
Integration Time (sec): 1.000000E-1
Scans to average: 1
Electric dark correction enabled: true
Nonlinearity correction enabled: false
Boxcar width: 0
XAxis mode: Wavelengths
Number of Pixels in Spectrum: 2048
>>>>>Begin Spectral Data<<<<<
223.165	-14.56
223.4	-14.56
223.635	-14.56
223.869	-10.56
224.104	-21.56
224.338	-16.56
224.573	-24.56
224.808	-3.56
225.042	-1.56
225.277	-7.56
225.511	-2.56
225.746	8.44
225.98	0.44
226.215	19.44
226.449	20.44
226.683	-0.56
226.918	28.44
227.152	26.44
227.387	39.44
227.621	47.44
227.856	39.44
228.09	59.44
228.324	39.44
228.559	49.44
228.793	69.44
229.027	111.44
229.262	111.44
229.496	117.44
229.73	136.44
229.964	163.44
230.199	139.44
230.433	129.44
230.667	97.44
230.901	121.44
231.136	111.44
231.37	104.44
231.604	115.44
231.838	111.44
232.072	108.44
232.306	111.44
232.541	102.44
232.775	103.44
233.009	112.44
233.243	97.44
233.477	121.44
233.711	116.44
233.945	124.44
234.179	102.44
234.413	124.44
234.647	119.44
234.881	129.44
235.115	99.44
235.349	98.44
235.583	115.44
235.817	122.44
236.051	125.44
236.285	127.44
236.519	122.44
236.753	124.44
236.987	144.44
237.221	180.44
237.455	246.44
237.689	197.44
237.922	148.44
238.156	122.44
238.39	128.44
238.624	122.44
238.858	117.44
239.091	117.44
239.325	122.44
239.559	131.44
239.793	133.44
240.027	135.44
240.26	151.44
240.494	161.44
240.728	154.44
240.961	156.44
241.195	140.44
241.429	138.44
241.662	125.44
241.896	127.44
242.13	144.44
242.363	141.44
242.597	144.44
242.83	150.44
243.064	134.44
243.298	131.44
243.531	124.44
243.765	142.44
243.998	137.44
244.232	137.44
244.465	138.44
244.699	149.44
244.932	138.44
245.166	151.44
245.399	159.44
245.633	143.44
245.866	145.44
246.099	147.44
246.333	134.44
246.566	136.44
246.8	145.44
247.033	151.44
247.266	161.44
247.5	175.44
247.733	164.44
247.966	170.44
248.2	175.44
248.433	157.44
248.666	179.44
248.899	185.44
249.133	203.44
249.366	203.44
249.599	198.44
249.832	191.44
250.066	172.44
250.299	181.44
250.532	175.44
250.765	198.44
250.998	231.44
251.231	224.44
251.465	195.44
251.698	217.44
251.931	196.44
252.164	191.44
252.397	189.44
252.63	199.44
252.863	212.44
253.096	215.44
253.329	233.44
253.562	231.44
253.795	220.44
254.028	211.44
254.261	232.44
254.494	232.44
254.727	259.44
254.96	303.44
255.193	266.44
255.426	267.44
255.659	242.44
255.892	221.44
256.124	229.44
256.357	240.44
256.59	233.44
256.823	234.44
257.056	201.44
257.289	220.44
257.521	217.44
257.754	200.44
257.987	219.44
258.22	202.44
258.452	218.44
258.685	211.44
258.918	216.44
259.151	208.44
259.383	218.44
259.616	219.44
259.849	207.44
260.081	218.44
260.314	243.44
260.547	237.44
260.779	241.44
261.012	240.44
261.244	214.44
261.477	216.44
261.71	218.44
261.942	224.44
262.175	215.44
262.407	230.44
262.64	208.44
262.872	213.44
263.105	204.44
263.337	205.44
263.57	203.44
263.802	210.44
264.035	214.44
264.267	199.44
264.499	205.44
264.732	210.44
264.964	191.44
265.197	205.44
265.429	198.44
265.661	199.44
265.894	207.44
266.126	203.44
266.358	206.44
266.591	213.44
266.823	207.44
267.055	213.44
267.287	228.44
267.52	216.44
267.752	223.44
267.984	211.44
268.216	211.44
268.448	232.44
268.681	236.44
268.913	238.44
269.145	253.44
269.377	275.44
269.609	270.44
269.841	262.44
270.073	257.44
270.306	263.44
270.538	309.44
270.77	309.44
271.002	303.44
271.234	292.44
271.466	299.44
271.698	311.44
271.93	317.44
272.162	322.44
272.394	324.44
272.626	299.44
272.858	288.44
273.09	280.44
273.322	279.44
273.553	269.44
273.785	252.44
274.017	261.44
274.249	249.44
274.481	257.44
274.713	261.44
274.945	246.44
275.176	267.44
275.408	264.44
275.64	274.44
275.872	233.44
276.104	247.44
276.335	270.44
276.567	279.44
276.799	283.44
277.031	306.44
277.262	302.44
277.494	309.44
277.726	313.44
277.957	275.44
278.189	268.44
278.421	265.44
278.652	267.44
278.884	242.44
279.115	263.44
279.347	243.44
279.579	276.44
279.81	245.44
280.042	256.44
280.273	245.44
280.505	244.44
280.736	243.44
280.968	245.44
281.199	260.44
281.431	245.44
281.662	269.44
281.894	265.44
282.125	265.44
282.356	289.44
282.588	284.44
282.819	295.44
283.051	263.44
283.282	253.44
283.513	249.44
283.745	265.44
283.976	257.44
284.207	284.44
284.439	276.44
284.67	265.44
284.901	255.44
285.132	257.44
285.364	255.44
285.595	258.44
285.826	262.44
286.057	254.44
286.288	271.44
286.52	282.44
286.751	259.44
286.982	258.44
287.213	257.44
287.444	268.44
287.675	257.44
287.906	260.44
288.138	279.44
288.369	278.44
288.6	285.44
288.831	270.44
289.062	255.44
289.293	259.44
289.524	283.44
289.755	266.44
289.986	257.44
290.217	259.44
290.448	274.44
290.679	254.44
290.91	269.44
291.141	260.44
291.371	271.44
291.602	267.44
291.833	280.44
292.064	275.44
292.295	281.44
292.526	264.44
292.757	259.44
292.987	258.44
293.218	260.44
293.449	265.44
293.68	255.44
293.91	267.44
294.141	263.44
294.372	266.44
294.603	257.44
294.833	252.44
295.064	268.44
295.295	258.44
295.525	273.44
295.756	263.44
295.987	278.44
296.217	313.44
296.448	327.44
296.679	307.44
296.909	280.44
297.14	270.44
297.37	280.44
297.601	268.44
297.831	273.44
298.062	266.44
298.292	259.44
298.523	269.44
298.753	280.44
298.984	282.44
299.214	257.44
299.445	271.44
299.675	264.44
299.905	278.44
300.136	291.44
300.366	273.44
300.597	271.44
300.827	287.44
301.057	291.44
301.288	286.44
301.518	286.44
301.748	288.44
301.979	280.44
302.209	295.44
302.439	307.44
302.669	299.44
302.9	295.44
303.13	283.44
303.36	280.44
303.59	315.44
303.82	311.44
304.051	329.44
304.281	298.44
304.511	298.44
304.741	276.44
304.971	308.44
305.201	296.44
305.431	297.44
305.661	291.44
305.891	306.44
306.121	298.44
306.352	296.44
306.582	317.44
306.812	295.44
307.042	288.44
307.272	304.44
307.502	294.44
307.731	301.44
307.961	296.44
308.191	315.44
308.421	291.44
308.651	279.44
308.881	310.44
309.111	297.44
309.341	315.44
309.571	308.44
309.8	340.44
310.03	320.44
310.26	345.44
310.49	357.44
310.72	360.44
310.949	371.44
311.179	377.44
311.409	358.44
311.639	369.44
311.868	362.44
312.098	349.44
312.328	362.44
312.557	367.44
312.787	375.44
313.017	364.44
313.246	363.44
313.476	362.44
313.706	323.44
313.935	360.44
314.165	372.44
314.394	383.44
314.624	375.44
314.853	359.44
315.083	363.44
315.312	342.44
315.542	326.44
315.771	319.44
316.001	351.44
316.23	337.44
316.46	349.44
316.689	343.44
316.919	340.44
317.148	386.44
317.377	365.44
317.607	348.44
317.836	343.44
318.065	349.44
318.295	336.44
318.524	337.44
318.753	343.44
318.983	353.44
319.212	341.44
319.441	348.44
319.67	368.44
319.9	334.44
320.129	327.44
320.358	347.44
320.587	344.44
320.816	354.44
321.046	372.44
321.275	374.44
321.504	358.44
321.733	385.44
321.962	391.44
322.191	393.44
322.42	409.44
322.649	434.44
322.878	434.44
323.108	453.44
323.337	466.44
323.566	472.44
323.795	518.44
324.024	595.44
324.253	720.44
324.482	1053.44
324.71	1557.44
324.939	2262.44
325.168	2006.44
325.397	1051.44
325.626	703.44
325.855	570.44
326.084	523.44
326.313	517.44
326.542	531.44
326.77	556.44
326.999	631.44
327.228	891.44
327.457	1391.44
327.686	1709.44
327.914	1162.44
328.143	775.44
328.372	649.44
328.6	637.44
328.829	567.44
329.058	582.44
329.287	601.44
329.515	551.44
329.744	509.44
329.972	488.44
330.201	528.44
330.43	577.44
330.658	637.44
330.887	633.44
331.115	612.44
331.344	515.44
331.572	467.44
331.801	469.44
332.03	472.44
332.258	436.44
332.486	419.44
332.715	406.44
332.943	405.44
333.172	412.44
333.4	401.44
333.629	415.44
333.857	442.44
334.085	456.44
334.314	437.44
334.542	513.44
334.771	501.44
334.999	447.44
335.227	441.44
335.455	420.44
335.684	424.44
335.912	386.44
336.14	409.44
336.369	404.44
336.597	386.44
336.825	415.44
337.053	408.44
337.281	391.44
337.51	390.44
337.738	396.44
337.966	395.44
338.194	402.44
338.422	382.44
338.65	392.44
338.878	390.44
339.106	375.44
339.334	375.44
339.562	379.44
339.79	395.44
340.018	385.44
340.246	376.44
340.474	393.44
340.702	391.44
340.93	404.44
341.158	401.44
341.386	402.44
341.614	369.44
341.842	386.44
342.07	371.44
342.298	377.44
342.526	378.44
342.754	391.44
342.981	351.44
343.209	373.44
343.437	391.44
343.665	377.44
343.893	368.44
344.12	386.44
344.348	371.44
344.576	388.44
344.804	393.44
345.031	397.44
345.259	416.44
345.487	415.44
345.714	410.44
345.942	397.44
346.17	385.44
346.397	379.44
346.625	375.44
346.853	373.44
347.08	357.44
347.308	394.44
347.535	380.44
347.763	405.44
347.99	426.44
348.218	401.44
348.445	420.44
348.673	398.44
348.9	378.44
349.128	391.44
349.355	380.44
349.583	355.44
349.81	377.44
350.037	378.44
350.265	364.44
350.492	362.44
350.72	367.44
350.947	385.44
351.174	396.44
351.402	407.44
351.629	400.44
351.856	396.44
352.083	403.44
352.311	399.44
352.538	410.44
352.765	399.44
352.992	397.44
353.22	395.44
353.447	389.44
353.674	382.44
353.901	377.44
354.128	374.44
354.355	347.44
354.583	337.44
354.81	367.44
355.037	367.44
355.264	339.44
355.491	342.44
355.718	336.44
355.945	351.44
356.172	347.44
356.399	340.44
356.626	332.44
356.853	344.44
357.08	320.44
357.307	357.44
357.534	335.44
357.761	370.44
357.988	348.44
358.215	341.44
358.441	354.44
358.668	360.44
358.895	363.44
359.122	361.44
359.349	370.44
359.576	387.44
359.802	415.44
360.029	438.44
360.256	449.44
360.483	434.44
360.709	391.44
360.936	380.44
361.163	376.44
361.39	370.44
361.616	392.44
361.843	399.44
362.07	379.44
362.296	400.44
362.523	393.44
362.749	369.44
362.976	361.44
363.203	373.44
363.429	370.44
363.656	364.44
363.882	387.44
364.109	362.44
364.335	339.44
364.562	348.44
364.788	361.44
365.015	364.44
365.241	368.44
365.468	359.44
365.694	383.44
365.92	367.44
366.147	363.44
366.373	356.44
366.599	359.44
366.826	360.44
367.052	373.44
367.278	363.44
367.505	355.44
367.731	362.44
367.957	350.44
368.184	367.44
368.41	372.44
368.636	403.44
368.862	389.44
369.089	355.44
369.315	375.44
369.541	375.44
369.767	358.44
369.993	338.44
370.219	352.44
370.445	371.44
370.672	351.44
370.898	351.44
371.124	338.44
371.35	349.44
371.576	354.44
371.802	367.44
372.028	360.44
372.254	356.44
372.48	343.44
372.706	345.44
372.932	369.44
373.158	354.44
373.384	365.44
373.61	352.44
373.835	362.44
374.061	359.44
374.287	370.44
374.513	349.44
374.739	357.44
374.965	353.44
375.191	339.44
375.416	362.44
375.642	338.44
375.868	350.44
376.094	361.44
376.319	345.44
376.545	342.44
376.771	351.44
376.997	348.44
377.222	338.44
377.448	360.44
377.674	358.44
377.899	348.44
378.125	341.44
378.35	343.44
378.576	350.44
378.802	356.44
379.027	344.44
379.253	349.44
379.478	337.44
379.704	340.44
379.929	354.44
380.155	357.44
380.38	341.44
380.606	376.44
380.831	372.44
381.057	356.44
381.282	348.44
381.507	355.44
381.733	358.44
381.958	351.44
382.184	351.44
382.409	368.44
382.634	345.44
382.86	355.44
383.085	371.44
383.31	351.44
383.535	367.44
383.761	354.44
383.986	375.44
384.211	358.44
384.436	373.44
384.662	372.44
384.887	362.44
385.112	376.44
385.337	376.44
385.562	365.44
385.787	387.44
386.013	393.44
386.238	391.44
386.463	408.44
386.688	375.44
386.913	359.44
387.138	359.44
387.363	368.44
387.588	360.44
387.813	362.44
388.038	366.44
388.263	373.44
388.488	379.44
388.713	370.44
388.938	369.44
389.163	379.44
389.387	378.44
389.612	379.44
389.837	376.44
390.062	355.44
390.287	369.44
390.512	375.44
390.736	373.44
390.961	379.44
391.186	381.44
391.411	361.44
391.636	375.44
391.86	385.44
392.085	383.44
392.31	376.44
392.534	400.44
392.759	366.44
392.984	370.44
393.208	384.44
393.433	381.44
393.658	370.44
393.882	356.44
394.107	382.44
394.331	370.44
394.556	374.44
394.78	383.44
395.005	388.44
395.229	353.44
395.454	361.44
395.678	375.44
395.903	402.44
396.127	423.44
396.352	418.44
396.576	401.44
396.801	401.44
397.025	403.44
397.249	401.44
397.474	398.44
397.698	396.44
397.922	405.44
398.147	427.44
398.371	433.44
398.595	401.44
398.82	407.44
399.044	412.44
399.268	419.44
399.492	427.44
399.717	453.44
399.941	473.44
400.165	492.44
400.389	535.44
400.613	502.44
400.837	440.44
401.062	433.44
401.286	423.44
401.51	432.44
401.734	415.44
401.958	417.44
402.182	425.44
402.406	442.44
402.63	419.44
402.854	421.44
403.078	428.44
403.302	424.44
403.526	441.44
403.75	436.44
403.974	446.44
404.198	453.44
404.422	460.44
404.645	455.44
404.869	447.44
405.093	477.44
405.317	496.44
405.541	550.44
405.765	513.44
405.988	471.44
406.212	500.44
406.436	510.44
406.66	522.44
406.883	488.44
407.107	506.44
407.331	543.44
407.555	594.44
407.778	585.44
408.002	534.44
408.226	513.44
408.449	488.44
408.673	493.44
408.896	533.44
409.12	542.44
409.344	525.44
409.567	488.44
409.791	450.44
410.014	420.44
410.238	438.44
410.461	441.44
410.685	453.44
410.908	461.44
411.132	509.44
411.355	545.44
411.578	519.44
411.802	442.44
412.025	437.44
412.249	470.44
412.472	479.44
412.695	501.44
412.919	507.44
413.142	466.44
413.365	441.44
413.589	419.44
413.812	413.44
414.035	412.44
414.258	435.44
414.482	418.44
414.705	410.44
414.928	420.44
415.151	435.44
415.374	405.44
415.597	411.44
415.821	412.44
416.044	417.44
416.267	415.44
416.49	419.44
416.713	408.44
416.936	401.44
417.159	428.44
417.382	437.44
417.605	427.44
417.828	422.44
418.051	456.44
418.274	457.44
418.497	429.44
418.72	443.44
418.943	405.44
419.166	415.44
419.389	434.44
419.611	420.44
419.834	448.44
420.057	458.44
420.28	440.44
420.503	438.44
420.726	436.44
420.948	472.44
421.171	501.44
421.394	539.44
421.617	470.44
421.839	443.44
422.062	438.44
422.285	466.44
422.507	517.44
422.73	586.44
422.953	580.44
423.175	507.44
423.398	474.44
423.621	492.44
423.843	506.44
424.066	492.44
424.288	496.44
424.511	523.44
424.733	550.44
424.956	648.44
425.178	615.44
425.401	588.44
425.623	619.44
425.846	524.44
426.068	506.44
426.291	489.44
426.513	484.44
426.735	513.44
426.958	557.44
427.18	628.44
427.402	745.44
427.625	845.44
427.847	755.44
428.069	643.44
428.292	550.44
428.514	505.44
428.736	481.44
428.958	477.44
429.181	483.44
429.403	460.44
429.625	480.44
429.847	510.44
430.069	560.44
430.292	552.44
430.514	490.44
430.736	473.44
430.958	467.44
431.18	422.44
431.402	435.44
431.624	433.44
431.846	427.44
432.068	427.44
432.29	434.44
432.512	436.44
432.734	448.44
432.956	450.44
433.178	437.44
433.4	457.44
433.622	442.44
433.844	460.44
434.066	419.44
434.287	435.44
434.509	433.44
434.731	463.44
434.953	433.44
435.175	444.44
435.397	472.44
435.618	507.44
435.84	543.44
436.062	628.44
436.284	691.44
436.505	570.44
436.727	513.44
436.949	473.44
437.17	463.44
437.392	452.44
437.614	497.44
437.835	498.44
438.057	617.44
438.278	703.44
438.5	711.44
438.721	745.44
438.943	739.44
439.165	590.44
439.386	531.44
439.608	512.44
439.829	517.44
440.05	532.44
440.272	612.44
440.493	562.44
440.715	513.44
440.936	486.44
441.158	475.44
441.379	457.44
441.6	479.44
441.822	496.44
442.043	541.44
442.264	628.44
442.486	673.44
442.707	569.44
442.928	548.44
443.149	539.44
443.371	545.44
443.592	598.44
443.813	671.44
444.034	719.44
444.255	592.44
444.476	537.44
444.698	495.44
444.919	507.44
445.14	581.44
445.361	578.44
445.582	536.44
445.803	623.44
446.024	703.44
446.245	725.44
446.466	654.44
446.687	577.44
446.908	502.44
447.129	494.44
447.35	486.44
447.571	483.44
447.792	470.44
448.013	487.44
448.234	468.44
448.455	538.44
448.675	647.44
448.896	737.44
449.117	645.44
449.338	611.44
449.559	720.44
449.779	785.44
450	641.44
450.221	516.44
450.442	499.44
450.662	467.44
450.883	462.44
451.104	510.44
451.324	484.44
451.545	458.44
451.766	431.44
451.986	407.44
452.207	425.44
452.428	407.44
452.648	424.44
452.869	433.44
453.089	423.44
453.31	440.44
453.53	433.44
453.751	411.44
453.971	427.44
454.192	439.44
454.412	441.44
454.633	410.44
454.853	420.44
455.073	403.44
455.294	450.44
455.514	522.44
455.734	499.44
455.955	435.44
456.175	410.44
456.395	406.44
456.616	388.44
456.836	363.44
457.056	387.44
457.276	371.44
457.497	385.44
457.717	395.44
457.937	402.44
458.157	387.44
458.377	420.44
458.598	420.44
458.818	515.44
459.038	559.44
459.258	588.44
459.478	488.44
459.698	453.44
459.918	431.44
460.138	435.44
460.358	414.44
460.578	419.44
460.798	413.44
461.018	423.44
461.238	423.44
461.458	422.44
461.678	432.44
461.898	449.44
462.118	420.44
462.338	433.44
462.558	426.44
462.777	428.44
462.997	463.44
463.217	442.44
463.437	434.44
463.657	431.44
463.876	441.44
464.096	432.44
464.316	435.44
464.536	452.44
464.755	453.44
464.975	454.44
465.195	504.44
465.414	598.44
465.634	523.44
465.854	488.44
466.073	452.44
466.293	439.44
466.512	431.44
466.732	426.44
466.951	425.44
467.171	404.44
467.391	424.44
467.61	418.44
467.829	435.44
468.049	430.44
468.268	447.44
468.488	415.44
468.707	409.44
468.927	418.44
469.146	407.44
469.365	403.44
469.585	386.44
469.804	411.44
470.023	440.44
470.243	420.44
470.462	433.44
470.681	457.44
470.901	438.44
471.12	438.44
471.339	418.44
471.558	434.44
471.777	439.44
471.997	419.44
472.216	417.44
472.435	495.44
472.654	449.44
472.873	435.44
473.092	428.44
473.311	436.44
473.53	413.44
473.749	431.44
473.968	497.44
474.187	593.44
474.406	612.44
474.625	508.44
474.844	457.44
475.063	446.44
475.282	427.44
475.501	445.44
475.72	459.44
475.939	445.44
476.158	420.44
476.377	431.44
476.596	431.44
476.814	444.44
477.033	448.44
477.252	447.44
477.471	461.44
477.69	467.44
477.908	457.44
478.127	466.44
478.346	447.44
478.564	472.44
478.783	457.44
479.002	463.44
479.22	488.44
479.439	499.44
479.658	515.44
479.876	525.44
480.095	507.44
480.313	543.44
480.532	540.44
480.751	529.44
480.969	535.44
481.188	605.44
481.406	637.44
481.624	536.44
481.843	538.44
482.061	521.44
482.28	523.44
482.498	519.44
482.717	517.44
482.935	504.44
483.153	491.44
483.372	513.44
483.59	515.44
483.808	505.44
484.027	483.44
484.245	491.44
484.463	499.44
484.681	490.44
484.9	494.44
485.118	527.44
485.336	533.44
485.554	522.44
485.772	522.44
485.99	516.44
486.209	524.44
486.427	545.44
486.645	548.44
486.863	551.44
487.081	579.44
487.299	572.44
487.517	545.44
487.735	547.44
487.953	538.44
488.171	549.44
488.389	552.44
488.607	561.44
488.825	553.44
489.043	565.44
489.261	564.44
489.479	538.44
489.696	572.44
489.914	561.44
490.132	607.44
490.35	586.44
490.568	586.44
490.786	588.44
491.003	589.44
491.221	608.44
491.439	606.44
491.657	586.44
491.874	628.44
492.092	631.44
492.31	637.44
492.527	654.44
492.745	651.44
492.963	649.44
493.18	652.44
493.398	651.44
493.615	674.44
493.833	658.44
494.05	640.44
494.268	667.44
494.485	639.44
494.703	632.44
494.92	653.44
495.138	649.44
495.355	676.44
495.573	679.44
495.79	643.44
496.008	653.44
496.225	663.44
496.442	655.44
496.66	665.44
496.877	654.44
497.094	650.44
497.312	676.44
497.529	672.44
497.746	675.44
497.963	697.44
498.181	720.44
498.398	697.44
498.615	725.44
498.832	709.44
499.049	706.44
499.267	709.44
499.484	715.44
499.701	731.44
499.918	752.44
500.135	768.44
500.352	805.44
500.569	815.44
500.786	811.44
501.003	797.44
501.22	808.44
501.437	776.44
501.654	774.44
501.871	781.44
