Data from 1980.PennyLincolnUp.Lamp.En5.5.200Scan.071819.P1_HRD10591_16-36-18-957.txt Node
Date: Thu Jul 18 16:36:18 EDT 2019
User: cochatt
Spectrometer: HR+D1059
Trigger mode: 1
Integration Time (sec): 1.000000E-1
Scans to average: 1
Electric dark correction enabled: true
Nonlinearity correction enabled: false
Boxcar width: 0
XAxis mode: Wavelengths
Number of Pixels in Spectrum: 2048
>>>>>Begin Spectral Data<<<<<
223.165	-0.56
223.4	-0.56
223.635	-0.56
223.869	-14.56
224.104	-27.56
224.338	-17.56
224.573	-23.56
224.808	-19.56
225.042	-8.56
225.277	5.44
225.511	-1.56
225.746	4.44
225.98	8.44
226.215	9.44
226.449	11.44
226.683	23.44
226.918	22.44
227.152	28.44
227.387	32.44
227.621	44.44
227.856	45.44
228.09	35.44
228.324	59.44
228.559	50.44
228.793	62.44
229.027	87.44
229.262	93.44
229.496	104.44
229.73	130.44
229.964	138.44
230.199	118.44
230.433	105.44
230.667	110.44
230.901	108.44
231.136	100.44
231.37	87.44
231.604	106.44
231.838	106.44
232.072	101.44
232.306	112.44
232.541	103.44
232.775	100.44
233.009	104.44
233.243	113.44
233.477	108.44
233.711	114.44
233.945	116.44
234.179	109.44
234.413	112.44
234.647	104.44
234.881	105.44
235.115	111.44
235.349	112.44
235.583	105.44
235.817	111.44
236.051	105.44
236.285	133.44
236.519	117.44
236.753	122.44
236.987	136.44
237.221	163.44
237.455	189.44
237.689	150.44
237.922	144.44
238.156	114.44
238.39	110.44
238.624	120.44
238.858	121.44
239.091	119.44
239.325	125.44
239.559	109.44
239.793	124.44
240.027	118.44
240.26	123.44
240.494	143.44
240.728	148.44
240.961	134.44
241.195	129.44
241.429	123.44
241.662	129.44
241.896	117.44
242.13	124.44
242.363	122.44
242.597	120.44
242.83	130.44
243.064	121.44
243.298	134.44
243.531	125.44
243.765	124.44
243.998	128.44
244.232	137.44
244.465	128.44
244.699	120.44
244.932	141.44
245.166	137.44
245.399	128.44
245.633	139.44
245.866	136.44
246.099	133.44
246.333	140.44
246.566	141.44
246.8	132.44
247.033	142.44
247.266	145.44
247.5	138.44
247.733	150.44
247.966	165.44
248.2	147.44
248.433	166.44
248.666	154.44
248.899	175.44
249.133	176.44
249.366	192.44
249.599	178.44
249.832	163.44
250.066	155.44
250.299	172.44
250.532	170.44
250.765	166.44
250.998	191.44
251.231	207.44
251.465	182.44
251.698	184.44
251.931	182.44
252.164	173.44
252.397	165.44
252.63	170.44
252.863	199.44
253.096	198.44
253.329	215.44
253.562	202.44
253.795	206.44
254.028	202.44
254.261	190.44
254.494	215.44
254.727	236.44
254.96	238.44
255.193	236.44
255.426	224.44
255.659	208.44
255.892	214.44
256.124	193.44
256.357	207.44
256.59	190.44
256.823	188.44
257.056	192.44
257.289	180.44
257.521	197.44
257.754	199.44
257.987	188.44
258.22	196.44
258.452	183.44
258.685	171.44
258.918	182.44
259.151	195.44
259.383	180.44
259.616	183.44
259.849	187.44
260.081	211.44
260.314	236.44
260.547	215.44
260.779	222.44
261.012	211.44
261.244	193.44
261.477	202.44
261.71	191.44
261.942	217.44
262.175	214.44
262.407	213.44
262.64	182.44
262.872	186.44
263.105	184.44
263.337	194.44
263.57	179.44
263.802	187.44
264.035	182.44
264.267	192.44
264.499	170.44
264.732	184.44
264.964	189.44
265.197	186.44
265.429	188.44
265.661	194.44
265.894	190.44
266.126	204.44
266.358	180.44
266.591	189.44
266.823	190.44
267.055	170.44
267.287	203.44
267.52	200.44
267.752	187.44
267.984	188.44
268.216	187.44
268.448	207.44
268.681	194.44
268.913	208.44
269.145	214.44
269.377	246.44
269.609	242.44
269.841	223.44
270.073	229.44
270.306	246.44
270.538	251.44
270.77	254.44
271.002	242.44
271.234	253.44
271.466	260.44
271.698	250.44
271.93	277.44
272.162	268.44
272.394	288.44
272.626	254.44
272.858	236.44
273.09	235.44
273.322	231.44
273.553	234.44
273.785	220.44
274.017	230.44
274.249	222.44
274.481	210.44
274.713	219.44
274.945	233.44
275.176	232.44
275.408	221.44
275.64	217.44
275.872	215.44
276.104	222.44
276.335	202.44
276.567	203.44
276.799	232.44
277.031	246.44
277.262	269.44
277.494	248.44
277.726	248.44
277.957	242.44
278.189	236.44
278.421	242.44
278.652	227.44
278.884	220.44
279.115	224.44
279.347	214.44
279.579	204.44
279.81	220.44
280.042	233.44
280.273	211.44
280.505	226.44
280.736	209.44
280.968	219.44
281.199	224.44
281.431	221.44
281.662	241.44
281.894	252.44
282.125	217.44
282.356	227.44
282.588	240.44
282.819	248.44
283.051	214.44
283.282	224.44
283.513	225.44
283.745	241.44
283.976	230.44
284.207	218.44
284.439	220.44
284.67	240.44
284.901	233.44
285.132	228.44
285.364	235.44
285.595	231.44
285.826	225.44
286.057	217.44
286.288	226.44
286.52	228.44
286.751	228.44
286.982	226.44
287.213	228.44
287.444	217.44
287.675	228.44
287.906	241.44
288.138	230.44
288.369	250.44
288.6	244.44
288.831	240.44
289.062	229.44
289.293	226.44
289.524	231.44
289.755	229.44
289.986	223.44
290.217	207.44
290.448	224.44
290.679	229.44
290.91	226.44
291.141	223.44
291.371	224.44
291.602	223.44
291.833	227.44
292.064	229.44
292.295	233.44
292.526	227.44
292.757	234.44
292.987	228.44
293.218	237.44
293.449	228.44
293.68	228.44
293.91	244.44
294.141	225.44
294.372	245.44
294.603	220.44
294.833	244.44
295.064	232.44
295.295	239.44
295.525	230.44
295.756	231.44
295.987	258.44
296.217	245.44
296.448	261.44
296.679	254.44
296.909	245.44
297.14	228.44
297.37	235.44
297.601	235.44
297.831	249.44
298.062	236.44
298.292	250.44
298.523	244.44
298.753	260.44
298.984	242.44
299.214	241.44
299.445	234.44
299.675	245.44
299.905	248.44
300.136	272.44
300.366	232.44
300.597	232.44
300.827	253.44
301.057	257.44
301.288	248.44
301.518	245.44
301.748	243.44
301.979	249.44
302.209	257.44
302.439	260.44
302.669	240.44
302.9	246.44
303.13	245.44
303.36	271.44
303.59	261.44
303.82	248.44
304.051	251.44
304.281	263.44
304.511	260.44
304.741	265.44
304.971	242.44
305.201	266.44
305.431	272.44
305.661	259.44
305.891	243.44
306.121	280.44
306.352	276.44
306.582	271.44
306.812	268.44
307.042	259.44
307.272	264.44
307.502	260.44
307.731	265.44
307.961	241.44
308.191	259.44
308.421	272.44
308.651	261.44
308.881	258.44
309.111	273.44
309.341	252.44
309.571	262.44
309.8	289.44
310.03	280.44
310.26	268.44
310.49	289.44
310.72	314.44
310.949	328.44
311.179	318.44
311.409	289.44
311.639	300.44
311.868	301.44
312.098	306.44
312.328	298.44
312.557	305.44
312.787	349.44
313.017	335.44
313.246	312.44
313.476	304.44
313.706	299.44
313.935	291.44
314.165	310.44
314.394	317.44
314.624	335.44
314.853	308.44
315.083	306.44
315.312	285.44
315.542	308.44
315.771	305.44
316.001	289.44
316.23	292.44
316.46	281.44
316.689	290.44
316.919	298.44
317.148	311.44
317.377	299.44
317.607	299.44
317.836	296.44
318.065	283.44
318.295	293.44
318.524	320.44
318.753	288.44
318.983	302.44
319.212	281.44
319.441	313.44
319.67	294.44
319.9	295.44
320.129	314.44
320.358	299.44
320.587	314.44
320.816	306.44
321.046	317.44
321.275	307.44
321.504	328.44
321.733	310.44
321.962	323.44
322.191	324.44
322.42	338.44
322.649	370.44
322.878	362.44
323.108	345.44
323.337	388.44
323.566	384.44
323.795	416.44
324.024	464.44
324.253	538.44
324.482	781.44
324.71	1184.44
324.939	1730.44
325.168	1520.44
325.397	788.44
325.626	540.44
325.855	468.44
326.084	433.44
326.313	397.44
326.542	413.44
326.77	447.44
326.999	512.44
327.228	657.44
327.457	1043.44
327.686	1300.44
327.914	876.44
328.143	562.44
328.372	500.44
328.6	449.44
328.829	438.44
329.058	474.44
329.287	476.44
329.515	419.44
329.744	401.44
329.972	396.44
330.201	398.44
330.43	412.44
330.658	466.44
330.887	506.44
331.115	468.44
331.344	398.44
331.572	395.44
331.801	385.44
332.03	388.44
332.258	364.44
332.486	356.44
332.715	326.44
332.943	357.44
333.172	342.44
333.4	353.44
333.629	358.44
333.857	356.44
334.085	382.44
334.314	396.44
334.542	396.44
334.771	395.44
334.999	381.44
335.227	371.44
335.455	366.44
335.684	360.44
335.912	357.44
336.14	348.44
336.369	353.44
336.597	325.44
336.825	356.44
337.053	350.44
337.281	334.44
337.51	345.44
337.738	333.44
337.966	336.44
338.194	335.44
338.422	335.44
338.65	328.44
338.878	344.44
339.106	333.44
339.334	341.44
339.562	337.44
339.79	309.44
340.018	331.44
340.246	340.44
340.474	353.44
340.702	341.44
340.93	330.44
341.158	295.44
341.386	338.44
341.614	344.44
341.842	326.44
342.07	351.44
342.298	349.44
342.526	321.44
342.754	332.44
342.981	325.44
343.209	348.44
343.437	320.44
343.665	317.44
343.893	331.44
344.12	333.44
344.348	337.44
344.576	337.44
344.804	358.44
345.031	366.44
345.259	344.44
345.487	361.44
345.714	328.44
345.942	325.44
346.17	328.44
346.397	315.44
346.625	325.44
346.853	324.44
347.08	333.44
347.308	339.44
347.535	349.44
347.763	362.44
347.99	342.44
348.218	334.44
348.445	335.44
348.673	328.44
348.9	338.44
349.128	339.44
349.355	311.44
349.583	323.44
349.81	312.44
350.037	308.44
350.265	304.44
350.492	324.44
350.72	323.44
350.947	313.44
351.174	323.44
351.402	328.44
351.629	350.44
351.856	324.44
352.083	346.44
352.311	348.44
352.538	356.44
352.765	357.44
352.992	338.44
353.22	338.44
353.447	332.44
353.674	333.44
353.901	327.44
354.128	330.44
354.355	318.44
354.583	323.44
354.81	313.44
355.037	301.44
355.264	316.44
355.491	298.44
355.718	296.44
355.945	301.44
356.172	304.44
356.399	301.44
356.626	323.44
356.853	299.44
357.08	291.44
357.307	297.44
357.534	310.44
357.761	300.44
357.988	310.44
358.215	305.44
358.441	294.44
358.668	321.44
358.895	323.44
359.122	325.44
359.349	331.44
359.576	328.44
359.802	339.44
360.029	357.44
360.256	382.44
360.483	364.44
360.709	329.44
360.936	342.44
361.163	326.44
361.39	340.44
361.616	322.44
361.843	338.44
362.07	349.44
362.296	342.44
362.523	313.44
362.749	339.44
362.976	322.44
363.203	333.44
363.429	312.44
363.656	323.44
363.882	313.44
364.109	302.44
364.335	316.44
364.562	322.44
364.788	293.44
365.015	313.44
365.241	307.44
365.468	323.44
365.694	331.44
365.92	339.44
366.147	321.44
366.373	315.44
366.599	313.44
366.826	325.44
367.052	316.44
367.278	320.44
367.505	293.44
367.731	311.44
367.957	332.44
368.184	313.44
368.41	311.44
368.636	337.44
368.862	337.44
369.089	340.44
369.315	328.44
369.541	310.44
369.767	311.44
369.993	297.44
370.219	330.44
370.445	318.44
370.672	322.44
370.898	312.44
371.124	320.44
371.35	330.44
371.576	323.44
371.802	331.44
372.028	312.44
372.254	322.44
372.48	320.44
372.706	300.44
372.932	321.44
373.158	320.44
373.384	315.44
373.61	323.44
373.835	316.44
374.061	316.44
374.287	304.44
374.513	308.44
374.739	345.44
374.965	314.44
375.191	316.44
375.416	344.44
375.642	316.44
375.868	307.44
376.094	324.44
376.319	330.44
376.545	315.44
376.771	320.44
376.997	305.44
377.222	317.44
377.448	322.44
377.674	316.44
377.899	321.44
378.125	313.44
378.35	321.44
378.576	317.44
378.802	321.44
379.027	332.44
379.253	334.44
379.478	313.44
379.704	316.44
379.929	307.44
380.155	315.44
380.38	304.44
380.606	318.44
380.831	330.44
381.057	330.44
381.282	324.44
381.507	322.44
381.733	337.44
381.958	328.44
382.184	327.44
382.409	332.44
382.634	324.44
382.86	327.44
383.085	324.44
383.31	333.44
383.535	330.44
383.761	341.44
383.986	336.44
384.211	330.44
384.436	326.44
384.662	344.44
384.887	347.44
385.112	334.44
385.337	338.44
385.562	331.44
385.787	333.44
386.013	357.44
386.238	338.44
386.463	342.44
386.688	341.44
386.913	338.44
387.138	351.44
387.363	337.44
387.588	363.44
387.813	340.44
388.038	334.44
388.263	333.44
388.488	354.44
388.713	341.44
388.938	344.44
389.163	347.44
389.387	342.44
389.612	330.44
389.837	330.44
390.062	336.44
390.287	335.44
390.512	358.44
390.736	359.44
390.961	330.44
391.186	346.44
391.411	343.44
391.636	334.44
391.86	336.44
392.085	360.44
392.31	349.44
392.534	348.44
392.759	347.44
392.984	341.44
393.208	354.44
393.433	360.44
393.658	358.44
393.882	331.44
394.107	341.44
394.331	356.44
394.556	345.44
394.78	358.44
395.005	339.44
395.229	335.44
395.454	349.44
395.678	348.44
395.903	357.44
396.127	363.44
396.352	392.44
396.576	347.44
396.801	344.44
397.025	336.44
397.249	362.44
397.474	363.44
397.698	369.44
397.922	370.44
398.147	383.44
398.371	368.44
398.595	372.44
398.82	374.44
399.044	377.44
399.268	396.44
399.492	418.44
399.717	423.44
399.941	434.44
400.165	444.44
400.389	463.44
400.613	432.44
400.837	410.44
401.062	390.44
401.286	404.44
401.51	389.44
401.734	367.44
401.958	375.44
402.182	388.44
402.406	394.44
402.63	411.44
402.854	395.44
403.078	379.44
403.302	383.44
403.526	392.44
403.75	383.44
403.974	388.44
404.198	393.44
404.422	377.44
404.645	393.44
404.869	414.44
405.093	426.44
405.317	459.44
405.541	488.44
405.765	443.44
405.988	416.44
406.212	404.44
406.436	423.44
406.66	451.44
406.883	446.44
407.107	472.44
407.331	485.44
407.555	542.44
407.778	544.44
408.002	517.44
408.226	456.44
408.449	443.44
408.673	448.44
408.896	449.44
409.12	499.44
409.344	475.44
409.567	440.44
409.791	412.44
410.014	398.44
410.238	388.44
410.461	412.44
410.685	417.44
410.908	429.44
411.132	460.44
411.355	469.44
411.578	470.44
411.802	413.44
412.025	394.44
412.249	410.44
412.472	412.44
412.695	441.44
412.919	452.44
413.142	407.44
413.365	401.44
413.589	376.44
413.812	380.44
414.035	380.44
414.258	372.44
414.482	369.44
414.705	379.44
414.928	372.44
415.151	368.44
415.374	366.44
415.597	370.44
415.821	388.44
416.044	370.44
416.267	398.44
416.49	382.44
416.713	379.44
416.936	358.44
417.159	379.44
417.382	372.44
417.605	382.44
417.828	409.44
418.051	405.44
418.274	395.44
418.497	395.44
418.72	388.44
418.943	390.44
419.166	388.44
419.389	421.44
419.611	397.44
419.834	399.44
420.057	396.44
420.28	423.44
420.503	404.44
420.726	405.44
420.948	409.44
421.171	445.44
421.394	485.44
421.617	421.44
421.839	414.44
422.062	402.44
422.285	405.44
422.507	461.44
422.73	516.44
422.953	515.44
423.175	445.44
423.398	414.44
423.621	408.44
423.843	433.44
424.066	432.44
424.288	428.44
424.511	447.44
424.733	498.44
424.956	593.44
425.178	564.44
425.401	526.44
425.623	564.44
425.846	456.44
426.068	458.44
426.291	447.44
426.513	444.44
426.735	450.44
426.958	500.44
427.18	554.44
427.402	629.44
427.625	730.44
427.847	644.44
428.069	532.44
428.292	504.44
428.514	438.44
428.736	448.44
428.958	413.44
429.181	442.44
429.403	410.44
429.625	426.44
429.847	440.44
430.069	516.44
430.292	480.44
430.514	411.44
430.736	418.44
430.958	405.44
431.18	416.44
431.402	382.44
431.624	378.44
431.846	376.44
432.068	364.44
432.29	386.44
432.512	389.44
432.734	382.44
432.956	402.44
433.178	386.44
433.4	410.44
433.622	396.44
433.844	387.44
434.066	394.44
434.287	373.44
434.509	375.44
434.731	388.44
434.953	408.44
435.175	425.44
435.397	438.44
435.618	444.44
435.84	472.44
436.062	559.44
436.284	609.44
436.505	522.44
436.727	456.44
436.949	422.44
437.17	427.44
437.392	417.44
437.614	427.44
437.835	448.44
438.057	532.44
438.278	633.44
438.5	634.44
438.721	668.44
438.943	617.44
439.165	532.44
439.386	469.44
439.608	453.44
439.829	454.44
440.05	473.44
440.272	505.44
440.493	487.44
440.715	457.44
440.936	435.44
441.158	425.44
441.379	397.44
441.6	424.44
441.822	425.44
442.043	473.44
442.264	541.44
442.486	593.44
442.707	515.44
442.928	468.44
443.149	477.44
443.371	482.44
443.592	513.44
443.813	596.44
444.034	656.44
444.255	538.44
444.476	449.44
444.698	437.44
444.919	422.44
445.14	538.44
445.361	487.44
445.582	492.44
445.803	524.44
446.024	626.44
446.245	632.44
446.466	561.44
446.687	504.44
446.908	440.44
447.129	426.44
447.35	415.44
447.571	408.44
447.792	414.44
448.013	424.44
448.234	429.44
448.455	461.44
448.675	551.44
448.896	664.44
449.117	568.44
449.338	541.44
449.559	629.44
449.779	696.44
450	581.44
450.221	491.44
450.442	432.44
450.662	428.44
450.883	412.44
451.104	433.44
451.324	406.44
451.545	389.44
451.766	374.44
451.986	365.44
452.207	381.44
452.428	356.44
452.648	356.44
452.869	366.44
453.089	372.44
453.31	378.44
453.53	392.44
453.751	402.44
453.971	381.44
454.192	380.44
454.412	372.44
454.633	369.44
454.853	370.44
455.073	363.44
455.294	380.44
455.514	440.44
455.734	428.44
455.955	371.44
456.175	360.44
456.395	346.44
456.616	351.44
456.836	343.44
457.056	339.44
457.276	335.44
457.497	344.44
457.717	340.44
457.937	363.44
458.157	359.44
458.377	367.44
458.598	386.44
458.818	427.44
459.038	462.44
459.258	525.44
459.478	433.44
459.698	384.44
459.918	365.44
460.138	371.44
460.358	388.44
460.578	385.44
460.798	395.44
461.018	378.44
461.238	378.44
461.458	362.44
461.678	380.44
461.898	391.44
462.118	379.44
462.338	389.44
462.558	399.44
462.777	398.44
462.997	401.44
463.217	416.44
463.437	378.44
463.657	388.44
463.876	380.44
464.096	408.44
464.316	390.44
464.536	404.44
464.755	399.44
464.975	411.44
465.195	439.44
465.414	490.44
465.634	435.44
465.854	393.44
466.073	384.44
466.293	398.44
466.512	377.44
466.732	378.44
466.951	365.44
467.171	361.44
467.391	361.44
467.61	374.44
467.829	386.44
468.049	392.44
468.268	392.44
468.488	358.44
468.707	349.44
468.927	354.44
469.146	365.44
469.365	372.44
469.585	364.44
469.804	376.44
470.023	375.44
470.243	366.44
470.462	386.44
470.681	402.44
470.901	363.44
471.12	380.44
471.339	359.44
471.558	382.44
471.777	373.44
471.997	372.44
472.216	369.44
472.435	407.44
472.654	385.44
472.873	357.44
473.092	380.44
473.311	380.44
473.53	388.44
473.749	386.44
473.968	420.44
474.187	498.44
474.406	539.44
474.625	456.44
474.844	397.44
475.063	389.44
475.282	399.44
475.501	404.44
475.72	390.44
475.939	408.44
476.158	408.44
476.377	396.44
476.596	396.44
476.814	396.44
477.033	413.44
477.252	402.44
477.471	396.44
477.69	416.44
477.908	416.44
478.127	402.44
478.346	398.44
478.564	402.44
478.783	410.44
479.002	429.44
479.22	428.44
479.439	426.44
479.658	434.44
479.876	447.44
480.095	460.44
480.313	464.44
480.532	471.44
480.751	465.44
480.969	445.44
481.188	492.44
481.406	526.44
481.624	457.44
481.843	460.44
482.061	441.44
482.28	462.44
482.498	458.44
482.717	458.44
482.935	434.44
483.153	456.44
483.372	457.44
483.59	435.44
483.808	472.44
484.027	450.44
484.245	456.44
484.463	434.44
484.681	435.44
484.9	474.44
485.118	457.44
485.336	471.44
485.554	471.44
485.772	461.44
485.99	462.44
486.209	471.44
486.427	488.44
486.645	486.44
486.863	513.44
487.081	472.44
487.299	468.44
487.517	485.44
487.735	496.44
487.953	493.44
488.171	474.44
488.389	492.44
488.607	501.44
488.825	484.44
489.043	496.44
489.261	477.44
489.479	501.44
489.696	507.44
489.914	503.44
490.132	497.44
490.35	481.44
490.568	504.44
490.786	512.44
491.003	514.44
491.221	548.44
491.439	534.44
491.657	527.44
491.874	553.44
492.092	566.44
492.31	552.44
492.527	558.44
492.745	548.44
492.963	552.44
493.18	573.44
493.398	557.44
493.615	557.44
493.833	558.44
494.05	569.44
494.268	554.44
494.485	560.44
494.703	572.44
494.92	573.44
495.138	599.44
495.355	566.44
495.573	577.44
495.79	578.44
496.008	563.44
496.225	569.44
496.442	578.44
496.66	576.44
496.877	554.44
497.094	555.44
497.312	579.44
497.529	603.44
497.746	586.44
497.963	589.44
498.181	613.44
498.398	608.44
498.615	601.44
498.832	623.44
499.049	632.44
499.267	644.44
499.484	652.44
499.701	677.44
499.918	665.44
500.135	710.44
500.352	717.44
500.569	736.44
500.786	712.44
501.003	715.44
501.22	681.44
501.437	690.44
501.654	682.44
501.871	677.44
502.088	677.44
