Data from 1980.PennyLincolnUp.Lamp.En5.5.200Scan.071819.P1_HRD10591_16-38-37-958.txt Node
Date: Thu Jul 18 16:38:37 EDT 2019
User: cochatt
Spectrometer: HR+D1059
Trigger mode: 1
Integration Time (sec): 1.000000E-1
Scans to average: 1
Electric dark correction enabled: true
Nonlinearity correction enabled: false
Boxcar width: 0
XAxis mode: Wavelengths
Number of Pixels in Spectrum: 2048
>>>>>Begin Spectral Data<<<<<
223.165	-2.69
223.4	-2.69
223.635	-2.69
223.869	-10.69
224.104	-25.69
224.338	-4.69
224.573	-5.69
224.808	-15.69
225.042	-3.69
225.277	-20.69
225.511	-5.69
225.746	5.31
225.98	3.31
226.215	0.31
226.449	21.31
226.683	9.31
226.918	28.31
227.152	27.31
227.387	25.31
227.621	44.31
227.856	35.31
228.09	54.31
228.324	47.31
228.559	66.31
228.793	75.31
229.027	113.31
229.262	117.31
229.496	113.31
229.73	138.31
229.964	186.31
230.199	143.31
230.433	130.31
230.667	121.31
230.901	108.31
231.136	108.31
231.37	119.31
231.604	129.31
231.838	119.31
232.072	113.31
232.306	131.31
232.541	116.31
232.775	102.31
233.009	113.31
233.243	116.31
233.477	111.31
233.711	113.31
233.945	131.31
234.179	109.31
234.413	113.31
234.647	110.31
234.881	113.31
235.115	121.31
235.349	121.31
235.583	116.31
235.817	129.31
236.051	131.31
236.285	136.31
236.519	134.31
236.753	127.31
236.987	149.31
237.221	192.31
237.455	255.31
237.689	197.31
237.922	147.31
238.156	146.31
238.39	132.31
238.624	127.31
238.858	132.31
239.091	125.31
239.325	123.31
239.559	127.31
239.793	124.31
240.027	155.31
240.26	153.31
240.494	182.31
240.728	159.31
240.961	167.31
241.195	156.31
241.429	130.31
241.662	137.31
241.896	138.31
242.13	135.31
242.363	149.31
242.597	144.31
242.83	138.31
243.064	154.31
243.298	157.31
243.531	152.31
243.765	124.31
243.998	142.31
244.232	152.31
244.465	144.31
244.699	164.31
244.932	148.31
245.166	149.31
245.399	153.31
245.633	138.31
245.866	144.31
246.099	149.31
246.333	162.31
246.566	147.31
246.8	151.31
247.033	172.31
247.266	160.31
247.5	170.31
247.733	174.31
247.966	179.31
248.2	169.31
248.433	168.31
248.666	178.31
248.899	195.31
249.133	210.31
249.366	232.31
249.599	205.31
249.832	192.31
250.066	206.31
250.299	194.31
250.532	192.31
250.765	211.31
250.998	243.31
251.231	241.31
251.465	243.31
251.698	233.31
251.931	227.31
252.164	220.31
252.397	219.31
252.63	233.31
252.863	212.31
253.096	223.31
253.329	238.31
253.562	251.31
253.795	233.31
254.028	230.31
254.261	244.31
254.494	250.31
254.727	279.31
254.96	295.31
255.193	282.31
255.426	282.31
255.659	260.31
255.892	236.31
256.124	249.31
256.357	244.31
256.59	248.31
256.823	246.31
257.056	214.31
257.289	229.31
257.521	217.31
257.754	221.31
257.987	221.31
258.22	214.31
258.452	207.31
258.685	218.31
258.918	223.31
259.151	225.31
259.383	226.31
259.616	234.31
259.849	232.31
260.081	239.31
260.314	278.31
260.547	280.31
260.779	269.31
261.012	248.31
261.244	242.31
261.477	243.31
261.71	245.31
261.942	237.31
262.175	243.31
262.407	235.31
262.64	228.31
262.872	235.31
263.105	208.31
263.337	227.31
263.57	230.31
263.802	206.31
264.035	226.31
264.267	222.31
264.499	201.31
264.732	201.31
264.964	211.31
265.197	230.31
265.429	223.31
265.661	223.31
265.894	225.31
266.126	213.31
266.358	219.31
266.591	205.31
266.823	229.31
267.055	225.31
267.287	232.31
267.52	241.31
267.752	245.31
267.984	230.31
268.216	233.31
268.448	232.31
268.681	220.31
268.913	261.31
269.145	276.31
269.377	302.31
269.609	288.31
269.841	284.31
270.073	311.31
270.306	324.31
270.538	318.31
270.77	347.31
271.002	321.31
271.234	307.31
271.466	332.31
271.698	321.31
271.93	332.31
272.162	331.31
272.394	330.31
272.626	312.31
272.858	313.31
273.09	302.31
273.322	287.31
273.553	295.31
273.785	262.31
274.017	254.31
274.249	263.31
274.481	266.31
274.713	288.31
274.945	279.31
275.176	279.31
275.408	262.31
275.64	275.31
275.872	253.31
276.104	270.31
276.335	279.31
276.567	282.31
276.799	302.31
277.031	309.31
277.262	331.31
277.494	342.31
277.726	319.31
277.957	299.31
278.189	295.31
278.421	289.31
278.652	277.31
278.884	270.31
279.115	269.31
279.347	252.31
279.579	289.31
279.81	290.31
280.042	277.31
280.273	260.31
280.505	295.31
280.736	262.31
280.968	268.31
281.199	260.31
281.431	269.31
281.662	264.31
281.894	262.31
282.125	283.31
282.356	298.31
282.588	335.31
282.819	318.31
283.051	275.31
283.282	262.31
283.513	270.31
283.745	290.31
283.976	274.31
284.207	271.31
284.439	261.31
284.67	263.31
284.901	268.31
285.132	258.31
285.364	285.31
285.595	263.31
285.826	283.31
286.057	261.31
286.288	266.31
286.52	279.31
286.751	277.31
286.982	277.31
287.213	282.31
287.444	279.31
287.675	281.31
287.906	302.31
288.138	314.31
288.369	319.31
288.6	314.31
288.831	317.31
289.062	268.31
289.293	296.31
289.524	298.31
289.755	282.31
289.986	284.31
290.217	281.31
290.448	274.31
290.679	279.31
290.91	284.31
291.141	284.31
291.371	295.31
291.602	291.31
291.833	280.31
292.064	283.31
292.295	270.31
292.526	286.31
292.757	272.31
292.987	284.31
293.218	281.31
293.449	282.31
293.68	277.31
293.91	263.31
294.141	284.31
294.372	280.31
294.603	265.31
294.833	287.31
295.064	285.31
295.295	293.31
295.525	281.31
295.756	281.31
295.987	314.31
296.217	309.31
296.448	333.31
296.679	302.31
296.909	287.31
297.14	295.31
297.37	285.31
297.601	296.31
297.831	277.31
298.062	271.31
298.292	292.31
298.523	285.31
298.753	295.31
298.984	287.31
299.214	293.31
299.445	292.31
299.675	296.31
299.905	310.31
300.136	290.31
300.366	305.31
300.597	316.31
300.827	312.31
301.057	313.31
301.288	317.31
301.518	313.31
301.748	323.31
301.979	305.31
302.209	307.31
302.439	319.31
302.669	319.31
302.9	330.31
303.13	332.31
303.36	338.31
303.59	318.31
303.82	324.31
304.051	328.31
304.281	317.31
304.511	320.31
304.741	330.31
304.971	304.31
305.201	299.31
305.431	321.31
305.661	323.31
305.891	324.31
306.121	314.31
306.352	332.31
306.582	334.31
306.812	334.31
307.042	327.31
307.272	320.31
307.502	320.31
307.731	339.31
307.961	324.31
308.191	318.31
308.421	340.31
308.651	325.31
308.881	344.31
309.111	342.31
309.341	339.31
309.571	357.31
309.8	359.31
310.03	392.31
310.26	373.31
310.49	374.31
310.72	374.31
310.949	409.31
311.179	395.31
311.409	386.31
311.639	400.31
311.868	370.31
312.098	384.31
312.328	383.31
312.557	401.31
312.787	408.31
313.017	409.31
313.246	387.31
313.476	385.31
313.706	375.31
313.935	383.31
314.165	397.31
314.394	410.31
314.624	401.31
314.853	376.31
315.083	385.31
315.312	373.31
315.542	355.31
315.771	355.31
316.001	362.31
316.23	377.31
316.46	381.31
316.689	395.31
316.919	380.31
317.148	389.31
317.377	388.31
317.607	399.31
317.836	394.31
318.065	397.31
318.295	379.31
318.524	377.31
318.753	369.31
318.983	358.31
319.212	385.31
319.441	397.31
319.67	387.31
319.9	390.31
320.129	386.31
320.358	382.31
320.587	386.31
320.816	391.31
321.046	409.31
321.275	403.31
321.504	401.31
321.733	420.31
321.962	421.31
322.191	443.31
322.42	447.31
322.649	466.31
322.878	475.31
323.108	487.31
323.337	522.31
323.566	541.31
323.795	576.31
324.024	622.31
324.253	773.31
324.482	1109.31
324.71	1726.31
324.939	2501.31
325.168	2236.31
325.397	1161.31
325.626	763.31
325.855	622.31
326.084	569.31
326.313	557.31
326.542	567.31
326.77	618.31
326.999	742.31
327.228	1017.31
327.457	1556.31
327.686	1920.31
327.914	1299.31
328.143	847.31
328.372	721.31
328.6	669.31
328.829	639.31
329.058	643.31
329.287	660.31
329.515	612.31
329.744	569.31
329.972	549.31
330.201	585.31
330.43	612.31
330.658	664.31
330.887	692.31
331.115	675.31
331.344	550.31
331.572	525.31
331.801	513.31
332.03	531.31
332.258	492.31
332.486	466.31
332.715	451.31
332.943	463.31
333.172	450.31
333.4	478.31
333.629	457.31
333.857	473.31
334.085	486.31
334.314	500.31
334.542	531.31
334.771	555.31
334.999	523.31
335.227	466.31
335.455	445.31
335.684	453.31
335.912	459.31
336.14	430.31
336.369	423.31
336.597	445.31
336.825	452.31
337.053	437.31
337.281	424.31
337.51	439.31
337.738	418.31
337.966	433.31
338.194	427.31
338.422	416.31
338.65	444.31
338.878	429.31
339.106	421.31
339.334	421.31
339.562	419.31
339.79	417.31
340.018	420.31
340.246	442.31
340.474	428.31
340.702	419.31
340.93	427.31
341.158	428.31
341.386	437.31
341.614	418.31
341.842	419.31
342.07	397.31
342.298	417.31
342.526	402.31
342.754	406.31
342.981	393.31
343.209	418.31
343.437	385.31
343.665	395.31
343.893	427.31
344.12	423.31
344.348	422.31
344.576	441.31
344.804	438.31
345.031	458.31
345.259	442.31
345.487	459.31
345.714	455.31
345.942	422.31
346.17	423.31
346.397	398.31
346.625	410.31
346.853	433.31
347.08	392.31
347.308	418.31
347.535	421.31
347.763	444.31
347.99	422.31
348.218	446.31
348.445	430.31
348.673	427.31
348.9	404.31
349.128	421.31
349.355	403.31
349.583	386.31
349.81	383.31
350.037	390.31
350.265	385.31
350.492	401.31
350.72	409.31
350.947	419.31
351.174	410.31
351.402	439.31
351.629	409.31
351.856	411.31
352.083	429.31
352.311	439.31
352.538	428.31
352.765	437.31
352.992	425.31
353.22	417.31
353.447	428.31
353.674	401.31
353.901	371.31
354.128	377.31
354.355	376.31
354.583	388.31
354.81	378.31
355.037	356.31
355.264	377.31
355.491	376.31
355.718	374.31
355.945	370.31
356.172	366.31
356.399	358.31
356.626	357.31
356.853	379.31
357.08	383.31
357.307	380.31
357.534	371.31
357.761	358.31
357.988	363.31
358.215	385.31
358.441	364.31
358.668	385.31
358.895	399.31
359.122	394.31
359.349	405.31
359.576	402.31
359.802	427.31
360.029	451.31
360.256	469.31
360.483	465.31
360.709	425.31
360.936	420.31
361.163	401.31
361.39	405.31
361.616	414.31
361.843	415.31
362.07	397.31
362.296	435.31
362.523	413.31
362.749	421.31
362.976	410.31
363.203	403.31
363.429	389.31
363.656	393.31
363.882	390.31
364.109	374.31
364.335	374.31
364.562	392.31
364.788	402.31
365.015	397.31
365.241	405.31
365.468	398.31
365.694	401.31
365.92	399.31
366.147	402.31
366.373	375.31
366.599	396.31
366.826	392.31
367.052	402.31
367.278	382.31
367.505	390.31
367.731	390.31
367.957	384.31
368.184	381.31
368.41	391.31
368.636	410.31
368.862	419.31
369.089	390.31
369.315	393.31
369.541	387.31
369.767	403.31
369.993	401.31
370.219	395.31
370.445	382.31
370.672	383.31
370.898	379.31
371.124	365.31
371.35	361.31
371.576	381.31
371.802	363.31
372.028	372.31
372.254	362.31
372.48	375.31
372.706	369.31
372.932	371.31
373.158	399.31
373.384	375.31
373.61	377.31
373.835	393.31
374.061	366.31
374.287	382.31
374.513	397.31
374.739	383.31
374.965	374.31
375.191	371.31
375.416	379.31
375.642	377.31
375.868	384.31
376.094	379.31
376.319	376.31
376.545	378.31
376.771	389.31
376.997	385.31
377.222	382.31
377.448	364.31
377.674	365.31
377.899	374.31
378.125	381.31
378.35	397.31
378.576	377.31
378.802	375.31
379.027	371.31
379.253	389.31
379.478	358.31
379.704	360.31
379.929	375.31
380.155	365.31
380.38	387.31
380.606	377.31
380.831	393.31
381.057	383.31
381.282	380.31
381.507	383.31
381.733	385.31
381.958	389.31
382.184	392.31
382.409	386.31
382.634	399.31
382.86	394.31
383.085	402.31
383.31	391.31
383.535	388.31
383.761	380.31
383.986	391.31
384.211	375.31
384.436	383.31
384.662	383.31
384.887	410.31
385.112	405.31
385.337	389.31
385.562	398.31
385.787	413.31
386.013	389.31
386.238	410.31
386.463	422.31
386.688	390.31
386.913	390.31
387.138	400.31
387.363	406.31
387.588	379.31
387.813	385.31
388.038	408.31
388.263	385.31
388.488	381.31
388.713	412.31
388.938	393.31
389.163	405.31
389.387	389.31
389.612	418.31
389.837	379.31
390.062	397.31
390.287	405.31
390.512	404.31
390.736	423.31
390.961	397.31
391.186	397.31
391.411	409.31
391.636	389.31
391.86	417.31
392.085	412.31
392.31	408.31
392.534	403.31
392.759	395.31
392.984	386.31
393.208	402.31
393.433	384.31
393.658	400.31
393.882	390.31
394.107	421.31
394.331	392.31
394.556	417.31
394.78	420.31
395.005	407.31
395.229	399.31
395.454	432.31
395.678	415.31
395.903	429.31
396.127	440.31
396.352	439.31
396.576	435.31
396.801	421.31
397.025	412.31
397.249	417.31
397.474	409.31
397.698	419.31
397.922	434.31
398.147	445.31
398.371	470.31
398.595	450.31
398.82	431.31
399.044	448.31
399.268	468.31
399.492	465.31
399.717	486.31
399.941	511.31
400.165	546.31
400.389	547.31
400.613	526.31
400.837	507.31
401.062	459.31
401.286	457.31
401.51	463.31
401.734	473.31
401.958	470.31
402.182	469.31
402.406	490.31
402.63	488.31
402.854	458.31
403.078	464.31
403.302	472.31
403.526	484.31
403.75	474.31
403.974	454.31
404.198	464.31
404.422	492.31
404.645	470.31
404.869	484.31
405.093	536.31
405.317	555.31
405.541	574.31
405.765	546.31
405.988	531.31
406.212	514.31
406.436	547.31
406.66	540.31
406.883	535.31
407.107	556.31
407.331	595.31
407.555	625.31
407.778	659.31
408.002	582.31
408.226	537.31
408.449	547.31
408.673	532.31
408.896	555.31
409.12	596.31
409.344	589.31
409.567	501.31
409.791	482.31
410.014	469.31
410.238	482.31
410.461	471.31
410.685	483.31
410.908	515.31
411.132	534.31
411.355	591.31
411.578	538.31
411.802	515.31
412.025	499.31
412.249	493.31
412.472	517.31
412.695	563.31
412.919	523.31
413.142	503.31
413.365	481.31
413.589	459.31
413.812	442.31
414.035	472.31
414.258	418.31
414.482	454.31
414.705	449.31
414.928	447.31
415.151	448.31
415.374	435.31
415.597	453.31
415.821	464.31
416.044	434.31
416.267	434.31
416.49	457.31
416.713	446.31
416.936	458.31
417.159	444.31
417.382	441.31
417.605	477.31
417.828	474.31
418.051	492.31
418.274	490.31
418.497	461.31
418.72	465.31
418.943	460.31
419.166	471.31
419.389	502.31
419.611	472.31
419.834	503.31
420.057	481.31
420.28	479.31
420.503	490.31
420.726	513.31
420.948	501.31
421.171	543.31
421.394	562.31
421.617	527.31
421.839	499.31
422.062	481.31
422.285	531.31
422.507	566.31
422.73	641.31
422.953	637.31
423.175	537.31
423.398	508.31
423.621	509.31
423.843	527.31
424.066	534.31
424.288	513.31
424.511	553.31
424.733	596.31
424.956	723.31
425.178	651.31
425.401	670.31
425.623	669.31
425.846	578.31
426.068	541.31
426.291	543.31
426.513	525.31
426.735	554.31
426.958	600.31
427.18	690.31
427.402	779.31
427.625	897.31
427.847	795.31
428.069	736.31
428.292	617.31
428.514	565.31
428.736	561.31
428.958	512.31
429.181	502.31
429.403	489.31
429.625	524.31
429.847	552.31
430.069	600.31
430.292	610.31
430.514	525.31
430.736	517.31
430.958	491.31
431.18	453.31
431.402	467.31
431.624	466.31
431.846	445.31
432.068	442.31
432.29	465.31
432.512	473.31
432.734	466.31
432.956	480.31
433.178	477.31
433.4	466.31
433.622	485.31
433.844	468.31
434.066	473.31
434.287	470.31
434.509	450.31
434.731	491.31
434.953	493.31
435.175	476.31
435.397	532.31
435.618	536.31
435.84	577.31
436.062	687.31
436.284	769.31
436.505	640.31
436.727	564.31
436.949	527.31
437.17	507.31
437.392	478.31
437.614	521.31
437.835	569.31
438.057	637.31
438.278	753.31
438.5	753.31
438.721	793.31
438.943	780.31
439.165	641.31
439.386	620.31
439.608	586.31
439.829	549.31
440.05	613.31
440.272	643.31
440.493	604.31
440.715	563.31
440.936	513.31
441.158	494.31
441.379	495.31
441.6	509.31
441.822	548.31
442.043	558.31
442.264	671.31
442.486	727.31
442.707	590.31
442.928	561.31
443.149	572.31
443.371	571.31
443.592	639.31
443.813	710.31
444.034	779.31
444.255	633.31
444.476	591.31
444.698	533.31
444.919	533.31
445.14	624.31
445.361	585.31
445.582	571.31
445.803	652.31
446.024	779.31
446.245	780.31
446.466	712.31
446.687	605.31
446.908	567.31
447.129	522.31
447.35	513.31
447.571	476.31
447.792	484.31
448.013	515.31
448.234	526.31
448.455	567.31
448.675	689.31
448.896	814.31
449.117	704.31
449.338	661.31
449.559	737.31
449.779	841.31
450	706.31
450.221	572.31
450.442	524.31
450.662	530.31
450.883	526.31
451.104	533.31
451.324	529.31
451.545	500.31
451.766	483.31
451.986	454.31
452.207	448.31
452.428	466.31
452.648	475.31
452.869	444.31
453.089	451.31
453.31	483.31
453.53	439.31
453.751	450.31
453.971	452.31
454.192	485.31
454.412	451.31
454.633	440.31
454.853	458.31
455.073	434.31
455.294	485.31
455.514	542.31
455.734	565.31
455.955	465.31
456.175	450.31
456.395	422.31
456.616	412.31
456.836	428.31
457.056	418.31
457.276	417.31
457.497	420.31
457.717	418.31
457.937	425.31
458.157	422.31
458.377	436.31
458.598	484.31
458.818	527.31
459.038	647.31
459.258	648.31
459.478	551.31
459.698	501.31
459.918	433.31
460.138	450.31
460.358	430.31
460.578	446.31
460.798	448.31
461.018	452.31
461.238	445.31
461.458	429.31
461.678	441.31
461.898	444.31
462.118	445.31
462.338	464.31
462.558	459.31
462.777	437.31
462.997	451.31
463.217	465.31
463.437	492.31
463.657	502.31
463.876	461.31
464.096	471.31
464.316	483.31
464.536	486.31
464.755	455.31
464.975	473.31
465.195	579.31
465.414	656.31
465.634	575.31
465.854	513.31
466.073	489.31
466.293	474.31
466.512	464.31
466.732	441.31
466.951	447.31
467.171	462.31
467.391	446.31
467.61	458.31
467.829	472.31
468.049	468.31
468.268	489.31
468.488	456.31
468.707	430.31
468.927	449.31
469.146	463.31
469.365	424.31
469.585	462.31
469.804	449.31
470.023	469.31
470.243	462.31
470.462	461.31
470.681	493.31
470.901	486.31
471.12	457.31
471.339	459.31
471.558	477.31
471.777	486.31
471.997	475.31
472.216	467.31
472.435	517.31
472.654	503.31
472.873	479.31
473.092	469.31
473.311	447.31
473.53	455.31
473.749	466.31
473.968	516.31
474.187	646.31
474.406	680.31
474.625	570.31
474.844	497.31
475.063	465.31
475.282	475.31
475.501	461.31
475.72	467.31
475.939	461.31
476.158	472.31
476.377	479.31
476.596	446.31
476.814	469.31
477.033	478.31
477.252	474.31
477.471	498.31
477.69	526.31
477.908	507.31
478.127	483.31
478.346	512.31
478.564	493.31
478.783	499.31
479.002	513.31
479.22	503.31
479.439	505.31
479.658	550.31
479.876	553.31
480.095	571.31
480.313	586.31
480.532	581.31
480.751	531.31
480.969	587.31
481.188	664.31
481.406	705.31
481.624	607.31
481.843	587.31
482.061	558.31
482.28	574.31
482.498	530.31
482.717	562.31
482.935	558.31
483.153	549.31
483.372	546.31
483.59	558.31
483.808	554.31
484.027	533.31
484.245	551.31
484.463	573.31
484.681	569.31
484.9	552.31
485.118	579.31
485.336	558.31
485.554	574.31
485.772	551.31
485.99	561.31
486.209	565.31
486.427	570.31
486.645	571.31
486.863	601.31
487.081	597.31
487.299	601.31
487.517	590.31
487.735	596.31
487.953	602.31
488.171	591.31
488.389	551.31
488.607	570.31
488.825	584.31
489.043	571.31
489.261	585.31
489.479	576.31
489.696	573.31
489.914	608.31
490.132	611.31
490.35	611.31
490.568	630.31
490.786	621.31
491.003	669.31
491.221	657.31
491.439	660.31
491.657	655.31
491.874	647.31
492.092	686.31
492.31	671.31
492.527	679.31
492.745	678.31
492.963	697.31
493.18	714.31
493.398	694.31
493.615	709.31
493.833	719.31
494.05	727.31
494.268	694.31
494.485	723.31
494.703	701.31
494.92	701.31
495.138	732.31
495.355	708.31
495.573	697.31
495.79	701.31
496.008	706.31
496.225	728.31
496.442	698.31
496.66	699.31
496.877	690.31
497.094	702.31
497.312	707.31
497.529	727.31
497.746	717.31
497.963	737.31
498.181	745.31
498.398	749.31
498.615	746.31
498.832	742.31
499.049	770.31
499.267	748.31
499.484	823.31
499.701	803.31
499.918	804.31
500.135	846.31
500.352	844.31
500.569	847.31
500.786	888.31
501.003	871.31
501.22	862.31
501.437	858.31
501.654	862.31
501.871	858.31
