Data from 1980.PennyLincolnUp.Lamp.En5.5.200Scan.071819.P1_HRD10591_16-38-55-961.txt Node
Date: Thu Jul 18 16:38:55 EDT 2019
User: cochatt
Spectrometer: HR+D1059
Trigger mode: 1
Integration Time (sec): 1.000000E-1
Scans to average: 1
Electric dark correction enabled: true
Nonlinearity correction enabled: false
Boxcar width: 0
XAxis mode: Wavelengths
Number of Pixels in Spectrum: 2048
>>>>>Begin Spectral Data<<<<<
223.165	-10.12
223.4	-10.12
223.635	-10.12
223.869	-20.12
224.104	-10.12
224.338	-23.12
224.573	-17.12
224.808	-22.12
225.042	-18.12
225.277	-6.12
225.511	-5.12
225.746	14.88
225.98	2.88
226.215	15.88
226.449	14.88
226.683	15.88
226.918	40.88
227.152	26.88
227.387	26.88
227.621	40.88
227.856	40.88
228.09	41.88
228.324	57.88
228.559	49.88
228.793	79.88
229.027	114.88
229.262	107.88
229.496	114.88
229.73	151.88
229.964	175.88
230.199	132.88
230.433	129.88
230.667	130.88
230.901	117.88
231.136	110.88
231.37	119.88
231.604	120.88
231.838	114.88
232.072	121.88
232.306	123.88
232.541	120.88
232.775	101.88
233.009	113.88
233.243	118.88
233.477	114.88
233.711	111.88
233.945	98.88
234.179	120.88
234.413	96.88
234.647	117.88
234.881	127.88
235.115	124.88
235.349	107.88
235.583	121.88
235.817	127.88
236.051	137.88
236.285	140.88
236.519	138.88
236.753	139.88
236.987	169.88
237.221	215.88
237.455	269.88
237.689	208.88
237.922	167.88
238.156	128.88
238.39	138.88
238.624	133.88
238.858	134.88
239.091	140.88
239.325	120.88
239.559	125.88
239.793	123.88
240.027	138.88
240.26	165.88
240.494	153.88
240.728	143.88
240.961	170.88
241.195	159.88
241.429	140.88
241.662	155.88
241.896	134.88
242.13	129.88
242.363	147.88
242.597	143.88
242.83	127.88
243.064	149.88
243.298	140.88
243.531	146.88
243.765	146.88
243.998	139.88
244.232	150.88
244.465	140.88
244.699	134.88
244.932	147.88
245.166	141.88
245.399	151.88
245.633	148.88
245.866	146.88
246.099	147.88
246.333	161.88
246.566	154.88
246.8	169.88
247.033	179.88
247.266	157.88
247.5	165.88
247.733	194.88
247.966	170.88
248.2	160.88
248.433	177.88
248.666	189.88
248.899	194.88
249.133	209.88
249.366	217.88
249.599	223.88
249.832	195.88
250.066	184.88
250.299	196.88
250.532	205.88
250.765	218.88
250.998	241.88
251.231	257.88
251.465	234.88
251.698	223.88
251.931	225.88
252.164	213.88
252.397	203.88
252.63	199.88
252.863	226.88
253.096	233.88
253.329	261.88
253.562	242.88
253.795	223.88
254.028	245.88
254.261	225.88
254.494	257.88
254.727	269.88
254.96	304.88
255.193	316.88
255.426	284.88
255.659	274.88
255.892	260.88
256.124	260.88
256.357	261.88
256.59	245.88
256.823	222.88
257.056	228.88
257.289	217.88
257.521	225.88
257.754	234.88
257.987	216.88
258.22	223.88
258.452	205.88
258.685	206.88
258.918	222.88
259.151	237.88
259.383	222.88
259.616	225.88
259.849	231.88
260.081	261.88
260.314	269.88
260.547	291.88
260.779	274.88
261.012	260.88
261.244	273.88
261.477	230.88
261.71	228.88
261.942	238.88
262.175	253.88
262.407	263.88
262.64	234.88
262.872	215.88
263.105	224.88
263.337	223.88
263.57	222.88
263.802	212.88
264.035	232.88
264.267	213.88
264.499	229.88
264.732	217.88
264.964	199.88
265.197	212.88
265.429	212.88
265.661	221.88
265.894	210.88
266.126	216.88
266.358	222.88
266.591	220.88
266.823	227.88
267.055	241.88
267.287	254.88
267.52	226.88
267.752	245.88
267.984	230.88
268.216	239.88
268.448	228.88
268.681	257.88
268.913	245.88
269.145	268.88
269.377	313.88
269.609	292.88
269.841	279.88
270.073	282.88
270.306	297.88
270.538	326.88
270.77	351.88
271.002	341.88
271.234	350.88
271.466	322.88
271.698	331.88
271.93	349.88
272.162	365.88
272.394	349.88
272.626	345.88
272.858	318.88
273.09	306.88
273.322	278.88
273.553	289.88
273.785	286.88
274.017	285.88
274.249	274.88
274.481	281.88
274.713	264.88
274.945	276.88
275.176	277.88
275.408	281.88
275.64	255.88
275.872	267.88
276.104	270.88
276.335	285.88
276.567	293.88
276.799	313.88
277.031	313.88
277.262	355.88
277.494	335.88
277.726	328.88
277.957	327.88
278.189	286.88
278.421	290.88
278.652	285.88
278.884	264.88
279.115	292.88
279.347	273.88
279.579	254.88
279.81	252.88
280.042	279.88
280.273	276.88
280.505	269.88
280.736	249.88
280.968	274.88
281.199	279.88
281.431	275.88
281.662	276.88
281.894	270.88
282.125	260.88
282.356	296.88
282.588	314.88
282.819	322.88
283.051	277.88
283.282	255.88
283.513	267.88
283.745	257.88
283.976	257.88
284.207	270.88
284.439	274.88
284.67	271.88
284.901	280.88
285.132	275.88
285.364	274.88
285.595	289.88
285.826	275.88
286.057	273.88
286.288	283.88
286.52	280.88
286.751	275.88
286.982	269.88
287.213	268.88
287.444	274.88
287.675	280.88
287.906	297.88
288.138	302.88
288.369	311.88
288.6	296.88
288.831	289.88
289.062	307.88
289.293	295.88
289.524	294.88
289.755	289.88
289.986	283.88
290.217	282.88
290.448	278.88
290.679	274.88
290.91	265.88
291.141	276.88
291.371	285.88
291.602	279.88
291.833	275.88
292.064	292.88
292.295	273.88
292.526	280.88
292.757	282.88
292.987	260.88
293.218	278.88
293.449	286.88
293.68	273.88
293.91	290.88
294.141	271.88
294.372	269.88
294.603	286.88
294.833	277.88
295.064	275.88
295.295	267.88
295.525	290.88
295.756	293.88
295.987	294.88
296.217	325.88
296.448	340.88
296.679	311.88
296.909	277.88
297.14	265.88
297.37	283.88
297.601	277.88
297.831	292.88
298.062	289.88
298.292	294.88
298.523	295.88
298.753	286.88
298.984	290.88
299.214	287.88
299.445	303.88
299.675	309.88
299.905	309.88
300.136	293.88
300.366	295.88
300.597	300.88
300.827	288.88
301.057	296.88
301.288	323.88
301.518	311.88
301.748	313.88
301.979	311.88
302.209	330.88
302.439	320.88
302.669	326.88
302.9	305.88
303.13	299.88
303.36	307.88
303.59	311.88
303.82	317.88
304.051	338.88
304.281	317.88
304.511	338.88
304.741	322.88
304.971	311.88
305.201	309.88
305.431	310.88
305.661	313.88
305.891	321.88
306.121	333.88
306.352	334.88
306.582	336.88
306.812	329.88
307.042	311.88
307.272	337.88
307.502	332.88
307.731	330.88
307.961	338.88
308.191	331.88
308.421	314.88
308.651	337.88
308.881	332.88
309.111	344.88
309.341	318.88
309.571	320.88
309.8	340.88
310.03	359.88
310.26	400.88
310.49	387.88
310.72	409.88
310.949	438.88
311.179	423.88
311.409	390.88
311.639	391.88
311.868	392.88
312.098	387.88
312.328	390.88
312.557	430.88
312.787	424.88
313.017	417.88
313.246	389.88
313.476	355.88
313.706	361.88
313.935	381.88
314.165	409.88
314.394	417.88
314.624	395.88
314.853	401.88
315.083	374.88
315.312	385.88
315.542	374.88
315.771	369.88
316.001	359.88
316.23	357.88
316.46	374.88
316.689	373.88
316.919	379.88
317.148	399.88
317.377	382.88
317.607	405.88
317.836	389.88
318.065	382.88
318.295	379.88
318.524	365.88
318.753	369.88
318.983	370.88
319.212	377.88
319.441	390.88
319.67	407.88
319.9	381.88
320.129	398.88
320.358	377.88
320.587	385.88
320.816	393.88
321.046	412.88
321.275	406.88
321.504	399.88
321.733	401.88
321.962	406.88
322.191	426.88
322.42	437.88
322.649	484.88
322.878	480.88
323.108	504.88
323.337	527.88
323.566	574.88
323.795	622.88
324.024	671.88
324.253	824.88
324.482	1213.88
324.71	1882.88
324.939	2657.88
325.168	2359.88
325.397	1202.88
325.626	784.88
325.855	632.88
326.084	581.88
326.313	561.88
326.542	577.88
326.77	637.88
326.999	741.88
327.228	1059.88
327.457	1627.88
327.686	2016.88
327.914	1356.88
328.143	893.88
328.372	743.88
328.6	688.88
328.829	639.88
329.058	668.88
329.287	688.88
329.515	632.88
329.744	557.88
329.972	576.88
330.201	600.88
330.43	633.88
330.658	651.88
330.887	729.88
331.115	693.88
331.344	590.88
331.572	534.88
331.801	533.88
332.03	529.88
332.258	484.88
332.486	474.88
332.715	440.88
332.943	448.88
333.172	464.88
333.4	443.88
333.629	464.88
333.857	465.88
334.085	498.88
334.314	530.88
334.542	560.88
334.771	575.88
334.999	512.88
335.227	459.88
335.455	429.88
335.684	435.88
335.912	447.88
336.14	424.88
336.369	425.88
336.597	434.88
336.825	442.88
337.053	456.88
337.281	414.88
337.51	434.88
337.738	435.88
337.966	437.88
338.194	448.88
338.422	439.88
338.65	415.88
338.878	415.88
339.106	418.88
339.334	424.88
339.562	417.88
339.79	418.88
340.018	409.88
340.246	422.88
340.474	462.88
340.702	411.88
340.93	415.88
341.158	420.88
341.386	411.88
341.614	409.88
341.842	407.88
342.07	392.88
342.298	415.88
342.526	413.88
342.754	395.88
342.981	378.88
343.209	403.88
343.437	403.88
343.665	378.88
343.893	394.88
344.12	403.88
344.348	430.88
344.576	431.88
344.804	438.88
345.031	440.88
345.259	442.88
345.487	456.88
345.714	422.88
345.942	415.88
346.17	419.88
346.397	408.88
346.625	419.88
346.853	414.88
347.08	405.88
347.308	405.88
347.535	420.88
347.763	431.88
347.99	431.88
348.218	419.88
348.445	441.88
348.673	435.88
348.9	427.88
349.128	401.88
349.355	385.88
349.583	404.88
349.81	403.88
350.037	413.88
350.265	404.88
350.492	382.88
350.72	392.88
350.947	407.88
351.174	432.88
351.402	423.88
351.629	431.88
351.856	403.88
352.083	443.88
352.311	440.88
352.538	434.88
352.765	452.88
352.992	429.88
353.22	429.88
353.447	419.88
353.674	405.88
353.901	405.88
354.128	388.88
354.355	389.88
354.583	378.88
354.81	387.88
355.037	373.88
355.264	361.88
355.491	357.88
355.718	368.88
355.945	373.88
356.172	390.88
356.399	397.88
356.626	375.88
356.853	368.88
357.08	373.88
357.307	372.88
357.534	357.88
357.761	362.88
357.988	373.88
358.215	373.88
358.441	390.88
358.668	387.88
358.895	379.88
359.122	397.88
359.349	400.88
359.576	406.88
359.802	455.88
360.029	478.88
360.256	499.88
360.483	471.88
360.709	410.88
360.936	405.88
361.163	412.88
361.39	409.88
361.616	439.88
361.843	410.88
362.07	395.88
362.296	419.88
362.523	425.88
362.749	396.88
362.976	407.88
363.203	404.88
363.429	385.88
363.656	395.88
363.882	390.88
364.109	381.88
364.335	373.88
364.562	385.88
364.788	388.88
365.015	406.88
365.241	398.88
365.468	412.88
365.694	402.88
365.92	396.88
366.147	389.88
366.373	392.88
366.599	380.88
366.826	379.88
367.052	377.88
367.278	386.88
367.505	405.88
367.731	390.88
367.957	375.88
368.184	359.88
368.41	385.88
368.636	413.88
368.862	420.88
369.089	413.88
369.315	385.88
369.541	368.88
369.767	368.88
369.993	390.88
370.219	367.88
370.445	369.88
370.672	385.88
370.898	376.88
371.124	378.88
371.35	378.88
371.576	392.88
371.802	358.88
372.028	379.88
372.254	362.88
372.48	377.88
372.706	403.88
372.932	371.88
373.158	376.88
373.384	381.88
373.61	383.88
373.835	368.88
374.061	379.88
374.287	379.88
374.513	369.88
374.739	380.88
374.965	384.88
375.191	386.88
375.416	390.88
375.642	381.88
375.868	364.88
376.094	389.88
376.319	378.88
376.545	360.88
376.771	377.88
376.997	383.88
377.222	355.88
377.448	362.88
377.674	381.88
377.899	355.88
378.125	371.88
378.35	379.88
378.576	374.88
378.802	350.88
379.027	377.88
379.253	364.88
379.478	357.88
379.704	362.88
379.929	362.88
380.155	366.88
380.38	353.88
380.606	375.88
380.831	381.88
381.057	403.88
381.282	378.88
381.507	363.88
381.733	379.88
381.958	371.88
382.184	377.88
382.409	377.88
382.634	391.88
382.86	379.88
383.085	377.88
383.31	393.88
383.535	393.88
383.761	376.88
383.986	371.88
384.211	389.88
384.436	377.88
384.662	394.88
384.887	391.88
385.112	408.88
385.337	381.88
385.562	371.88
385.787	381.88
386.013	409.88
386.238	398.88
386.463	422.88
386.688	399.88
386.913	396.88
387.138	396.88
387.363	400.88
387.588	377.88
387.813	390.88
388.038	375.88
388.263	404.88
388.488	387.88
388.713	378.88
388.938	380.88
389.163	405.88
389.387	412.88
389.612	403.88
389.837	379.88
390.062	412.88
390.287	396.88
390.512	389.88
390.736	391.88
390.961	373.88
391.186	399.88
391.411	402.88
391.636	385.88
391.86	394.88
392.085	394.88
392.31	399.88
392.534	399.88
392.759	400.88
392.984	413.88
393.208	383.88
393.433	391.88
393.658	377.88
393.882	384.88
394.107	385.88
394.331	392.88
394.556	399.88
394.78	381.88
395.005	394.88
395.229	399.88
395.454	417.88
395.678	406.88
395.903	413.88
396.127	435.88
396.352	467.88
396.576	429.88
396.801	419.88
397.025	408.88
397.249	448.88
397.474	415.88
397.698	419.88
397.922	438.88
398.147	450.88
398.371	437.88
398.595	452.88
398.82	439.88
399.044	433.88
399.268	460.88
399.492	473.88
399.717	461.88
399.941	518.88
400.165	563.88
400.389	543.88
400.613	515.88
400.837	480.88
401.062	471.88
401.286	431.88
401.51	459.88
401.734	444.88
401.958	459.88
402.182	452.88
402.406	474.88
402.63	467.88
402.854	455.88
403.078	469.88
403.302	464.88
403.526	469.88
403.75	462.88
403.974	441.88
404.198	453.88
404.422	478.88
404.645	463.88
404.869	477.88
405.093	544.88
405.317	559.88
405.541	587.88
405.765	542.88
405.988	503.88
406.212	507.88
406.436	547.88
406.66	548.88
406.883	545.88
407.107	553.88
407.331	562.88
407.555	656.88
407.778	645.88
408.002	579.88
408.226	547.88
408.449	518.88
408.673	522.88
408.896	562.88
409.12	581.88
409.344	577.88
409.567	501.88
409.791	503.88
410.014	477.88
410.238	448.88
410.461	493.88
410.685	473.88
410.908	511.88
411.132	541.88
411.355	588.88
411.578	552.88
411.802	497.88
412.025	492.88
412.249	481.88
412.472	494.88
412.695	551.88
412.919	549.88
413.142	518.88
413.365	464.88
413.589	453.88
413.812	439.88
414.035	451.88
414.258	445.88
414.482	450.88
414.705	469.88
414.928	434.88
415.151	426.88
415.374	455.88
415.597	455.88
415.821	475.88
416.044	449.88
416.267	462.88
416.49	442.88
416.713	442.88
416.936	447.88
417.159	435.88
417.382	469.88
417.605	493.88
417.828	454.88
418.051	493.88
418.274	485.88
418.497	452.88
418.72	482.88
418.943	439.88
419.166	457.88
419.389	494.88
419.611	493.88
419.834	493.88
420.057	482.88
420.28	491.88
420.503	502.88
420.726	503.88
420.948	500.88
421.171	558.88
421.394	581.88
421.617	516.88
421.839	505.88
422.062	496.88
422.285	497.88
422.507	554.88
422.73	624.88
422.953	626.88
423.175	529.88
423.398	511.88
423.621	516.88
423.843	508.88
424.066	512.88
424.288	526.88
424.511	534.88
424.733	615.88
424.956	696.88
425.178	660.88
425.401	643.88
425.623	689.88
425.846	592.88
426.068	552.88
426.291	550.88
426.513	506.88
426.735	570.88
426.958	603.88
427.18	688.88
427.402	810.88
427.625	905.88
427.847	798.88
428.069	691.88
428.292	616.88
428.514	565.88
428.736	551.88
428.958	507.88
429.181	488.88
429.403	498.88
429.625	481.88
429.847	526.88
430.069	629.88
430.292	632.88
430.514	534.88
430.736	507.88
430.958	487.88
431.18	475.88
431.402	474.88
431.624	468.88
431.846	448.88
432.068	452.88
432.29	457.88
432.512	467.88
432.734	471.88
432.956	472.88
433.178	468.88
433.4	469.88
433.622	462.88
433.844	462.88
434.066	448.88
434.287	467.88
434.509	460.88
434.731	461.88
434.953	477.88
435.175	475.88
435.397	531.88
435.618	549.88
435.84	613.88
436.062	677.88
436.284	780.88
436.505	657.88
436.727	579.88
436.949	523.88
437.17	526.88
437.392	498.88
437.614	501.88
437.835	581.88
438.057	661.88
438.278	777.88
438.5	794.88
438.721	868.88
438.943	805.88
439.165	659.88
439.386	551.88
439.608	571.88
439.829	574.88
440.05	615.88
440.272	650.88
440.493	609.88
440.715	541.88
440.936	527.88
441.158	515.88
441.379	538.88
441.6	520.88
441.822	537.88
442.043	592.88
442.264	677.88
442.486	722.88
442.707	625.88
442.928	569.88
443.149	581.88
443.371	602.88
443.592	620.88
443.813	742.88
444.034	783.88
444.255	659.88
444.476	587.88
444.698	535.88
444.919	536.88
445.14	603.88
445.361	588.88
445.582	584.88
445.803	697.88
446.024	789.88
446.245	795.88
446.466	735.88
446.687	626.88
446.908	565.88
447.129	538.88
447.35	537.88
447.571	492.88
447.792	530.88
448.013	515.88
448.234	522.88
448.455	594.88
448.675	681.88
448.896	823.88
449.117	694.88
449.338	649.88
449.559	765.88
449.779	853.88
450	701.88
450.221	591.88
450.442	529.88
450.662	496.88
450.883	536.88
451.104	524.88
451.324	509.88
451.545	464.88
451.766	495.88
451.986	478.88
452.207	446.88
452.428	453.88
452.648	443.88
452.869	433.88
453.089	488.88
453.31	474.88
453.53	456.88
453.751	460.88
453.971	474.88
454.192	494.88
454.412	502.88
454.633	445.88
454.853	440.88
455.073	423.88
455.294	493.88
455.514	568.88
455.734	561.88
455.955	473.88
456.175	439.88
456.395	441.88
456.616	429.88
456.836	430.88
457.056	405.88
457.276	431.88
457.497	434.88
457.717	422.88
457.937	422.88
458.157	421.88
458.377	417.88
458.598	465.88
458.818	545.88
459.038	662.88
459.258	648.88
459.478	546.88
459.698	487.88
459.918	465.88
460.138	470.88
460.358	463.88
460.578	452.88
460.798	445.88
461.018	453.88
461.238	453.88
461.458	440.88
461.678	443.88
461.898	442.88
462.118	448.88
462.338	461.88
462.558	469.88
462.777	464.88
462.997	457.88
463.217	479.88
463.437	453.88
463.657	455.88
463.876	471.88
464.096	478.88
464.316	447.88
464.536	468.88
464.755	512.88
464.975	517.88
465.195	571.88
465.414	674.88
465.634	591.88
465.854	533.88
466.073	503.88
466.293	494.88
466.512	461.88
466.732	452.88
466.951	455.88
467.171	441.88
467.391	465.88
467.61	457.88
467.829	455.88
468.049	475.88
468.268	476.88
468.488	441.88
468.707	434.88
468.927	433.88
469.146	438.88
469.365	455.88
469.585	431.88
469.804	425.88
470.023	447.88
470.243	461.88
470.462	470.88
470.681	485.88
470.901	477.88
471.12	449.88
471.339	456.88
471.558	464.88
471.777	475.88
471.997	462.88
472.216	487.88
472.435	486.88
472.654	495.88
472.873	459.88
473.092	482.88
473.311	467.88
473.53	455.88
473.749	481.88
473.968	533.88
474.187	623.88
474.406	682.88
474.625	549.88
474.844	509.88
475.063	458.88
475.282	472.88
475.501	445.88
475.72	479.88
475.939	467.88
476.158	468.88
476.377	472.88
476.596	471.88
476.814	467.88
477.033	483.88
477.252	495.88
477.471	469.88
477.69	492.88
477.908	477.88
478.127	484.88
478.346	502.88
478.564	498.88
478.783	494.88
479.002	516.88
479.22	519.88
479.439	546.88
479.658	565.88
479.876	559.88
480.095	551.88
480.313	607.88
480.532	580.88
480.751	561.88
480.969	589.88
481.188	660.88
481.406	719.88
481.624	610.88
481.843	565.88
482.061	568.88
482.28	581.88
482.498	563.88
482.717	541.88
482.935	525.88
483.153	545.88
483.372	531.88
483.59	575.88
483.808	535.88
484.027	535.88
484.245	560.88
484.463	541.88
484.681	553.88
484.9	570.88
485.118	558.88
485.336	552.88
485.554	558.88
485.772	567.88
485.99	571.88
486.209	575.88
486.427	584.88
486.645	576.88
486.863	606.88
487.081	608.88
487.299	593.88
487.517	588.88
487.735	586.88
487.953	599.88
488.171	598.88
488.389	577.88
488.607	583.88
488.825	597.88
489.043	609.88
489.261	621.88
489.479	594.88
489.696	611.88
489.914	622.88
490.132	623.88
490.35	626.88
490.568	607.88
490.786	631.88
491.003	642.88
491.221	647.88
491.439	669.88
491.657	656.88
491.874	705.88
492.092	700.88
492.31	699.88
492.527	691.88
492.745	701.88
492.963	686.88
493.18	709.88
493.398	714.88
493.615	701.88
493.833	715.88
494.05	729.88
494.268	711.88
494.485	716.88
494.703	722.88
494.92	709.88
495.138	711.88
495.355	715.88
495.573	732.88
495.79	747.88
496.008	721.88
496.225	703.88
496.442	690.88
496.66	702.88
496.877	712.88
497.094	723.88
497.312	693.88
497.529	727.88
497.746	728.88
497.963	724.88
498.181	771.88
498.398	742.88
498.615	755.88
498.832	787.88
499.049	772.88
499.267	769.88
499.484	786.88
499.701	820.88
499.918	801.88
500.135	844.88
500.352	855.88
500.569	866.88
500.786	843.88
501.003	861.88
501.22	864.88
501.437	835.88
501.654	834.88
501.871	856.88
