Data from 1980.PennyLincolnUp.Lamp.En5.5.200Scan.071819.P1_HRD10591_16-37-53-957.txt Node
Date: Thu Jul 18 16:37:53 EDT 2019
User: cochatt
Spectrometer: HR+D1059
Trigger mode: 1
Integration Time (sec): 1.000000E-1
Scans to average: 1
Electric dark correction enabled: true
Nonlinearity correction enabled: false
Boxcar width: 0
XAxis mode: Wavelengths
Number of Pixels in Spectrum: 2048
>>>>>Begin Spectral Data<<<<<
223.165	-20.56
223.4	-20.56
223.635	-20.56
223.869	-13.56
224.104	-26.56
224.338	-9.56
224.573	-15.56
224.808	-5.56
225.042	-2.56
225.277	-1.56
225.511	-3.56
225.746	2.44
225.98	-10.56
226.215	6.44
226.449	14.44
226.683	24.44
226.918	28.44
227.152	33.44
227.387	40.44
227.621	45.44
227.856	42.44
228.09	59.44
228.324	68.44
228.559	61.44
228.793	80.44
229.027	106.44
229.262	96.44
229.496	112.44
229.73	134.44
229.964	166.44
230.199	145.44
230.433	108.44
230.667	118.44
230.901	105.44
231.136	108.44
231.37	120.44
231.604	108.44
231.838	104.44
232.072	117.44
232.306	126.44
232.541	107.44
232.775	108.44
233.009	115.44
233.243	121.44
233.477	110.44
233.711	121.44
233.945	118.44
234.179	116.44
234.413	110.44
234.647	122.44
234.881	126.44
235.115	109.44
235.349	100.44
235.583	112.44
235.817	112.44
236.051	123.44
236.285	132.44
236.519	119.44
236.753	122.44
236.987	134.44
237.221	187.44
237.455	241.44
237.689	201.44
237.922	142.44
238.156	152.44
238.39	139.44
238.624	123.44
238.858	122.44
239.091	133.44
239.325	126.44
239.559	126.44
239.793	125.44
240.027	132.44
240.26	139.44
240.494	167.44
240.728	169.44
240.961	158.44
241.195	162.44
241.429	138.44
241.662	137.44
241.896	141.44
242.13	132.44
242.363	124.44
242.597	136.44
242.83	140.44
243.064	139.44
243.298	138.44
243.531	144.44
243.765	129.44
243.998	142.44
244.232	152.44
244.465	136.44
244.699	123.44
244.932	140.44
245.166	161.44
245.399	150.44
245.633	150.44
245.866	152.44
246.099	134.44
246.333	135.44
246.566	160.44
246.8	146.44
247.033	153.44
247.266	153.44
247.5	172.44
247.733	168.44
247.966	170.44
248.2	171.44
248.433	184.44
248.666	169.44
248.899	184.44
249.133	200.44
249.366	214.44
249.599	216.44
249.832	180.44
250.066	184.44
250.299	181.44
250.532	196.44
250.765	217.44
250.998	235.44
251.231	240.44
251.465	214.44
251.698	209.44
251.931	205.44
252.164	198.44
252.397	209.44
252.63	205.44
252.863	220.44
253.096	214.44
253.329	233.44
253.562	220.44
253.795	226.44
254.028	244.44
254.261	218.44
254.494	241.44
254.727	268.44
254.96	284.44
255.193	273.44
255.426	260.44
255.659	248.44
255.892	239.44
256.124	235.44
256.357	240.44
256.59	229.44
256.823	224.44
257.056	228.44
257.289	216.44
257.521	215.44
257.754	199.44
257.987	217.44
258.22	213.44
258.452	200.44
258.685	213.44
258.918	208.44
259.151	216.44
259.383	218.44
259.616	210.44
259.849	219.44
260.081	240.44
260.314	246.44
260.547	269.44
260.779	243.44
261.012	237.44
261.244	227.44
261.477	228.44
261.71	212.44
261.942	229.44
262.175	249.44
262.407	246.44
262.64	206.44
262.872	209.44
263.105	209.44
263.337	205.44
263.57	196.44
263.802	199.44
264.035	211.44
264.267	210.44
264.499	209.44
264.732	199.44
264.964	214.44
265.197	216.44
265.429	199.44
265.661	208.44
265.894	200.44
266.126	208.44
266.358	201.44
266.591	217.44
266.823	218.44
267.055	214.44
267.287	206.44
267.52	214.44
267.752	222.44
267.984	220.44
268.216	205.44
268.448	236.44
268.681	243.44
268.913	243.44
269.145	265.44
269.377	269.44
269.609	275.44
269.841	281.44
270.073	271.44
270.306	277.44
270.538	334.44
270.77	319.44
271.002	300.44
271.234	300.44
271.466	291.44
271.698	321.44
271.93	324.44
272.162	324.44
272.394	346.44
272.626	310.44
272.858	297.44
273.09	284.44
273.322	268.44
273.553	272.44
273.785	265.44
274.017	262.44
274.249	259.44
274.481	244.44
274.713	258.44
274.945	273.44
275.176	249.44
275.408	244.44
275.64	261.44
275.872	250.44
276.104	266.44
276.335	258.44
276.567	275.44
276.799	283.44
277.031	288.44
277.262	292.44
277.494	312.44
277.726	310.44
277.957	293.44
278.189	290.44
278.421	273.44
278.652	262.44
278.884	249.44
279.115	252.44
279.347	256.44
279.579	247.44
279.81	260.44
280.042	259.44
280.273	256.44
280.505	265.44
280.736	243.44
280.968	248.44
281.199	267.44
281.431	244.44
281.662	246.44
281.894	264.44
282.125	262.44
282.356	270.44
282.588	288.44
282.819	299.44
283.051	260.44
283.282	263.44
283.513	247.44
283.745	274.44
283.976	257.44
284.207	277.44
284.439	255.44
284.67	254.44
284.901	262.44
285.132	274.44
285.364	261.44
285.595	257.44
285.826	261.44
286.057	261.44
286.288	261.44
286.52	255.44
286.751	263.44
286.982	244.44
287.213	261.44
287.444	249.44
287.675	263.44
287.906	269.44
288.138	285.44
288.369	286.44
288.6	297.44
288.831	279.44
289.062	278.44
289.293	280.44
289.524	269.44
289.755	270.44
289.986	262.44
290.217	273.44
290.448	250.44
290.679	275.44
290.91	260.44
291.141	287.44
291.371	270.44
291.602	272.44
291.833	274.44
292.064	269.44
292.295	270.44
292.526	256.44
292.757	246.44
292.987	268.44
293.218	269.44
293.449	282.44
293.68	280.44
293.91	265.44
294.141	266.44
294.372	268.44
294.603	273.44
294.833	267.44
295.064	291.44
295.295	260.44
295.525	275.44
295.756	288.44
295.987	300.44
296.217	298.44
296.448	316.44
296.679	289.44
296.909	255.44
297.14	270.44
297.37	264.44
297.601	288.44
297.831	270.44
298.062	277.44
298.292	271.44
298.523	286.44
298.753	283.44
298.984	274.44
299.214	296.44
299.445	282.44
299.675	300.44
299.905	292.44
300.136	276.44
300.366	290.44
300.597	257.44
300.827	280.44
301.057	296.44
301.288	309.44
301.518	301.44
301.748	298.44
301.979	300.44
302.209	285.44
302.439	290.44
302.669	296.44
302.9	299.44
303.13	288.44
303.36	284.44
303.59	290.44
303.82	300.44
304.051	301.44
304.281	312.44
304.511	300.44
304.741	291.44
304.971	293.44
305.201	284.44
305.431	292.44
305.661	282.44
305.891	270.44
306.121	288.44
306.352	316.44
306.582	333.44
306.812	299.44
307.042	312.44
307.272	291.44
307.502	292.44
307.731	302.44
307.961	301.44
308.191	293.44
308.421	313.44
308.651	292.44
308.881	301.44
309.111	310.44
309.341	302.44
309.571	315.44
309.8	323.44
310.03	355.44
310.26	368.44
310.49	349.44
310.72	357.44
310.949	396.44
311.179	396.44
311.409	374.44
311.639	361.44
311.868	352.44
312.098	370.44
312.328	394.44
312.557	397.44
312.787	425.44
313.017	391.44
313.246	378.44
313.476	356.44
313.706	365.44
313.935	376.44
314.165	380.44
314.394	364.44
314.624	386.44
314.853	375.44
315.083	350.44
315.312	338.44
315.542	353.44
315.771	345.44
316.001	361.44
316.23	352.44
316.46	345.44
316.689	355.44
316.919	346.44
317.148	366.44
317.377	360.44
317.607	373.44
317.836	372.44
318.065	348.44
318.295	352.44
318.524	339.44
318.753	346.44
318.983	347.44
319.212	339.44
319.441	373.44
319.67	373.44
319.9	348.44
320.129	360.44
320.358	360.44
320.587	359.44
320.816	364.44
321.046	393.44
321.275	398.44
321.504	391.44
321.733	386.44
321.962	392.44
322.191	421.44
322.42	418.44
322.649	453.44
322.878	447.44
323.108	462.44
323.337	493.44
323.566	530.44
323.795	562.44
324.024	602.44
324.253	743.44
324.482	1092.44
324.71	1660.44
324.939	2386.44
325.168	2124.44
325.397	1109.44
325.626	750.44
325.855	588.44
326.084	546.44
326.313	519.44
326.542	535.44
326.77	598.44
326.999	670.44
327.228	944.44
327.457	1430.44
327.686	1831.44
327.914	1266.44
328.143	822.44
328.372	691.44
328.6	636.44
328.829	604.44
329.058	611.44
329.287	640.44
329.515	576.44
329.744	540.44
329.972	505.44
330.201	525.44
330.43	573.44
330.658	638.44
330.887	668.44
331.115	631.44
331.344	530.44
331.572	496.44
331.801	496.44
332.03	468.44
332.258	458.44
332.486	434.44
332.715	420.44
332.943	428.44
333.172	427.44
333.4	425.44
333.629	433.44
333.857	456.44
334.085	442.44
334.314	470.44
334.542	518.44
334.771	514.44
334.999	481.44
335.227	445.44
335.455	429.44
335.684	416.44
335.912	433.44
336.14	408.44
336.369	411.44
336.597	393.44
336.825	401.44
337.053	394.44
337.281	404.44
337.51	404.44
337.738	397.44
337.966	418.44
338.194	423.44
338.422	431.44
338.65	404.44
338.878	382.44
339.106	377.44
339.334	404.44
339.562	388.44
339.79	372.44
340.018	390.44
340.246	412.44
340.474	404.44
340.702	395.44
340.93	373.44
341.158	375.44
341.386	386.44
341.614	397.44
341.842	394.44
342.07	395.44
342.298	395.44
342.526	394.44
342.754	376.44
342.981	374.44
343.209	368.44
343.437	364.44
343.665	386.44
343.893	392.44
344.12	384.44
344.348	403.44
344.576	378.44
344.804	394.44
345.031	421.44
345.259	420.44
345.487	420.44
345.714	391.44
345.942	420.44
346.17	404.44
346.397	386.44
346.625	389.44
346.853	371.44
347.08	389.44
347.308	390.44
347.535	398.44
347.763	421.44
347.99	382.44
348.218	380.44
348.445	427.44
348.673	380.44
348.9	394.44
349.128	385.44
349.355	375.44
349.583	373.44
349.81	366.44
350.037	382.44
350.265	376.44
350.492	370.44
350.72	368.44
350.947	395.44
351.174	389.44
351.402	409.44
351.629	402.44
351.856	398.44
352.083	404.44
352.311	402.44
352.538	430.44
352.765	404.44
352.992	400.44
353.22	388.44
353.447	388.44
353.674	368.44
353.901	369.44
354.128	354.44
354.355	361.44
354.583	362.44
354.81	382.44
355.037	347.44
355.264	354.44
355.491	349.44
355.718	358.44
355.945	356.44
356.172	341.44
356.399	351.44
356.626	349.44
356.853	347.44
357.08	373.44
357.307	348.44
357.534	343.44
357.761	364.44
357.988	363.44
358.215	361.44
358.441	344.44
358.668	342.44
358.895	357.44
359.122	382.44
359.349	366.44
359.576	390.44
359.802	398.44
360.029	462.44
360.256	467.44
360.483	433.44
360.709	395.44
360.936	378.44
361.163	397.44
361.39	392.44
361.616	399.44
361.843	401.44
362.07	387.44
362.296	395.44
362.523	389.44
362.749	389.44
362.976	379.44
363.203	365.44
363.429	375.44
363.656	367.44
363.882	385.44
364.109	371.44
364.335	376.44
364.562	358.44
364.788	366.44
365.015	358.44
365.241	368.44
365.468	372.44
365.694	375.44
365.92	388.44
366.147	362.44
366.373	363.44
366.599	360.44
366.826	364.44
367.052	352.44
367.278	365.44
367.505	353.44
367.731	386.44
367.957	368.44
368.184	360.44
368.41	397.44
368.636	366.44
368.862	396.44
369.089	347.44
369.315	357.44
369.541	359.44
369.767	364.44
369.993	371.44
370.219	336.44
370.445	336.44
370.672	361.44
370.898	334.44
371.124	348.44
371.35	345.44
371.576	355.44
371.802	340.44
372.028	369.44
372.254	354.44
372.48	334.44
372.706	344.44
372.932	336.44
373.158	360.44
373.384	367.44
373.61	346.44
373.835	353.44
374.061	361.44
374.287	358.44
374.513	342.44
374.739	365.44
374.965	333.44
375.191	343.44
375.416	354.44
375.642	349.44
375.868	337.44
376.094	342.44
376.319	350.44
376.545	357.44
376.771	351.44
376.997	337.44
377.222	348.44
377.448	348.44
377.674	359.44
377.899	336.44
378.125	338.44
378.35	346.44
378.576	340.44
378.802	327.44
379.027	350.44
379.253	353.44
379.478	356.44
379.704	373.44
379.929	356.44
380.155	358.44
380.38	360.44
380.606	373.44
380.831	356.44
381.057	356.44
381.282	370.44
381.507	374.44
381.733	354.44
381.958	362.44
382.184	338.44
382.409	361.44
382.634	360.44
382.86	347.44
383.085	348.44
383.31	344.44
383.535	354.44
383.761	356.44
383.986	350.44
384.211	384.44
384.436	349.44
384.662	362.44
384.887	356.44
385.112	363.44
385.337	372.44
385.562	370.44
385.787	363.44
386.013	368.44
386.238	408.44
386.463	376.44
386.688	359.44
386.913	358.44
387.138	359.44
387.363	375.44
387.588	365.44
387.813	362.44
388.038	376.44
388.263	376.44
388.488	378.44
388.713	381.44
388.938	370.44
389.163	402.44
389.387	396.44
389.612	369.44
389.837	361.44
390.062	368.44
390.287	380.44
390.512	370.44
390.736	394.44
390.961	376.44
391.186	363.44
391.411	363.44
391.636	379.44
391.86	348.44
392.085	368.44
392.31	393.44
392.534	372.44
392.759	374.44
392.984	390.44
393.208	370.44
393.433	377.44
393.658	385.44
393.882	380.44
394.107	357.44
394.331	377.44
394.556	382.44
394.78	380.44
395.005	376.44
395.229	365.44
395.454	386.44
395.678	384.44
395.903	405.44
396.127	407.44
396.352	420.44
396.576	412.44
396.801	388.44
397.025	412.44
397.249	380.44
397.474	391.44
397.698	425.44
397.922	406.44
398.147	426.44
398.371	414.44
398.595	411.44
398.82	405.44
399.044	417.44
399.268	428.44
399.492	453.44
399.717	470.44
399.941	469.44
400.165	509.44
400.389	508.44
400.613	476.44
400.837	450.44
401.062	429.44
401.286	418.44
401.51	440.44
401.734	396.44
401.958	429.44
402.182	440.44
402.406	413.44
402.63	429.44
402.854	427.44
403.078	442.44
403.302	440.44
403.526	438.44
403.75	456.44
403.974	441.44
404.198	434.44
404.422	449.44
404.645	459.44
404.869	450.44
405.093	479.44
405.317	523.44
405.541	565.44
405.765	506.44
405.988	475.44
406.212	504.44
406.436	503.44
406.66	527.44
406.883	500.44
407.107	511.44
407.331	526.44
407.555	598.44
407.778	617.44
408.002	554.44
408.226	526.44
408.449	491.44
408.673	504.44
408.896	510.44
409.12	551.44
409.344	538.44
409.567	489.44
409.791	458.44
410.014	456.44
410.238	443.44
410.461	438.44
410.685	446.44
410.908	474.44
411.132	499.44
411.355	518.44
411.578	513.44
411.802	468.44
412.025	454.44
412.249	450.44
412.472	467.44
412.695	499.44
412.919	502.44
413.142	488.44
413.365	448.44
413.589	436.44
413.812	421.44
414.035	404.44
414.258	416.44
414.482	424.44
414.705	433.44
414.928	420.44
415.151	420.44
415.374	428.44
415.597	413.44
415.821	409.44
416.044	419.44
416.267	426.44
416.49	428.44
416.713	434.44
416.936	440.44
417.159	420.44
417.382	411.44
417.605	405.44
417.828	453.44
418.051	478.44
418.274	455.44
418.497	429.44
418.72	422.44
418.943	416.44
419.166	441.44
419.389	450.44
419.611	451.44
419.834	456.44
420.057	470.44
420.28	467.44
420.503	463.44
420.726	472.44
420.948	482.44
421.171	520.44
421.394	529.44
421.617	480.44
421.839	464.44
422.062	435.44
422.285	470.44
422.507	530.44
422.73	585.44
422.953	590.44
423.175	516.44
423.398	469.44
423.621	485.44
423.843	510.44
424.066	485.44
424.288	491.44
424.511	506.44
424.733	551.44
424.956	649.44
425.178	634.44
425.401	619.44
425.623	623.44
425.846	530.44
426.068	521.44
426.291	491.44
426.513	476.44
426.735	499.44
426.958	552.44
427.18	644.44
427.402	728.44
427.625	826.44
427.847	730.44
428.069	635.44
428.292	555.44
428.514	514.44
428.736	504.44
428.958	491.44
429.181	478.44
429.403	475.44
429.625	474.44
429.847	507.44
430.069	552.44
430.292	568.44
430.514	488.44
430.736	467.44
430.958	470.44
431.18	447.44
431.402	432.44
431.624	430.44
431.846	448.44
432.068	410.44
432.29	444.44
432.512	436.44
432.734	451.44
432.956	453.44
433.178	458.44
433.4	477.44
433.622	444.44
433.844	434.44
434.066	445.44
434.287	424.44
434.509	426.44
434.731	442.44
434.953	442.44
435.175	455.44
435.397	508.44
435.618	504.44
435.84	549.44
436.062	634.44
436.284	669.44
436.505	590.44
436.727	532.44
436.949	488.44
437.17	479.44
437.392	486.44
437.614	496.44
437.835	516.44
438.057	611.44
438.278	728.44
438.5	737.44
438.721	800.44
438.943	753.44
439.165	615.44
439.386	546.44
439.608	542.44
439.829	530.44
440.05	561.44
440.272	598.44
440.493	564.44
440.715	492.44
440.936	470.44
441.158	490.44
441.379	482.44
441.6	488.44
441.822	488.44
442.043	532.44
442.264	626.44
442.486	676.44
442.707	541.44
442.928	520.44
443.149	505.44
443.371	551.44
443.592	582.44
443.813	684.44
444.034	724.44
444.255	615.44
444.476	514.44
444.698	501.44
444.919	498.44
445.14	597.44
445.361	584.44
445.582	556.44
445.803	611.44
446.024	716.44
446.245	723.44
446.466	655.44
446.687	569.44
446.908	499.44
447.129	476.44
447.35	473.44
447.571	467.44
447.792	501.44
448.013	488.44
448.234	518.44
448.455	581.44
448.675	662.44
448.896	757.44
449.117	674.44
449.338	616.44
449.559	705.44
449.779	796.44
450	636.44
450.221	534.44
450.442	482.44
450.662	470.44
450.883	503.44
451.104	516.44
451.324	496.44
451.545	454.44
451.766	450.44
451.986	414.44
452.207	438.44
452.428	423.44
452.648	432.44
452.869	414.44
453.089	446.44
453.31	433.44
453.53	438.44
453.751	420.44
453.971	442.44
454.192	475.44
454.412	454.44
454.633	442.44
454.853	404.44
455.073	412.44
455.294	464.44
455.514	516.44
455.734	487.44
455.955	428.44
456.175	391.44
456.395	386.44
456.616	392.44
456.836	392.44
457.056	392.44
457.276	394.44
457.497	391.44
457.717	395.44
457.937	380.44
458.157	391.44
458.377	417.44
458.598	427.44
458.818	492.44
459.038	585.44
459.258	617.44
459.478	523.44
459.698	429.44
459.918	444.44
460.138	424.44
460.358	417.44
460.578	413.44
460.798	414.44
461.018	425.44
461.238	427.44
461.458	409.44
461.678	421.44
461.898	448.44
462.118	406.44
462.338	434.44
462.558	426.44
462.777	413.44
462.997	417.44
463.217	427.44
463.437	434.44
463.657	438.44
463.876	433.44
464.096	436.44
464.316	442.44
464.536	460.44
464.755	455.44
464.975	464.44
465.195	513.44
465.414	620.44
465.634	549.44
465.854	476.44
466.073	474.44
466.293	442.44
466.512	440.44
466.732	420.44
466.951	444.44
467.171	404.44
467.391	406.44
467.61	434.44
467.829	438.44
468.049	440.44
468.268	432.44
468.488	425.44
468.707	419.44
468.927	407.44
469.146	418.44
469.365	412.44
469.585	400.44
469.804	433.44
470.023	450.44
470.243	433.44
470.462	443.44
470.681	453.44
470.901	457.44
471.12	428.44
471.339	404.44
471.558	427.44
471.777	451.44
471.997	397.44
472.216	401.44
472.435	486.44
472.654	451.44
472.873	448.44
473.092	436.44
473.311	417.44
473.53	419.44
473.749	442.44
473.968	493.44
474.187	595.44
474.406	624.44
474.625	512.44
474.844	433.44
475.063	434.44
475.282	440.44
475.501	421.44
475.72	439.44
475.939	413.44
476.158	411.44
476.377	443.44
476.596	448.44
476.814	441.44
477.033	477.44
477.252	452.44
477.471	465.44
477.69	464.44
477.908	459.44
478.127	459.44
478.346	475.44
478.564	454.44
478.783	457.44
479.002	474.44
479.22	494.44
479.439	486.44
479.658	510.44
479.876	533.44
480.095	522.44
480.313	553.44
480.532	540.44
480.751	517.44
480.969	523.44
481.188	624.44
481.406	644.44
481.624	574.44
481.843	522.44
482.061	534.44
482.28	513.44
482.498	533.44
482.717	518.44
482.935	508.44
483.153	522.44
483.372	494.44
483.59	512.44
483.808	521.44
484.027	508.44
484.245	497.44
484.463	521.44
484.681	524.44
484.9	521.44
485.118	513.44
485.336	533.44
485.554	540.44
485.772	519.44
485.99	517.44
486.209	527.44
486.427	552.44
486.645	556.44
486.863	572.44
487.081	570.44
487.299	570.44
487.517	578.44
487.735	537.44
487.953	554.44
488.171	569.44
488.389	573.44
488.607	539.44
488.825	565.44
489.043	528.44
489.261	564.44
489.479	562.44
489.696	562.44
489.914	567.44
490.132	577.44
490.35	585.44
490.568	601.44
490.786	599.44
491.003	581.44
491.221	607.44
491.439	615.44
491.657	645.44
491.874	633.44
492.092	652.44
492.31	622.44
492.527	643.44
492.745	646.44
492.963	655.44
493.18	644.44
493.398	670.44
493.615	651.44
493.833	660.44
494.05	675.44
494.268	652.44
494.485	669.44
494.703	655.44
494.92	651.44
495.138	658.44
495.355	674.44
495.573	672.44
495.79	662.44
496.008	655.44
496.225	658.44
496.442	651.44
496.66	678.44
496.877	648.44
497.094	664.44
497.312	695.44
497.529	682.44
497.746	688.44
497.963	692.44
498.181	709.44
498.398	695.44
498.615	694.44
498.832	692.44
499.049	725.44
499.267	708.44
499.484	729.44
499.701	725.44
499.918	775.44
500.135	769.44
500.352	790.44
500.569	800.44
500.786	806.44
501.003	795.44
501.22	788.44
501.437	774.44
501.654	772.44
501.871	788.44
