Data from 1980.PennyLincolnUp.Lamp.En5.5.200Scan.071819.P1_HRD10591_16-37-57-957.txt Node
Date: Thu Jul 18 16:37:57 EDT 2019
User: cochatt
Spectrometer: HR+D1059
Trigger mode: 1
Integration Time (sec): 1.000000E-1
Scans to average: 1
Electric dark correction enabled: true
Nonlinearity correction enabled: false
Boxcar width: 0
XAxis mode: Wavelengths
Number of Pixels in Spectrum: 2048
>>>>>Begin Spectral Data<<<<<
223.165	-23.06
223.4	-23.06
223.635	-23.06
223.869	-13.06
224.104	-24.06
224.338	-9.06
224.573	-18.06
224.808	-17.06
225.042	-12.06
225.277	-14.06
225.511	-5.06
225.746	12.94
225.98	19.94
226.215	3.94
226.449	16.94
226.683	19.94
226.918	30.94
227.152	30.94
227.387	30.94
227.621	31.94
227.856	40.94
228.09	53.94
228.324	47.94
228.559	61.94
228.793	61.94
229.027	92.94
229.262	107.94
229.496	115.94
229.73	138.94
229.964	170.94
230.199	126.94
230.433	121.94
230.667	109.94
230.901	111.94
231.136	123.94
231.37	107.94
231.604	101.94
231.838	117.94
232.072	102.94
232.306	118.94
232.541	122.94
232.775	120.94
233.009	105.94
233.243	107.94
233.477	96.94
233.711	126.94
233.945	115.94
234.179	106.94
234.413	110.94
234.647	124.94
234.881	121.94
235.115	117.94
235.349	115.94
235.583	113.94
235.817	138.94
236.051	118.94
236.285	123.94
236.519	131.94
236.753	136.94
236.987	154.94
237.221	193.94
237.455	257.94
237.689	201.94
237.922	142.94
238.156	123.94
238.39	132.94
238.624	126.94
238.858	109.94
239.091	118.94
239.325	122.94
239.559	125.94
239.793	110.94
240.027	128.94
240.26	127.94
240.494	164.94
240.728	166.94
240.961	150.94
241.195	151.94
241.429	137.94
241.662	135.94
241.896	128.94
242.13	132.94
242.363	130.94
242.597	123.94
242.83	135.94
243.064	153.94
243.298	124.94
243.531	145.94
243.765	129.94
243.998	135.94
244.232	145.94
244.465	149.94
244.699	145.94
244.932	135.94
245.166	135.94
245.399	154.94
245.633	153.94
245.866	151.94
246.099	153.94
246.333	142.94
246.566	142.94
246.8	161.94
247.033	146.94
247.266	151.94
247.5	151.94
247.733	174.94
247.966	179.94
248.2	158.94
248.433	157.94
248.666	186.94
248.899	192.94
249.133	201.94
249.366	203.94
249.599	193.94
249.832	178.94
250.066	191.94
250.299	162.94
250.532	197.94
250.765	202.94
250.998	202.94
251.231	229.94
251.465	210.94
251.698	193.94
251.931	225.94
252.164	216.94
252.397	209.94
252.63	205.94
252.863	225.94
253.096	217.94
253.329	237.94
253.562	223.94
253.795	224.94
254.028	225.94
254.261	223.94
254.494	218.94
254.727	265.94
254.96	287.94
255.193	282.94
255.426	265.94
255.659	239.94
255.892	236.94
256.124	246.94
256.357	241.94
256.59	236.94
256.823	224.94
257.056	221.94
257.289	213.94
257.521	209.94
257.754	213.94
257.987	206.94
258.22	218.94
258.452	203.94
258.685	205.94
258.918	193.94
259.151	205.94
259.383	233.94
259.616	233.94
259.849	217.94
260.081	239.94
260.314	261.94
260.547	258.94
260.779	238.94
261.012	223.94
261.244	222.94
261.477	239.94
261.71	243.94
261.942	227.94
262.175	246.94
262.407	230.94
262.64	231.94
262.872	204.94
263.105	212.94
263.337	196.94
263.57	213.94
263.802	207.94
264.035	206.94
264.267	219.94
264.499	218.94
264.732	200.94
264.964	197.94
265.197	209.94
265.429	203.94
265.661	200.94
265.894	207.94
266.126	206.94
266.358	213.94
266.591	216.94
266.823	207.94
267.055	224.94
267.287	225.94
267.52	209.94
267.752	217.94
267.984	207.94
268.216	200.94
268.448	246.94
268.681	230.94
268.913	241.94
269.145	261.94
269.377	270.94
269.609	267.94
269.841	276.94
270.073	298.94
270.306	278.94
270.538	309.94
270.77	319.94
271.002	302.94
271.234	293.94
271.466	311.94
271.698	329.94
271.93	331.94
272.162	321.94
272.394	325.94
272.626	320.94
272.858	320.94
273.09	275.94
273.322	271.94
273.553	272.94
273.785	254.94
274.017	259.94
274.249	267.94
274.481	259.94
274.713	261.94
274.945	268.94
275.176	273.94
275.408	262.94
275.64	255.94
275.872	258.94
276.104	255.94
276.335	254.94
276.567	275.94
276.799	277.94
277.031	291.94
277.262	316.94
277.494	315.94
277.726	284.94
277.957	300.94
278.189	273.94
278.421	258.94
278.652	256.94
278.884	244.94
279.115	255.94
279.347	247.94
279.579	274.94
279.81	262.94
280.042	249.94
280.273	253.94
280.505	279.94
280.736	265.94
280.968	256.94
281.199	258.94
281.431	257.94
281.662	237.94
281.894	224.94
282.125	261.94
282.356	272.94
282.588	299.94
282.819	291.94
283.051	282.94
283.282	269.94
283.513	269.94
283.745	272.94
283.976	263.94
284.207	257.94
284.439	265.94
284.67	269.94
284.901	248.94
285.132	246.94
285.364	239.94
285.595	253.94
285.826	241.94
286.057	254.94
286.288	257.94
286.52	257.94
286.751	224.94
286.982	271.94
287.213	249.94
287.444	265.94
287.675	265.94
287.906	265.94
288.138	290.94
288.369	271.94
288.6	284.94
288.831	268.94
289.062	303.94
289.293	285.94
289.524	276.94
289.755	283.94
289.986	290.94
290.217	262.94
290.448	264.94
290.679	255.94
290.91	259.94
291.141	281.94
291.371	266.94
291.602	259.94
291.833	258.94
292.064	275.94
292.295	272.94
292.526	286.94
292.757	266.94
292.987	257.94
293.218	272.94
293.449	267.94
293.68	269.94
293.91	262.94
294.141	269.94
294.372	249.94
294.603	278.94
294.833	281.94
295.064	265.94
295.295	289.94
295.525	272.94
295.756	276.94
295.987	260.94
296.217	322.94
296.448	327.94
296.679	284.94
296.909	271.94
297.14	281.94
297.37	260.94
297.601	258.94
297.831	270.94
298.062	269.94
298.292	283.94
298.523	279.94
298.753	275.94
298.984	280.94
299.214	266.94
299.445	295.94
299.675	283.94
299.905	284.94
300.136	289.94
300.366	273.94
300.597	283.94
300.827	280.94
301.057	275.94
301.288	293.94
301.518	310.94
301.748	274.94
301.979	302.94
302.209	285.94
302.439	296.94
302.669	296.94
302.9	294.94
303.13	295.94
303.36	292.94
303.59	315.94
303.82	327.94
304.051	305.94
304.281	300.94
304.511	294.94
304.741	285.94
304.971	281.94
305.201	288.94
305.431	298.94
305.661	293.94
305.891	296.94
306.121	303.94
306.352	291.94
306.582	327.94
306.812	291.94
307.042	299.94
307.272	282.94
307.502	307.94
307.731	301.94
307.961	309.94
308.191	321.94
308.421	321.94
308.651	305.94
308.881	325.94
309.111	331.94
309.341	320.94
309.571	333.94
309.8	341.94
310.03	350.94
310.26	349.94
310.49	353.94
310.72	367.94
310.949	387.94
311.179	392.94
311.409	375.94
311.639	360.94
311.868	351.94
312.098	344.94
312.328	362.94
312.557	385.94
312.787	403.94
313.017	408.94
313.246	367.94
313.476	365.94
313.706	380.94
313.935	373.94
314.165	380.94
314.394	387.94
314.624	379.94
314.853	358.94
315.083	365.94
315.312	346.94
315.542	349.94
315.771	329.94
316.001	354.94
316.23	352.94
316.46	345.94
316.689	370.94
316.919	361.94
317.148	373.94
317.377	367.94
317.607	350.94
317.836	353.94
318.065	336.94
318.295	358.94
318.524	362.94
318.753	337.94
318.983	358.94
319.212	354.94
319.441	366.94
319.67	379.94
319.9	352.94
320.129	360.94
320.358	361.94
320.587	355.94
320.816	361.94
321.046	385.94
321.275	378.94
321.504	374.94
321.733	386.94
321.962	396.94
322.191	420.94
322.42	413.94
322.649	438.94
322.878	456.94
323.108	478.94
323.337	499.94
323.566	517.94
323.795	587.94
324.024	633.94
324.253	777.94
324.482	1116.94
324.71	1674.94
324.939	2428.94
325.168	2159.94
325.397	1135.94
325.626	731.94
325.855	601.94
326.084	548.94
326.313	525.94
326.542	550.94
326.77	584.94
326.999	693.94
327.228	947.94
327.457	1483.94
327.686	1845.94
327.914	1241.94
328.143	834.94
328.372	689.94
328.6	636.94
328.829	596.94
329.058	627.94
329.287	638.94
329.515	578.94
329.744	545.94
329.972	517.94
330.201	546.94
330.43	593.94
330.658	632.94
330.887	658.94
331.115	638.94
331.344	534.94
331.572	489.94
331.801	515.94
332.03	485.94
332.258	473.94
332.486	444.94
332.715	424.94
332.943	418.94
333.172	396.94
333.4	429.94
333.629	431.94
333.857	414.94
334.085	461.94
334.314	478.94
334.542	524.94
334.771	547.94
334.999	511.94
335.227	439.94
335.455	436.94
335.684	416.94
335.912	414.94
336.14	401.94
336.369	389.94
336.597	418.94
336.825	419.94
337.053	423.94
337.281	390.94
337.51	395.94
337.738	382.94
337.966	392.94
338.194	398.94
338.422	404.94
338.65	404.94
338.878	393.94
339.106	390.94
339.334	419.94
339.562	395.94
339.79	388.94
340.018	399.94
340.246	385.94
340.474	406.94
340.702	391.94
340.93	381.94
341.158	387.94
341.386	377.94
341.614	406.94
341.842	401.94
342.07	395.94
342.298	384.94
342.526	381.94
342.754	365.94
342.981	361.94
343.209	357.94
343.437	382.94
343.665	391.94
343.893	409.94
344.12	366.94
344.348	397.94
344.576	374.94
344.804	393.94
345.031	428.94
345.259	420.94
345.487	402.94
345.714	404.94
345.942	385.94
346.17	403.94
346.397	386.94
346.625	392.94
346.853	387.94
347.08	387.94
347.308	400.94
347.535	406.94
347.763	414.94
347.99	403.94
348.218	402.94
348.445	396.94
348.673	416.94
348.9	393.94
349.128	416.94
349.355	371.94
349.583	379.94
349.81	363.94
350.037	383.94
350.265	387.94
350.492	385.94
350.72	379.94
350.947	369.94
351.174	387.94
351.402	402.94
351.629	390.94
351.856	397.94
352.083	394.94
352.311	431.94
352.538	403.94
352.765	411.94
352.992	435.94
353.22	413.94
353.447	401.94
353.674	374.94
353.901	366.94
354.128	375.94
354.355	382.94
354.583	368.94
354.81	367.94
355.037	339.94
355.264	366.94
355.491	350.94
355.718	335.94
355.945	358.94
356.172	331.94
356.399	332.94
356.626	351.94
356.853	348.94
357.08	343.94
357.307	350.94
357.534	337.94
357.761	361.94
357.988	351.94
358.215	357.94
358.441	342.94
358.668	359.94
358.895	369.94
359.122	376.94
359.349	381.94
359.576	400.94
359.802	415.94
360.029	458.94
360.256	469.94
360.483	433.94
360.709	396.94
360.936	384.94
361.163	402.94
361.39	394.94
361.616	376.94
361.843	398.94
362.07	376.94
362.296	399.94
362.523	396.94
362.749	380.94
362.976	382.94
363.203	367.94
363.429	388.94
363.656	370.94
363.882	377.94
364.109	369.94
364.335	373.94
364.562	357.94
364.788	370.94
365.015	377.94
365.241	354.94
365.468	353.94
365.694	359.94
365.92	384.94
366.147	371.94
366.373	362.94
366.599	377.94
366.826	356.94
367.052	369.94
367.278	374.94
367.505	367.94
367.731	368.94
367.957	350.94
368.184	367.94
368.41	375.94
368.636	390.94
368.862	385.94
369.089	357.94
369.315	356.94
369.541	346.94
369.767	367.94
369.993	359.94
370.219	345.94
370.445	358.94
370.672	335.94
370.898	366.94
371.124	337.94
371.35	342.94
371.576	347.94
371.802	346.94
372.028	348.94
372.254	368.94
372.48	342.94
372.706	354.94
372.932	349.94
373.158	351.94
373.384	371.94
373.61	347.94
373.835	360.94
374.061	330.94
374.287	357.94
374.513	336.94
374.739	349.94
374.965	345.94
375.191	361.94
375.416	353.94
375.642	352.94
375.868	368.94
376.094	373.94
376.319	321.94
376.545	346.94
376.771	337.94
376.997	332.94
377.222	343.94
377.448	348.94
377.674	326.94
377.899	358.94
378.125	324.94
378.35	375.94
378.576	337.94
378.802	346.94
379.027	355.94
379.253	335.94
379.478	355.94
379.704	359.94
379.929	351.94
380.155	353.94
380.38	339.94
380.606	358.94
380.831	339.94
381.057	343.94
381.282	335.94
381.507	333.94
381.733	335.94
381.958	335.94
382.184	343.94
382.409	366.94
382.634	348.94
382.86	342.94
383.085	373.94
383.31	355.94
383.535	346.94
383.761	333.94
383.986	360.94
384.211	367.94
384.436	357.94
384.662	371.94
384.887	359.94
385.112	369.94
385.337	370.94
385.562	354.94
385.787	375.94
386.013	371.94
386.238	379.94
386.463	386.94
386.688	381.94
386.913	362.94
387.138	343.94
387.363	368.94
387.588	376.94
387.813	372.94
388.038	368.94
388.263	363.94
388.488	367.94
388.713	351.94
388.938	381.94
389.163	377.94
389.387	372.94
389.612	351.94
389.837	369.94
390.062	368.94
390.287	360.94
390.512	383.94
390.736	379.94
390.961	378.94
391.186	362.94
391.411	374.94
391.636	362.94
391.86	379.94
392.085	381.94
392.31	365.94
392.534	370.94
392.759	358.94
392.984	355.94
393.208	364.94
393.433	362.94
393.658	375.94
393.882	369.94
394.107	358.94
394.331	362.94
394.556	384.94
394.78	354.94
395.005	353.94
395.229	361.94
395.454	368.94
395.678	382.94
395.903	381.94
396.127	408.94
396.352	395.94
396.576	389.94
396.801	368.94
397.025	386.94
397.249	402.94
397.474	387.94
397.698	385.94
397.922	402.94
398.147	442.94
398.371	441.94
398.595	415.94
398.82	395.94
399.044	420.94
399.268	423.94
399.492	444.94
399.717	453.94
399.941	459.94
400.165	511.94
400.389	539.94
400.613	506.94
400.837	446.94
401.062	416.94
401.286	450.94
401.51	416.94
401.734	419.94
401.958	425.94
402.182	425.94
402.406	439.94
402.63	431.94
402.854	415.94
403.078	429.94
403.302	431.94
403.526	452.94
403.75	450.94
403.974	441.94
404.198	425.94
404.422	446.94
404.645	448.94
404.869	423.94
405.093	466.94
405.317	498.94
405.541	566.94
405.765	487.94
405.988	467.94
406.212	479.94
406.436	520.94
406.66	504.94
406.883	495.94
407.107	501.94
407.331	553.94
407.555	590.94
407.778	599.94
408.002	551.94
408.226	508.94
408.449	487.94
408.673	485.94
408.896	530.94
409.12	568.94
409.344	519.94
409.567	478.94
409.791	445.94
410.014	437.94
410.238	433.94
410.461	437.94
410.685	452.94
410.908	451.94
411.132	502.94
411.355	524.94
411.578	507.94
411.802	484.94
412.025	431.94
412.249	431.94
412.472	472.94
412.695	522.94
412.919	499.94
413.142	454.94
413.365	439.94
413.589	424.94
413.812	423.94
414.035	407.94
414.258	421.94
414.482	403.94
414.705	409.94
414.928	407.94
415.151	425.94
415.374	418.94
415.597	405.94
415.821	418.94
416.044	427.94
416.267	426.94
416.49	404.94
416.713	406.94
416.936	426.94
417.159	421.94
417.382	401.94
417.605	423.94
417.828	442.94
418.051	456.94
418.274	437.94
418.497	402.94
418.72	399.94
418.943	412.94
419.166	433.94
419.389	434.94
419.611	446.94
419.834	469.94
420.057	463.94
420.28	462.94
420.503	442.94
420.726	442.94
420.948	465.94
421.171	488.94
421.394	559.94
421.617	483.94
421.839	443.94
422.062	453.94
422.285	458.94
422.507	538.94
422.73	584.94
422.953	583.94
423.175	518.94
423.398	462.94
423.621	481.94
423.843	463.94
424.066	482.94
424.288	496.94
424.511	504.94
424.733	554.94
424.956	617.94
425.178	601.94
425.401	598.94
425.623	647.94
425.846	529.94
426.068	504.94
426.291	505.94
426.513	517.94
426.735	514.94
426.958	557.94
427.18	629.94
427.402	744.94
427.625	822.94
427.847	739.94
428.069	652.94
428.292	596.94
428.514	535.94
428.736	494.94
428.958	465.94
429.181	449.94
429.403	467.94
429.625	495.94
429.847	530.94
430.069	560.94
430.292	579.94
430.514	478.94
430.736	457.94
430.958	456.94
431.18	420.94
431.402	433.94
431.624	424.94
431.846	414.94
432.068	401.94
432.29	428.94
432.512	426.94
432.734	441.94
432.956	449.94
433.178	451.94
433.4	444.94
433.622	422.94
433.844	446.94
434.066	415.94
434.287	408.94
434.509	413.94
434.731	447.94
434.953	440.94
435.175	461.94
435.397	493.94
435.618	487.94
435.84	542.94
436.062	630.94
436.284	684.94
436.505	579.94
436.727	514.94
436.949	477.94
437.17	467.94
437.392	463.94
437.614	482.94
437.835	526.94
438.057	621.94
438.278	726.94
438.5	694.94
438.721	778.94
438.943	722.94
439.165	591.94
439.386	559.94
439.608	545.94
439.829	530.94
440.05	550.94
440.272	595.94
440.493	582.94
440.715	493.94
440.936	484.94
441.158	484.94
441.379	464.94
441.6	480.94
441.822	495.94
442.043	537.94
442.264	633.94
442.486	659.94
442.707	557.94
442.928	531.94
443.149	523.94
443.371	512.94
443.592	585.94
443.813	689.94
444.034	707.94
444.255	596.94
444.476	535.94
444.698	504.94
444.919	501.94
445.14	605.94
445.361	559.94
445.582	562.94
445.803	610.94
446.024	732.94
446.245	708.94
446.466	670.94
446.687	546.94
446.908	511.94
447.129	478.94
447.35	486.94
447.571	471.94
447.792	484.94
448.013	482.94
448.234	483.94
448.455	563.94
448.675	662.94
448.896	771.94
449.117	655.94
449.338	630.94
449.559	696.94
449.779	792.94
450	639.94
450.221	541.94
450.442	487.94
450.662	475.94
450.883	479.94
451.104	512.94
451.324	484.94
451.545	465.94
451.766	441.94
451.986	412.94
452.207	413.94
452.428	411.94
452.648	411.94
452.869	424.94
453.089	471.94
453.31	442.94
453.53	417.94
453.751	425.94
453.971	439.94
454.192	453.94
454.412	445.94
454.633	424.94
454.853	416.94
455.073	410.94
455.294	449.94
455.514	513.94
455.734	536.94
455.955	435.94
456.175	403.94
456.395	392.94
456.616	376.94
456.836	398.94
457.056	384.94
457.276	373.94
457.497	379.94
457.717	391.94
457.937	390.94
458.157	382.94
458.377	401.94
458.598	462.94
458.818	520.94
459.038	582.94
459.258	618.94
459.478	500.94
459.698	464.94
459.918	429.94
460.138	430.94
460.358	441.94
460.578	435.94
460.798	432.94
461.018	438.94
461.238	412.94
461.458	397.94
461.678	407.94
461.898	422.94
462.118	409.94
462.338	409.94
462.558	418.94
462.777	425.94
462.997	422.94
463.217	421.94
463.437	454.94
463.657	407.94
463.876	436.94
464.096	439.94
464.316	446.94
464.536	458.94
464.755	465.94
464.975	454.94
465.195	522.94
465.414	613.94
465.634	546.94
465.854	510.94
466.073	461.94
466.293	423.94
466.512	424.94
466.732	418.94
466.951	400.94
467.171	415.94
467.391	414.94
467.61	439.94
467.829	443.94
468.049	435.94
468.268	421.94
468.488	443.94
468.707	408.94
468.927	418.94
469.146	392.94
469.365	389.94
469.585	401.94
469.804	419.94
470.023	445.94
470.243	419.94
470.462	426.94
470.681	453.94
470.901	445.94
471.12	434.94
471.339	422.94
471.558	429.94
471.777	423.94
471.997	430.94
472.216	426.94
472.435	483.94
472.654	467.94
472.873	458.94
473.092	450.94
473.311	418.94
473.53	426.94
473.749	440.94
473.968	463.94
474.187	609.94
474.406	609.94
474.625	519.94
474.844	435.94
475.063	416.94
475.282	429.94
475.501	418.94
475.72	424.94
475.939	438.94
476.158	423.94
476.377	455.94
476.596	429.94
476.814	448.94
477.033	448.94
477.252	465.94
477.471	427.94
477.69	464.94
477.908	457.94
478.127	481.94
478.346	472.94
478.564	455.94
478.783	463.94
479.002	481.94
479.22	479.94
479.439	490.94
479.658	522.94
479.876	530.94
480.095	515.94
480.313	536.94
480.532	530.94
480.751	523.94
480.969	543.94
481.188	607.94
481.406	661.94
481.624	562.94
481.843	530.94
482.061	510.94
482.28	517.94
482.498	511.94
482.717	491.94
482.935	487.94
483.153	510.94
483.372	509.94
483.59	492.94
483.808	476.94
484.027	517.94
484.245	489.94
484.463	483.94
484.681	523.94
484.9	505.94
485.118	526.94
485.336	497.94
485.554	515.94
485.772	503.94
485.99	517.94
486.209	523.94
486.427	538.94
486.645	559.94
486.863	565.94
487.081	583.94
487.299	576.94
487.517	535.94
487.735	563.94
487.953	539.94
488.171	535.94
488.389	557.94
488.607	569.94
488.825	557.94
489.043	556.94
489.261	553.94
489.479	573.94
489.696	559.94
489.914	562.94
490.132	571.94
490.35	575.94
490.568	587.94
490.786	575.94
491.003	584.94
491.221	589.94
491.439	610.94
491.657	602.94
491.874	648.94
492.092	666.94
492.31	620.94
492.527	640.94
492.745	654.94
492.963	631.94
493.18	642.94
493.398	659.94
493.615	654.94
493.833	685.94
494.05	657.94
494.268	638.94
494.485	669.94
494.703	659.94
494.92	646.94
495.138	655.94
495.355	672.94
495.573	669.94
495.79	650.94
496.008	677.94
496.225	675.94
496.442	682.94
496.66	657.94
496.877	651.94
497.094	637.94
497.312	629.94
497.529	660.94
497.746	660.94
497.963	694.94
498.181	685.94
498.398	715.94
498.615	698.94
498.832	701.94
499.049	712.94
499.267	711.94
499.484	719.94
499.701	756.94
499.918	737.94
500.135	755.94
500.352	785.94
500.569	800.94
500.786	805.94
501.003	792.94
501.22	823.94
501.437	774.94
501.654	789.94
501.871	789.94
