Data from 1980.PennyLincolnUp.Lamp.En5.5.200Scan.071819.P1_HRD10591_16-38-43-957.txt Node
Date: Thu Jul 18 16:38:43 EDT 2019
User: cochatt
Spectrometer: HR+D1059
Trigger mode: 1
Integration Time (sec): 1.000000E-1
Scans to average: 1
Electric dark correction enabled: true
Nonlinearity correction enabled: false
Boxcar width: 0
XAxis mode: Wavelengths
Number of Pixels in Spectrum: 2048
>>>>>Begin Spectral Data<<<<<
223.165	-14.31
223.4	-14.31
223.635	-14.31
223.869	-30.31
224.104	-17.31
224.338	1.69
224.573	-5.31
224.808	-18.31
225.042	-2.31
225.277	1.69
225.511	7.69
225.746	-5.31
225.98	10.69
226.215	5.69
226.449	12.69
226.683	19.69
226.918	14.69
227.152	18.69
227.387	16.69
227.621	34.69
227.856	49.69
228.09	55.69
228.324	48.69
228.559	49.69
228.793	66.69
229.027	89.69
229.262	114.69
229.496	115.69
229.73	145.69
229.964	174.69
230.199	140.69
230.433	113.69
230.667	112.69
230.901	122.69
231.136	126.69
231.37	115.69
231.604	104.69
231.838	126.69
232.072	115.69
232.306	120.69
232.541	103.69
232.775	114.69
233.009	116.69
233.243	118.69
233.477	117.69
233.711	128.69
233.945	103.69
234.179	120.69
234.413	110.69
234.647	117.69
234.881	125.69
235.115	122.69
235.349	122.69
235.583	110.69
235.817	120.69
236.051	131.69
236.285	128.69
236.519	131.69
236.753	142.69
236.987	148.69
237.221	201.69
237.455	251.69
237.689	200.69
237.922	155.69
238.156	139.69
238.39	144.69
238.624	118.69
238.858	138.69
239.091	114.69
239.325	130.69
239.559	126.69
239.793	142.69
240.027	141.69
240.26	154.69
240.494	176.69
240.728	157.69
240.961	149.69
241.195	143.69
241.429	135.69
241.662	138.69
241.896	122.69
242.13	143.69
242.363	139.69
242.597	133.69
242.83	150.69
243.064	135.69
243.298	139.69
243.531	144.69
243.765	151.69
243.998	138.69
244.232	162.69
244.465	124.69
244.699	146.69
244.932	141.69
245.166	141.69
245.399	149.69
245.633	133.69
245.866	126.69
246.099	144.69
246.333	138.69
246.566	156.69
246.8	161.69
247.033	162.69
247.266	162.69
247.5	169.69
247.733	173.69
247.966	184.69
248.2	181.69
248.433	164.69
248.666	188.69
248.899	213.69
249.133	193.69
249.366	217.69
249.599	201.69
249.832	187.69
250.066	195.69
250.299	197.69
250.532	199.69
250.765	223.69
250.998	236.69
251.231	231.69
251.465	217.69
251.698	217.69
251.931	195.69
252.164	189.69
252.397	214.69
252.63	214.69
252.863	215.69
253.096	229.69
253.329	238.69
253.562	251.69
253.795	232.69
254.028	229.69
254.261	222.69
254.494	243.69
254.727	274.69
254.96	304.69
255.193	316.69
255.426	281.69
255.659	269.69
255.892	235.69
256.124	247.69
256.357	242.69
256.59	259.69
256.823	229.69
257.056	216.69
257.289	213.69
257.521	227.69
257.754	217.69
257.987	223.69
258.22	216.69
258.452	201.69
258.685	222.69
258.918	219.69
259.151	217.69
259.383	219.69
259.616	230.69
259.849	226.69
260.081	255.69
260.314	277.69
260.547	262.69
260.779	236.69
261.012	247.69
261.244	253.69
261.477	244.69
261.71	225.69
261.942	239.69
262.175	256.69
262.407	228.69
262.64	236.69
262.872	221.69
263.105	211.69
263.337	214.69
263.57	214.69
263.802	200.69
264.035	202.69
264.267	213.69
264.499	192.69
264.732	204.69
264.964	215.69
265.197	208.69
265.429	226.69
265.661	221.69
265.894	216.69
266.126	203.69
266.358	214.69
266.591	223.69
266.823	230.69
267.055	229.69
267.287	223.69
267.52	209.69
267.752	216.69
267.984	234.69
268.216	246.69
268.448	230.69
268.681	232.69
268.913	240.69
269.145	275.69
269.377	281.69
269.609	266.69
269.841	291.69
270.073	290.69
270.306	299.69
270.538	337.69
270.77	345.69
271.002	326.69
271.234	319.69
271.466	321.69
271.698	349.69
271.93	347.69
272.162	362.69
272.394	332.69
272.626	311.69
272.858	293.69
273.09	293.69
273.322	282.69
273.553	260.69
273.785	274.69
274.017	276.69
274.249	296.69
274.481	274.69
274.713	283.69
274.945	259.69
275.176	268.69
275.408	267.69
275.64	266.69
275.872	277.69
276.104	257.69
276.335	261.69
276.567	284.69
276.799	291.69
277.031	325.69
277.262	325.69
277.494	328.69
277.726	321.69
277.957	309.69
278.189	285.69
278.421	276.69
278.652	267.69
278.884	279.69
279.115	283.69
279.347	279.69
279.579	263.69
279.81	271.69
280.042	262.69
280.273	263.69
280.505	263.69
280.736	280.69
280.968	278.69
281.199	247.69
281.431	284.69
281.662	245.69
281.894	233.69
282.125	260.69
282.356	276.69
282.588	306.69
282.819	312.69
283.051	278.69
283.282	277.69
283.513	277.69
283.745	243.69
283.976	271.69
284.207	278.69
284.439	263.69
284.67	278.69
284.901	262.69
285.132	260.69
285.364	256.69
285.595	261.69
285.826	269.69
286.057	283.69
286.288	273.69
286.52	281.69
286.751	269.69
286.982	277.69
287.213	258.69
287.444	291.69
287.675	281.69
287.906	289.69
288.138	288.69
288.369	292.69
288.6	287.69
288.831	296.69
289.062	270.69
289.293	289.69
289.524	284.69
289.755	268.69
289.986	287.69
290.217	281.69
290.448	263.69
290.679	279.69
290.91	265.69
291.141	266.69
291.371	264.69
291.602	259.69
291.833	270.69
292.064	279.69
292.295	271.69
292.526	268.69
292.757	286.69
292.987	268.69
293.218	269.69
293.449	295.69
293.68	268.69
293.91	277.69
294.141	273.69
294.372	284.69
294.603	270.69
294.833	285.69
295.064	277.69
295.295	283.69
295.525	273.69
295.756	289.69
295.987	307.69
296.217	311.69
296.448	322.69
296.679	307.69
296.909	259.69
297.14	279.69
297.37	301.69
297.601	259.69
297.831	275.69
298.062	268.69
298.292	285.69
298.523	266.69
298.753	294.69
298.984	299.69
299.214	289.69
299.445	293.69
299.675	290.69
299.905	302.69
300.136	289.69
300.366	311.69
300.597	291.69
300.827	300.69
301.057	299.69
301.288	317.69
301.518	302.69
301.748	305.69
301.979	307.69
302.209	306.69
302.439	309.69
302.669	313.69
302.9	322.69
303.13	307.69
303.36	312.69
303.59	318.69
303.82	312.69
304.051	315.69
304.281	305.69
304.511	312.69
304.741	301.69
304.971	301.69
305.201	318.69
305.431	298.69
305.661	294.69
305.891	297.69
306.121	318.69
306.352	336.69
306.582	311.69
306.812	300.69
307.042	321.69
307.272	312.69
307.502	323.69
307.731	305.69
307.961	309.69
308.191	306.69
308.421	311.69
308.651	317.69
308.881	330.69
309.111	323.69
309.341	345.69
309.571	336.69
309.8	350.69
310.03	355.69
310.26	394.69
310.49	366.69
310.72	388.69
310.949	400.69
311.179	392.69
311.409	388.69
311.639	366.69
311.868	377.69
312.098	383.69
312.328	379.69
312.557	382.69
312.787	411.69
313.017	426.69
313.246	368.69
313.476	358.69
313.706	385.69
313.935	381.69
314.165	385.69
314.394	409.69
314.624	406.69
314.853	377.69
315.083	391.69
315.312	380.69
315.542	370.69
315.771	363.69
316.001	354.69
316.23	340.69
316.46	358.69
316.689	369.69
316.919	379.69
317.148	385.69
317.377	391.69
317.607	385.69
317.836	389.69
318.065	367.69
318.295	371.69
318.524	367.69
318.753	350.69
318.983	352.69
319.212	378.69
319.441	371.69
319.67	390.69
319.9	385.69
320.129	375.69
320.358	360.69
320.587	385.69
320.816	375.69
321.046	400.69
321.275	405.69
321.504	383.69
321.733	406.69
321.962	407.69
322.191	438.69
322.42	449.69
322.649	451.69
322.878	474.69
323.108	483.69
323.337	511.69
323.566	541.69
323.795	593.69
324.024	631.69
324.253	804.69
324.482	1162.69
324.71	1766.69
324.939	2594.69
325.168	2265.69
325.397	1201.69
325.626	769.69
325.855	623.69
326.084	590.69
326.313	555.69
326.542	548.69
326.77	632.69
326.999	728.69
327.228	1024.69
327.457	1576.69
327.686	1974.69
327.914	1328.69
328.143	857.69
328.372	721.69
328.6	671.69
328.829	613.69
329.058	629.69
329.287	677.69
329.515	606.69
329.744	575.69
329.972	560.69
330.201	600.69
330.43	608.69
330.658	685.69
330.887	694.69
331.115	657.69
331.344	558.69
331.572	513.69
331.801	537.69
332.03	520.69
332.258	491.69
332.486	463.69
332.715	424.69
332.943	440.69
333.172	444.69
333.4	419.69
333.629	460.69
333.857	487.69
334.085	471.69
334.314	499.69
334.542	543.69
334.771	557.69
334.999	493.69
335.227	471.69
335.455	463.69
335.684	432.69
335.912	423.69
336.14	422.69
336.369	422.69
336.597	422.69
336.825	432.69
337.053	399.69
337.281	397.69
337.51	415.69
337.738	414.69
337.966	422.69
338.194	425.69
338.422	431.69
338.65	421.69
338.878	413.69
339.106	400.69
339.334	405.69
339.562	408.69
339.79	380.69
340.018	429.69
340.246	419.69
340.474	419.69
340.702	423.69
340.93	430.69
341.158	399.69
341.386	416.69
341.614	421.69
341.842	418.69
342.07	406.69
342.298	396.69
342.526	398.69
342.754	393.69
342.981	372.69
343.209	373.69
343.437	385.69
343.665	371.69
343.893	398.69
344.12	389.69
344.348	410.69
344.576	416.69
344.804	414.69
345.031	420.69
345.259	444.69
345.487	441.69
345.714	421.69
345.942	420.69
346.17	409.69
346.397	394.69
346.625	402.69
346.853	405.69
347.08	408.69
347.308	425.69
347.535	410.69
347.763	422.69
347.99	420.69
348.218	432.69
348.445	443.69
348.673	423.69
348.9	409.69
349.128	390.69
349.355	397.69
349.583	403.69
349.81	396.69
350.037	394.69
350.265	376.69
350.492	389.69
350.72	389.69
350.947	392.69
351.174	409.69
351.402	433.69
351.629	433.69
351.856	420.69
352.083	439.69
352.311	436.69
352.538	425.69
352.765	415.69
352.992	404.69
353.22	387.69
353.447	413.69
353.674	391.69
353.901	385.69
354.128	381.69
354.355	371.69
354.583	377.69
354.81	366.69
355.037	362.69
355.264	380.69
355.491	372.69
355.718	343.69
355.945	373.69
356.172	381.69
356.399	365.69
356.626	355.69
356.853	345.69
357.08	368.69
357.307	365.69
357.534	340.69
357.761	356.69
357.988	358.69
358.215	359.69
358.441	353.69
358.668	383.69
358.895	384.69
359.122	383.69
359.349	367.69
359.576	404.69
359.802	415.69
360.029	473.69
360.256	481.69
360.483	458.69
360.709	413.69
360.936	393.69
361.163	412.69
361.39	392.69
361.616	407.69
361.843	400.69
362.07	414.69
362.296	437.69
362.523	387.69
362.749	395.69
362.976	404.69
363.203	363.69
363.429	367.69
363.656	378.69
363.882	395.69
364.109	368.69
364.335	370.69
364.562	373.69
364.788	389.69
365.015	374.69
365.241	373.69
365.468	404.69
365.694	380.69
365.92	398.69
366.147	394.69
366.373	371.69
366.599	386.69
366.826	390.69
367.052	371.69
367.278	385.69
367.505	373.69
367.731	395.69
367.957	383.69
368.184	377.69
368.41	379.69
368.636	413.69
368.862	390.69
369.089	387.69
369.315	379.69
369.541	355.69
369.767	382.69
369.993	373.69
370.219	359.69
370.445	363.69
370.672	375.69
370.898	357.69
371.124	353.69
371.35	369.69
371.576	382.69
371.802	369.69
372.028	366.69
372.254	351.69
372.48	362.69
372.706	354.69
372.932	374.69
373.158	351.69
373.384	358.69
373.61	358.69
373.835	360.69
374.061	374.69
374.287	371.69
374.513	369.69
374.739	374.69
374.965	363.69
375.191	363.69
375.416	355.69
375.642	360.69
375.868	385.69
376.094	365.69
376.319	367.69
376.545	377.69
376.771	366.69
376.997	367.69
377.222	357.69
377.448	362.69
377.674	362.69
377.899	364.69
378.125	371.69
378.35	339.69
378.576	359.69
378.802	339.69
379.027	363.69
379.253	356.69
379.478	344.69
379.704	366.69
379.929	367.69
380.155	353.69
380.38	348.69
380.606	357.69
380.831	345.69
381.057	353.69
381.282	370.69
381.507	353.69
381.733	361.69
381.958	353.69
382.184	362.69
382.409	362.69
382.634	359.69
382.86	365.69
383.085	373.69
383.31	374.69
383.535	375.69
383.761	367.69
383.986	371.69
384.211	371.69
384.436	374.69
384.662	375.69
384.887	371.69
385.112	374.69
385.337	377.69
385.562	376.69
385.787	392.69
386.013	401.69
386.238	409.69
386.463	415.69
386.688	377.69
386.913	371.69
387.138	361.69
387.363	392.69
387.588	358.69
387.813	377.69
388.038	369.69
388.263	375.69
388.488	381.69
388.713	387.69
388.938	381.69
389.163	375.69
389.387	389.69
389.612	375.69
389.837	381.69
390.062	377.69
390.287	371.69
390.512	377.69
390.736	366.69
390.961	375.69
391.186	391.69
391.411	385.69
391.636	388.69
391.86	384.69
392.085	389.69
392.31	396.69
392.534	379.69
392.759	379.69
392.984	386.69
393.208	392.69
393.433	392.69
393.658	394.69
393.882	369.69
394.107	384.69
394.331	403.69
394.556	363.69
394.78	371.69
395.005	399.69
395.229	389.69
395.454	399.69
395.678	388.69
395.903	408.69
396.127	437.69
396.352	433.69
396.576	421.69
396.801	383.69
397.025	387.69
397.249	386.69
397.474	399.69
397.698	386.69
397.922	412.69
398.147	426.69
398.371	457.69
398.595	430.69
398.82	424.69
399.044	432.69
399.268	417.69
399.492	445.69
399.717	484.69
399.941	487.69
400.165	529.69
400.389	537.69
400.613	483.69
400.837	449.69
401.062	463.69
401.286	447.69
401.51	457.69
401.734	438.69
401.958	423.69
402.182	445.69
402.406	457.69
402.63	456.69
402.854	451.69
403.078	465.69
403.302	470.69
403.526	475.69
403.75	473.69
403.974	449.69
404.198	460.69
404.422	484.69
404.645	484.69
404.869	469.69
405.093	497.69
405.317	557.69
405.541	549.69
405.765	531.69
405.988	476.69
406.212	512.69
406.436	540.69
406.66	521.69
406.883	531.69
407.107	538.69
407.331	591.69
407.555	623.69
407.778	644.69
408.002	583.69
408.226	520.69
408.449	527.69
408.673	509.69
408.896	547.69
409.12	587.69
409.344	542.69
409.567	480.69
409.791	484.69
410.014	465.69
410.238	455.69
410.461	461.69
410.685	460.69
410.908	490.69
411.132	511.69
411.355	559.69
411.578	523.69
411.802	488.69
412.025	475.69
412.249	480.69
412.472	523.69
412.695	542.69
412.919	549.69
413.142	483.69
413.365	458.69
413.589	463.69
413.812	473.69
414.035	442.69
414.258	425.69
414.482	408.69
414.705	427.69
414.928	433.69
415.151	422.69
415.374	442.69
415.597	432.69
415.821	409.69
416.044	440.69
416.267	436.69
416.49	441.69
416.713	435.69
416.936	423.69
417.159	440.69
417.382	434.69
417.605	447.69
417.828	464.69
418.051	478.69
418.274	455.69
418.497	452.69
418.72	439.69
418.943	426.69
419.166	464.69
419.389	478.69
419.611	445.69
419.834	449.69
420.057	462.69
420.28	463.69
420.503	478.69
420.726	486.69
420.948	482.69
421.171	518.69
421.394	569.69
421.617	508.69
421.839	466.69
422.062	476.69
422.285	513.69
422.507	531.69
422.73	629.69
422.953	593.69
423.175	549.69
423.398	499.69
423.621	470.69
423.843	519.69
424.066	504.69
424.288	509.69
424.511	543.69
424.733	597.69
424.956	653.69
425.178	633.69
425.401	663.69
425.623	678.69
425.846	593.69
426.068	527.69
426.291	527.69
426.513	510.69
426.735	546.69
426.958	563.69
427.18	650.69
427.402	785.69
427.625	932.69
427.847	812.69
428.069	708.69
428.292	612.69
428.514	538.69
428.736	515.69
428.958	512.69
429.181	490.69
429.403	509.69
429.625	501.69
429.847	532.69
430.069	593.69
430.292	560.69
430.514	505.69
430.736	489.69
430.958	456.69
431.18	449.69
431.402	449.69
431.624	447.69
431.846	439.69
432.068	438.69
432.29	440.69
432.512	447.69
432.734	448.69
432.956	458.69
433.178	484.69
433.4	476.69
433.622	466.69
433.844	446.69
434.066	442.69
434.287	445.69
434.509	443.69
434.731	467.69
434.953	469.69
435.175	482.69
435.397	531.69
435.618	537.69
435.84	597.69
436.062	678.69
436.284	735.69
436.505	617.69
436.727	562.69
436.949	509.69
437.17	502.69
437.392	482.69
437.614	487.69
437.835	506.69
438.057	656.69
438.278	783.69
438.5	760.69
438.721	807.69
438.943	774.69
439.165	632.69
439.386	557.69
439.608	564.69
439.829	537.69
440.05	599.69
440.272	633.69
440.493	597.69
440.715	535.69
440.936	499.69
441.158	506.69
441.379	496.69
441.6	498.69
441.822	537.69
442.043	588.69
442.264	648.69
442.486	680.69
442.707	613.69
442.928	538.69
443.149	561.69
443.371	599.69
443.592	617.69
443.813	706.69
444.034	767.69
444.255	640.69
444.476	547.69
444.698	543.69
444.919	517.69
445.14	607.69
445.361	583.69
445.582	595.69
445.803	646.69
446.024	745.69
446.245	802.69
446.466	696.69
446.687	585.69
446.908	548.69
447.129	522.69
447.35	476.69
447.571	497.69
447.792	507.69
448.013	499.69
448.234	522.69
448.455	583.69
448.675	702.69
448.896	771.69
449.117	691.69
449.338	643.69
449.559	725.69
449.779	831.69
450	686.69
450.221	574.69
450.442	508.69
450.662	501.69
450.883	513.69
451.104	541.69
451.324	517.69
451.545	486.69
451.766	451.69
451.986	457.69
452.207	426.69
452.428	443.69
452.648	450.69
452.869	443.69
453.089	457.69
453.31	470.69
453.53	461.69
453.751	454.69
453.971	440.69
454.192	494.69
454.412	494.69
454.633	436.69
454.853	430.69
455.073	445.69
455.294	469.69
455.514	544.69
455.734	525.69
455.955	459.69
456.175	433.69
456.395	389.69
456.616	416.69
456.836	403.69
457.056	407.69
457.276	399.69
457.497	398.69
457.717	421.69
457.937	415.69
458.157	432.69
458.377	437.69
458.598	457.69
458.818	533.69
459.038	634.69
459.258	639.69
459.478	521.69
459.698	458.69
459.918	436.69
460.138	448.69
460.358	459.69
460.578	439.69
460.798	456.69
461.018	476.69
461.238	429.69
461.458	441.69
461.678	416.69
461.898	433.69
462.118	429.69
462.338	440.69
462.558	428.69
462.777	453.69
462.997	445.69
463.217	457.69
463.437	456.69
463.657	447.69
463.876	443.69
464.096	456.69
464.316	465.69
464.536	489.69
464.755	461.69
464.975	475.69
465.195	557.69
465.414	667.69
465.634	570.69
465.854	507.69
466.073	482.69
466.293	462.69
466.512	433.69
466.732	434.69
466.951	430.69
467.171	445.69
467.391	444.69
467.61	448.69
467.829	466.69
468.049	442.69
468.268	475.69
468.488	429.69
468.707	448.69
468.927	421.69
469.146	427.69
469.365	427.69
469.585	434.69
469.804	432.69
470.023	442.69
470.243	453.69
470.462	449.69
470.681	462.69
470.901	462.69
471.12	465.69
471.339	444.69
471.558	437.69
471.777	469.69
471.997	453.69
472.216	455.69
472.435	504.69
472.654	476.69
472.873	472.69
473.092	446.69
473.311	454.69
473.53	451.69
473.749	454.69
473.968	504.69
474.187	605.69
474.406	629.69
474.625	504.69
474.844	469.69
475.063	465.69
475.282	449.69
475.501	458.69
475.72	447.69
475.939	479.69
476.158	483.69
476.377	473.69
476.596	468.69
476.814	477.69
477.033	478.69
477.252	486.69
477.471	459.69
477.69	456.69
477.908	481.69
478.127	471.69
478.346	484.69
478.564	503.69
478.783	505.69
479.002	493.69
479.22	509.69
479.439	518.69
479.658	566.69
479.876	546.69
480.095	549.69
480.313	557.69
480.532	551.69
480.751	557.69
480.969	563.69
481.188	633.69
481.406	695.69
481.624	608.69
481.843	582.69
482.061	542.69
482.28	527.69
482.498	520.69
482.717	519.69
482.935	520.69
483.153	516.69
483.372	543.69
483.59	529.69
483.808	539.69
484.027	542.69
484.245	520.69
484.463	514.69
484.681	541.69
484.9	543.69
485.118	549.69
485.336	535.69
485.554	535.69
485.772	553.69
485.99	539.69
486.209	543.69
486.427	554.69
486.645	558.69
486.863	598.69
487.081	582.69
487.299	587.69
487.517	571.69
487.735	582.69
487.953	556.69
488.171	578.69
488.389	599.69
488.607	567.69
488.825	574.69
489.043	583.69
489.261	570.69
489.479	561.69
489.696	593.69
489.914	600.69
490.132	586.69
490.35	624.69
490.568	605.69
490.786	629.69
491.003	627.69
491.221	634.69
491.439	656.69
491.657	669.69
491.874	669.69
492.092	654.69
492.31	678.69
492.527	658.69
492.745	666.69
492.963	701.69
493.18	685.69
493.398	686.69
493.615	697.69
493.833	696.69
494.05	715.69
494.268	689.69
494.485	673.69
494.703	691.69
494.92	699.69
495.138	695.69
495.355	695.69
495.573	707.69
495.79	706.69
496.008	713.69
496.225	701.69
496.442	691.69
496.66	702.69
496.877	708.69
497.094	665.69
497.312	674.69
497.529	715.69
497.746	716.69
497.963	710.69
498.181	744.69
498.398	760.69
498.615	742.69
498.832	742.69
499.049	733.69
499.267	753.69
499.484	770.69
499.701	765.69
499.918	797.69
500.135	801.69
500.352	809.69
500.569	820.69
500.786	841.69
501.003	864.69
501.22	851.69
501.437	808.69
501.654	833.69
501.871	856.69
