Data from 1980.PennyLincolnUp.Lamp.En5.5.200Scan.071819.P1_HRD10591_16-38-02-957.txt Node
Date: Thu Jul 18 16:38:02 EDT 2019
User: cochatt
Spectrometer: HR+D1059
Trigger mode: 1
Integration Time (sec): 1.000000E-1
Scans to average: 1
Electric dark correction enabled: true
Nonlinearity correction enabled: false
Boxcar width: 0
XAxis mode: Wavelengths
Number of Pixels in Spectrum: 2048
>>>>>Begin Spectral Data<<<<<
223.165	-10.88
223.4	-10.88
223.635	-10.88
223.869	-29.88
224.104	-20.88
224.338	-27.88
224.573	-16.88
224.808	-1.88
225.042	-2.88
225.277	1.12
225.511	3.12
225.746	-4.88
225.98	2.12
226.215	18.12
226.449	7.12
226.683	19.12
226.918	28.12
227.152	37.12
227.387	37.12
227.621	30.12
227.856	41.12
228.09	54.12
228.324	58.12
228.559	51.12
228.793	61.12
229.027	102.12
229.262	110.12
229.496	125.12
229.73	141.12
229.964	163.12
230.199	135.12
230.433	125.12
230.667	106.12
230.901	104.12
231.136	119.12
231.37	124.12
231.604	105.12
231.838	119.12
232.072	101.12
232.306	118.12
232.541	103.12
232.775	115.12
233.009	117.12
233.243	126.12
233.477	119.12
233.711	99.12
233.945	116.12
234.179	123.12
234.413	116.12
234.647	110.12
234.881	120.12
235.115	125.12
235.349	126.12
235.583	121.12
235.817	125.12
236.051	122.12
236.285	120.12
236.519	125.12
236.753	144.12
236.987	145.12
237.221	187.12
237.455	250.12
237.689	204.12
237.922	151.12
238.156	143.12
238.39	132.12
238.624	123.12
238.858	130.12
239.091	131.12
239.325	130.12
239.559	123.12
239.793	133.12
240.027	123.12
240.26	133.12
240.494	159.12
240.728	145.12
240.961	168.12
241.195	133.12
241.429	154.12
241.662	147.12
241.896	132.12
242.13	137.12
242.363	137.12
242.597	136.12
242.83	135.12
243.064	145.12
243.298	147.12
243.531	130.12
243.765	142.12
243.998	133.12
244.232	137.12
244.465	142.12
244.699	130.12
244.932	163.12
245.166	153.12
245.399	154.12
245.633	156.12
245.866	135.12
246.099	162.12
246.333	142.12
246.566	156.12
246.8	140.12
247.033	149.12
247.266	163.12
247.5	172.12
247.733	183.12
247.966	171.12
248.2	193.12
248.433	173.12
248.666	166.12
248.899	185.12
249.133	186.12
249.366	235.12
249.599	216.12
249.832	173.12
250.066	189.12
250.299	193.12
250.532	186.12
250.765	222.12
250.998	219.12
251.231	245.12
251.465	243.12
251.698	203.12
251.931	202.12
252.164	184.12
252.397	202.12
252.63	201.12
252.863	206.12
253.096	226.12
253.329	230.12
253.562	235.12
253.795	233.12
254.028	232.12
254.261	237.12
254.494	249.12
254.727	271.12
254.96	311.12
255.193	275.12
255.426	254.12
255.659	276.12
255.892	243.12
256.124	237.12
256.357	235.12
256.59	232.12
256.823	235.12
257.056	212.12
257.289	221.12
257.521	227.12
257.754	216.12
257.987	220.12
258.22	223.12
258.452	213.12
258.685	222.12
258.918	224.12
259.151	208.12
259.383	227.12
259.616	231.12
259.849	222.12
260.081	248.12
260.314	264.12
260.547	257.12
260.779	268.12
261.012	260.12
261.244	234.12
261.477	219.12
261.71	244.12
261.942	236.12
262.175	249.12
262.407	236.12
262.64	219.12
262.872	222.12
263.105	207.12
263.337	221.12
263.57	219.12
263.802	215.12
264.035	236.12
264.267	225.12
264.499	223.12
264.732	219.12
264.964	202.12
265.197	216.12
265.429	211.12
265.661	214.12
265.894	221.12
266.126	215.12
266.358	190.12
266.591	210.12
266.823	221.12
267.055	212.12
267.287	230.12
267.52	217.12
267.752	207.12
267.984	219.12
268.216	213.12
268.448	229.12
268.681	230.12
268.913	229.12
269.145	276.12
269.377	289.12
269.609	283.12
269.841	278.12
270.073	272.12
270.306	278.12
270.538	316.12
270.77	322.12
271.002	320.12
271.234	308.12
271.466	321.12
271.698	328.12
271.93	341.12
272.162	341.12
272.394	333.12
272.626	307.12
272.858	281.12
273.09	271.12
273.322	260.12
273.553	266.12
273.785	270.12
274.017	267.12
274.249	266.12
274.481	271.12
274.713	269.12
274.945	264.12
275.176	256.12
275.408	264.12
275.64	237.12
275.872	249.12
276.104	269.12
276.335	254.12
276.567	268.12
276.799	296.12
277.031	311.12
277.262	329.12
277.494	334.12
277.726	303.12
277.957	294.12
278.189	267.12
278.421	265.12
278.652	273.12
278.884	263.12
279.115	264.12
279.347	263.12
279.579	276.12
279.81	263.12
280.042	259.12
280.273	252.12
280.505	277.12
280.736	264.12
280.968	262.12
281.199	252.12
281.431	253.12
281.662	255.12
281.894	260.12
282.125	260.12
282.356	269.12
282.588	310.12
282.819	291.12
283.051	270.12
283.282	264.12
283.513	242.12
283.745	259.12
283.976	269.12
284.207	286.12
284.439	248.12
284.67	250.12
284.901	269.12
285.132	265.12
285.364	267.12
285.595	271.12
285.826	272.12
286.057	248.12
286.288	277.12
286.52	265.12
286.751	261.12
286.982	259.12
287.213	263.12
287.444	262.12
287.675	270.12
287.906	250.12
288.138	308.12
288.369	277.12
288.6	291.12
288.831	270.12
289.062	285.12
289.293	283.12
289.524	277.12
289.755	275.12
289.986	271.12
290.217	278.12
290.448	263.12
290.679	281.12
290.91	253.12
291.141	258.12
291.371	263.12
291.602	274.12
291.833	267.12
292.064	257.12
292.295	277.12
292.526	265.12
292.757	269.12
292.987	276.12
293.218	267.12
293.449	285.12
293.68	266.12
293.91	252.12
294.141	259.12
294.372	291.12
294.603	275.12
294.833	267.12
295.064	262.12
295.295	276.12
295.525	281.12
295.756	281.12
295.987	295.12
296.217	302.12
296.448	291.12
296.679	275.12
296.909	284.12
297.14	276.12
297.37	275.12
297.601	275.12
297.831	274.12
298.062	277.12
298.292	282.12
298.523	295.12
298.753	294.12
298.984	257.12
299.214	281.12
299.445	278.12
299.675	296.12
299.905	287.12
300.136	282.12
300.366	272.12
300.597	280.12
300.827	289.12
301.057	305.12
301.288	301.12
301.518	285.12
301.748	302.12
301.979	288.12
302.209	295.12
302.439	300.12
302.669	318.12
302.9	293.12
303.13	297.12
303.36	320.12
303.59	324.12
303.82	301.12
304.051	295.12
304.281	296.12
304.511	295.12
304.741	293.12
304.971	299.12
305.201	313.12
305.431	307.12
305.661	305.12
305.891	314.12
306.121	303.12
306.352	323.12
306.582	326.12
306.812	320.12
307.042	286.12
307.272	293.12
307.502	300.12
307.731	309.12
307.961	321.12
308.191	305.12
308.421	321.12
308.651	297.12
308.881	318.12
309.111	307.12
309.341	319.12
309.571	339.12
309.8	345.12
310.03	369.12
310.26	361.12
310.49	372.12
310.72	348.12
310.949	397.12
311.179	403.12
311.409	365.12
311.639	362.12
311.868	381.12
312.098	357.12
312.328	385.12
312.557	400.12
312.787	438.12
313.017	416.12
313.246	389.12
313.476	377.12
313.706	369.12
313.935	369.12
314.165	383.12
314.394	398.12
314.624	388.12
314.853	375.12
315.083	386.12
315.312	366.12
315.542	357.12
315.771	365.12
316.001	340.12
316.23	345.12
316.46	349.12
316.689	338.12
316.919	348.12
317.148	374.12
317.377	363.12
317.607	383.12
317.836	372.12
318.065	359.12
318.295	354.12
318.524	353.12
318.753	346.12
318.983	365.12
319.212	363.12
319.441	366.12
319.67	372.12
319.9	348.12
320.129	369.12
320.358	353.12
320.587	362.12
320.816	373.12
321.046	384.12
321.275	397.12
321.504	377.12
321.733	401.12
321.962	398.12
322.191	408.12
322.42	413.12
322.649	433.12
322.878	451.12
323.108	469.12
323.337	507.12
323.566	531.12
323.795	586.12
324.024	616.12
324.253	749.12
324.482	1108.12
324.71	1733.12
324.939	2463.12
325.168	2149.12
325.397	1145.12
325.626	721.12
325.855	613.12
326.084	542.12
326.313	545.12
326.542	550.12
326.77	601.12
326.999	703.12
327.228	990.12
327.457	1500.12
327.686	1890.12
327.914	1284.12
328.143	823.12
328.372	697.12
328.6	632.12
328.829	613.12
329.058	623.12
329.287	639.12
329.515	595.12
329.744	553.12
329.972	537.12
330.201	561.12
330.43	613.12
330.658	644.12
330.887	670.12
331.115	636.12
331.344	529.12
331.572	504.12
331.801	489.12
332.03	501.12
332.258	471.12
332.486	444.12
332.715	448.12
332.943	433.12
333.172	426.12
333.4	450.12
333.629	430.12
333.857	460.12
334.085	464.12
334.314	493.12
334.542	543.12
334.771	532.12
334.999	475.12
335.227	451.12
335.455	439.12
335.684	435.12
335.912	402.12
336.14	414.12
336.369	395.12
336.597	413.12
336.825	431.12
337.053	412.12
337.281	401.12
337.51	390.12
337.738	406.12
337.966	394.12
338.194	414.12
338.422	405.12
338.65	395.12
338.878	399.12
339.106	422.12
339.334	401.12
339.562	393.12
339.79	388.12
340.018	410.12
340.246	417.12
340.474	406.12
340.702	407.12
340.93	402.12
341.158	382.12
341.386	405.12
341.614	409.12
341.842	400.12
342.07	395.12
342.298	403.12
342.526	407.12
342.754	395.12
342.981	373.12
343.209	379.12
343.437	387.12
343.665	387.12
343.893	383.12
344.12	370.12
344.348	385.12
344.576	398.12
344.804	395.12
345.031	414.12
345.259	443.12
345.487	419.12
345.714	406.12
345.942	395.12
346.17	391.12
346.397	385.12
346.625	404.12
346.853	409.12
347.08	373.12
347.308	421.12
347.535	393.12
347.763	406.12
347.99	414.12
348.218	426.12
348.445	439.12
348.673	409.12
348.9	397.12
349.128	387.12
349.355	380.12
349.583	382.12
349.81	375.12
350.037	378.12
350.265	359.12
350.492	373.12
350.72	382.12
350.947	382.12
351.174	411.12
351.402	426.12
351.629	400.12
351.856	415.12
352.083	405.12
352.311	410.12
352.538	429.12
352.765	414.12
352.992	423.12
353.22	428.12
353.447	381.12
353.674	377.12
353.901	388.12
354.128	364.12
354.355	357.12
354.583	362.12
354.81	361.12
355.037	370.12
355.264	354.12
355.491	357.12
355.718	357.12
355.945	350.12
356.172	362.12
356.399	350.12
356.626	365.12
356.853	348.12
357.08	370.12
357.307	359.12
357.534	365.12
357.761	351.12
357.988	370.12
358.215	358.12
358.441	349.12
358.668	349.12
358.895	354.12
359.122	374.12
359.349	371.12
359.576	411.12
359.802	437.12
360.029	457.12
360.256	483.12
360.483	463.12
360.709	425.12
360.936	383.12
361.163	409.12
361.39	395.12
361.616	427.12
361.843	398.12
362.07	399.12
362.296	399.12
362.523	379.12
362.749	396.12
362.976	411.12
363.203	383.12
363.429	381.12
363.656	389.12
363.882	370.12
364.109	366.12
364.335	362.12
364.562	380.12
364.788	360.12
365.015	370.12
365.241	373.12
365.468	382.12
365.694	382.12
365.92	385.12
366.147	366.12
366.373	371.12
366.599	370.12
366.826	371.12
367.052	357.12
367.278	362.12
367.505	371.12
367.731	360.12
367.957	364.12
368.184	362.12
368.41	379.12
368.636	373.12
368.862	384.12
369.089	357.12
369.315	372.12
369.541	379.12
369.767	371.12
369.993	356.12
370.219	364.12
370.445	360.12
370.672	349.12
370.898	359.12
371.124	352.12
371.35	362.12
371.576	364.12
371.802	352.12
372.028	342.12
372.254	351.12
372.48	356.12
372.706	347.12
372.932	347.12
373.158	364.12
373.384	363.12
373.61	354.12
373.835	369.12
374.061	339.12
374.287	341.12
374.513	370.12
374.739	366.12
374.965	359.12
375.191	366.12
375.416	375.12
375.642	377.12
375.868	386.12
376.094	359.12
376.319	361.12
376.545	346.12
376.771	370.12
376.997	363.12
377.222	337.12
377.448	360.12
377.674	355.12
377.899	334.12
378.125	355.12
378.35	351.12
378.576	354.12
378.802	357.12
379.027	348.12
379.253	356.12
379.478	359.12
379.704	353.12
379.929	340.12
380.155	361.12
380.38	354.12
380.606	357.12
380.831	362.12
381.057	354.12
381.282	358.12
381.507	363.12
381.733	358.12
381.958	353.12
382.184	365.12
382.409	356.12
382.634	374.12
382.86	359.12
383.085	364.12
383.31	355.12
383.535	362.12
383.761	372.12
383.986	360.12
384.211	361.12
384.436	366.12
384.662	365.12
384.887	379.12
385.112	362.12
385.337	354.12
385.562	371.12
385.787	366.12
386.013	396.12
386.238	377.12
386.463	381.12
386.688	376.12
386.913	374.12
387.138	376.12
387.363	374.12
387.588	373.12
387.813	363.12
388.038	352.12
388.263	376.12
388.488	377.12
388.713	365.12
388.938	359.12
389.163	396.12
389.387	394.12
389.612	363.12
389.837	383.12
390.062	374.12
390.287	354.12
390.512	379.12
390.736	383.12
390.961	382.12
391.186	371.12
391.411	367.12
391.636	351.12
391.86	367.12
392.085	382.12
392.31	380.12
392.534	380.12
392.759	367.12
392.984	407.12
393.208	391.12
393.433	376.12
393.658	381.12
393.882	374.12
394.107	386.12
394.331	378.12
394.556	365.12
394.78	369.12
395.005	376.12
395.229	379.12
395.454	383.12
395.678	395.12
395.903	395.12
396.127	388.12
396.352	427.12
396.576	411.12
396.801	379.12
397.025	381.12
397.249	395.12
397.474	407.12
397.698	409.12
397.922	405.12
398.147	428.12
398.371	415.12
398.595	418.12
398.82	414.12
399.044	414.12
399.268	440.12
399.492	442.12
399.717	461.12
399.941	494.12
400.165	523.12
400.389	532.12
400.613	491.12
400.837	452.12
401.062	435.12
401.286	431.12
401.51	431.12
401.734	419.12
401.958	444.12
402.182	417.12
402.406	453.12
402.63	451.12
402.854	456.12
403.078	449.12
403.302	441.12
403.526	443.12
403.75	463.12
403.974	424.12
404.198	451.12
404.422	437.12
404.645	453.12
404.869	467.12
405.093	486.12
405.317	525.12
405.541	547.12
405.765	502.12
405.988	468.12
406.212	501.12
406.436	513.12
406.66	516.12
406.883	491.12
407.107	501.12
407.331	535.12
407.555	616.12
407.778	620.12
408.002	554.12
408.226	525.12
408.449	510.12
408.673	499.12
408.896	543.12
409.12	566.12
409.344	552.12
409.567	511.12
409.791	474.12
410.014	463.12
410.238	430.12
410.461	445.12
410.685	469.12
410.908	477.12
411.132	503.12
411.355	543.12
411.578	531.12
411.802	475.12
412.025	474.12
412.249	472.12
412.472	480.12
412.695	525.12
412.919	519.12
413.142	499.12
413.365	454.12
413.589	444.12
413.812	435.12
414.035	426.12
414.258	418.12
414.482	418.12
414.705	410.12
414.928	417.12
415.151	425.12
415.374	380.12
415.597	423.12
415.821	422.12
416.044	425.12
416.267	429.12
416.49	449.12
416.713	418.12
416.936	405.12
417.159	416.12
417.382	418.12
417.605	434.12
417.828	458.12
418.051	461.12
418.274	469.12
418.497	415.12
418.72	442.12
418.943	429.12
419.166	437.12
419.389	457.12
419.611	450.12
419.834	479.12
420.057	468.12
420.28	455.12
420.503	460.12
420.726	455.12
420.948	449.12
421.171	502.12
421.394	518.12
421.617	473.12
421.839	462.12
422.062	460.12
422.285	488.12
422.507	523.12
422.73	602.12
422.953	572.12
423.175	515.12
423.398	502.12
423.621	491.12
423.843	523.12
424.066	493.12
424.288	477.12
424.511	519.12
424.733	559.12
424.956	661.12
425.178	629.12
425.401	642.12
425.623	636.12
425.846	558.12
426.068	520.12
426.291	505.12
426.513	495.12
426.735	535.12
426.958	561.12
427.18	665.12
427.402	753.12
427.625	847.12
427.847	783.12
428.069	673.12
428.292	575.12
428.514	531.12
428.736	483.12
428.958	490.12
429.181	477.12
429.403	468.12
429.625	482.12
429.847	533.12
430.069	550.12
430.292	602.12
430.514	524.12
430.736	464.12
430.958	463.12
431.18	441.12
431.402	434.12
431.624	428.12
431.846	419.12
432.068	428.12
432.29	424.12
432.512	445.12
432.734	435.12
432.956	443.12
433.178	445.12
433.4	454.12
433.622	453.12
433.844	427.12
434.066	432.12
434.287	433.12
434.509	439.12
434.731	445.12
434.953	453.12
435.175	467.12
435.397	489.12
435.618	528.12
435.84	543.12
436.062	636.12
436.284	716.12
436.505	600.12
436.727	525.12
436.949	514.12
437.17	474.12
437.392	480.12
437.614	521.12
437.835	549.12
438.057	668.12
438.278	744.12
438.5	715.12
438.721	800.12
438.943	740.12
439.165	605.12
439.386	550.12
439.608	541.12
439.829	548.12
440.05	559.12
440.272	631.12
440.493	588.12
440.715	521.12
440.936	515.12
441.158	487.12
441.379	473.12
441.6	473.12
441.822	494.12
442.043	557.12
442.264	635.12
442.486	673.12
442.707	585.12
442.928	528.12
443.149	539.12
443.371	573.12
443.592	589.12
443.813	702.12
444.034	718.12
444.255	627.12
444.476	552.12
444.698	512.12
444.919	490.12
445.14	609.12
445.361	562.12
445.582	541.12
445.803	625.12
446.024	735.12
446.245	738.12
446.466	677.12
446.687	573.12
446.908	531.12
447.129	515.12
447.35	494.12
447.571	458.12
447.792	469.12
448.013	498.12
448.234	503.12
448.455	580.12
448.675	681.12
448.896	761.12
449.117	704.12
449.338	634.12
449.559	722.12
449.779	806.12
450	636.12
450.221	548.12
450.442	492.12
450.662	475.12
450.883	469.12
451.104	512.12
451.324	521.12
451.545	481.12
451.766	462.12
451.986	434.12
452.207	459.12
452.428	412.12
452.648	400.12
452.869	429.12
453.089	437.12
453.31	459.12
453.53	453.12
453.751	421.12
453.971	431.12
454.192	474.12
454.412	451.12
454.633	439.12
454.853	424.12
455.073	415.12
455.294	439.12
455.514	533.12
455.734	521.12
455.955	435.12
456.175	415.12
456.395	389.12
456.616	375.12
456.836	373.12
457.056	399.12
457.276	377.12
457.497	377.12
457.717	379.12
457.937	405.12
458.157	391.12
458.377	415.12
458.598	442.12
458.818	498.12
459.038	603.12
459.258	622.12
459.478	482.12
459.698	455.12
459.918	438.12
460.138	441.12
460.358	449.12
460.578	437.12
460.798	438.12
461.018	436.12
461.238	420.12
461.458	438.12
461.678	432.12
461.898	407.12
462.118	421.12
462.338	441.12
462.558	433.12
462.777	427.12
462.997	439.12
463.217	421.12
463.437	450.12
463.657	438.12
463.876	450.12
464.096	446.12
464.316	456.12
464.536	463.12
464.755	454.12
464.975	470.12
465.195	537.12
465.414	638.12
465.634	537.12
465.854	499.12
466.073	467.12
466.293	449.12
466.512	431.12
466.732	427.12
466.951	416.12
467.171	445.12
467.391	444.12
467.61	454.12
467.829	470.12
468.049	422.12
468.268	435.12
468.488	440.12
468.707	428.12
468.927	414.12
469.146	409.12
469.365	413.12
469.585	424.12
469.804	434.12
470.023	435.12
470.243	440.12
470.462	457.12
470.681	458.12
470.901	467.12
471.12	431.12
471.339	438.12
471.558	443.12
471.777	457.12
471.997	411.12
472.216	436.12
472.435	478.12
472.654	454.12
472.873	449.12
473.092	439.12
473.311	420.12
473.53	428.12
473.749	455.12
473.968	485.12
474.187	588.12
474.406	618.12
474.625	497.12
474.844	467.12
475.063	449.12
475.282	429.12
475.501	452.12
475.72	461.12
475.939	438.12
476.158	451.12
476.377	466.12
476.596	453.12
476.814	438.12
477.033	462.12
477.252	462.12
477.471	442.12
477.69	459.12
477.908	465.12
478.127	462.12
478.346	465.12
478.564	461.12
478.783	469.12
479.002	476.12
479.22	489.12
479.439	508.12
479.658	519.12
479.876	524.12
480.095	527.12
480.313	582.12
480.532	550.12
480.751	514.12
480.969	557.12
481.188	636.12
481.406	674.12
481.624	584.12
481.843	549.12
482.061	533.12
482.28	534.12
482.498	514.12
482.717	508.12
482.935	511.12
483.153	519.12
483.372	539.12
483.59	531.12
483.808	511.12
484.027	518.12
484.245	536.12
484.463	517.12
484.681	502.12
484.9	541.12
485.118	524.12
485.336	516.12
485.554	536.12
485.772	524.12
485.99	528.12
486.209	549.12
486.427	529.12
486.645	565.12
486.863	556.12
487.081	558.12
487.299	553.12
487.517	557.12
487.735	559.12
487.953	579.12
488.171	567.12
488.389	563.12
488.607	562.12
488.825	552.12
489.043	543.12
489.261	579.12
489.479	563.12
489.696	589.12
489.914	577.12
490.132	589.12
490.35	594.12
490.568	619.12
490.786	598.12
491.003	612.12
491.221	587.12
491.439	642.12
491.657	667.12
491.874	645.12
492.092	649.12
492.31	661.12
492.527	650.12
492.745	652.12
492.963	662.12
493.18	665.12
493.398	672.12
493.615	678.12
493.833	668.12
494.05	693.12
494.268	668.12
494.485	670.12
494.703	686.12
494.92	663.12
495.138	689.12
495.355	682.12
495.573	712.12
495.79	686.12
496.008	673.12
496.225	689.12
496.442	701.12
496.66	670.12
496.877	675.12
497.094	669.12
497.312	667.12
497.529	663.12
497.746	731.12
497.963	696.12
498.181	713.12
498.398	715.12
498.615	717.12
498.832	733.12
499.049	732.12
499.267	731.12
499.484	727.12
499.701	742.12
499.918	763.12
500.135	793.12
500.352	794.12
500.569	779.12
500.786	822.12
501.003	806.12
501.22	824.12
501.437	784.12
501.654	804.12
501.871	787.12
