Data from 1980.PennyLincolnUp.Lamp.En5.5.200Scan.071819.P1_HRD10591_16-36-24-956.txt Node
Date: Thu Jul 18 16:36:24 EDT 2019
User: cochatt
Spectrometer: HR+D1059
Trigger mode: 1
Integration Time (sec): 1.000000E-1
Scans to average: 1
Electric dark correction enabled: true
Nonlinearity correction enabled: false
Boxcar width: 0
XAxis mode: Wavelengths
Number of Pixels in Spectrum: 2048
>>>>>Begin Spectral Data<<<<<
223.165	-6.75
223.4	-6.75
223.635	-6.75
223.869	-12.75
224.104	-12.75
224.338	-11.75
224.573	-4.75
224.808	-28.75
225.042	-6.75
225.277	-8.75
225.511	2.25
225.746	0.25
225.98	3.25
226.215	17.25
226.449	5.25
226.683	20.25
226.918	13.25
227.152	31.25
227.387	36.25
227.621	39.25
227.856	43.25
228.09	35.25
228.324	41.25
228.559	29.25
228.793	50.25
229.027	89.25
229.262	96.25
229.496	116.25
229.73	112.25
229.964	133.25
230.199	139.25
230.433	103.25
230.667	104.25
230.901	104.25
231.136	104.25
231.37	106.25
231.604	99.25
231.838	102.25
232.072	113.25
232.306	119.25
232.541	105.25
232.775	112.25
233.009	106.25
233.243	103.25
233.477	103.25
233.711	103.25
233.945	98.25
234.179	116.25
234.413	101.25
234.647	113.25
234.881	112.25
235.115	109.25
235.349	122.25
235.583	111.25
235.817	112.25
236.051	106.25
236.285	112.25
236.519	102.25
236.753	140.25
236.987	140.25
237.221	167.25
237.455	216.25
237.689	161.25
237.922	120.25
238.156	118.25
238.39	127.25
238.624	108.25
238.858	104.25
239.091	113.25
239.325	102.25
239.559	111.25
239.793	121.25
240.027	127.25
240.26	111.25
240.494	131.25
240.728	119.25
240.961	126.25
241.195	115.25
241.429	110.25
241.662	117.25
241.896	114.25
242.13	126.25
242.363	125.25
242.597	127.25
242.83	142.25
243.064	113.25
243.298	130.25
243.531	123.25
243.765	124.25
243.998	121.25
244.232	127.25
244.465	127.25
244.699	132.25
244.932	141.25
245.166	127.25
245.399	132.25
245.633	129.25
245.866	127.25
246.099	122.25
246.333	128.25
246.566	134.25
246.8	124.25
247.033	146.25
247.266	149.25
247.5	147.25
247.733	144.25
247.966	173.25
248.2	166.25
248.433	162.25
248.666	156.25
248.899	140.25
249.133	180.25
249.366	182.25
249.599	173.25
249.832	158.25
250.066	177.25
250.299	159.25
250.532	159.25
250.765	179.25
250.998	197.25
251.231	190.25
251.465	188.25
251.698	178.25
251.931	181.25
252.164	184.25
252.397	171.25
252.63	182.25
252.863	187.25
253.096	213.25
253.329	207.25
253.562	203.25
253.795	196.25
254.028	195.25
254.261	198.25
254.494	210.25
254.727	226.25
254.96	239.25
255.193	231.25
255.426	237.25
255.659	196.25
255.892	193.25
256.124	202.25
256.357	197.25
256.59	202.25
256.823	198.25
257.056	185.25
257.289	179.25
257.521	185.25
257.754	199.25
257.987	192.25
258.22	168.25
258.452	178.25
258.685	167.25
258.918	192.25
259.151	195.25
259.383	194.25
259.616	193.25
259.849	202.25
260.081	193.25
260.314	200.25
260.547	218.25
260.779	211.25
261.012	223.25
261.244	193.25
261.477	202.25
261.71	209.25
261.942	186.25
262.175	213.25
262.407	198.25
262.64	201.25
262.872	188.25
263.105	188.25
263.337	193.25
263.57	167.25
263.802	190.25
264.035	187.25
264.267	181.25
264.499	171.25
264.732	202.25
264.964	173.25
265.197	177.25
265.429	179.25
265.661	176.25
265.894	190.25
266.126	177.25
266.358	196.25
266.591	197.25
266.823	199.25
267.055	192.25
267.287	193.25
267.52	189.25
267.752	187.25
267.984	199.25
268.216	197.25
268.448	199.25
268.681	210.25
268.913	191.25
269.145	213.25
269.377	221.25
269.609	234.25
269.841	206.25
270.073	228.25
270.306	244.25
270.538	259.25
270.77	280.25
271.002	254.25
271.234	261.25
271.466	247.25
271.698	263.25
271.93	272.25
272.162	268.25
272.394	251.25
272.626	267.25
272.858	250.25
273.09	234.25
273.322	218.25
273.553	218.25
273.785	231.25
274.017	195.25
274.249	221.25
274.481	232.25
274.713	214.25
274.945	211.25
275.176	232.25
275.408	227.25
275.64	216.25
275.872	215.25
276.104	212.25
276.335	223.25
276.567	232.25
276.799	232.25
277.031	267.25
277.262	267.25
277.494	265.25
277.726	266.25
277.957	243.25
278.189	245.25
278.421	233.25
278.652	226.25
278.884	208.25
279.115	225.25
279.347	203.25
279.579	222.25
279.81	213.25
280.042	221.25
280.273	227.25
280.505	234.25
280.736	224.25
280.968	216.25
281.199	202.25
281.431	209.25
281.662	204.25
281.894	225.25
282.125	219.25
282.356	240.25
282.588	246.25
282.819	236.25
283.051	204.25
283.282	216.25
283.513	224.25
283.745	217.25
283.976	218.25
284.207	239.25
284.439	232.25
284.67	227.25
284.901	219.25
285.132	242.25
285.364	223.25
285.595	206.25
285.826	228.25
286.057	221.25
286.288	210.25
286.52	212.25
286.751	219.25
286.982	201.25
287.213	234.25
287.444	232.25
287.675	239.25
287.906	248.25
288.138	242.25
288.369	239.25
288.6	237.25
288.831	230.25
289.062	251.25
289.293	239.25
289.524	223.25
289.755	220.25
289.986	215.25
290.217	223.25
290.448	215.25
290.679	238.25
290.91	223.25
291.141	204.25
291.371	235.25
291.602	247.25
291.833	231.25
292.064	225.25
292.295	225.25
292.526	226.25
292.757	226.25
292.987	228.25
293.218	234.25
293.449	242.25
293.68	240.25
293.91	216.25
294.141	244.25
294.372	239.25
294.603	235.25
294.833	247.25
295.064	240.25
295.295	238.25
295.525	224.25
295.756	232.25
295.987	227.25
296.217	260.25
296.448	275.25
296.679	255.25
296.909	241.25
297.14	223.25
297.37	230.25
297.601	224.25
297.831	250.25
298.062	241.25
298.292	216.25
298.523	253.25
298.753	221.25
298.984	239.25
299.214	234.25
299.445	251.25
299.675	233.25
299.905	234.25
300.136	239.25
300.366	263.25
300.597	245.25
300.827	251.25
301.057	241.25
301.288	257.25
301.518	257.25
301.748	255.25
301.979	235.25
302.209	251.25
302.439	235.25
302.669	256.25
302.9	244.25
303.13	261.25
303.36	259.25
303.59	254.25
303.82	260.25
304.051	266.25
304.281	251.25
304.511	272.25
304.741	240.25
304.971	242.25
305.201	250.25
305.431	236.25
305.661	260.25
305.891	257.25
306.121	253.25
306.352	263.25
306.582	263.25
306.812	269.25
307.042	255.25
307.272	252.25
307.502	235.25
307.731	267.25
307.961	274.25
308.191	236.25
308.421	266.25
308.651	269.25
308.881	273.25
309.111	252.25
309.341	267.25
309.571	279.25
309.8	269.25
310.03	293.25
310.26	283.25
310.49	300.25
310.72	309.25
310.949	308.25
311.179	329.25
311.409	295.25
311.639	291.25
311.868	284.25
312.098	294.25
312.328	298.25
312.557	310.25
312.787	317.25
313.017	331.25
313.246	317.25
313.476	288.25
313.706	309.25
313.935	288.25
314.165	297.25
314.394	339.25
314.624	311.25
314.853	323.25
315.083	299.25
315.312	300.25
315.542	296.25
315.771	277.25
316.001	285.25
316.23	288.25
316.46	299.25
316.689	297.25
316.919	296.25
317.148	299.25
317.377	306.25
317.607	313.25
317.836	312.25
318.065	280.25
318.295	292.25
318.524	293.25
318.753	288.25
318.983	309.25
319.212	293.25
319.441	292.25
319.67	305.25
319.9	302.25
320.129	320.25
320.358	313.25
320.587	290.25
320.816	329.25
321.046	313.25
321.275	319.25
321.504	308.25
321.733	312.25
321.962	287.25
322.191	319.25
322.42	357.25
322.649	343.25
322.878	371.25
323.108	383.25
323.337	381.25
323.566	412.25
323.795	421.25
324.024	491.25
324.253	573.25
324.482	795.25
324.71	1207.25
324.939	1741.25
325.168	1515.25
325.397	843.25
325.626	554.25
325.855	436.25
326.084	403.25
326.313	397.25
326.542	408.25
326.77	448.25
326.999	513.25
327.228	697.25
327.457	1080.25
327.686	1339.25
327.914	916.25
328.143	609.25
328.372	527.25
328.6	485.25
328.829	444.25
329.058	460.25
329.287	492.25
329.515	444.25
329.744	416.25
329.972	395.25
330.201	416.25
330.43	455.25
330.658	472.25
330.887	495.25
331.115	460.25
331.344	406.25
331.572	393.25
331.801	397.25
332.03	385.25
332.258	364.25
332.486	373.25
332.715	342.25
332.943	329.25
333.172	338.25
333.4	357.25
333.629	336.25
333.857	357.25
334.085	348.25
334.314	367.25
334.542	381.25
334.771	406.25
334.999	379.25
335.227	357.25
335.455	347.25
335.684	348.25
335.912	354.25
336.14	356.25
336.369	351.25
336.597	356.25
336.825	351.25
337.053	350.25
337.281	345.25
337.51	346.25
337.738	334.25
337.966	333.25
338.194	341.25
338.422	338.25
338.65	336.25
338.878	324.25
339.106	332.25
339.334	335.25
339.562	323.25
339.79	325.25
340.018	337.25
340.246	326.25
340.474	325.25
340.702	330.25
340.93	323.25
341.158	330.25
341.386	333.25
341.614	349.25
341.842	322.25
342.07	319.25
342.298	305.25
342.526	333.25
342.754	325.25
342.981	313.25
343.209	308.25
343.437	354.25
343.665	328.25
343.893	311.25
344.12	314.25
344.348	327.25
344.576	328.25
344.804	349.25
345.031	340.25
345.259	352.25
345.487	352.25
345.714	333.25
345.942	330.25
346.17	328.25
346.397	320.25
346.625	341.25
346.853	331.25
347.08	326.25
347.308	328.25
347.535	325.25
347.763	346.25
347.99	323.25
348.218	325.25
348.445	343.25
348.673	345.25
348.9	324.25
349.128	348.25
349.355	327.25
349.583	324.25
349.81	304.25
350.037	303.25
350.265	308.25
350.492	300.25
350.72	298.25
350.947	326.25
351.174	332.25
351.402	347.25
351.629	332.25
351.856	316.25
352.083	336.25
352.311	348.25
352.538	354.25
352.765	324.25
352.992	327.25
353.22	348.25
353.447	323.25
353.674	327.25
353.901	328.25
354.128	302.25
354.355	297.25
354.583	305.25
354.81	314.25
355.037	307.25
355.264	322.25
355.491	295.25
355.718	290.25
355.945	306.25
356.172	296.25
356.399	287.25
356.626	288.25
356.853	307.25
357.08	297.25
357.307	300.25
357.534	301.25
357.761	297.25
357.988	320.25
358.215	303.25
358.441	324.25
358.668	299.25
358.895	309.25
359.122	324.25
359.349	319.25
359.576	316.25
359.802	343.25
360.029	371.25
360.256	384.25
360.483	368.25
360.709	337.25
360.936	346.25
361.163	332.25
361.39	328.25
361.616	319.25
361.843	328.25
362.07	326.25
362.296	330.25
362.523	328.25
362.749	324.25
362.976	331.25
363.203	307.25
363.429	327.25
363.656	314.25
363.882	317.25
364.109	307.25
364.335	304.25
364.562	313.25
364.788	304.25
365.015	317.25
365.241	327.25
365.468	309.25
365.694	322.25
365.92	303.25
366.147	315.25
366.373	314.25
366.599	298.25
366.826	307.25
367.052	300.25
367.278	308.25
367.505	310.25
367.731	300.25
367.957	319.25
368.184	309.25
368.41	315.25
368.636	316.25
368.862	336.25
369.089	314.25
369.315	284.25
369.541	315.25
369.767	300.25
369.993	298.25
370.219	300.25
370.445	302.25
370.672	324.25
370.898	330.25
371.124	324.25
371.35	306.25
371.576	307.25
371.802	318.25
372.028	293.25
372.254	315.25
372.48	298.25
372.706	330.25
372.932	329.25
373.158	293.25
373.384	311.25
373.61	316.25
373.835	308.25
374.061	304.25
374.287	300.25
374.513	318.25
374.739	325.25
374.965	324.25
375.191	300.25
375.416	305.25
375.642	295.25
375.868	310.25
376.094	315.25
376.319	316.25
376.545	291.25
376.771	315.25
376.997	311.25
377.222	298.25
377.448	327.25
377.674	304.25
377.899	297.25
378.125	296.25
378.35	305.25
378.576	299.25
378.802	307.25
379.027	288.25
379.253	312.25
379.478	333.25
379.704	304.25
379.929	298.25
380.155	321.25
380.38	307.25
380.606	293.25
380.831	322.25
381.057	333.25
381.282	305.25
381.507	313.25
381.733	319.25
381.958	298.25
382.184	309.25
382.409	298.25
382.634	329.25
382.86	307.25
383.085	307.25
383.31	306.25
383.535	315.25
383.761	300.25
383.986	331.25
384.211	318.25
384.436	313.25
384.662	319.25
384.887	314.25
385.112	321.25
385.337	313.25
385.562	340.25
385.787	331.25
386.013	332.25
386.238	315.25
386.463	338.25
386.688	336.25
386.913	329.25
387.138	326.25
387.363	324.25
387.588	318.25
387.813	334.25
388.038	325.25
388.263	319.25
388.488	314.25
388.713	320.25
388.938	327.25
389.163	328.25
389.387	322.25
389.612	314.25
389.837	303.25
390.062	316.25
390.287	324.25
390.512	331.25
390.736	307.25
390.961	348.25
391.186	317.25
391.411	335.25
391.636	318.25
391.86	331.25
392.085	342.25
392.31	349.25
392.534	337.25
392.759	326.25
392.984	318.25
393.208	341.25
393.433	351.25
393.658	335.25
393.882	314.25
394.107	342.25
394.331	317.25
394.556	325.25
394.78	328.25
395.005	329.25
395.229	356.25
395.454	328.25
395.678	352.25
395.903	346.25
396.127	377.25
396.352	349.25
396.576	346.25
396.801	336.25
397.025	343.25
397.249	355.25
397.474	341.25
397.698	347.25
397.922	356.25
398.147	359.25
398.371	363.25
398.595	364.25
398.82	359.25
399.044	368.25
399.268	391.25
399.492	399.25
399.717	399.25
399.941	425.25
400.165	424.25
400.389	459.25
400.613	413.25
400.837	387.25
401.062	372.25
401.286	377.25
401.51	380.25
401.734	362.25
401.958	373.25
402.182	361.25
402.406	379.25
402.63	371.25
402.854	381.25
403.078	369.25
403.302	354.25
403.526	394.25
403.75	371.25
403.974	390.25
404.198	379.25
404.422	384.25
404.645	381.25
404.869	385.25
405.093	427.25
405.317	444.25
405.541	463.25
405.765	411.25
405.988	406.25
406.212	410.25
406.436	443.25
406.66	459.25
406.883	426.25
407.107	438.25
407.331	463.25
407.555	520.25
407.778	512.25
408.002	470.25
408.226	435.25
408.449	420.25
408.673	424.25
408.896	460.25
409.12	470.25
409.344	433.25
409.567	409.25
409.791	404.25
410.014	398.25
410.238	378.25
410.461	401.25
410.685	395.25
410.908	389.25
411.132	437.25
411.355	447.25
411.578	433.25
411.802	408.25
412.025	378.25
412.249	386.25
412.472	391.25
412.695	434.25
412.919	431.25
413.142	373.25
413.365	370.25
413.589	368.25
413.812	371.25
414.035	363.25
414.258	356.25
414.482	368.25
414.705	377.25
414.928	370.25
415.151	371.25
415.374	362.25
415.597	345.25
415.821	348.25
416.044	372.25
416.267	372.25
416.49	375.25
416.713	367.25
416.936	350.25
417.159	371.25
417.382	371.25
417.605	368.25
417.828	383.25
418.051	392.25
418.274	392.25
418.497	358.25
418.72	359.25
418.943	344.25
419.166	385.25
419.389	409.25
419.611	397.25
419.834	387.25
420.057	368.25
420.28	397.25
420.503	383.25
420.726	391.25
420.948	376.25
421.171	428.25
421.394	464.25
421.617	426.25
421.839	418.25
422.062	388.25
422.285	411.25
422.507	418.25
422.73	527.25
422.953	480.25
423.175	431.25
423.398	427.25
423.621	403.25
423.843	431.25
424.066	417.25
424.288	413.25
424.511	443.25
424.733	474.25
424.956	551.25
425.178	535.25
425.401	510.25
425.623	535.25
425.846	463.25
426.068	450.25
426.291	421.25
426.513	417.25
426.735	453.25
426.958	468.25
427.18	530.25
427.402	632.25
427.625	679.25
427.847	624.25
428.069	535.25
428.292	478.25
428.514	439.25
428.736	421.25
428.958	412.25
429.181	401.25
429.403	395.25
429.625	399.25
429.847	417.25
430.069	484.25
430.292	485.25
430.514	424.25
430.736	384.25
430.958	390.25
431.18	396.25
431.402	363.25
431.624	379.25
431.846	383.25
432.068	356.25
432.29	360.25
432.512	386.25
432.734	392.25
432.956	366.25
433.178	387.25
433.4	376.25
433.622	375.25
433.844	363.25
434.066	368.25
434.287	373.25
434.509	379.25
434.731	386.25
434.953	406.25
435.175	403.25
435.397	436.25
435.618	443.25
435.84	461.25
436.062	515.25
436.284	633.25
436.505	499.25
436.727	452.25
436.949	405.25
437.17	418.25
437.392	410.25
437.614	422.25
437.835	448.25
438.057	527.25
438.278	616.25
438.5	594.25
438.721	648.25
438.943	607.25
439.165	511.25
439.386	485.25
439.608	441.25
439.829	445.25
440.05	473.25
440.272	516.25
440.493	463.25
440.715	429.25
440.936	407.25
441.158	391.25
441.379	406.25
441.6	428.25
441.822	437.25
442.043	454.25
442.264	517.25
442.486	580.25
442.707	478.25
442.928	445.25
443.149	445.25
443.371	482.25
443.592	505.25
443.813	557.25
444.034	610.25
444.255	515.25
444.476	441.25
444.698	441.25
444.919	436.25
445.14	501.25
445.361	472.25
445.582	457.25
445.803	513.25
446.024	598.25
446.245	595.25
446.466	571.25
446.687	467.25
446.908	431.25
447.129	413.25
447.35	417.25
447.571	406.25
447.792	400.25
448.013	393.25
448.234	421.25
448.455	468.25
448.675	560.25
448.896	645.25
449.117	561.25
449.338	517.25
449.559	613.25
449.779	669.25
450	542.25
450.221	451.25
450.442	435.25
450.662	407.25
450.883	399.25
451.104	389.25
451.324	396.25
451.545	377.25
451.766	379.25
451.986	375.25
452.207	359.25
452.428	349.25
452.648	358.25
452.869	354.25
453.089	371.25
453.31	388.25
453.53	360.25
453.751	344.25
453.971	356.25
454.192	387.25
454.412	356.25
454.633	366.25
454.853	362.25
455.073	351.25
455.294	385.25
455.514	437.25
455.734	424.25
455.955	371.25
456.175	343.25
456.395	346.25
456.616	341.25
456.836	340.25
457.056	317.25
457.276	343.25
457.497	328.25
457.717	327.25
457.937	323.25
458.157	348.25
458.377	364.25
458.598	372.25
458.818	414.25
459.038	489.25
459.258	490.25
459.478	417.25
459.698	374.25
459.918	363.25
460.138	378.25
460.358	384.25
460.578	355.25
460.798	362.25
461.018	383.25
461.238	345.25
461.458	369.25
461.678	382.25
461.898	372.25
462.118	362.25
462.338	371.25
462.558	379.25
462.777	354.25
462.997	374.25
463.217	403.25
463.437	412.25
463.657	377.25
463.876	383.25
464.096	394.25
464.316	379.25
464.536	392.25
464.755	396.25
464.975	382.25
465.195	456.25
465.414	514.25
465.634	451.25
465.854	420.25
466.073	378.25
466.293	377.25
466.512	363.25
466.732	361.25
466.951	368.25
467.171	359.25
467.391	369.25
467.61	363.25
467.829	361.25
468.049	372.25
468.268	371.25
468.488	368.25
468.707	362.25
468.927	365.25
469.146	355.25
469.365	330.25
469.585	353.25
469.804	348.25
470.023	370.25
470.243	369.25
470.462	383.25
470.681	391.25
470.901	375.25
471.12	382.25
471.339	379.25
471.558	366.25
471.777	364.25
471.997	351.25
472.216	375.25
472.435	389.25
472.654	371.25
472.873	377.25
473.092	376.25
473.311	359.25
473.53	381.25
473.749	388.25
473.968	401.25
474.187	490.25
474.406	531.25
474.625	420.25
474.844	408.25
475.063	363.25
475.282	378.25
475.501	378.25
475.72	374.25
475.939	352.25
476.158	387.25
476.377	373.25
476.596	381.25
476.814	388.25
477.033	401.25
477.252	398.25
477.471	386.25
477.69	398.25
477.908	388.25
478.127	388.25
478.346	393.25
478.564	390.25
478.783	412.25
479.002	405.25
479.22	418.25
479.439	417.25
479.658	435.25
479.876	434.25
480.095	433.25
480.313	484.25
480.532	451.25
480.751	461.25
480.969	466.25
481.188	487.25
481.406	506.25
481.624	460.25
481.843	447.25
482.061	441.25
482.28	425.25
482.498	441.25
482.717	430.25
482.935	413.25
483.153	437.25
483.372	440.25
483.59	451.25
483.808	439.25
484.027	447.25
484.245	448.25
484.463	447.25
484.681	452.25
484.9	424.25
485.118	465.25
485.336	437.25
485.554	443.25
485.772	450.25
485.99	444.25
486.209	451.25
486.427	450.25
486.645	451.25
486.863	469.25
487.081	479.25
487.299	472.25
487.517	460.25
487.735	459.25
487.953	468.25
488.171	461.25
488.389	482.25
488.607	479.25
488.825	474.25
489.043	482.25
489.261	463.25
489.479	482.25
489.696	468.25
489.914	482.25
490.132	484.25
490.35	469.25
490.568	515.25
490.786	500.25
491.003	513.25
491.221	517.25
491.439	523.25
491.657	535.25
491.874	523.25
492.092	539.25
492.31	514.25
492.527	529.25
492.745	532.25
492.963	537.25
493.18	546.25
493.398	539.25
493.615	549.25
493.833	550.25
494.05	567.25
494.268	573.25
494.485	555.25
494.703	541.25
494.92	557.25
495.138	559.25
495.355	555.25
495.573	566.25
495.79	571.25
496.008	565.25
496.225	563.25
496.442	560.25
496.66	547.25
496.877	563.25
497.094	561.25
497.312	575.25
497.529	576.25
497.746	578.25
497.963	564.25
498.181	598.25
498.398	615.25
498.615	612.25
498.832	626.25
499.049	621.25
499.267	643.25
499.484	620.25
499.701	658.25
499.918	659.25
500.135	695.25
500.352	692.25
500.569	689.25
500.786	704.25
501.003	705.25
501.22	683.25
501.437	674.25
501.654	679.25
501.871	659.25
502.088	654.25
