Data from 1980.PennyLincolnUp.Lamp.En5.5.200Scan.071819.P1_HRD10591_16-36-42-956.txt Node
Date: Thu Jul 18 16:36:42 EDT 2019
User: cochatt
Spectrometer: HR+D1059
Trigger mode: 1
Integration Time (sec): 1.000000E-1
Scans to average: 1
Electric dark correction enabled: true
Nonlinearity correction enabled: false
Boxcar width: 0
XAxis mode: Wavelengths
Number of Pixels in Spectrum: 2048
>>>>>Begin Spectral Data<<<<<
223.165	-9.69
223.4	-9.69
223.635	-9.69
223.869	-17.69
224.104	-27.69
224.338	-12.69
224.573	-4.69
224.808	-3.69
225.042	-12.69
225.277	-8.69
225.511	-6.69
225.746	-0.69
225.98	7.31
226.215	12.31
226.449	14.31
226.683	23.31
226.918	10.31
227.152	37.31
227.387	24.31
227.621	27.31
227.856	49.31
228.09	60.31
228.324	48.31
228.559	55.31
228.793	63.31
229.027	107.31
229.262	116.31
229.496	116.31
229.73	145.31
229.964	136.31
230.199	122.31
230.433	109.31
230.667	127.31
230.901	90.31
231.136	108.31
231.37	99.31
231.604	111.31
231.838	117.31
232.072	114.31
232.306	106.31
232.541	105.31
232.775	106.31
233.009	115.31
233.243	114.31
233.477	109.31
233.711	106.31
233.945	107.31
234.179	120.31
234.413	117.31
234.647	110.31
234.881	113.31
235.115	105.31
235.349	107.31
235.583	116.31
235.817	121.31
236.051	117.31
236.285	118.31
236.519	125.31
236.753	133.31
236.987	141.31
237.221	181.31
237.455	221.31
237.689	173.31
237.922	131.31
238.156	128.31
238.39	123.31
238.624	107.31
238.858	130.31
239.091	119.31
239.325	120.31
239.559	125.31
239.793	114.31
240.027	117.31
240.26	147.31
240.494	140.31
240.728	159.31
240.961	161.31
241.195	134.31
241.429	131.31
241.662	129.31
241.896	132.31
242.13	129.31
242.363	117.31
242.597	131.31
242.83	135.31
243.064	121.31
243.298	137.31
243.531	123.31
243.765	140.31
243.998	133.31
244.232	117.31
244.465	132.31
244.699	124.31
244.932	144.31
245.166	135.31
245.399	134.31
245.633	138.31
245.866	155.31
246.099	122.31
246.333	147.31
246.566	131.31
246.8	147.31
247.033	145.31
247.266	151.31
247.5	161.31
247.733	164.31
247.966	145.31
248.2	178.31
248.433	163.31
248.666	164.31
248.899	181.31
249.133	194.31
249.366	196.31
249.599	196.31
249.832	188.31
250.066	179.31
250.299	172.31
250.532	172.31
250.765	183.31
250.998	213.31
251.231	211.31
251.465	190.31
251.698	199.31
251.931	211.31
252.164	191.31
252.397	199.31
252.63	205.31
252.863	201.31
253.096	202.31
253.329	219.31
253.562	223.31
253.795	195.31
254.028	208.31
254.261	211.31
254.494	209.31
254.727	250.31
254.96	279.31
255.193	270.31
255.426	260.31
255.659	236.31
255.892	217.31
256.124	225.31
256.357	223.31
256.59	215.31
256.823	214.31
257.056	204.31
257.289	184.31
257.521	214.31
257.754	199.31
257.987	197.31
258.22	196.31
258.452	203.31
258.685	195.31
258.918	198.31
259.151	203.31
259.383	214.31
259.616	224.31
259.849	206.31
260.081	206.31
260.314	225.31
260.547	235.31
260.779	243.31
261.012	221.31
261.244	230.31
261.477	231.31
261.71	217.31
261.942	212.31
262.175	224.31
262.407	217.31
262.64	220.31
262.872	208.31
263.105	216.31
263.337	188.31
263.57	211.31
263.802	201.31
264.035	212.31
264.267	206.31
264.499	192.31
264.732	207.31
264.964	211.31
265.197	199.31
265.429	183.31
265.661	202.31
265.894	189.31
266.126	192.31
266.358	207.31
266.591	205.31
266.823	214.31
267.055	217.31
267.287	216.31
267.52	214.31
267.752	228.31
267.984	201.31
268.216	207.31
268.448	219.31
268.681	207.31
268.913	239.31
269.145	228.31
269.377	243.31
269.609	269.31
269.841	247.31
270.073	267.31
270.306	273.31
270.538	325.31
270.77	303.31
271.002	296.31
271.234	268.31
271.466	279.31
271.698	300.31
271.93	288.31
272.162	306.31
272.394	297.31
272.626	281.31
272.858	290.31
273.09	275.31
273.322	273.31
273.553	256.31
273.785	262.31
274.017	242.31
274.249	235.31
274.481	235.31
274.713	248.31
274.945	254.31
275.176	233.31
275.408	239.31
275.64	243.31
275.872	243.31
276.104	259.31
276.335	239.31
276.567	260.31
276.799	284.31
277.031	291.31
277.262	292.31
277.494	317.31
277.726	291.31
277.957	272.31
278.189	265.31
278.421	247.31
278.652	261.31
278.884	255.31
279.115	240.31
279.347	247.31
279.579	224.31
279.81	232.31
280.042	262.31
280.273	246.31
280.505	261.31
280.736	226.31
280.968	241.31
281.199	226.31
281.431	239.31
281.662	227.31
281.894	231.31
282.125	247.31
282.356	260.31
282.588	291.31
282.819	279.31
283.051	256.31
283.282	257.31
283.513	242.31
283.745	236.31
283.976	249.31
284.207	246.31
284.439	267.31
284.67	258.31
284.901	256.31
285.132	242.31
285.364	257.31
285.595	249.31
285.826	249.31
286.057	253.31
286.288	259.31
286.52	244.31
286.751	255.31
286.982	245.31
287.213	262.31
287.444	244.31
287.675	245.31
287.906	247.31
288.138	259.31
288.369	249.31
288.6	270.31
288.831	267.31
289.062	273.31
289.293	255.31
289.524	244.31
289.755	246.31
289.986	260.31
290.217	251.31
290.448	253.31
290.679	264.31
290.91	259.31
291.141	251.31
291.371	251.31
291.602	260.31
291.833	271.31
292.064	245.31
292.295	228.31
292.526	250.31
292.757	248.31
292.987	253.31
293.218	272.31
293.449	260.31
293.68	278.31
293.91	251.31
294.141	254.31
294.372	267.31
294.603	252.31
294.833	266.31
295.064	250.31
295.295	265.31
295.525	256.31
295.756	257.31
295.987	262.31
296.217	296.31
296.448	317.31
296.679	272.31
296.909	277.31
297.14	252.31
297.37	276.31
297.601	251.31
297.831	256.31
298.062	253.31
298.292	255.31
298.523	264.31
298.753	287.31
298.984	291.31
299.214	270.31
299.445	274.31
299.675	277.31
299.905	297.31
300.136	269.31
300.366	268.31
300.597	274.31
300.827	270.31
301.057	271.31
301.288	296.31
301.518	293.31
301.748	283.31
301.979	282.31
302.209	268.31
302.439	292.31
302.669	296.31
302.9	281.31
303.13	283.31
303.36	289.31
303.59	287.31
303.82	325.31
304.051	285.31
304.281	293.31
304.511	289.31
304.741	292.31
304.971	267.31
305.201	298.31
305.431	268.31
305.661	296.31
305.891	292.31
306.121	279.31
306.352	273.31
306.582	299.31
306.812	284.31
307.042	279.31
307.272	283.31
307.502	293.31
307.731	292.31
307.961	294.31
308.191	282.31
308.421	288.31
308.651	287.31
308.881	313.31
309.111	313.31
309.341	306.31
309.571	298.31
309.8	342.31
310.03	330.31
310.26	326.31
310.49	324.31
310.72	329.31
310.949	345.31
311.179	362.31
311.409	338.31
311.639	344.31
311.868	328.31
312.098	347.31
312.328	348.31
312.557	351.31
312.787	364.31
313.017	377.31
313.246	350.31
313.476	350.31
313.706	324.31
313.935	349.31
314.165	354.31
314.394	374.31
314.624	351.31
314.853	339.31
315.083	327.31
315.312	333.31
315.542	313.31
315.771	320.31
316.001	313.31
316.23	340.31
316.46	346.31
316.689	332.31
316.919	337.31
317.148	331.31
317.377	351.31
317.607	336.31
317.836	344.31
318.065	336.31
318.295	337.31
318.524	335.31
318.753	346.31
318.983	324.31
319.212	333.31
319.441	343.31
319.67	337.31
319.9	338.31
320.129	328.31
320.358	341.31
320.587	345.31
320.816	376.31
321.046	343.31
321.275	355.31
321.504	360.31
321.733	348.31
321.962	356.31
322.191	378.31
322.42	377.31
322.649	406.31
322.878	423.31
323.108	425.31
323.337	445.31
323.566	442.31
323.795	499.31
324.024	542.31
324.253	642.31
324.482	928.31
324.71	1450.31
324.939	2048.31
325.168	1833.31
325.397	972.31
325.626	635.31
325.855	513.31
326.084	460.31
326.313	458.31
326.542	491.31
326.77	504.31
326.999	620.31
327.228	820.31
327.457	1269.31
327.686	1559.31
327.914	1073.31
328.143	685.31
328.372	607.31
328.6	548.31
328.829	540.31
329.058	517.31
329.287	551.31
329.515	518.31
329.744	472.31
329.972	454.31
330.201	457.31
330.43	514.31
330.658	545.31
330.887	566.31
331.115	555.31
331.344	467.31
331.572	451.31
331.801	455.31
332.03	457.31
332.258	426.31
332.486	409.31
332.715	406.31
332.943	400.31
333.172	406.31
333.4	401.31
333.629	396.31
333.857	410.31
334.085	431.31
334.314	421.31
334.542	457.31
334.771	463.31
334.999	441.31
335.227	409.31
335.455	382.31
335.684	379.31
335.912	389.31
336.14	373.31
336.369	379.31
336.597	401.31
336.825	397.31
337.053	380.31
337.281	375.31
337.51	393.31
337.738	376.31
337.966	379.31
338.194	392.31
338.422	405.31
338.65	395.31
338.878	356.31
339.106	376.31
339.334	376.31
339.562	359.31
339.79	368.31
340.018	375.31
340.246	410.31
340.474	361.31
340.702	390.31
340.93	381.31
341.158	382.31
341.386	367.31
341.614	380.31
341.842	352.31
342.07	367.31
342.298	359.31
342.526	380.31
342.754	363.31
342.981	350.31
343.209	353.31
343.437	364.31
343.665	373.31
343.893	369.31
344.12	381.31
344.348	368.31
344.576	359.31
344.804	393.31
345.031	392.31
345.259	410.31
345.487	392.31
345.714	379.31
345.942	375.31
346.17	372.31
346.397	378.31
346.625	370.31
346.853	376.31
347.08	373.31
347.308	361.31
347.535	372.31
347.763	373.31
347.99	383.31
348.218	380.31
348.445	386.31
348.673	386.31
348.9	386.31
349.128	368.31
349.355	368.31
349.583	360.31
349.81	344.31
350.037	359.31
350.265	356.31
350.492	356.31
350.72	357.31
350.947	364.31
351.174	364.31
351.402	387.31
351.629	377.31
351.856	382.31
352.083	382.31
352.311	387.31
352.538	393.31
352.765	427.31
352.992	388.31
353.22	390.31
353.447	360.31
353.674	379.31
353.901	345.31
354.128	339.31
354.355	350.31
354.583	342.31
354.81	365.31
355.037	346.31
355.264	350.31
355.491	331.31
355.718	322.31
355.945	340.31
356.172	334.31
356.399	331.31
356.626	337.31
356.853	340.31
357.08	343.31
357.307	339.31
357.534	355.31
357.761	316.31
357.988	352.31
358.215	345.31
358.441	335.31
358.668	351.31
358.895	340.31
359.122	367.31
359.349	357.31
359.576	367.31
359.802	407.31
360.029	409.31
360.256	437.31
360.483	393.31
360.709	386.31
360.936	388.31
361.163	379.31
361.39	397.31
361.616	390.31
361.843	355.31
362.07	355.31
362.296	367.31
362.523	362.31
362.749	353.31
362.976	371.31
363.203	358.31
363.429	361.31
363.656	365.31
363.882	349.31
364.109	364.31
364.335	358.31
364.562	335.31
364.788	354.31
365.015	372.31
365.241	335.31
365.468	345.31
365.694	358.31
365.92	360.31
366.147	356.31
366.373	336.31
366.599	349.31
366.826	341.31
367.052	346.31
367.278	340.31
367.505	353.31
367.731	345.31
367.957	349.31
368.184	351.31
368.41	377.31
368.636	370.31
368.862	375.31
369.089	352.31
369.315	329.31
369.541	364.31
369.767	347.31
369.993	345.31
370.219	356.31
370.445	344.31
370.672	358.31
370.898	327.31
371.124	348.31
371.35	346.31
371.576	359.31
371.802	343.31
372.028	327.31
372.254	336.31
372.48	352.31
372.706	337.31
372.932	343.31
373.158	355.31
373.384	341.31
373.61	354.31
373.835	352.31
374.061	366.31
374.287	339.31
374.513	369.31
374.739	361.31
374.965	352.31
375.191	361.31
375.416	361.31
375.642	332.31
375.868	362.31
376.094	349.31
376.319	360.31
376.545	340.31
376.771	348.31
376.997	348.31
377.222	318.31
377.448	337.31
377.674	353.31
377.899	332.31
378.125	348.31
378.35	352.31
378.576	329.31
378.802	340.31
379.027	351.31
379.253	336.31
379.478	341.31
379.704	353.31
379.929	362.31
380.155	347.31
380.38	355.31
380.606	357.31
380.831	356.31
381.057	350.31
381.282	326.31
381.507	339.31
381.733	365.31
381.958	360.31
382.184	336.31
382.409	359.31
382.634	362.31
382.86	330.31
383.085	365.31
383.31	383.31
383.535	367.31
383.761	361.31
383.986	373.31
384.211	359.31
384.436	363.31
384.662	374.31
384.887	385.31
385.112	354.31
385.337	374.31
385.562	361.31
385.787	356.31
386.013	370.31
386.238	371.31
386.463	381.31
386.688	373.31
386.913	378.31
387.138	355.31
387.363	367.31
387.588	357.31
387.813	369.31
388.038	365.31
388.263	383.31
388.488	355.31
388.713	364.31
388.938	369.31
389.163	377.31
389.387	380.31
389.612	367.31
389.837	355.31
390.062	371.31
390.287	371.31
390.512	355.31
390.736	365.31
390.961	377.31
391.186	373.31
391.411	382.31
391.636	371.31
391.86	377.31
392.085	357.31
392.31	383.31
392.534	375.31
392.759	367.31
392.984	381.31
393.208	384.31
393.433	385.31
393.658	381.31
393.882	364.31
394.107	367.31
394.331	365.31
394.556	367.31
394.78	383.31
395.005	366.31
395.229	377.31
395.454	367.31
395.678	395.31
395.903	392.31
396.127	388.31
396.352	411.31
396.576	394.31
396.801	390.31
397.025	390.31
397.249	392.31
397.474	383.31
397.698	373.31
397.922	403.31
398.147	439.31
398.371	427.31
398.595	387.31
398.82	416.31
399.044	419.31
399.268	427.31
399.492	428.31
399.717	449.31
399.941	462.31
400.165	505.31
400.389	535.31
400.613	501.31
400.837	442.31
401.062	439.31
401.286	432.31
401.51	428.31
401.734	417.31
401.958	422.31
402.182	414.31
402.406	412.31
402.63	449.31
402.854	422.31
403.078	427.31
403.302	442.31
403.526	441.31
403.75	445.31
403.974	436.31
404.198	419.31
404.422	426.31
404.645	443.31
404.869	444.31
405.093	459.31
405.317	496.31
405.541	507.31
405.765	491.31
405.988	473.31
406.212	470.31
406.436	484.31
406.66	500.31
406.883	492.31
407.107	508.31
407.331	532.31
407.555	598.31
407.778	589.31
408.002	527.31
408.226	504.31
408.449	482.31
408.673	499.31
408.896	494.31
409.12	553.31
409.344	513.31
409.567	471.31
409.791	469.31
410.014	432.31
410.238	426.31
410.461	435.31
410.685	469.31
410.908	468.31
411.132	479.31
411.355	516.31
411.578	493.31
411.802	465.31
412.025	439.31
412.249	443.31
412.472	464.31
412.695	527.31
412.919	491.31
413.142	440.31
413.365	434.31
413.589	443.31
413.812	428.31
414.035	443.31
414.258	417.31
414.482	401.31
414.705	425.31
414.928	421.31
415.151	385.31
415.374	432.31
415.597	389.31
415.821	433.31
416.044	397.31
416.267	434.31
416.49	407.31
416.713	390.31
416.936	423.31
417.159	417.31
417.382	415.31
417.605	426.31
417.828	435.31
418.051	445.31
418.274	429.31
418.497	405.31
418.72	440.31
418.943	411.31
419.166	425.31
419.389	417.31
419.611	439.31
419.834	423.31
420.057	441.31
420.28	455.31
420.503	461.31
420.726	444.31
420.948	446.31
421.171	496.31
421.394	524.31
421.617	460.31
421.839	449.31
422.062	464.31
422.285	461.31
422.507	508.31
422.73	567.31
422.953	569.31
423.175	514.31
423.398	479.31
423.621	465.31
423.843	505.31
424.066	485.31
424.288	475.31
424.511	486.31
424.733	563.31
424.956	603.31
425.178	580.31
425.401	602.31
425.623	626.31
425.846	543.31
426.068	491.31
426.291	478.31
426.513	500.31
426.735	522.31
426.958	535.31
427.18	591.31
427.402	723.31
427.625	819.31
427.847	736.31
428.069	623.31
428.292	555.31
428.514	495.31
428.736	491.31
428.958	477.31
429.181	438.31
429.403	448.31
429.625	462.31
429.847	503.31
430.069	562.31
430.292	556.31
430.514	499.31
430.736	444.31
430.958	439.31
431.18	420.31
431.402	411.31
431.624	407.31
431.846	400.31
432.068	402.31
432.29	437.31
432.512	420.31
432.734	461.31
432.956	432.31
433.178	421.31
433.4	444.31
433.622	455.31
433.844	403.31
434.066	407.31
434.287	435.31
434.509	420.31
434.731	436.31
434.953	439.31
435.175	439.31
435.397	474.31
435.618	493.31
435.84	508.31
436.062	641.31
436.284	669.31
436.505	569.31
436.727	527.31
436.949	481.31
437.17	444.31
437.392	466.31
437.614	473.31
437.835	507.31
438.057	593.31
438.278	681.31
438.5	683.31
438.721	748.31
438.943	704.31
439.165	589.31
439.386	528.31
439.608	525.31
439.829	515.31
440.05	535.31
440.272	567.31
440.493	523.31
440.715	507.31
440.936	471.31
441.158	462.31
441.379	444.31
441.6	466.31
441.822	481.31
442.043	525.31
442.264	611.31
442.486	640.31
442.707	535.31
442.928	529.31
443.149	537.31
443.371	546.31
443.592	568.31
443.813	633.31
444.034	695.31
444.255	584.31
444.476	508.31
444.698	520.31
444.919	483.31
445.14	559.31
445.361	541.31
445.582	544.31
445.803	605.31
446.024	704.31
446.245	711.31
446.466	652.31
446.687	562.31
446.908	492.31
447.129	488.31
447.35	457.31
447.571	451.31
447.792	441.31
448.013	460.31
448.234	464.31
448.455	520.31
448.675	641.31
448.896	735.31
449.117	632.31
449.338	591.31
449.559	676.31
449.779	777.31
450	608.31
450.221	512.31
450.442	465.31
450.662	455.31
450.883	451.31
451.104	477.31
451.324	479.31
451.545	453.31
451.766	436.31
451.986	406.31
452.207	403.31
452.428	401.31
452.648	397.31
452.869	400.31
453.089	401.31
453.31	424.31
453.53	419.31
453.751	413.31
453.971	402.31
454.192	410.31
454.412	420.31
454.633	417.31
454.853	410.31
455.073	425.31
455.294	425.31
455.514	500.31
455.734	499.31
455.955	406.31
456.175	394.31
456.395	393.31
456.616	383.31
456.836	375.31
457.056	367.31
457.276	380.31
457.497	352.31
457.717	374.31
457.937	401.31
458.157	384.31
458.377	395.31
458.598	408.31
458.818	478.31
459.038	573.31
459.258	591.31
459.478	477.31
459.698	464.31
459.918	415.31
460.138	399.31
460.358	418.31
460.578	402.31
460.798	433.31
461.018	413.31
461.238	431.31
461.458	431.31
461.678	418.31
461.898	412.31
462.118	409.31
462.338	420.31
462.558	425.31
462.777	403.31
462.997	425.31
463.217	436.31
463.437	435.31
463.657	449.31
463.876	438.31
464.096	452.31
464.316	436.31
464.536	459.31
464.755	461.31
464.975	486.31
465.195	519.31
465.414	568.31
465.634	518.31
465.854	462.31
466.073	435.31
466.293	420.31
466.512	410.31
466.732	417.31
466.951	415.31
467.171	408.31
467.391	419.31
467.61	397.31
467.829	419.31
468.049	417.31
468.268	411.31
468.488	403.31
468.707	403.31
468.927	398.31
469.146	377.31
469.365	399.31
469.585	405.31
469.804	409.31
470.023	423.31
470.243	400.31
470.462	414.31
470.681	442.31
470.901	443.31
471.12	416.31
471.339	393.31
471.558	420.31
471.777	435.31
471.997	416.31
472.216	407.31
472.435	453.31
472.654	428.31
472.873	416.31
473.092	411.31
473.311	405.31
473.53	417.31
473.749	427.31
473.968	479.31
474.187	556.31
474.406	589.31
474.625	500.31
474.844	451.31
475.063	447.31
475.282	425.31
475.501	433.31
475.72	427.31
475.939	419.31
476.158	437.31
476.377	414.31
476.596	412.31
476.814	440.31
477.033	448.31
477.252	461.31
477.471	443.31
477.69	454.31
477.908	455.31
478.127	455.31
478.346	447.31
478.564	461.31
478.783	465.31
479.002	466.31
479.22	476.31
479.439	493.31
479.658	502.31
479.876	490.31
480.095	498.31
480.313	555.31
480.532	540.31
480.751	503.31
480.969	541.31
481.188	575.31
481.406	600.31
481.624	541.31
481.843	489.31
482.061	514.31
482.28	500.31
482.498	490.31
482.717	509.31
482.935	500.31
483.153	495.31
483.372	492.31
483.59	489.31
483.808	488.31
484.027	493.31
484.245	489.31
484.463	503.31
484.681	501.31
484.9	519.31
485.118	514.31
485.336	526.31
485.554	509.31
485.772	514.31
485.99	498.31
486.209	515.31
486.427	527.31
486.645	531.31
486.863	564.31
487.081	541.31
487.299	531.31
487.517	545.31
487.735	562.31
487.953	524.31
488.171	544.31
488.389	546.31
488.607	553.31
488.825	524.31
489.043	541.31
489.261	538.31
489.479	551.31
489.696	563.31
489.914	552.31
490.132	565.31
490.35	556.31
490.568	571.31
490.786	581.31
491.003	579.31
491.221	587.31
491.439	598.31
491.657	617.31
491.874	625.31
492.092	619.31
492.31	637.31
492.527	623.31
492.745	630.31
492.963	636.31
493.18	634.31
493.398	632.31
493.615	619.31
493.833	643.31
494.05	639.31
494.268	650.31
494.485	662.31
494.703	634.31
494.92	639.31
495.138	635.31
495.355	657.31
495.573	662.31
495.79	658.31
496.008	631.31
496.225	658.31
496.442	647.31
496.66	650.31
496.877	642.31
497.094	640.31
497.312	650.31
497.529	669.31
497.746	645.31
497.963	652.31
498.181	714.31
498.398	687.31
498.615	685.31
498.832	673.31
499.049	695.31
499.267	697.31
499.484	735.31
499.701	734.31
499.918	752.31
500.135	787.31
500.352	795.31
500.569	778.31
500.786	785.31
501.003	796.31
501.22	785.31
501.437	743.31
501.654	779.31
501.871	787.31
502.088	769.31
