Data from 1980.PennyLincolnUp.Lamp.En5.5.200Scan.071819.P1_HRD10591_16-37-56-957.txt Node
Date: Thu Jul 18 16:37:56 EDT 2019
User: cochatt
Spectrometer: HR+D1059
Trigger mode: 1
Integration Time (sec): 1.000000E-1
Scans to average: 1
Electric dark correction enabled: true
Nonlinearity correction enabled: false
Boxcar width: 0
XAxis mode: Wavelengths
Number of Pixels in Spectrum: 2048
>>>>>Begin Spectral Data<<<<<
223.165	-11.25
223.4	-11.25
223.635	-11.25
223.869	-23.25
224.104	-23.25
224.338	-20.25
224.573	-0.25
224.808	-15.25
225.042	-9.25
225.277	-2.25
225.511	-10.25
225.746	-3.25
225.98	9.75
226.215	-3.25
226.449	14.75
226.683	31.75
226.918	27.75
227.152	37.75
227.387	39.75
227.621	38.75
227.856	54.75
228.09	53.75
228.324	40.75
228.559	45.75
228.793	75.75
229.027	103.75
229.262	109.75
229.496	120.75
229.73	157.75
229.964	175.75
230.199	152.75
230.433	119.75
230.667	124.75
230.901	107.75
231.136	120.75
231.37	129.75
231.604	123.75
231.838	123.75
232.072	111.75
232.306	123.75
232.541	127.75
232.775	115.75
233.009	126.75
233.243	125.75
233.477	120.75
233.711	111.75
233.945	112.75
234.179	118.75
234.413	115.75
234.647	126.75
234.881	123.75
235.115	123.75
235.349	117.75
235.583	124.75
235.817	120.75
236.051	137.75
236.285	135.75
236.519	143.75
236.753	145.75
236.987	155.75
237.221	192.75
237.455	253.75
237.689	203.75
237.922	152.75
238.156	160.75
238.39	139.75
238.624	126.75
238.858	122.75
239.091	135.75
239.325	137.75
239.559	131.75
239.793	141.75
240.027	133.75
240.26	142.75
240.494	157.75
240.728	155.75
240.961	148.75
241.195	157.75
241.429	141.75
241.662	141.75
241.896	142.75
242.13	148.75
242.363	144.75
242.597	149.75
242.83	125.75
243.064	141.75
243.298	131.75
243.531	150.75
243.765	133.75
243.998	138.75
244.232	131.75
244.465	145.75
244.699	155.75
244.932	161.75
245.166	164.75
245.399	153.75
245.633	151.75
245.866	151.75
246.099	140.75
246.333	157.75
246.566	157.75
246.8	144.75
247.033	172.75
247.266	152.75
247.5	161.75
247.733	184.75
247.966	172.75
248.2	185.75
248.433	169.75
248.666	184.75
248.899	189.75
249.133	216.75
249.366	235.75
249.599	218.75
249.832	201.75
250.066	189.75
250.299	186.75
250.532	196.75
250.765	208.75
250.998	236.75
251.231	247.75
251.465	229.75
251.698	221.75
251.931	210.75
252.164	213.75
252.397	201.75
252.63	213.75
252.863	210.75
253.096	209.75
253.329	242.75
253.562	241.75
253.795	251.75
254.028	232.75
254.261	233.75
254.494	245.75
254.727	277.75
254.96	304.75
255.193	303.75
255.426	286.75
255.659	247.75
255.892	234.75
256.124	241.75
256.357	265.75
256.59	246.75
256.823	239.75
257.056	211.75
257.289	222.75
257.521	225.75
257.754	232.75
257.987	216.75
258.22	220.75
258.452	221.75
258.685	219.75
258.918	221.75
259.151	211.75
259.383	222.75
259.616	223.75
259.849	229.75
260.081	236.75
260.314	276.75
260.547	268.75
260.779	248.75
261.012	260.75
261.244	253.75
261.477	230.75
261.71	247.75
261.942	244.75
262.175	243.75
262.407	253.75
262.64	218.75
262.872	229.75
263.105	222.75
263.337	220.75
263.57	233.75
263.802	227.75
264.035	205.75
264.267	206.75
264.499	203.75
264.732	233.75
264.964	219.75
265.197	226.75
265.429	223.75
265.661	210.75
265.894	230.75
266.126	210.75
266.358	226.75
266.591	219.75
266.823	220.75
267.055	227.75
267.287	227.75
267.52	226.75
267.752	224.75
267.984	222.75
268.216	236.75
268.448	235.75
268.681	234.75
268.913	245.75
269.145	254.75
269.377	293.75
269.609	291.75
269.841	275.75
270.073	278.75
270.306	289.75
270.538	321.75
270.77	339.75
271.002	315.75
271.234	325.75
271.466	340.75
271.698	335.75
271.93	343.75
272.162	316.75
272.394	328.75
272.626	313.75
272.858	323.75
273.09	285.75
273.322	313.75
273.553	266.75
273.785	273.75
274.017	274.75
274.249	273.75
274.481	284.75
274.713	261.75
274.945	271.75
275.176	271.75
275.408	288.75
275.64	262.75
275.872	272.75
276.104	264.75
276.335	264.75
276.567	274.75
276.799	310.75
277.031	336.75
277.262	328.75
277.494	328.75
277.726	321.75
277.957	291.75
278.189	289.75
278.421	274.75
278.652	279.75
278.884	267.75
279.115	251.75
279.347	248.75
279.579	267.75
279.81	273.75
280.042	243.75
280.273	246.75
280.505	253.75
280.736	265.75
280.968	274.75
281.199	252.75
281.431	267.75
281.662	260.75
281.894	264.75
282.125	272.75
282.356	294.75
282.588	325.75
282.819	317.75
283.051	280.75
283.282	281.75
283.513	288.75
283.745	273.75
283.976	267.75
284.207	281.75
284.439	277.75
284.67	269.75
284.901	277.75
285.132	272.75
285.364	269.75
285.595	287.75
285.826	264.75
286.057	268.75
286.288	292.75
286.52	274.75
286.751	269.75
286.982	286.75
287.213	270.75
287.444	297.75
287.675	274.75
287.906	298.75
288.138	284.75
288.369	290.75
288.6	301.75
288.831	293.75
289.062	260.75
289.293	302.75
289.524	274.75
289.755	271.75
289.986	277.75
290.217	269.75
290.448	263.75
290.679	249.75
290.91	283.75
291.141	270.75
291.371	259.75
291.602	303.75
291.833	272.75
292.064	269.75
292.295	277.75
292.526	275.75
292.757	283.75
292.987	268.75
293.218	277.75
293.449	248.75
293.68	274.75
293.91	281.75
294.141	289.75
294.372	268.75
294.603	279.75
294.833	296.75
295.064	269.75
295.295	268.75
295.525	274.75
295.756	293.75
295.987	285.75
296.217	314.75
296.448	319.75
296.679	302.75
296.909	280.75
297.14	271.75
297.37	281.75
297.601	282.75
297.831	279.75
298.062	293.75
298.292	296.75
298.523	282.75
298.753	285.75
298.984	309.75
299.214	283.75
299.445	283.75
299.675	282.75
299.905	276.75
300.136	283.75
300.366	289.75
300.597	299.75
300.827	285.75
301.057	323.75
301.288	307.75
301.518	282.75
301.748	301.75
301.979	317.75
302.209	307.75
302.439	319.75
302.669	309.75
302.9	320.75
303.13	310.75
303.36	307.75
303.59	317.75
303.82	319.75
304.051	318.75
304.281	303.75
304.511	313.75
304.741	302.75
304.971	298.75
305.201	301.75
305.431	289.75
305.661	293.75
305.891	319.75
306.121	317.75
306.352	313.75
306.582	309.75
306.812	307.75
307.042	315.75
307.272	330.75
307.502	320.75
307.731	310.75
307.961	309.75
308.191	313.75
308.421	312.75
308.651	313.75
308.881	310.75
309.111	343.75
309.341	333.75
309.571	359.75
309.8	336.75
310.03	375.75
310.26	385.75
310.49	352.75
310.72	382.75
310.949	410.75
311.179	387.75
311.409	379.75
311.639	361.75
311.868	365.75
312.098	380.75
312.328	377.75
312.557	394.75
312.787	421.75
313.017	427.75
313.246	395.75
313.476	357.75
313.706	366.75
313.935	376.75
314.165	390.75
314.394	415.75
314.624	407.75
314.853	400.75
315.083	374.75
315.312	378.75
315.542	372.75
315.771	354.75
316.001	354.75
316.23	345.75
316.46	374.75
316.689	368.75
316.919	363.75
317.148	371.75
317.377	381.75
317.607	387.75
317.836	369.75
318.065	381.75
318.295	363.75
318.524	377.75
318.753	362.75
318.983	343.75
319.212	355.75
319.441	371.75
319.67	384.75
319.9	373.75
320.129	361.75
320.358	382.75
320.587	387.75
320.816	378.75
321.046	395.75
321.275	393.75
321.504	395.75
321.733	404.75
321.962	397.75
322.191	441.75
322.42	434.75
322.649	464.75
322.878	463.75
323.108	471.75
323.337	517.75
323.566	519.75
323.795	576.75
324.024	652.75
324.253	760.75
324.482	1123.75
324.71	1723.75
324.939	2442.75
325.168	2192.75
325.397	1148.75
325.626	774.75
325.855	620.75
326.084	573.75
326.313	550.75
326.542	526.75
326.77	596.75
326.999	700.75
327.228	960.75
327.457	1528.75
327.686	1920.75
327.914	1297.75
328.143	848.75
328.372	720.75
328.6	652.75
328.829	593.75
329.058	625.75
329.287	643.75
329.515	589.75
329.744	528.75
329.972	543.75
330.201	567.75
330.43	615.75
330.658	644.75
330.887	675.75
331.115	652.75
331.344	552.75
331.572	515.75
331.801	521.75
332.03	485.75
332.258	468.75
332.486	448.75
332.715	442.75
332.943	435.75
333.172	428.75
333.4	435.75
333.629	460.75
333.857	451.75
334.085	469.75
334.314	517.75
334.542	513.75
334.771	539.75
334.999	517.75
335.227	451.75
335.455	449.75
335.684	444.75
335.912	432.75
336.14	425.75
336.369	405.75
336.597	438.75
336.825	429.75
337.053	427.75
337.281	419.75
337.51	417.75
337.738	427.75
337.966	399.75
338.194	427.75
338.422	436.75
338.65	416.75
338.878	392.75
339.106	392.75
339.334	417.75
339.562	410.75
339.79	402.75
340.018	401.75
340.246	401.75
340.474	420.75
340.702	405.75
340.93	405.75
341.158	402.75
341.386	436.75
341.614	423.75
341.842	409.75
342.07	409.75
342.298	422.75
342.526	418.75
342.754	387.75
342.981	397.75
343.209	382.75
343.437	391.75
343.665	395.75
343.893	408.75
344.12	408.75
344.348	412.75
344.576	401.75
344.804	419.75
345.031	422.75
345.259	423.75
345.487	441.75
345.714	419.75
345.942	403.75
346.17	381.75
346.397	411.75
346.625	383.75
346.853	408.75
347.08	396.75
347.308	413.75
347.535	420.75
347.763	422.75
347.99	422.75
348.218	419.75
348.445	435.75
348.673	416.75
348.9	404.75
349.128	409.75
349.355	369.75
349.583	380.75
349.81	395.75
350.037	406.75
350.265	394.75
350.492	393.75
350.72	397.75
350.947	409.75
351.174	417.75
351.402	419.75
351.629	411.75
351.856	428.75
352.083	425.75
352.311	437.75
352.538	461.75
352.765	433.75
352.992	425.75
353.22	390.75
353.447	426.75
353.674	406.75
353.901	383.75
354.128	385.75
354.355	366.75
354.583	383.75
354.81	380.75
355.037	366.75
355.264	352.75
355.491	372.75
355.718	389.75
355.945	355.75
356.172	353.75
356.399	333.75
356.626	356.75
356.853	361.75
357.08	363.75
357.307	364.75
357.534	361.75
357.761	361.75
357.988	377.75
358.215	367.75
358.441	349.75
358.668	363.75
358.895	365.75
359.122	375.75
359.349	379.75
359.576	421.75
359.802	418.75
360.029	445.75
360.256	467.75
360.483	452.75
360.709	422.75
360.936	399.75
361.163	425.75
361.39	409.75
361.616	411.75
361.843	402.75
362.07	399.75
362.296	407.75
362.523	405.75
362.749	404.75
362.976	402.75
363.203	400.75
363.429	370.75
363.656	392.75
363.882	390.75
364.109	376.75
364.335	372.75
364.562	394.75
364.788	383.75
365.015	371.75
365.241	380.75
365.468	378.75
365.694	380.75
365.92	396.75
366.147	383.75
366.373	385.75
366.599	367.75
366.826	379.75
367.052	364.75
367.278	405.75
367.505	380.75
367.731	371.75
367.957	371.75
368.184	380.75
368.41	384.75
368.636	388.75
368.862	396.75
369.089	408.75
369.315	385.75
369.541	357.75
369.767	377.75
369.993	384.75
370.219	374.75
370.445	369.75
370.672	364.75
370.898	380.75
371.124	368.75
371.35	377.75
371.576	361.75
371.802	355.75
372.028	371.75
372.254	374.75
372.48	357.75
372.706	359.75
372.932	387.75
373.158	362.75
373.384	362.75
373.61	377.75
373.835	354.75
374.061	366.75
374.287	380.75
374.513	365.75
374.739	355.75
374.965	350.75
375.191	377.75
375.416	381.75
375.642	369.75
375.868	377.75
376.094	381.75
376.319	371.75
376.545	370.75
376.771	369.75
376.997	364.75
377.222	371.75
377.448	369.75
377.674	353.75
377.899	364.75
378.125	343.75
378.35	348.75
378.576	350.75
378.802	351.75
379.027	363.75
379.253	370.75
379.478	366.75
379.704	357.75
379.929	347.75
380.155	358.75
380.38	382.75
380.606	368.75
380.831	371.75
381.057	352.75
381.282	379.75
381.507	375.75
381.733	355.75
381.958	377.75
382.184	365.75
382.409	366.75
382.634	383.75
382.86	383.75
383.085	376.75
383.31	376.75
383.535	380.75
383.761	381.75
383.986	375.75
384.211	373.75
384.436	380.75
384.662	379.75
384.887	380.75
385.112	378.75
385.337	387.75
385.562	379.75
385.787	385.75
386.013	381.75
386.238	405.75
386.463	390.75
386.688	391.75
386.913	384.75
387.138	379.75
387.363	399.75
387.588	382.75
387.813	396.75
388.038	390.75
388.263	381.75
388.488	394.75
388.713	380.75
388.938	386.75
389.163	392.75
389.387	400.75
389.612	378.75
389.837	383.75
390.062	383.75
390.287	389.75
390.512	374.75
390.736	386.75
390.961	398.75
391.186	386.75
391.411	376.75
391.636	410.75
391.86	387.75
392.085	391.75
392.31	398.75
392.534	395.75
392.759	387.75
392.984	391.75
393.208	391.75
393.433	406.75
393.658	406.75
393.882	377.75
394.107	399.75
394.331	390.75
394.556	398.75
394.78	385.75
395.005	393.75
395.229	385.75
395.454	388.75
395.678	401.75
395.903	398.75
396.127	428.75
396.352	428.75
396.576	414.75
396.801	408.75
397.025	397.75
397.249	413.75
397.474	409.75
397.698	414.75
397.922	439.75
398.147	446.75
398.371	436.75
398.595	421.75
398.82	448.75
399.044	448.75
399.268	453.75
399.492	450.75
399.717	485.75
399.941	490.75
400.165	511.75
400.389	523.75
400.613	499.75
400.837	469.75
401.062	449.75
401.286	431.75
401.51	458.75
401.734	431.75
401.958	437.75
402.182	455.75
402.406	484.75
402.63	471.75
402.854	451.75
403.078	471.75
403.302	455.75
403.526	461.75
403.75	431.75
403.974	455.75
404.198	453.75
404.422	470.75
404.645	483.75
404.869	460.75
405.093	494.75
405.317	531.75
405.541	553.75
405.765	517.75
405.988	485.75
406.212	501.75
406.436	522.75
406.66	526.75
406.883	493.75
407.107	543.75
407.331	565.75
407.555	624.75
407.778	637.75
408.002	553.75
408.226	525.75
408.449	508.75
408.673	520.75
408.896	542.75
409.12	560.75
409.344	538.75
409.567	482.75
409.791	458.75
410.014	455.75
410.238	455.75
410.461	448.75
410.685	475.75
410.908	501.75
411.132	508.75
411.355	543.75
411.578	538.75
411.802	487.75
412.025	499.75
412.249	475.75
412.472	517.75
412.695	521.75
412.919	508.75
413.142	476.75
413.365	457.75
413.589	458.75
413.812	464.75
414.035	430.75
414.258	458.75
414.482	427.75
414.705	435.75
414.928	429.75
415.151	403.75
415.374	437.75
415.597	442.75
415.821	430.75
416.044	418.75
416.267	413.75
416.49	425.75
416.713	407.75
416.936	437.75
417.159	443.75
417.382	444.75
417.605	444.75
417.828	444.75
418.051	476.75
418.274	461.75
418.497	448.75
418.72	457.75
418.943	433.75
419.166	445.75
419.389	470.75
419.611	458.75
419.834	461.75
420.057	481.75
420.28	464.75
420.503	468.75
420.726	461.75
420.948	511.75
421.171	537.75
421.394	545.75
421.617	491.75
421.839	475.75
422.062	472.75
422.285	488.75
422.507	550.75
422.73	603.75
422.953	604.75
423.175	519.75
423.398	473.75
423.621	496.75
423.843	508.75
424.066	532.75
424.288	510.75
424.511	559.75
424.733	593.75
424.956	664.75
425.178	649.75
425.401	656.75
425.623	664.75
425.846	563.75
426.068	523.75
426.291	522.75
426.513	516.75
426.735	557.75
426.958	580.75
427.18	641.75
427.402	780.75
427.625	888.75
427.847	775.75
428.069	663.75
428.292	606.75
428.514	552.75
428.736	533.75
428.958	496.75
429.181	472.75
429.403	485.75
429.625	488.75
429.847	537.75
430.069	599.75
430.292	582.75
430.514	517.75
430.736	477.75
430.958	459.75
431.18	466.75
431.402	465.75
431.624	423.75
431.846	441.75
432.068	441.75
432.29	446.75
432.512	462.75
432.734	476.75
432.956	463.75
433.178	467.75
433.4	473.75
433.622	451.75
433.844	436.75
434.066	435.75
434.287	434.75
434.509	445.75
434.731	459.75
434.953	458.75
435.175	480.75
435.397	526.75
435.618	527.75
435.84	575.75
436.062	658.75
436.284	716.75
436.505	611.75
436.727	539.75
436.949	490.75
437.17	499.75
437.392	493.75
437.614	517.75
437.835	536.75
438.057	624.75
438.278	745.75
438.5	715.75
438.721	790.75
438.943	757.75
439.165	619.75
439.386	587.75
439.608	543.75
439.829	571.75
440.05	571.75
440.272	623.75
440.493	593.75
440.715	530.75
440.936	539.75
441.158	487.75
441.379	492.75
441.6	492.75
441.822	528.75
442.043	568.75
442.264	657.75
442.486	710.75
442.707	610.75
442.928	549.75
443.149	545.75
443.371	563.75
443.592	596.75
443.813	665.75
444.034	748.75
444.255	628.75
444.476	561.75
444.698	513.75
444.919	521.75
445.14	607.75
445.361	572.75
445.582	583.75
445.803	627.75
446.024	740.75
446.245	763.75
446.466	699.75
446.687	574.75
446.908	535.75
447.129	510.75
447.35	501.75
447.571	500.75
447.792	484.75
448.013	501.75
448.234	497.75
448.455	571.75
448.675	681.75
448.896	771.75
449.117	663.75
449.338	649.75
449.559	727.75
449.779	810.75
450	651.75
450.221	546.75
450.442	505.75
450.662	499.75
450.883	516.75
451.104	528.75
451.324	502.75
451.545	474.75
451.766	457.75
451.986	443.75
452.207	426.75
452.428	445.75
452.648	421.75
452.869	439.75
453.089	452.75
453.31	466.75
453.53	448.75
453.751	443.75
453.971	464.75
454.192	504.75
454.412	461.75
454.633	433.75
454.853	423.75
455.073	437.75
455.294	468.75
455.514	539.75
455.734	556.75
455.955	447.75
456.175	409.75
456.395	411.75
456.616	398.75
456.836	420.75
457.056	393.75
457.276	366.75
457.497	419.75
457.717	413.75
457.937	418.75
458.157	424.75
458.377	415.75
458.598	456.75
458.818	539.75
459.038	631.75
459.258	630.75
459.478	529.75
459.698	463.75
459.918	459.75
460.138	442.75
460.358	444.75
460.578	424.75
460.798	449.75
461.018	447.75
461.238	451.75
461.458	433.75
461.678	426.75
461.898	442.75
462.118	447.75
462.338	449.75
462.558	426.75
462.777	443.75
462.997	446.75
463.217	466.75
463.437	473.75
463.657	448.75
463.876	453.75
464.096	438.75
464.316	445.75
464.536	480.75
464.755	476.75
464.975	464.75
465.195	543.75
465.414	646.75
465.634	565.75
465.854	482.75
466.073	469.75
466.293	461.75
466.512	439.75
466.732	430.75
466.951	435.75
467.171	453.75
467.391	462.75
467.61	467.75
467.829	471.75
468.049	440.75
468.268	458.75
468.488	438.75
468.707	431.75
468.927	405.75
469.146	405.75
469.365	416.75
469.585	411.75
469.804	435.75
470.023	466.75
470.243	458.75
470.462	459.75
470.681	462.75
470.901	480.75
471.12	452.75
471.339	442.75
471.558	426.75
471.777	445.75
471.997	443.75
472.216	455.75
472.435	487.75
472.654	489.75
472.873	460.75
473.092	474.75
473.311	469.75
473.53	462.75
473.749	479.75
473.968	509.75
474.187	636.75
474.406	644.75
474.625	513.75
474.844	479.75
475.063	449.75
475.282	431.75
475.501	442.75
475.72	462.75
475.939	451.75
476.158	455.75
476.377	463.75
476.596	464.75
476.814	464.75
477.033	458.75
477.252	478.75
477.471	456.75
477.69	475.75
477.908	475.75
478.127	482.75
478.346	472.75
478.564	484.75
478.783	490.75
479.002	467.75
479.22	491.75
479.439	528.75
479.658	552.75
479.876	526.75
480.095	550.75
480.313	550.75
480.532	553.75
480.751	524.75
480.969	551.75
481.188	618.75
481.406	695.75
481.624	585.75
481.843	567.75
482.061	535.75
482.28	540.75
482.498	531.75
482.717	519.75
482.935	505.75
483.153	530.75
483.372	503.75
483.59	552.75
483.808	505.75
484.027	522.75
484.245	530.75
484.463	551.75
484.681	536.75
484.9	535.75
485.118	540.75
485.336	544.75
485.554	540.75
485.772	532.75
485.99	565.75
486.209	543.75
486.427	527.75
486.645	547.75
486.863	597.75
487.081	596.75
487.299	583.75
487.517	582.75
487.735	564.75
487.953	559.75
488.171	589.75
488.389	597.75
488.607	566.75
488.825	576.75
489.043	579.75
489.261	579.75
489.479	551.75
489.696	573.75
489.914	585.75
490.132	576.75
490.35	589.75
490.568	578.75
490.786	614.75
491.003	612.75
491.221	629.75
491.439	646.75
491.657	677.75
491.874	672.75
492.092	650.75
492.31	681.75
492.527	676.75
492.745	664.75
492.963	683.75
493.18	679.75
493.398	683.75
493.615	684.75
493.833	688.75
494.05	676.75
494.268	681.75
494.485	677.75
494.703	663.75
494.92	669.75
495.138	652.75
495.355	673.75
495.573	669.75
495.79	680.75
496.008	685.75
496.225	675.75
496.442	646.75
496.66	698.75
496.877	680.75
497.094	667.75
497.312	682.75
497.529	698.75
497.746	686.75
497.963	724.75
498.181	721.75
498.398	729.75
498.615	724.75
498.832	752.75
499.049	740.75
499.267	740.75
499.484	718.75
499.701	774.75
499.918	769.75
500.135	822.75
500.352	825.75
500.569	820.75
500.786	821.75
501.003	836.75
501.22	815.75
501.437	806.75
501.654	809.75
501.871	835.75
