Data from 1980.PennyLincolnUp.Lamp.En5.5.200Scan.071819.P1_HRD10591_16-37-15-957.txt Node
Date: Thu Jul 18 16:37:15 EDT 2019
User: cochatt
Spectrometer: HR+D1059
Trigger mode: 1
Integration Time (sec): 1.000000E-1
Scans to average: 1
Electric dark correction enabled: true
Nonlinearity correction enabled: false
Boxcar width: 0
XAxis mode: Wavelengths
Number of Pixels in Spectrum: 2048
>>>>>Begin Spectral Data<<<<<
223.165	-1.81
223.4	-1.81
223.635	-1.81
223.869	-18.81
224.104	-12.81
224.338	-29.81
224.573	-14.81
224.808	0.19
225.042	-8.81
225.277	10.19
225.511	-2.81
225.746	-0.81
225.98	-11.81
226.215	13.19
226.449	24.19
226.683	11.19
226.918	28.19
227.152	15.19
227.387	29.19
227.621	43.19
227.856	43.19
228.09	54.19
228.324	44.19
228.559	46.19
228.793	62.19
229.027	111.19
229.262	99.19
229.496	116.19
229.73	139.19
229.964	161.19
230.199	142.19
230.433	119.19
230.667	114.19
230.901	109.19
231.136	106.19
231.37	115.19
231.604	109.19
231.838	110.19
232.072	127.19
232.306	115.19
232.541	105.19
232.775	113.19
233.009	115.19
233.243	109.19
233.477	115.19
233.711	118.19
233.945	109.19
234.179	117.19
234.413	124.19
234.647	125.19
234.881	113.19
235.115	117.19
235.349	119.19
235.583	121.19
235.817	122.19
236.051	121.19
236.285	132.19
236.519	128.19
236.753	128.19
236.987	151.19
237.221	186.19
237.455	232.19
237.689	198.19
237.922	140.19
238.156	117.19
238.39	140.19
238.624	133.19
238.858	127.19
239.091	137.19
239.325	139.19
239.559	121.19
239.793	135.19
240.027	134.19
240.26	151.19
240.494	157.19
240.728	141.19
240.961	153.19
241.195	151.19
241.429	136.19
241.662	138.19
241.896	134.19
242.13	143.19
242.363	156.19
242.597	136.19
242.83	129.19
243.064	151.19
243.298	146.19
243.531	145.19
243.765	147.19
243.998	140.19
244.232	147.19
244.465	143.19
244.699	141.19
244.932	132.19
245.166	154.19
245.399	125.19
245.633	151.19
245.866	144.19
246.099	150.19
246.333	138.19
246.566	136.19
246.8	158.19
247.033	166.19
247.266	154.19
247.5	170.19
247.733	174.19
247.966	179.19
248.2	193.19
248.433	181.19
248.666	174.19
248.899	183.19
249.133	199.19
249.366	231.19
249.599	201.19
249.832	199.19
250.066	190.19
250.299	197.19
250.532	199.19
250.765	217.19
250.998	223.19
251.231	214.19
251.465	235.19
251.698	227.19
251.931	214.19
252.164	209.19
252.397	218.19
252.63	212.19
252.863	220.19
253.096	216.19
253.329	236.19
253.562	229.19
253.795	223.19
254.028	204.19
254.261	225.19
254.494	237.19
254.727	259.19
254.96	301.19
255.193	290.19
255.426	257.19
255.659	246.19
255.892	234.19
256.124	233.19
256.357	236.19
256.59	217.19
256.823	207.19
257.056	229.19
257.289	226.19
257.521	226.19
257.754	218.19
257.987	210.19
258.22	207.19
258.452	205.19
258.685	213.19
258.918	220.19
259.151	216.19
259.383	213.19
259.616	221.19
259.849	235.19
260.081	240.19
260.314	275.19
260.547	267.19
260.779	253.19
261.012	237.19
261.244	224.19
261.477	249.19
261.71	217.19
261.942	220.19
262.175	223.19
262.407	223.19
262.64	242.19
262.872	202.19
263.105	190.19
263.337	198.19
263.57	201.19
263.802	213.19
264.035	218.19
264.267	211.19
264.499	201.19
264.732	210.19
264.964	205.19
265.197	211.19
265.429	212.19
265.661	212.19
265.894	222.19
266.126	217.19
266.358	218.19
266.591	210.19
266.823	206.19
267.055	215.19
267.287	214.19
267.52	230.19
267.752	246.19
267.984	225.19
268.216	222.19
268.448	215.19
268.681	233.19
268.913	247.19
269.145	275.19
269.377	266.19
269.609	281.19
269.841	259.19
270.073	292.19
270.306	297.19
270.538	314.19
270.77	313.19
271.002	304.19
271.234	296.19
271.466	277.19
271.698	319.19
271.93	324.19
272.162	318.19
272.394	320.19
272.626	287.19
272.858	291.19
273.09	285.19
273.322	292.19
273.553	272.19
273.785	261.19
274.017	257.19
274.249	253.19
274.481	262.19
274.713	265.19
274.945	269.19
275.176	261.19
275.408	257.19
275.64	262.19
275.872	260.19
276.104	258.19
276.335	261.19
276.567	249.19
276.799	273.19
277.031	303.19
277.262	314.19
277.494	321.19
277.726	300.19
277.957	262.19
278.189	291.19
278.421	253.19
278.652	271.19
278.884	253.19
279.115	272.19
279.347	255.19
279.579	253.19
279.81	233.19
280.042	253.19
280.273	252.19
280.505	263.19
280.736	265.19
280.968	275.19
281.199	264.19
281.431	257.19
281.662	243.19
281.894	231.19
282.125	256.19
282.356	276.19
282.588	307.19
282.819	317.19
283.051	262.19
283.282	259.19
283.513	253.19
283.745	246.19
283.976	263.19
284.207	274.19
284.439	254.19
284.67	247.19
284.901	252.19
285.132	260.19
285.364	269.19
285.595	257.19
285.826	268.19
286.057	253.19
286.288	259.19
286.52	252.19
286.751	251.19
286.982	260.19
287.213	259.19
287.444	274.19
287.675	289.19
287.906	273.19
288.138	294.19
288.369	283.19
288.6	266.19
288.831	285.19
289.062	282.19
289.293	291.19
289.524	284.19
289.755	259.19
289.986	269.19
290.217	259.19
290.448	251.19
290.679	259.19
290.91	250.19
291.141	254.19
291.371	276.19
291.602	266.19
291.833	265.19
292.064	278.19
292.295	257.19
292.526	280.19
292.757	261.19
292.987	271.19
293.218	271.19
293.449	278.19
293.68	261.19
293.91	270.19
294.141	279.19
294.372	269.19
294.603	282.19
294.833	286.19
295.064	248.19
295.295	272.19
295.525	268.19
295.756	269.19
295.987	289.19
296.217	296.19
296.448	298.19
296.679	271.19
296.909	276.19
297.14	275.19
297.37	283.19
297.601	284.19
297.831	267.19
298.062	260.19
298.292	263.19
298.523	275.19
298.753	297.19
298.984	263.19
299.214	269.19
299.445	271.19
299.675	303.19
299.905	283.19
300.136	296.19
300.366	282.19
300.597	287.19
300.827	289.19
301.057	291.19
301.288	327.19
301.518	314.19
301.748	294.19
301.979	297.19
302.209	282.19
302.439	287.19
302.669	299.19
302.9	306.19
303.13	307.19
303.36	303.19
303.59	323.19
303.82	322.19
304.051	292.19
304.281	300.19
304.511	294.19
304.741	296.19
304.971	290.19
305.201	302.19
305.431	302.19
305.661	301.19
305.891	295.19
306.121	295.19
306.352	306.19
306.582	305.19
306.812	303.19
307.042	292.19
307.272	310.19
307.502	291.19
307.731	326.19
307.961	317.19
308.191	312.19
308.421	308.19
308.651	312.19
308.881	319.19
309.111	308.19
309.341	296.19
309.571	346.19
309.8	346.19
310.03	341.19
310.26	343.19
310.49	365.19
310.72	359.19
310.949	391.19
311.179	378.19
311.409	370.19
311.639	351.19
311.868	357.19
312.098	334.19
312.328	359.19
312.557	388.19
312.787	397.19
313.017	398.19
313.246	378.19
313.476	367.19
313.706	351.19
313.935	372.19
314.165	369.19
314.394	376.19
314.624	387.19
314.853	369.19
315.083	359.19
315.312	357.19
315.542	356.19
315.771	331.19
316.001	343.19
316.23	349.19
316.46	368.19
316.689	357.19
316.919	336.19
317.148	358.19
317.377	374.19
317.607	369.19
317.836	353.19
318.065	355.19
318.295	338.19
318.524	356.19
318.753	369.19
318.983	350.19
319.212	352.19
319.441	384.19
319.67	375.19
319.9	354.19
320.129	371.19
320.358	365.19
320.587	342.19
320.816	361.19
321.046	385.19
321.275	379.19
321.504	414.19
321.733	381.19
321.962	394.19
322.191	415.19
322.42	407.19
322.649	407.19
322.878	447.19
323.108	451.19
323.337	463.19
323.566	486.19
323.795	534.19
324.024	580.19
324.253	719.19
324.482	1051.19
324.71	1598.19
324.939	2317.19
325.168	2040.19
325.397	1088.19
325.626	729.19
325.855	594.19
326.084	523.19
326.313	517.19
326.542	523.19
326.77	542.19
326.999	674.19
327.228	922.19
327.457	1411.19
327.686	1751.19
327.914	1179.19
328.143	774.19
328.372	677.19
328.6	638.19
328.829	598.19
329.058	597.19
329.287	603.19
329.515	573.19
329.744	513.19
329.972	530.19
330.201	523.19
330.43	586.19
330.658	602.19
330.887	661.19
331.115	627.19
331.344	522.19
331.572	505.19
331.801	459.19
332.03	475.19
332.258	426.19
332.486	444.19
332.715	421.19
332.943	413.19
333.172	418.19
333.4	433.19
333.629	441.19
333.857	446.19
334.085	446.19
334.314	462.19
334.542	484.19
334.771	515.19
334.999	460.19
335.227	449.19
335.455	421.19
335.684	407.19
335.912	410.19
336.14	400.19
336.369	408.19
336.597	399.19
336.825	417.19
337.053	415.19
337.281	409.19
337.51	394.19
337.738	417.19
337.966	398.19
338.194	399.19
338.422	421.19
338.65	404.19
338.878	401.19
339.106	393.19
339.334	394.19
339.562	385.19
339.79	395.19
340.018	402.19
340.246	407.19
340.474	388.19
340.702	395.19
340.93	382.19
341.158	390.19
341.386	399.19
341.614	397.19
341.842	395.19
342.07	399.19
342.298	385.19
342.526	375.19
342.754	373.19
342.981	397.19
343.209	363.19
343.437	378.19
343.665	393.19
343.893	369.19
344.12	396.19
344.348	389.19
344.576	391.19
344.804	408.19
345.031	389.19
345.259	409.19
345.487	405.19
345.714	390.19
345.942	374.19
346.17	388.19
346.397	398.19
346.625	372.19
346.853	380.19
347.08	392.19
347.308	398.19
347.535	399.19
347.763	404.19
347.99	404.19
348.218	395.19
348.445	401.19
348.673	405.19
348.9	397.19
349.128	406.19
349.355	371.19
349.583	371.19
349.81	370.19
350.037	388.19
350.265	377.19
350.492	370.19
350.72	380.19
350.947	375.19
351.174	399.19
351.402	396.19
351.629	400.19
351.856	398.19
352.083	400.19
352.311	417.19
352.538	407.19
352.765	421.19
352.992	427.19
353.22	391.19
353.447	389.19
353.674	372.19
353.901	380.19
354.128	361.19
354.355	351.19
354.583	364.19
354.81	356.19
355.037	350.19
355.264	359.19
355.491	363.19
355.718	342.19
355.945	339.19
356.172	340.19
356.399	340.19
356.626	357.19
356.853	359.19
357.08	350.19
357.307	340.19
357.534	353.19
357.761	366.19
357.988	358.19
358.215	352.19
358.441	349.19
358.668	359.19
358.895	351.19
359.122	371.19
359.349	370.19
359.576	371.19
359.802	409.19
360.029	450.19
360.256	451.19
360.483	431.19
360.709	406.19
360.936	382.19
361.163	373.19
361.39	409.19
361.616	408.19
361.843	398.19
362.07	408.19
362.296	380.19
362.523	385.19
362.749	391.19
362.976	391.19
363.203	380.19
363.429	351.19
363.656	359.19
363.882	377.19
364.109	377.19
364.335	352.19
364.562	354.19
364.788	371.19
365.015	377.19
365.241	363.19
365.468	367.19
365.694	378.19
365.92	358.19
366.147	364.19
366.373	373.19
366.599	354.19
366.826	355.19
367.052	353.19
367.278	356.19
367.505	374.19
367.731	381.19
367.957	372.19
368.184	366.19
368.41	380.19
368.636	387.19
368.862	376.19
369.089	380.19
369.315	358.19
369.541	367.19
369.767	371.19
369.993	369.19
370.219	358.19
370.445	361.19
370.672	359.19
370.898	362.19
371.124	342.19
371.35	371.19
371.576	359.19
371.802	345.19
372.028	340.19
372.254	338.19
372.48	343.19
372.706	356.19
372.932	351.19
373.158	334.19
373.384	358.19
373.61	369.19
373.835	363.19
374.061	358.19
374.287	358.19
374.513	376.19
374.739	353.19
374.965	353.19
375.191	359.19
375.416	361.19
375.642	362.19
375.868	369.19
376.094	348.19
376.319	359.19
376.545	347.19
376.771	345.19
376.997	346.19
377.222	335.19
377.448	356.19
377.674	338.19
377.899	366.19
378.125	363.19
378.35	345.19
378.576	370.19
378.802	341.19
379.027	353.19
379.253	365.19
379.478	349.19
379.704	345.19
379.929	347.19
380.155	339.19
380.38	349.19
380.606	355.19
380.831	348.19
381.057	369.19
381.282	358.19
381.507	356.19
381.733	350.19
381.958	341.19
382.184	369.19
382.409	335.19
382.634	356.19
382.86	359.19
383.085	361.19
383.31	364.19
383.535	367.19
383.761	364.19
383.986	344.19
384.211	373.19
384.436	381.19
384.662	378.19
384.887	374.19
385.112	363.19
385.337	371.19
385.562	364.19
385.787	383.19
386.013	384.19
386.238	392.19
386.463	384.19
386.688	377.19
386.913	372.19
387.138	377.19
387.363	390.19
387.588	374.19
387.813	372.19
388.038	365.19
388.263	374.19
388.488	383.19
388.713	376.19
388.938	373.19
389.163	376.19
389.387	394.19
389.612	394.19
389.837	386.19
390.062	382.19
390.287	380.19
390.512	362.19
390.736	369.19
390.961	365.19
391.186	373.19
391.411	378.19
391.636	370.19
391.86	381.19
392.085	375.19
392.31	381.19
392.534	366.19
392.759	371.19
392.984	388.19
393.208	396.19
393.433	388.19
393.658	381.19
393.882	385.19
394.107	386.19
394.331	385.19
394.556	372.19
394.78	375.19
395.005	387.19
395.229	382.19
395.454	373.19
395.678	391.19
395.903	400.19
396.127	427.19
396.352	423.19
396.576	403.19
396.801	383.19
397.025	386.19
397.249	405.19
397.474	377.19
397.698	402.19
397.922	406.19
398.147	431.19
398.371	420.19
398.595	404.19
398.82	417.19
399.044	421.19
399.268	428.19
399.492	453.19
399.717	455.19
399.941	482.19
400.165	505.19
400.389	513.19
400.613	473.19
400.837	451.19
401.062	449.19
401.286	430.19
401.51	410.19
401.734	427.19
401.958	417.19
402.182	433.19
402.406	433.19
402.63	437.19
402.854	449.19
403.078	435.19
403.302	429.19
403.526	451.19
403.75	447.19
403.974	446.19
404.198	444.19
404.422	458.19
404.645	446.19
404.869	460.19
405.093	497.19
405.317	531.19
405.541	542.19
405.765	506.19
405.988	484.19
406.212	460.19
406.436	509.19
406.66	555.19
406.883	474.19
407.107	488.19
407.331	548.19
407.555	620.19
407.778	598.19
408.002	552.19
408.226	510.19
408.449	495.19
408.673	498.19
408.896	521.19
409.12	572.19
409.344	535.19
409.567	478.19
409.791	486.19
410.014	447.19
410.238	438.19
410.461	455.19
410.685	461.19
410.908	467.19
411.132	493.19
411.355	517.19
411.578	514.19
411.802	447.19
412.025	449.19
412.249	466.19
412.472	457.19
412.695	514.19
412.919	510.19
413.142	455.19
413.365	432.19
413.589	431.19
413.812	437.19
414.035	411.19
414.258	418.19
414.482	415.19
414.705	407.19
414.928	416.19
415.151	429.19
415.374	434.19
415.597	442.19
415.821	420.19
416.044	421.19
416.267	443.19
416.49	432.19
416.713	405.19
416.936	422.19
417.159	417.19
417.382	420.19
417.605	443.19
417.828	430.19
418.051	443.19
418.274	461.19
418.497	429.19
418.72	415.19
418.943	407.19
419.166	465.19
419.389	475.19
419.611	475.19
419.834	455.19
420.057	474.19
420.28	456.19
420.503	456.19
420.726	455.19
420.948	467.19
421.171	512.19
421.394	549.19
421.617	465.19
421.839	443.19
422.062	459.19
422.285	475.19
422.507	525.19
422.73	577.19
422.953	583.19
423.175	510.19
423.398	480.19
423.621	459.19
423.843	492.19
424.066	512.19
424.288	513.19
424.511	519.19
424.733	565.19
424.956	661.19
425.178	615.19
425.401	635.19
425.623	650.19
425.846	548.19
426.068	518.19
426.291	514.19
426.513	469.19
426.735	506.19
426.958	551.19
427.18	606.19
427.402	746.19
427.625	853.19
427.847	749.19
428.069	634.19
428.292	580.19
428.514	541.19
428.736	503.19
428.958	466.19
429.181	473.19
429.403	451.19
429.625	486.19
429.847	515.19
430.069	595.19
430.292	583.19
430.514	500.19
430.736	469.19
430.958	447.19
431.18	444.19
431.402	433.19
431.624	428.19
431.846	432.19
432.068	445.19
432.29	447.19
432.512	429.19
432.734	461.19
432.956	439.19
433.178	475.19
433.4	464.19
433.622	443.19
433.844	445.19
434.066	422.19
434.287	444.19
434.509	429.19
434.731	446.19
434.953	452.19
435.175	467.19
435.397	476.19
435.618	531.19
435.84	545.19
436.062	626.19
436.284	724.19
436.505	579.19
436.727	542.19
436.949	487.19
437.17	482.19
437.392	461.19
437.614	484.19
437.835	518.19
438.057	618.19
438.278	717.19
438.5	718.19
438.721	747.19
438.943	731.19
439.165	595.19
439.386	550.19
439.608	529.19
439.829	525.19
440.05	537.19
440.272	598.19
440.493	573.19
440.715	519.19
440.936	469.19
441.158	475.19
441.379	480.19
441.6	472.19
441.822	517.19
442.043	549.19
442.264	634.19
442.486	654.19
442.707	596.19
442.928	553.19
443.149	546.19
443.371	550.19
443.592	588.19
443.813	692.19
444.034	720.19
444.255	609.19
444.476	554.19
444.698	517.19
444.919	509.19
445.14	614.19
445.361	573.19
445.582	548.19
445.803	627.19
446.024	711.19
446.245	701.19
446.466	632.19
446.687	577.19
446.908	520.19
447.129	491.19
447.35	484.19
447.571	475.19
447.792	481.19
448.013	468.19
448.234	500.19
448.455	557.19
448.675	633.19
448.896	735.19
449.117	643.19
449.338	607.19
449.559	721.19
449.779	810.19
450	653.19
450.221	553.19
450.442	499.19
450.662	489.19
450.883	484.19
451.104	515.19
451.324	478.19
451.545	474.19
451.766	434.19
451.986	424.19
452.207	413.19
452.428	412.19
452.648	441.19
452.869	436.19
453.089	446.19
453.31	452.19
453.53	445.19
453.751	436.19
453.971	427.19
454.192	467.19
454.412	443.19
454.633	417.19
454.853	415.19
455.073	425.19
455.294	464.19
455.514	522.19
455.734	510.19
455.955	436.19
456.175	409.19
456.395	395.19
456.616	387.19
456.836	394.19
457.056	384.19
457.276	380.19
457.497	382.19
457.717	397.19
457.937	391.19
458.157	417.19
458.377	394.19
458.598	428.19
458.818	484.19
459.038	581.19
459.258	584.19
459.478	501.19
459.698	460.19
459.918	433.19
460.138	459.19
460.358	430.19
460.578	453.19
460.798	423.19
461.018	411.19
461.238	435.19
461.458	435.19
461.678	413.19
461.898	428.19
462.118	425.19
462.338	461.19
462.558	458.19
462.777	431.19
462.997	461.19
463.217	446.19
463.437	437.19
463.657	445.19
463.876	446.19
464.096	438.19
464.316	419.19
464.536	452.19
464.755	478.19
464.975	479.19
465.195	518.19
465.414	620.19
465.634	511.19
465.854	473.19
466.073	465.19
466.293	442.19
466.512	414.19
466.732	425.19
466.951	429.19
467.171	422.19
467.391	443.19
467.61	433.19
467.829	445.19
468.049	433.19
468.268	429.19
468.488	446.19
468.707	418.19
468.927	420.19
469.146	398.19
469.365	392.19
469.585	421.19
469.804	414.19
470.023	438.19
470.243	440.19
470.462	430.19
470.681	463.19
470.901	466.19
471.12	442.19
471.339	430.19
471.558	428.19
471.777	440.19
471.997	404.19
472.216	429.19
472.435	467.19
472.654	445.19
472.873	442.19
473.092	425.19
473.311	419.19
473.53	434.19
473.749	456.19
473.968	477.19
474.187	593.19
474.406	621.19
474.625	501.19
474.844	489.19
475.063	450.19
475.282	423.19
475.501	442.19
475.72	448.19
475.939	451.19
476.158	435.19
476.377	464.19
476.596	449.19
476.814	440.19
477.033	465.19
477.252	479.19
477.471	462.19
477.69	446.19
477.908	474.19
478.127	467.19
478.346	467.19
478.564	466.19
478.783	491.19
479.002	501.19
479.22	499.19
479.439	490.19
479.658	526.19
479.876	517.19
480.095	511.19
480.313	551.19
480.532	526.19
480.751	501.19
480.969	533.19
481.188	623.19
481.406	647.19
481.624	563.19
481.843	529.19
482.061	526.19
482.28	519.19
482.498	514.19
482.717	484.19
482.935	511.19
483.153	525.19
483.372	521.19
483.59	521.19
483.808	516.19
484.027	527.19
484.245	510.19
484.463	537.19
484.681	503.19
484.9	506.19
485.118	523.19
485.336	540.19
485.554	517.19
485.772	535.19
485.99	542.19
486.209	525.19
486.427	542.19
486.645	544.19
486.863	558.19
487.081	551.19
487.299	564.19
487.517	553.19
487.735	539.19
487.953	541.19
488.171	551.19
488.389	557.19
488.607	558.19
488.825	551.19
489.043	574.19
489.261	574.19
489.479	554.19
489.696	549.19
489.914	570.19
490.132	569.19
490.35	582.19
490.568	596.19
490.786	580.19
491.003	615.19
491.221	621.19
491.439	627.19
491.657	636.19
491.874	637.19
492.092	635.19
492.31	676.19
492.527	637.19
492.745	650.19
492.963	647.19
493.18	676.19
493.398	632.19
493.615	678.19
493.833	660.19
494.05	648.19
494.268	674.19
494.485	682.19
494.703	649.19
494.92	653.19
495.138	671.19
495.355	658.19
495.573	670.19
495.79	679.19
496.008	670.19
496.225	654.19
496.442	656.19
496.66	658.19
496.877	638.19
497.094	650.19
497.312	661.19
497.529	641.19
497.746	676.19
497.963	686.19
498.181	703.19
498.398	700.19
498.615	708.19
498.832	717.19
499.049	712.19
499.267	717.19
499.484	726.19
499.701	747.19
499.918	778.19
500.135	803.19
500.352	804.19
500.569	822.19
500.786	829.19
501.003	791.19
501.22	789.19
501.437	789.19
501.654	801.19
501.871	794.19
