Data from 1980.PennyLincolnUp.Lamp.En5.5.200Scan.071819.P1_HRD10591_16-36-23-957.txt Node
Date: Thu Jul 18 16:36:23 EDT 2019
User: cochatt
Spectrometer: HR+D1059
Trigger mode: 1
Integration Time (sec): 1.000000E-1
Scans to average: 1
Electric dark correction enabled: true
Nonlinearity correction enabled: false
Boxcar width: 0
XAxis mode: Wavelengths
Number of Pixels in Spectrum: 2048
>>>>>Begin Spectral Data<<<<<
223.165	-16.62
223.4	-16.62
223.635	-16.62
223.869	-23.62
224.104	-16.62
224.338	-14.62
224.573	-15.62
224.808	-22.62
225.042	-14.62
225.277	11.38
225.511	-2.62
225.746	21.38
225.98	6.38
226.215	14.38
226.449	17.38
226.683	24.38
226.918	21.38
227.152	10.38
227.387	21.38
227.621	38.38
227.856	36.38
228.09	43.38
228.324	59.38
228.559	48.38
228.793	80.38
229.027	97.38
229.262	95.38
229.496	117.38
229.73	120.38
229.964	143.38
230.199	126.38
230.433	118.38
230.667	100.38
230.901	107.38
231.136	111.38
231.37	110.38
231.604	116.38
231.838	112.38
232.072	109.38
232.306	100.38
232.541	113.38
232.775	104.38
233.009	118.38
233.243	108.38
233.477	118.38
233.711	103.38
233.945	116.38
234.179	116.38
234.413	117.38
234.647	110.38
234.881	110.38
235.115	117.38
235.349	112.38
235.583	114.38
235.817	116.38
236.051	130.38
236.285	134.38
236.519	128.38
236.753	124.38
236.987	133.38
237.221	153.38
237.455	202.38
237.689	171.38
237.922	130.38
238.156	133.38
238.39	127.38
238.624	125.38
238.858	117.38
239.091	124.38
239.325	125.38
239.559	124.38
239.793	126.38
240.027	127.38
240.26	138.38
240.494	148.38
240.728	140.38
240.961	144.38
241.195	132.38
241.429	135.38
241.662	129.38
241.896	106.38
242.13	105.38
242.363	128.38
242.597	126.38
242.83	128.38
243.064	146.38
243.298	136.38
243.531	136.38
243.765	128.38
243.998	134.38
244.232	123.38
244.465	142.38
244.699	136.38
244.932	124.38
245.166	130.38
245.399	147.38
245.633	140.38
245.866	154.38
246.099	156.38
246.333	148.38
246.566	144.38
246.8	138.38
247.033	151.38
247.266	149.38
247.5	156.38
247.733	164.38
247.966	157.38
248.2	175.38
248.433	150.38
248.666	163.38
248.899	174.38
249.133	196.38
249.366	194.38
249.599	189.38
249.832	179.38
250.066	164.38
250.299	154.38
250.532	175.38
250.765	193.38
250.998	206.38
251.231	211.38
251.465	188.38
251.698	188.38
251.931	178.38
252.164	185.38
252.397	180.38
252.63	191.38
252.863	200.38
253.096	196.38
253.329	212.38
253.562	216.38
253.795	200.38
254.028	215.38
254.261	204.38
254.494	212.38
254.727	213.38
254.96	266.38
255.193	250.38
255.426	252.38
255.659	221.38
255.892	205.38
256.124	218.38
256.357	210.38
256.59	209.38
256.823	199.38
257.056	195.38
257.289	198.38
257.521	209.38
257.754	190.38
257.987	183.38
258.22	187.38
258.452	182.38
258.685	185.38
258.918	204.38
259.151	188.38
259.383	208.38
259.616	185.38
259.849	200.38
260.081	199.38
260.314	222.38
260.547	235.38
260.779	233.38
261.012	216.38
261.244	209.38
261.477	196.38
261.71	208.38
261.942	210.38
262.175	217.38
262.407	212.38
262.64	200.38
262.872	199.38
263.105	202.38
263.337	196.38
263.57	172.38
263.802	196.38
264.035	192.38
264.267	201.38
264.499	192.38
264.732	192.38
264.964	204.38
265.197	186.38
265.429	192.38
265.661	190.38
265.894	188.38
266.126	203.38
266.358	201.38
266.591	186.38
266.823	198.38
267.055	191.38
267.287	196.38
267.52	189.38
267.752	182.38
267.984	206.38
268.216	210.38
268.448	201.38
268.681	204.38
268.913	201.38
269.145	233.38
269.377	236.38
269.609	222.38
269.841	229.38
270.073	238.38
270.306	276.38
270.538	277.38
270.77	278.38
271.002	260.38
271.234	255.38
271.466	236.38
271.698	268.38
271.93	276.38
272.162	290.38
272.394	272.38
272.626	273.38
272.858	244.38
273.09	250.38
273.322	248.38
273.553	248.38
273.785	233.38
274.017	233.38
274.249	248.38
274.481	233.38
274.713	233.38
274.945	245.38
275.176	244.38
275.408	221.38
275.64	216.38
275.872	238.38
276.104	233.38
276.335	216.38
276.567	240.38
276.799	257.38
277.031	264.38
277.262	282.38
277.494	274.38
277.726	260.38
277.957	262.38
278.189	239.38
278.421	239.38
278.652	232.38
278.884	221.38
279.115	228.38
279.347	226.38
279.579	236.38
279.81	229.38
280.042	237.38
280.273	230.38
280.505	230.38
280.736	238.38
280.968	235.38
281.199	224.38
281.431	211.38
281.662	219.38
281.894	224.38
282.125	235.38
282.356	238.38
282.588	261.38
282.819	270.38
283.051	217.38
283.282	216.38
283.513	220.38
283.745	228.38
283.976	232.38
284.207	223.38
284.439	231.38
284.67	217.38
284.901	234.38
285.132	244.38
285.364	229.38
285.595	235.38
285.826	231.38
286.057	233.38
286.288	237.38
286.52	213.38
286.751	232.38
286.982	237.38
287.213	222.38
287.444	236.38
287.675	229.38
287.906	251.38
288.138	252.38
288.369	264.38
288.6	256.38
288.831	229.38
289.062	242.38
289.293	235.38
289.524	242.38
289.755	245.38
289.986	244.38
290.217	253.38
290.448	231.38
290.679	264.38
290.91	247.38
291.141	240.38
291.371	239.38
291.602	251.38
291.833	236.38
292.064	244.38
292.295	241.38
292.526	242.38
292.757	216.38
292.987	226.38
293.218	251.38
293.449	269.38
293.68	255.38
293.91	249.38
294.141	241.38
294.372	244.38
294.603	225.38
294.833	248.38
295.064	254.38
295.295	242.38
295.525	228.38
295.756	253.38
295.987	240.38
296.217	281.38
296.448	272.38
296.679	227.38
296.909	225.38
297.14	247.38
297.37	248.38
297.601	250.38
297.831	254.38
298.062	242.38
298.292	253.38
298.523	250.38
298.753	246.38
298.984	234.38
299.214	240.38
299.445	245.38
299.675	260.38
299.905	254.38
300.136	262.38
300.366	253.38
300.597	240.38
300.827	257.38
301.057	261.38
301.288	270.38
301.518	250.38
301.748	277.38
301.979	243.38
302.209	270.38
302.439	266.38
302.669	259.38
302.9	284.38
303.13	247.38
303.36	261.38
303.59	255.38
303.82	281.38
304.051	280.38
304.281	280.38
304.511	268.38
304.741	269.38
304.971	250.38
305.201	258.38
305.431	270.38
305.661	272.38
305.891	284.38
306.121	272.38
306.352	254.38
306.582	299.38
306.812	276.38
307.042	289.38
307.272	264.38
307.502	284.38
307.731	269.38
307.961	271.38
308.191	263.38
308.421	273.38
308.651	261.38
308.881	271.38
309.111	266.38
309.341	265.38
309.571	289.38
309.8	302.38
310.03	299.38
310.26	315.38
310.49	313.38
310.72	306.38
310.949	331.38
311.179	352.38
311.409	311.38
311.639	309.38
311.868	303.38
312.098	314.38
312.328	312.38
312.557	311.38
312.787	333.38
313.017	335.38
313.246	324.38
313.476	298.38
313.706	310.38
313.935	322.38
314.165	336.38
314.394	330.38
314.624	320.38
314.853	337.38
315.083	308.38
315.312	288.38
315.542	302.38
315.771	309.38
316.001	293.38
316.23	315.38
316.46	284.38
316.689	298.38
316.919	316.38
317.148	320.38
317.377	316.38
317.607	318.38
317.836	313.38
318.065	321.38
318.295	310.38
318.524	320.38
318.753	318.38
318.983	303.38
319.212	313.38
319.441	316.38
319.67	328.38
319.9	299.38
320.129	309.38
320.358	318.38
320.587	305.38
320.816	323.38
321.046	348.38
321.275	313.38
321.504	316.38
321.733	300.38
321.962	323.38
322.191	348.38
322.42	349.38
322.649	372.38
322.878	373.38
323.108	385.38
323.337	404.38
323.566	401.38
323.795	436.38
324.024	505.38
324.253	568.38
324.482	823.38
324.71	1245.38
324.939	1759.38
325.168	1593.38
325.397	814.38
325.626	548.38
325.855	465.38
326.084	428.38
326.313	388.38
326.542	426.38
326.77	456.38
326.999	536.38
327.228	702.38
327.457	1101.38
327.686	1350.38
327.914	947.38
328.143	604.38
328.372	504.38
328.6	487.38
328.829	466.38
329.058	489.38
329.287	494.38
329.515	453.38
329.744	408.38
329.972	410.38
330.201	409.38
330.43	460.38
330.658	491.38
330.887	503.38
331.115	493.38
331.344	433.38
331.572	390.38
331.801	408.38
332.03	418.38
332.258	393.38
332.486	361.38
332.715	356.38
332.943	364.38
333.172	363.38
333.4	360.38
333.629	366.38
333.857	369.38
334.085	379.38
334.314	384.38
334.542	423.38
334.771	407.38
334.999	394.38
335.227	346.38
335.455	364.38
335.684	362.38
335.912	352.38
336.14	329.38
336.369	382.38
336.597	378.38
336.825	382.38
337.053	343.38
337.281	350.38
337.51	354.38
337.738	353.38
337.966	357.38
338.194	354.38
338.422	364.38
338.65	355.38
338.878	345.38
339.106	345.38
339.334	333.38
339.562	351.38
339.79	333.38
340.018	347.38
340.246	337.38
340.474	359.38
340.702	348.38
340.93	343.38
341.158	348.38
341.386	350.38
341.614	352.38
341.842	339.38
342.07	334.38
342.298	349.38
342.526	325.38
342.754	337.38
342.981	336.38
343.209	325.38
343.437	351.38
343.665	335.38
343.893	333.38
344.12	340.38
344.348	341.38
344.576	331.38
344.804	342.38
345.031	370.38
345.259	354.38
345.487	354.38
345.714	351.38
345.942	352.38
346.17	340.38
346.397	335.38
346.625	329.38
346.853	324.38
347.08	333.38
347.308	325.38
347.535	354.38
347.763	357.38
347.99	354.38
348.218	378.38
348.445	358.38
348.673	334.38
348.9	365.38
349.128	353.38
349.355	318.38
349.583	334.38
349.81	319.38
350.037	338.38
350.265	324.38
350.492	350.38
350.72	336.38
350.947	339.38
351.174	328.38
351.402	342.38
351.629	347.38
351.856	344.38
352.083	343.38
352.311	340.38
352.538	349.38
352.765	342.38
352.992	361.38
353.22	361.38
353.447	333.38
353.674	347.38
353.901	321.38
354.128	327.38
354.355	327.38
354.583	331.38
354.81	302.38
355.037	304.38
355.264	312.38
355.491	322.38
355.718	306.38
355.945	309.38
356.172	296.38
356.399	297.38
356.626	326.38
356.853	314.38
357.08	304.38
357.307	306.38
357.534	311.38
357.761	317.38
357.988	302.38
358.215	322.38
358.441	306.38
358.668	315.38
358.895	317.38
359.122	321.38
359.349	332.38
359.576	342.38
359.802	363.38
360.029	378.38
360.256	390.38
360.483	378.38
360.709	345.38
360.936	337.38
361.163	326.38
361.39	344.38
361.616	350.38
361.843	337.38
362.07	342.38
362.296	332.38
362.523	329.38
362.749	342.38
362.976	333.38
363.203	338.38
363.429	336.38
363.656	321.38
363.882	346.38
364.109	331.38
364.335	320.38
364.562	346.38
364.788	312.38
365.015	310.38
365.241	311.38
365.468	322.38
365.694	306.38
365.92	334.38
366.147	317.38
366.373	313.38
366.599	324.38
366.826	312.38
367.052	333.38
367.278	333.38
367.505	322.38
367.731	313.38
367.957	323.38
368.184	322.38
368.41	327.38
368.636	328.38
368.862	341.38
369.089	340.38
369.315	317.38
369.541	323.38
369.767	309.38
369.993	327.38
370.219	320.38
370.445	329.38
370.672	330.38
370.898	337.38
371.124	316.38
371.35	320.38
371.576	309.38
371.802	310.38
372.028	327.38
372.254	320.38
372.48	321.38
372.706	320.38
372.932	305.38
373.158	322.38
373.384	331.38
373.61	307.38
373.835	342.38
374.061	331.38
374.287	338.38
374.513	335.38
374.739	341.38
374.965	340.38
375.191	351.38
375.416	349.38
375.642	327.38
375.868	330.38
376.094	339.38
376.319	315.38
376.545	303.38
376.771	328.38
376.997	328.38
377.222	328.38
377.448	338.38
377.674	310.38
377.899	300.38
378.125	310.38
378.35	326.38
378.576	320.38
378.802	324.38
379.027	334.38
379.253	310.38
379.478	324.38
379.704	334.38
379.929	332.38
380.155	326.38
380.38	308.38
380.606	318.38
380.831	314.38
381.057	327.38
381.282	318.38
381.507	330.38
381.733	336.38
381.958	347.38
382.184	327.38
382.409	337.38
382.634	340.38
382.86	343.38
383.085	343.38
383.31	353.38
383.535	318.38
383.761	336.38
383.986	334.38
384.211	352.38
384.436	346.38
384.662	347.38
384.887	336.38
385.112	330.38
385.337	349.38
385.562	344.38
385.787	335.38
386.013	345.38
386.238	342.38
386.463	341.38
386.688	344.38
386.913	342.38
387.138	356.38
387.363	341.38
387.588	338.38
387.813	345.38
388.038	343.38
388.263	344.38
388.488	345.38
388.713	339.38
388.938	332.38
389.163	361.38
389.387	348.38
389.612	349.38
389.837	346.38
390.062	344.38
390.287	345.38
390.512	352.38
390.736	345.38
390.961	360.38
391.186	354.38
391.411	348.38
391.636	354.38
391.86	348.38
392.085	351.38
392.31	360.38
392.534	364.38
392.759	357.38
392.984	349.38
393.208	330.38
393.433	362.38
393.658	360.38
393.882	343.38
394.107	349.38
394.331	356.38
394.556	329.38
394.78	349.38
395.005	353.38
395.229	374.38
395.454	366.38
395.678	367.38
395.903	368.38
396.127	381.38
396.352	377.38
396.576	357.38
396.801	358.38
397.025	374.38
397.249	377.38
397.474	357.38
397.698	365.38
397.922	386.38
398.147	392.38
398.371	362.38
398.595	392.38
398.82	382.38
399.044	394.38
399.268	397.38
399.492	395.38
399.717	421.38
399.941	441.38
400.165	476.38
400.389	467.38
400.613	446.38
400.837	408.38
401.062	400.38
401.286	388.38
401.51	398.38
401.734	378.38
401.958	386.38
402.182	376.38
402.406	405.38
402.63	431.38
402.854	381.38
403.078	376.38
403.302	392.38
403.526	404.38
403.75	408.38
403.974	382.38
404.198	399.38
404.422	395.38
404.645	418.38
404.869	417.38
405.093	425.38
405.317	462.38
405.541	495.38
405.765	455.38
405.988	417.38
406.212	433.38
406.436	442.38
406.66	465.38
406.883	444.38
407.107	444.38
407.331	495.38
407.555	535.38
407.778	535.38
408.002	496.38
408.226	457.38
408.449	442.38
408.673	440.38
408.896	454.38
409.12	512.38
409.344	491.38
409.567	418.38
409.791	444.38
410.014	434.38
410.238	409.38
410.461	404.38
410.685	420.38
410.908	426.38
411.132	454.38
411.355	493.38
411.578	471.38
411.802	420.38
412.025	382.38
412.249	401.38
412.472	419.38
412.695	438.38
412.919	460.38
413.142	413.38
413.365	406.38
413.589	400.38
413.812	392.38
414.035	398.38
414.258	392.38
414.482	387.38
414.705	396.38
414.928	400.38
415.151	375.38
415.374	365.38
415.597	384.38
415.821	372.38
416.044	400.38
416.267	398.38
416.49	380.38
416.713	378.38
416.936	381.38
417.159	375.38
417.382	376.38
417.605	391.38
417.828	395.38
418.051	393.38
418.274	397.38
418.497	409.38
418.72	383.38
418.943	365.38
419.166	404.38
419.389	422.38
419.611	407.38
419.834	413.38
420.057	406.38
420.28	415.38
420.503	383.38
420.726	406.38
420.948	402.38
421.171	461.38
421.394	516.38
421.617	448.38
421.839	414.38
422.062	395.38
422.285	420.38
422.507	459.38
422.73	533.38
422.953	525.38
423.175	478.38
423.398	428.38
423.621	429.38
423.843	450.38
424.066	427.38
424.288	436.38
424.511	455.38
424.733	500.38
424.956	558.38
425.178	542.38
425.401	547.38
425.623	561.38
425.846	487.38
426.068	430.38
426.291	446.38
426.513	428.38
426.735	440.38
426.958	488.38
427.18	560.38
427.402	658.38
427.625	733.38
427.847	673.38
428.069	552.38
428.292	494.38
428.514	446.38
428.736	447.38
428.958	422.38
429.181	396.38
429.403	429.38
429.625	433.38
429.847	449.38
430.069	529.38
430.292	516.38
430.514	457.38
430.736	431.38
430.958	400.38
431.18	388.38
431.402	399.38
431.624	394.38
431.846	372.38
432.068	368.38
432.29	377.38
432.512	412.38
432.734	398.38
432.956	409.38
433.178	410.38
433.4	427.38
433.622	394.38
433.844	378.38
434.066	394.38
434.287	377.38
434.509	385.38
434.731	406.38
434.953	415.38
435.175	408.38
435.397	435.38
435.618	463.38
435.84	505.38
436.062	559.38
436.284	623.38
436.505	508.38
436.727	477.38
436.949	430.38
437.17	423.38
437.392	429.38
437.614	446.38
437.835	472.38
438.057	546.38
438.278	641.38
438.5	641.38
438.721	676.38
438.943	655.38
439.165	534.38
439.386	470.38
439.608	472.38
439.829	462.38
440.05	465.38
440.272	518.38
440.493	497.38
440.715	436.38
440.936	436.38
441.158	408.38
441.379	426.38
441.6	431.38
441.822	435.38
442.043	486.38
442.264	550.38
442.486	614.38
442.707	511.38
442.928	478.38
443.149	467.38
443.371	491.38
443.592	514.38
443.813	581.38
444.034	644.38
444.255	542.38
444.476	465.38
444.698	469.38
444.919	455.38
445.14	538.38
445.361	486.38
445.582	478.38
445.803	542.38
446.024	623.38
446.245	640.38
446.466	581.38
446.687	509.38
446.908	462.38
447.129	424.38
447.35	437.38
447.571	407.38
447.792	416.38
448.013	414.38
448.234	437.38
448.455	496.38
448.675	577.38
448.896	652.38
449.117	570.38
449.338	542.38
449.559	649.38
449.779	706.38
450	570.38
450.221	483.38
450.442	434.38
450.662	430.38
450.883	424.38
451.104	449.38
451.324	407.38
451.545	406.38
451.766	413.38
451.986	361.38
452.207	381.38
452.428	362.38
452.648	390.38
452.869	386.38
453.089	378.38
453.31	391.38
453.53	361.38
453.751	388.38
453.971	369.38
454.192	393.38
454.412	391.38
454.633	388.38
454.853	386.38
455.073	388.38
455.294	405.38
455.514	445.38
455.734	444.38
455.955	365.38
456.175	365.38
456.395	365.38
456.616	352.38
456.836	361.38
457.056	362.38
457.276	327.38
457.497	345.38
457.717	343.38
457.937	358.38
458.157	344.38
458.377	352.38
458.598	370.38
458.818	414.38
459.038	505.38
459.258	487.38
459.478	439.38
459.698	403.38
459.918	378.38
460.138	402.38
460.358	381.38
460.578	377.38
460.798	413.38
461.018	393.38
461.238	385.38
461.458	392.38
461.678	385.38
461.898	375.38
462.118	381.38
462.338	377.38
462.558	402.38
462.777	412.38
462.997	416.38
463.217	406.38
463.437	407.38
463.657	394.38
463.876	430.38
464.096	409.38
464.316	389.38
464.536	404.38
464.755	412.38
464.975	404.38
465.195	449.38
465.414	523.38
465.634	450.38
465.854	424.38
466.073	415.38
466.293	400.38
466.512	392.38
466.732	383.38
466.951	373.38
467.171	367.38
467.391	390.38
467.61	396.38
467.829	401.38
468.049	395.38
468.268	384.38
468.488	373.38
468.707	372.38
468.927	379.38
469.146	362.38
469.365	376.38
469.585	370.38
469.804	390.38
470.023	394.38
470.243	370.38
470.462	386.38
470.681	406.38
470.901	394.38
471.12	398.38
471.339	383.38
471.558	382.38
471.777	388.38
471.997	377.38
472.216	385.38
472.435	410.38
472.654	387.38
472.873	398.38
473.092	398.38
473.311	382.38
473.53	358.38
473.749	410.38
473.968	438.38
474.187	495.38
474.406	544.38
474.625	448.38
474.844	401.38
475.063	396.38
475.282	406.38
475.501	397.38
475.72	396.38
475.939	414.38
476.158	392.38
476.377	401.38
476.596	416.38
476.814	397.38
477.033	398.38
477.252	430.38
477.471	414.38
477.69	423.38
477.908	429.38
478.127	437.38
478.346	425.38
478.564	412.38
478.783	396.38
479.002	451.38
479.22	444.38
479.439	457.38
479.658	452.38
479.876	443.38
480.095	452.38
480.313	484.38
480.532	472.38
480.751	471.38
480.969	477.38
481.188	506.38
481.406	544.38
481.624	473.38
481.843	453.38
482.061	460.38
482.28	471.38
482.498	455.38
482.717	436.38
482.935	438.38
483.153	439.38
483.372	458.38
483.59	470.38
483.808	454.38
484.027	464.38
484.245	462.38
484.463	468.38
484.681	461.38
484.9	466.38
485.118	481.38
485.336	457.38
485.554	466.38
485.772	483.38
485.99	480.38
486.209	508.38
486.427	497.38
486.645	478.38
486.863	501.38
487.081	500.38
487.299	486.38
487.517	505.38
487.735	473.38
487.953	478.38
488.171	491.38
488.389	504.38
488.607	490.38
488.825	495.38
489.043	502.38
489.261	501.38
489.479	478.38
489.696	488.38
489.914	478.38
490.132	502.38
490.35	495.38
490.568	497.38
490.786	519.38
491.003	546.38
491.221	540.38
491.439	547.38
491.657	546.38
491.874	557.38
492.092	586.38
492.31	578.38
492.527	585.38
492.745	582.38
492.963	560.38
493.18	580.38
493.398	587.38
493.615	580.38
493.833	587.38
494.05	577.38
494.268	552.38
494.485	589.38
494.703	590.38
494.92	587.38
495.138	589.38
495.355	584.38
495.573	570.38
495.79	601.38
496.008	595.38
496.225	555.38
496.442	570.38
496.66	588.38
496.877	592.38
497.094	589.38
497.312	576.38
497.529	569.38
497.746	590.38
497.963	611.38
498.181	640.38
498.398	624.38
498.615	638.38
498.832	624.38
499.049	657.38
499.267	654.38
499.484	659.38
499.701	672.38
499.918	700.38
500.135	697.38
500.352	724.38
500.569	748.38
500.786	740.38
501.003	725.38
501.22	748.38
501.437	709.38
501.654	702.38
501.871	696.38
