Data from 1980.PennyLincolnUp.Lamp.En5.5.200Scan.071819.P1_HRD10591_16-38-20-957.txt Node
Date: Thu Jul 18 16:38:20 EDT 2019
User: cochatt
Spectrometer: HR+D1059
Trigger mode: 1
Integration Time (sec): 1.000000E-1
Scans to average: 1
Electric dark correction enabled: true
Nonlinearity correction enabled: false
Boxcar width: 0
XAxis mode: Wavelengths
Number of Pixels in Spectrum: 2048
>>>>>Begin Spectral Data<<<<<
223.165	-14.81
223.4	-14.81
223.635	-14.81
223.869	-21.81
224.104	-3.81
224.338	-6.81
224.573	-15.81
224.808	-11.81
225.042	-6.81
225.277	-10.81
225.511	-1.81
225.746	2.19
225.98	22.19
226.215	-0.81
226.449	-0.81
226.683	13.19
226.918	19.19
227.152	39.19
227.387	23.19
227.621	31.19
227.856	29.19
228.09	62.19
228.324	57.19
228.559	54.19
228.793	72.19
229.027	117.19
229.262	123.19
229.496	129.19
229.73	148.19
229.964	185.19
230.199	144.19
230.433	119.19
230.667	133.19
230.901	118.19
231.136	127.19
231.37	122.19
231.604	120.19
231.838	125.19
232.072	109.19
232.306	105.19
232.541	140.19
232.775	110.19
233.009	128.19
233.243	116.19
233.477	119.19
233.711	113.19
233.945	106.19
234.179	120.19
234.413	117.19
234.647	137.19
234.881	121.19
235.115	114.19
235.349	116.19
235.583	122.19
235.817	119.19
236.051	111.19
236.285	135.19
236.519	132.19
236.753	130.19
236.987	150.19
237.221	200.19
237.455	262.19
237.689	216.19
237.922	157.19
238.156	158.19
238.39	135.19
238.624	125.19
238.858	139.19
239.091	128.19
239.325	105.19
239.559	124.19
239.793	137.19
240.027	143.19
240.26	146.19
240.494	164.19
240.728	163.19
240.961	166.19
241.195	141.19
241.429	145.19
241.662	138.19
241.896	131.19
242.13	147.19
242.363	133.19
242.597	117.19
242.83	138.19
243.064	137.19
243.298	146.19
243.531	154.19
243.765	138.19
243.998	125.19
244.232	142.19
244.465	147.19
244.699	146.19
244.932	149.19
245.166	150.19
245.399	146.19
245.633	133.19
245.866	156.19
246.099	153.19
246.333	150.19
246.566	157.19
246.8	152.19
247.033	164.19
247.266	150.19
247.5	161.19
247.733	181.19
247.966	183.19
248.2	186.19
248.433	182.19
248.666	172.19
248.899	191.19
249.133	216.19
249.366	220.19
249.599	215.19
249.832	188.19
250.066	190.19
250.299	185.19
250.532	189.19
250.765	215.19
250.998	248.19
251.231	250.19
251.465	218.19
251.698	212.19
251.931	209.19
252.164	201.19
252.397	211.19
252.63	206.19
252.863	230.19
253.096	231.19
253.329	238.19
253.562	220.19
253.795	240.19
254.028	232.19
254.261	237.19
254.494	236.19
254.727	276.19
254.96	295.19
255.193	284.19
255.426	274.19
255.659	243.19
255.892	253.19
256.124	232.19
256.357	235.19
256.59	261.19
256.823	244.19
257.056	230.19
257.289	236.19
257.521	196.19
257.754	215.19
257.987	227.19
258.22	215.19
258.452	232.19
258.685	227.19
258.918	199.19
259.151	220.19
259.383	242.19
259.616	227.19
259.849	245.19
260.081	247.19
260.314	268.19
260.547	277.19
260.779	260.19
261.012	245.19
261.244	235.19
261.477	231.19
261.71	237.19
261.942	253.19
262.175	253.19
262.407	262.19
262.64	229.19
262.872	231.19
263.105	217.19
263.337	225.19
263.57	203.19
263.802	216.19
264.035	221.19
264.267	229.19
264.499	217.19
264.732	198.19
264.964	215.19
265.197	221.19
265.429	227.19
265.661	220.19
265.894	245.19
266.126	228.19
266.358	214.19
266.591	237.19
266.823	236.19
267.055	245.19
267.287	247.19
267.52	234.19
267.752	230.19
267.984	229.19
268.216	232.19
268.448	250.19
268.681	245.19
268.913	258.19
269.145	247.19
269.377	277.19
269.609	277.19
269.841	260.19
270.073	299.19
270.306	304.19
270.538	339.19
270.77	351.19
271.002	346.19
271.234	315.19
271.466	321.19
271.698	333.19
271.93	351.19
272.162	338.19
272.394	369.19
272.626	318.19
272.858	318.19
273.09	299.19
273.322	279.19
273.553	271.19
273.785	295.19
274.017	265.19
274.249	268.19
274.481	287.19
274.713	282.19
274.945	273.19
275.176	263.19
275.408	276.19
275.64	272.19
275.872	276.19
276.104	265.19
276.335	277.19
276.567	289.19
276.799	312.19
277.031	309.19
277.262	325.19
277.494	337.19
277.726	321.19
277.957	320.19
278.189	296.19
278.421	290.19
278.652	295.19
278.884	273.19
279.115	273.19
279.347	269.19
279.579	265.19
279.81	277.19
280.042	257.19
280.273	275.19
280.505	267.19
280.736	264.19
280.968	272.19
281.199	258.19
281.431	268.19
281.662	259.19
281.894	270.19
282.125	279.19
282.356	293.19
282.588	318.19
282.819	327.19
283.051	284.19
283.282	265.19
283.513	281.19
283.745	269.19
283.976	275.19
284.207	285.19
284.439	284.19
284.67	270.19
284.901	261.19
285.132	277.19
285.364	282.19
285.595	275.19
285.826	267.19
286.057	270.19
286.288	263.19
286.52	274.19
286.751	285.19
286.982	272.19
287.213	289.19
287.444	293.19
287.675	291.19
287.906	307.19
288.138	283.19
288.369	299.19
288.6	300.19
288.831	303.19
289.062	306.19
289.293	289.19
289.524	279.19
289.755	281.19
289.986	277.19
290.217	270.19
290.448	272.19
290.679	287.19
290.91	273.19
291.141	291.19
291.371	299.19
291.602	279.19
291.833	289.19
292.064	258.19
292.295	285.19
292.526	271.19
292.757	297.19
292.987	295.19
293.218	262.19
293.449	281.19
293.68	279.19
293.91	273.19
294.141	295.19
294.372	270.19
294.603	285.19
294.833	281.19
295.064	262.19
295.295	277.19
295.525	283.19
295.756	281.19
295.987	291.19
296.217	314.19
296.448	327.19
296.679	298.19
296.909	302.19
297.14	287.19
297.37	290.19
297.601	279.19
297.831	283.19
298.062	280.19
298.292	299.19
298.523	310.19
298.753	296.19
298.984	293.19
299.214	298.19
299.445	322.19
299.675	301.19
299.905	320.19
300.136	296.19
300.366	300.19
300.597	296.19
300.827	300.19
301.057	301.19
301.288	327.19
301.518	309.19
301.748	283.19
301.979	303.19
302.209	332.19
302.439	319.19
302.669	306.19
302.9	309.19
303.13	319.19
303.36	312.19
303.59	319.19
303.82	326.19
304.051	315.19
304.281	310.19
304.511	299.19
304.741	310.19
304.971	303.19
305.201	308.19
305.431	311.19
305.661	317.19
305.891	309.19
306.121	319.19
306.352	319.19
306.582	313.19
306.812	300.19
307.042	298.19
307.272	326.19
307.502	313.19
307.731	333.19
307.961	317.19
308.191	324.19
308.421	335.19
308.651	350.19
308.881	326.19
309.111	329.19
309.341	349.19
309.571	350.19
309.8	349.19
310.03	359.19
310.26	367.19
310.49	381.19
310.72	393.19
310.949	396.19
311.179	399.19
311.409	383.19
311.639	375.19
311.868	398.19
312.098	377.19
312.328	382.19
312.557	406.19
312.787	436.19
313.017	424.19
313.246	406.19
313.476	366.19
313.706	366.19
313.935	363.19
314.165	390.19
314.394	389.19
314.624	396.19
314.853	381.19
315.083	389.19
315.312	375.19
315.542	363.19
315.771	355.19
316.001	373.19
316.23	363.19
316.46	361.19
316.689	377.19
316.919	370.19
317.148	387.19
317.377	402.19
317.607	386.19
317.836	385.19
318.065	376.19
318.295	381.19
318.524	385.19
318.753	369.19
318.983	369.19
319.212	373.19
319.441	371.19
319.67	391.19
319.9	376.19
320.129	362.19
320.358	371.19
320.587	376.19
320.816	421.19
321.046	393.19
321.275	398.19
321.504	391.19
321.733	396.19
321.962	412.19
322.191	443.19
322.42	448.19
322.649	486.19
322.878	467.19
323.108	505.19
323.337	534.19
323.566	537.19
323.795	579.19
324.024	654.19
324.253	783.19
324.482	1127.19
324.71	1772.19
324.939	2489.19
325.168	2215.19
325.397	1184.19
325.626	763.19
325.855	614.19
326.084	550.19
326.313	543.19
326.542	566.19
326.77	603.19
326.999	744.19
327.228	1021.19
327.457	1544.19
327.686	1955.19
327.914	1318.19
328.143	837.19
328.372	706.19
328.6	693.19
328.829	644.19
329.058	653.19
329.287	665.19
329.515	593.19
329.744	560.19
329.972	562.19
330.201	576.19
330.43	627.19
330.658	660.19
330.887	686.19
331.115	666.19
331.344	545.19
331.572	527.19
331.801	501.19
332.03	492.19
332.258	484.19
332.486	445.19
332.715	447.19
332.943	438.19
333.172	443.19
333.4	422.19
333.629	441.19
333.857	497.19
334.085	488.19
334.314	491.19
334.542	540.19
334.771	548.19
334.999	503.19
335.227	458.19
335.455	443.19
335.684	425.19
335.912	445.19
336.14	421.19
336.369	450.19
336.597	441.19
336.825	446.19
337.053	444.19
337.281	431.19
337.51	436.19
337.738	420.19
337.966	424.19
338.194	424.19
338.422	443.19
338.65	418.19
338.878	415.19
339.106	413.19
339.334	416.19
339.562	377.19
339.79	412.19
340.018	417.19
340.246	420.19
340.474	436.19
340.702	430.19
340.93	414.19
341.158	422.19
341.386	427.19
341.614	426.19
341.842	399.19
342.07	409.19
342.298	411.19
342.526	416.19
342.754	411.19
342.981	396.19
343.209	386.19
343.437	386.19
343.665	408.19
343.893	407.19
344.12	412.19
344.348	429.19
344.576	401.19
344.804	422.19
345.031	423.19
345.259	455.19
345.487	448.19
345.714	403.19
345.942	411.19
346.17	407.19
346.397	411.19
346.625	405.19
346.853	406.19
347.08	405.19
347.308	430.19
347.535	437.19
347.763	423.19
347.99	431.19
348.218	445.19
348.445	437.19
348.673	428.19
348.9	411.19
349.128	382.19
349.355	398.19
349.583	385.19
349.81	380.19
350.037	385.19
350.265	386.19
350.492	380.19
350.72	403.19
350.947	393.19
351.174	422.19
351.402	425.19
351.629	423.19
351.856	430.19
352.083	430.19
352.311	421.19
352.538	433.19
352.765	441.19
352.992	430.19
353.22	398.19
353.447	409.19
353.674	396.19
353.901	393.19
354.128	376.19
354.355	365.19
354.583	380.19
354.81	383.19
355.037	361.19
355.264	377.19
355.491	385.19
355.718	363.19
355.945	382.19
356.172	360.19
356.399	357.19
356.626	372.19
356.853	369.19
357.08	376.19
357.307	384.19
357.534	372.19
357.761	365.19
357.988	376.19
358.215	374.19
358.441	366.19
358.668	373.19
358.895	393.19
359.122	373.19
359.349	394.19
359.576	398.19
359.802	444.19
360.029	456.19
360.256	461.19
360.483	453.19
360.709	412.19
360.936	413.19
361.163	414.19
361.39	415.19
361.616	408.19
361.843	415.19
362.07	405.19
362.296	412.19
362.523	419.19
362.749	409.19
362.976	393.19
363.203	380.19
363.429	394.19
363.656	389.19
363.882	393.19
364.109	370.19
364.335	386.19
364.562	389.19
364.788	388.19
365.015	376.19
365.241	385.19
365.468	380.19
365.694	412.19
365.92	401.19
366.147	391.19
366.373	385.19
366.599	370.19
366.826	385.19
367.052	362.19
367.278	378.19
367.505	382.19
367.731	386.19
367.957	375.19
368.184	381.19
368.41	415.19
368.636	401.19
368.862	404.19
369.089	391.19
369.315	375.19
369.541	375.19
369.767	371.19
369.993	391.19
370.219	380.19
370.445	377.19
370.672	382.19
370.898	396.19
371.124	374.19
371.35	382.19
371.576	363.19
371.802	371.19
372.028	376.19
372.254	367.19
372.48	356.19
372.706	370.19
372.932	395.19
373.158	370.19
373.384	386.19
373.61	385.19
373.835	370.19
374.061	364.19
374.287	401.19
374.513	393.19
374.739	371.19
374.965	363.19
375.191	397.19
375.416	353.19
375.642	364.19
375.868	351.19
376.094	374.19
376.319	375.19
376.545	365.19
376.771	348.19
376.997	370.19
377.222	371.19
377.448	362.19
377.674	378.19
377.899	355.19
378.125	369.19
378.35	361.19
378.576	365.19
378.802	357.19
379.027	363.19
379.253	359.19
379.478	371.19
379.704	351.19
379.929	358.19
380.155	371.19
380.38	367.19
380.606	361.19
380.831	385.19
381.057	373.19
381.282	382.19
381.507	372.19
381.733	361.19
381.958	375.19
382.184	372.19
382.409	371.19
382.634	385.19
382.86	387.19
383.085	369.19
383.31	385.19
383.535	364.19
383.761	369.19
383.986	369.19
384.211	389.19
384.436	370.19
384.662	387.19
384.887	395.19
385.112	383.19
385.337	393.19
385.562	374.19
385.787	405.19
386.013	413.19
386.238	393.19
386.463	414.19
386.688	404.19
386.913	381.19
387.138	389.19
387.363	390.19
387.588	392.19
387.813	397.19
388.038	404.19
388.263	391.19
388.488	409.19
388.713	400.19
388.938	419.19
389.163	387.19
389.387	398.19
389.612	372.19
389.837	376.19
390.062	385.19
390.287	380.19
390.512	403.19
390.736	392.19
390.961	385.19
391.186	401.19
391.411	413.19
391.636	400.19
391.86	403.19
392.085	406.19
392.31	400.19
392.534	382.19
392.759	399.19
392.984	404.19
393.208	399.19
393.433	384.19
393.658	391.19
393.882	381.19
394.107	393.19
394.331	409.19
394.556	407.19
394.78	396.19
395.005	385.19
395.229	381.19
395.454	415.19
395.678	403.19
395.903	402.19
396.127	417.19
396.352	451.19
396.576	417.19
396.801	420.19
397.025	403.19
397.249	423.19
397.474	404.19
397.698	407.19
397.922	399.19
398.147	453.19
398.371	458.19
398.595	435.19
398.82	427.19
399.044	436.19
399.268	442.19
399.492	483.19
399.717	486.19
399.941	526.19
400.165	547.19
400.389	543.19
400.613	517.19
400.837	472.19
401.062	485.19
401.286	458.19
401.51	467.19
401.734	425.19
401.958	449.19
402.182	447.19
402.406	474.19
402.63	462.19
402.854	449.19
403.078	459.19
403.302	470.19
403.526	458.19
403.75	453.19
403.974	464.19
404.198	464.19
404.422	459.19
404.645	474.19
404.869	477.19
405.093	504.19
405.317	547.19
405.541	575.19
405.765	556.19
405.988	508.19
406.212	492.19
406.436	551.19
406.66	563.19
406.883	506.19
407.107	552.19
407.331	578.19
407.555	645.19
407.778	621.19
408.002	575.19
408.226	538.19
408.449	518.19
408.673	531.19
408.896	535.19
409.12	584.19
409.344	578.19
409.567	497.19
409.791	484.19
410.014	480.19
410.238	459.19
410.461	476.19
410.685	481.19
410.908	497.19
411.132	545.19
411.355	560.19
411.578	541.19
411.802	507.19
412.025	488.19
412.249	481.19
412.472	489.19
412.695	552.19
412.919	527.19
413.142	475.19
413.365	473.19
413.589	445.19
413.812	451.19
414.035	434.19
414.258	442.19
414.482	424.19
414.705	422.19
414.928	439.19
415.151	441.19
415.374	461.19
415.597	433.19
415.821	436.19
416.044	447.19
416.267	451.19
416.49	447.19
416.713	434.19
416.936	442.19
417.159	436.19
417.382	460.19
417.605	462.19
417.828	478.19
418.051	475.19
418.274	455.19
418.497	461.19
418.72	451.19
418.943	447.19
419.166	461.19
419.389	469.19
419.611	475.19
419.834	473.19
420.057	483.19
420.28	488.19
420.503	475.19
420.726	468.19
420.948	487.19
421.171	533.19
421.394	581.19
421.617	508.19
421.839	480.19
422.062	483.19
422.285	511.19
422.507	560.19
422.73	647.19
422.953	614.19
423.175	524.19
423.398	487.19
423.621	499.19
423.843	522.19
424.066	519.19
424.288	526.19
424.511	541.19
424.733	591.19
424.956	680.19
425.178	638.19
425.401	645.19
425.623	662.19
425.846	577.19
426.068	550.19
426.291	522.19
426.513	524.19
426.735	556.19
426.958	581.19
427.18	647.19
427.402	795.19
427.625	893.19
427.847	830.19
428.069	714.19
428.292	605.19
428.514	547.19
428.736	527.19
428.958	525.19
429.181	497.19
429.403	499.19
429.625	509.19
429.847	553.19
430.069	627.19
430.292	603.19
430.514	506.19
430.736	507.19
430.958	486.19
431.18	464.19
431.402	448.19
431.624	470.19
431.846	469.19
432.068	463.19
432.29	444.19
432.512	446.19
432.734	473.19
432.956	463.19
433.178	493.19
433.4	479.19
433.622	462.19
433.844	458.19
434.066	457.19
434.287	442.19
434.509	444.19
434.731	491.19
434.953	482.19
435.175	486.19
435.397	535.19
435.618	557.19
435.84	597.19
436.062	657.19
436.284	733.19
436.505	619.19
436.727	549.19
436.949	509.19
437.17	490.19
437.392	498.19
437.614	515.19
437.835	554.19
438.057	677.19
438.278	764.19
438.5	773.19
438.721	817.19
438.943	805.19
439.165	623.19
439.386	573.19
439.608	572.19
439.829	559.19
440.05	583.19
440.272	621.19
440.493	584.19
440.715	536.19
440.936	517.19
441.158	487.19
441.379	512.19
441.6	494.19
441.822	535.19
442.043	576.19
442.264	651.19
442.486	697.19
442.707	612.19
442.928	540.19
443.149	569.19
443.371	596.19
443.592	649.19
443.813	694.19
444.034	771.19
444.255	638.19
444.476	559.19
444.698	550.19
444.919	531.19
445.14	592.19
445.361	580.19
445.582	574.19
445.803	654.19
446.024	775.19
446.245	783.19
446.466	708.19
446.687	590.19
446.908	556.19
447.129	526.19
447.35	499.19
447.571	517.19
447.792	504.19
448.013	518.19
448.234	537.19
448.455	598.19
448.675	689.19
448.896	809.19
449.117	681.19
449.338	634.19
449.559	758.19
449.779	847.19
450	695.19
450.221	573.19
450.442	528.19
450.662	507.19
450.883	533.19
451.104	532.19
451.324	492.19
451.545	499.19
451.766	489.19
451.986	439.19
452.207	452.19
452.428	428.19
452.648	456.19
452.869	475.19
453.089	465.19
453.31	466.19
453.53	451.19
453.751	450.19
453.971	458.19
454.192	478.19
454.412	470.19
454.633	460.19
454.853	453.19
455.073	442.19
455.294	472.19
455.514	542.19
455.734	548.19
455.955	449.19
456.175	433.19
456.395	400.19
456.616	429.19
456.836	407.19
457.056	399.19
457.276	411.19
457.497	427.19
457.717	394.19
457.937	431.19
458.157	425.19
458.377	427.19
458.598	467.19
458.818	530.19
459.038	620.19
459.258	636.19
459.478	529.19
459.698	461.19
459.918	465.19
460.138	445.19
460.358	445.19
460.578	440.19
460.798	472.19
461.018	458.19
461.238	442.19
461.458	443.19
461.678	454.19
461.898	438.19
462.118	446.19
462.338	465.19
462.558	445.19
462.777	466.19
462.997	461.19
463.217	466.19
463.437	465.19
463.657	463.19
463.876	461.19
464.096	466.19
464.316	448.19
464.536	492.19
464.755	484.19
464.975	503.19
465.195	558.19
465.414	666.19
465.634	558.19
465.854	514.19
466.073	458.19
466.293	464.19
466.512	446.19
466.732	449.19
466.951	438.19
467.171	451.19
467.391	451.19
467.61	455.19
467.829	473.19
468.049	457.19
468.268	451.19
468.488	457.19
468.707	446.19
468.927	442.19
469.146	459.19
469.365	453.19
469.585	444.19
469.804	445.19
470.023	483.19
470.243	468.19
470.462	492.19
470.681	499.19
470.901	483.19
471.12	443.19
471.339	438.19
471.558	462.19
471.777	460.19
471.997	467.19
472.216	459.19
472.435	528.19
472.654	479.19
472.873	454.19
473.092	455.19
473.311	450.19
473.53	481.19
473.749	472.19
473.968	511.19
474.187	619.19
474.406	666.19
474.625	532.19
474.844	484.19
475.063	457.19
475.282	434.19
475.501	454.19
475.72	462.19
475.939	455.19
476.158	485.19
476.377	472.19
476.596	466.19
476.814	469.19
477.033	489.19
477.252	477.19
477.471	472.19
477.69	462.19
477.908	477.19
478.127	474.19
478.346	486.19
478.564	501.19
478.783	493.19
479.002	518.19
479.22	500.19
479.439	523.19
479.658	556.19
479.876	545.19
480.095	549.19
480.313	572.19
480.532	570.19
480.751	571.19
480.969	583.19
481.188	635.19
481.406	701.19
481.624	593.19
481.843	567.19
482.061	563.19
482.28	529.19
482.498	549.19
482.717	548.19
482.935	529.19
483.153	539.19
483.372	526.19
483.59	539.19
483.808	512.19
484.027	530.19
484.245	547.19
484.463	536.19
484.681	541.19
484.9	563.19
485.118	561.19
485.336	550.19
485.554	553.19
485.772	563.19
485.99	550.19
486.209	543.19
486.427	566.19
486.645	584.19
486.863	597.19
487.081	595.19
487.299	582.19
487.517	594.19
487.735	597.19
487.953	597.19
488.171	582.19
488.389	598.19
488.607	591.19
488.825	595.19
489.043	588.19
489.261	590.19
489.479	572.19
489.696	582.19
489.914	587.19
490.132	601.19
490.35	598.19
490.568	602.19
490.786	628.19
491.003	628.19
491.221	636.19
491.439	677.19
491.657	678.19
491.874	690.19
492.092	641.19
492.31	678.19
492.527	677.19
492.745	670.19
492.963	693.19
493.18	711.19
493.398	702.19
493.615	703.19
493.833	695.19
494.05	712.19
494.268	690.19
494.485	694.19
494.703	721.19
494.92	719.19
495.138	708.19
495.355	732.19
495.573	734.19
495.79	699.19
496.008	701.19
496.225	690.19
496.442	685.19
496.66	711.19
496.877	702.19
497.094	702.19
497.312	710.19
497.529	681.19
497.746	702.19
497.963	716.19
498.181	740.19
498.398	742.19
498.615	731.19
498.832	752.19
499.049	766.19
499.267	755.19
499.484	757.19
499.701	774.19
499.918	800.19
500.135	832.19
500.352	843.19
500.569	847.19
500.786	838.19
501.003	850.19
501.22	854.19
501.437	833.19
501.654	829.19
501.871	824.19
