Data from 1980.PennyLincolnUp.Lamp.En5.5.200Scan.071819.P1_HRD10591_16-39-07-957.txt Node
Date: Thu Jul 18 16:39:07 EDT 2019
User: cochatt
Spectrometer: HR+D1059
Trigger mode: 1
Integration Time (sec): 1.000000E-1
Scans to average: 1
Electric dark correction enabled: true
Nonlinearity correction enabled: false
Boxcar width: 0
XAxis mode: Wavelengths
Number of Pixels in Spectrum: 2048
>>>>>Begin Spectral Data<<<<<
223.165	-13.38
223.4	-13.38
223.635	-13.38
223.869	-15.38
224.104	2.62
224.338	-12.38
224.573	-12.38
224.808	-16.38
225.042	0.62
225.277	-5.38
225.511	-9.38
225.746	-3.38
225.98	4.62
226.215	5.62
226.449	27.62
226.683	11.62
226.918	12.62
227.152	22.62
227.387	37.62
227.621	32.62
227.856	36.62
228.09	54.62
228.324	56.62
228.559	63.62
228.793	62.62
229.027	124.62
229.262	118.62
229.496	122.62
229.73	139.62
229.964	180.62
230.199	148.62
230.433	114.62
230.667	112.62
230.901	115.62
231.136	117.62
231.37	111.62
231.604	103.62
231.838	120.62
232.072	112.62
232.306	102.62
232.541	103.62
232.775	118.62
233.009	101.62
233.243	126.62
233.477	128.62
233.711	122.62
233.945	120.62
234.179	111.62
234.413	114.62
234.647	106.62
234.881	126.62
235.115	120.62
235.349	123.62
235.583	114.62
235.817	107.62
236.051	124.62
236.285	123.62
236.519	133.62
236.753	123.62
236.987	146.62
237.221	176.62
237.455	235.62
237.689	212.62
237.922	146.62
238.156	124.62
238.39	122.62
238.624	121.62
238.858	126.62
239.091	122.62
239.325	129.62
239.559	130.62
239.793	127.62
240.027	151.62
240.26	151.62
240.494	164.62
240.728	155.62
240.961	172.62
241.195	131.62
241.429	140.62
241.662	125.62
241.896	149.62
242.13	123.62
242.363	141.62
242.597	136.62
242.83	136.62
243.064	135.62
243.298	139.62
243.531	131.62
243.765	135.62
243.998	150.62
244.232	159.62
244.465	155.62
244.699	163.62
244.932	141.62
245.166	140.62
245.399	146.62
245.633	163.62
245.866	132.62
246.099	150.62
246.333	134.62
246.566	144.62
246.8	151.62
247.033	158.62
247.266	149.62
247.5	167.62
247.733	162.62
247.966	182.62
248.2	178.62
248.433	178.62
248.666	177.62
248.899	190.62
249.133	212.62
249.366	209.62
249.599	205.62
249.832	200.62
250.066	208.62
250.299	197.62
250.532	205.62
250.765	211.62
250.998	251.62
251.231	244.62
251.465	240.62
251.698	227.62
251.931	204.62
252.164	203.62
252.397	207.62
252.63	201.62
252.863	221.62
253.096	226.62
253.329	225.62
253.562	249.62
253.795	244.62
254.028	224.62
254.261	228.62
254.494	245.62
254.727	266.62
254.96	302.62
255.193	292.62
255.426	280.62
255.659	271.62
255.892	238.62
256.124	263.62
256.357	248.62
256.59	247.62
256.823	235.62
257.056	231.62
257.289	218.62
257.521	223.62
257.754	224.62
257.987	232.62
258.22	217.62
258.452	201.62
258.685	208.62
258.918	206.62
259.151	227.62
259.383	217.62
259.616	242.62
259.849	238.62
260.081	227.62
260.314	268.62
260.547	264.62
260.779	259.62
261.012	247.62
261.244	241.62
261.477	246.62
261.71	231.62
261.942	240.62
262.175	275.62
262.407	248.62
262.64	214.62
262.872	212.62
263.105	220.62
263.337	228.62
263.57	214.62
263.802	217.62
264.035	208.62
264.267	225.62
264.499	219.62
264.732	242.62
264.964	223.62
265.197	202.62
265.429	202.62
265.661	215.62
265.894	199.62
266.126	208.62
266.358	234.62
266.591	211.62
266.823	219.62
267.055	223.62
267.287	213.62
267.52	220.62
267.752	226.62
267.984	215.62
268.216	214.62
268.448	241.62
268.681	241.62
268.913	242.62
269.145	260.62
269.377	287.62
269.609	289.62
269.841	277.62
270.073	279.62
270.306	308.62
270.538	335.62
270.77	340.62
271.002	325.62
271.234	315.62
271.466	331.62
271.698	335.62
271.93	344.62
272.162	333.62
272.394	340.62
272.626	327.62
272.858	311.62
273.09	302.62
273.322	286.62
273.553	282.62
273.785	268.62
274.017	284.62
274.249	264.62
274.481	272.62
274.713	259.62
274.945	273.62
275.176	276.62
275.408	259.62
275.64	256.62
275.872	266.62
276.104	263.62
276.335	251.62
276.567	292.62
276.799	306.62
277.031	329.62
277.262	335.62
277.494	344.62
277.726	316.62
277.957	286.62
278.189	278.62
278.421	271.62
278.652	269.62
278.884	251.62
279.115	250.62
279.347	260.62
279.579	255.62
279.81	262.62
280.042	265.62
280.273	287.62
280.505	268.62
280.736	257.62
280.968	242.62
281.199	273.62
281.431	244.62
281.662	271.62
281.894	255.62
282.125	271.62
282.356	300.62
282.588	312.62
282.819	324.62
283.051	286.62
283.282	265.62
283.513	266.62
283.745	277.62
283.976	279.62
284.207	280.62
284.439	263.62
284.67	264.62
284.901	254.62
285.132	262.62
285.364	267.62
285.595	260.62
285.826	273.62
286.057	250.62
286.288	254.62
286.52	266.62
286.751	267.62
286.982	279.62
287.213	279.62
287.444	282.62
287.675	276.62
287.906	296.62
288.138	297.62
288.369	280.62
288.6	299.62
288.831	296.62
289.062	280.62
289.293	273.62
289.524	276.62
289.755	283.62
289.986	274.62
290.217	285.62
290.448	269.62
290.679	266.62
290.91	260.62
291.141	287.62
291.371	279.62
291.602	274.62
291.833	283.62
292.064	277.62
292.295	262.62
292.526	273.62
292.757	264.62
292.987	262.62
293.218	270.62
293.449	273.62
293.68	280.62
293.91	275.62
294.141	275.62
294.372	268.62
294.603	267.62
294.833	266.62
295.064	284.62
295.295	264.62
295.525	285.62
295.756	283.62
295.987	300.62
296.217	330.62
296.448	319.62
296.679	299.62
296.909	278.62
297.14	284.62
297.37	264.62
297.601	278.62
297.831	286.62
298.062	290.62
298.292	291.62
298.523	279.62
298.753	281.62
298.984	296.62
299.214	289.62
299.445	302.62
299.675	295.62
299.905	288.62
300.136	310.62
300.366	294.62
300.597	288.62
300.827	298.62
301.057	291.62
301.288	309.62
301.518	299.62
301.748	288.62
301.979	311.62
302.209	301.62
302.439	312.62
302.669	304.62
302.9	294.62
303.13	307.62
303.36	318.62
303.59	325.62
303.82	309.62
304.051	321.62
304.281	304.62
304.511	284.62
304.741	293.62
304.971	294.62
305.201	292.62
305.431	325.62
305.661	296.62
305.891	306.62
306.121	306.62
306.352	319.62
306.582	315.62
306.812	317.62
307.042	309.62
307.272	319.62
307.502	313.62
307.731	310.62
307.961	313.62
308.191	322.62
308.421	341.62
308.651	323.62
308.881	333.62
309.111	342.62
309.341	332.62
309.571	329.62
309.8	332.62
310.03	371.62
310.26	363.62
310.49	390.62
310.72	394.62
310.949	410.62
311.179	412.62
311.409	371.62
311.639	372.62
311.868	366.62
312.098	370.62
312.328	396.62
312.557	404.62
312.787	423.62
313.017	398.62
313.246	384.62
313.476	366.62
313.706	367.62
313.935	373.62
314.165	390.62
314.394	395.62
314.624	398.62
314.853	376.62
315.083	369.62
315.312	366.62
315.542	362.62
315.771	364.62
316.001	374.62
316.23	367.62
316.46	349.62
316.689	359.62
316.919	365.62
317.148	390.62
317.377	370.62
317.607	380.62
317.836	370.62
318.065	367.62
318.295	376.62
318.524	354.62
318.753	357.62
318.983	374.62
319.212	357.62
319.441	372.62
319.67	378.62
319.9	357.62
320.129	374.62
320.358	361.62
320.587	372.62
320.816	386.62
321.046	415.62
321.275	401.62
321.504	404.62
321.733	406.62
321.962	397.62
322.191	412.62
322.42	441.62
322.649	466.62
322.878	487.62
323.108	495.62
323.337	525.62
323.566	529.62
323.795	594.62
324.024	673.62
324.253	811.62
324.482	1151.62
324.71	1839.62
324.939	2580.62
325.168	2294.62
325.397	1198.62
325.626	782.62
325.855	636.62
326.084	594.62
326.313	536.62
326.542	575.62
326.77	602.62
326.999	755.62
327.228	1033.62
327.457	1588.62
327.686	1954.62
327.914	1312.62
328.143	851.62
328.372	739.62
328.6	698.62
328.829	647.62
329.058	644.62
329.287	666.62
329.515	589.62
329.744	559.62
329.972	552.62
330.201	597.62
330.43	614.62
330.658	683.62
330.887	690.62
331.115	662.62
331.344	551.62
331.572	517.62
331.801	527.62
332.03	509.62
332.258	490.62
332.486	465.62
332.715	453.62
332.943	467.62
333.172	444.62
333.4	437.62
333.629	450.62
333.857	452.62
334.085	490.62
334.314	490.62
334.542	544.62
334.771	568.62
334.999	512.62
335.227	475.62
335.455	450.62
335.684	437.62
335.912	424.62
336.14	426.62
336.369	411.62
336.597	447.62
336.825	450.62
337.053	419.62
337.281	423.62
337.51	419.62
337.738	431.62
337.966	402.62
338.194	440.62
338.422	412.62
338.65	423.62
338.878	399.62
339.106	401.62
339.334	394.62
339.562	407.62
339.79	412.62
340.018	415.62
340.246	417.62
340.474	432.62
340.702	425.62
340.93	432.62
341.158	416.62
341.386	418.62
341.614	394.62
341.842	416.62
342.07	398.62
342.298	402.62
342.526	379.62
342.754	393.62
342.981	391.62
343.209	395.62
343.437	384.62
343.665	403.62
343.893	396.62
344.12	400.62
344.348	388.62
344.576	408.62
344.804	419.62
345.031	427.62
345.259	438.62
345.487	405.62
345.714	422.62
345.942	395.62
346.17	391.62
346.397	394.62
346.625	410.62
346.853	411.62
347.08	388.62
347.308	414.62
347.535	417.62
347.763	440.62
347.99	426.62
348.218	426.62
348.445	421.62
348.673	428.62
348.9	397.62
349.128	392.62
349.355	384.62
349.583	390.62
349.81	395.62
350.037	396.62
350.265	379.62
350.492	388.62
350.72	388.62
350.947	393.62
351.174	417.62
351.402	434.62
351.629	412.62
351.856	427.62
352.083	411.62
352.311	423.62
352.538	434.62
352.765	456.62
352.992	426.62
353.22	416.62
353.447	408.62
353.674	378.62
353.901	389.62
354.128	382.62
354.355	368.62
354.583	360.62
354.81	369.62
355.037	374.62
355.264	370.62
355.491	363.62
355.718	376.62
355.945	356.62
356.172	356.62
356.399	352.62
356.626	364.62
356.853	375.62
357.08	378.62
357.307	375.62
357.534	355.62
357.761	359.62
357.988	361.62
358.215	365.62
358.441	346.62
358.668	364.62
358.895	367.62
359.122	381.62
359.349	396.62
359.576	404.62
359.802	431.62
360.029	486.62
360.256	490.62
360.483	455.62
360.709	425.62
360.936	433.62
361.163	397.62
361.39	396.62
361.616	422.62
361.843	415.62
362.07	399.62
362.296	408.62
362.523	416.62
362.749	383.62
362.976	387.62
363.203	395.62
363.429	376.62
363.656	388.62
363.882	382.62
364.109	378.62
364.335	387.62
364.562	393.62
364.788	390.62
365.015	369.62
365.241	378.62
365.468	395.62
365.694	399.62
365.92	402.62
366.147	394.62
366.373	378.62
366.599	385.62
366.826	363.62
367.052	369.62
367.278	363.62
367.505	369.62
367.731	359.62
367.957	380.62
368.184	377.62
368.41	377.62
368.636	395.62
368.862	411.62
369.089	382.62
369.315	367.62
369.541	372.62
369.767	357.62
369.993	384.62
370.219	364.62
370.445	368.62
370.672	346.62
370.898	368.62
371.124	354.62
371.35	370.62
371.576	377.62
371.802	370.62
372.028	354.62
372.254	374.62
372.48	368.62
372.706	371.62
372.932	351.62
373.158	355.62
373.384	372.62
373.61	372.62
373.835	366.62
374.061	354.62
374.287	371.62
374.513	366.62
374.739	359.62
374.965	367.62
375.191	386.62
375.416	379.62
375.642	360.62
375.868	366.62
376.094	385.62
376.319	359.62
376.545	363.62
376.771	358.62
376.997	370.62
377.222	359.62
377.448	373.62
377.674	350.62
377.899	360.62
378.125	355.62
378.35	354.62
378.576	361.62
378.802	333.62
379.027	340.62
379.253	363.62
379.478	351.62
379.704	350.62
379.929	361.62
380.155	366.62
380.38	355.62
380.606	376.62
380.831	384.62
381.057	363.62
381.282	369.62
381.507	376.62
381.733	366.62
381.958	366.62
382.184	360.62
382.409	374.62
382.634	361.62
382.86	384.62
383.085	359.62
383.31	366.62
383.535	366.62
383.761	371.62
383.986	375.62
384.211	348.62
384.436	386.62
384.662	376.62
384.887	362.62
385.112	362.62
385.337	383.62
385.562	362.62
385.787	385.62
386.013	382.62
386.238	382.62
386.463	397.62
386.688	411.62
386.913	387.62
387.138	403.62
387.363	396.62
387.588	396.62
387.813	368.62
388.038	370.62
388.263	374.62
388.488	367.62
388.713	385.62
388.938	384.62
389.163	378.62
389.387	387.62
389.612	385.62
389.837	364.62
390.062	368.62
390.287	380.62
390.512	372.62
390.736	368.62
390.961	393.62
391.186	378.62
391.411	386.62
391.636	386.62
391.86	372.62
392.085	384.62
392.31	392.62
392.534	378.62
392.759	382.62
392.984	368.62
393.208	384.62
393.433	390.62
393.658	370.62
393.882	377.62
394.107	372.62
394.331	382.62
394.556	373.62
394.78	379.62
395.005	388.62
395.229	384.62
395.454	375.62
395.678	394.62
395.903	409.62
396.127	438.62
396.352	422.62
396.576	406.62
396.801	418.62
397.025	397.62
397.249	397.62
397.474	382.62
397.698	408.62
397.922	408.62
398.147	433.62
398.371	440.62
398.595	423.62
398.82	422.62
399.044	416.62
399.268	432.62
399.492	443.62
399.717	477.62
399.941	492.62
400.165	540.62
400.389	554.62
400.613	496.62
400.837	460.62
401.062	442.62
401.286	427.62
401.51	427.62
401.734	423.62
401.958	455.62
402.182	421.62
402.406	452.62
402.63	462.62
402.854	449.62
403.078	438.62
403.302	436.62
403.526	458.62
403.75	458.62
403.974	470.62
404.198	431.62
404.422	456.62
404.645	486.62
404.869	466.62
405.093	487.62
405.317	534.62
405.541	592.62
405.765	519.62
405.988	490.62
406.212	513.62
406.436	536.62
406.66	550.62
406.883	512.62
407.107	533.62
407.331	539.62
407.555	614.62
407.778	615.62
408.002	568.62
408.226	510.62
408.449	505.62
408.673	506.62
408.896	583.62
409.12	569.62
409.344	556.62
409.567	495.62
409.791	466.62
410.014	464.62
410.238	465.62
410.461	449.62
410.685	485.62
410.908	492.62
411.132	527.62
411.355	544.62
411.578	535.62
411.802	476.62
412.025	466.62
412.249	476.62
412.472	482.62
412.695	530.62
412.919	523.62
413.142	497.62
413.365	457.62
413.589	451.62
413.812	446.62
414.035	427.62
414.258	444.62
414.482	443.62
414.705	431.62
414.928	436.62
415.151	417.62
415.374	440.62
415.597	410.62
415.821	426.62
416.044	427.62
416.267	427.62
416.49	422.62
416.713	401.62
416.936	418.62
417.159	428.62
417.382	449.62
417.605	442.62
417.828	460.62
418.051	445.62
418.274	455.62
418.497	443.62
418.72	424.62
418.943	430.62
419.166	451.62
419.389	470.62
419.611	450.62
419.834	428.62
420.057	473.62
420.28	472.62
420.503	450.62
420.726	453.62
420.948	494.62
421.171	504.62
421.394	536.62
421.617	488.62
421.839	478.62
422.062	466.62
422.285	482.62
422.507	547.62
422.73	605.62
422.953	592.62
423.175	527.62
423.398	479.62
423.621	514.62
423.843	516.62
424.066	510.62
424.288	506.62
424.511	552.62
424.733	582.62
424.956	670.62
425.178	644.62
425.401	628.62
425.623	662.62
425.846	585.62
426.068	522.62
426.291	515.62
426.513	511.62
426.735	523.62
426.958	600.62
427.18	673.62
427.402	768.62
427.625	872.62
427.847	816.62
428.069	681.62
428.292	608.62
428.514	539.62
428.736	497.62
428.958	502.62
429.181	479.62
429.403	486.62
429.625	463.62
429.847	537.62
430.069	598.62
430.292	585.62
430.514	501.62
430.736	469.62
430.958	459.62
431.18	431.62
431.402	453.62
431.624	470.62
431.846	432.62
432.068	425.62
432.29	428.62
432.512	426.62
432.734	454.62
432.956	459.62
433.178	463.62
433.4	466.62
433.622	474.62
433.844	446.62
434.066	440.62
434.287	434.62
434.509	446.62
434.731	446.62
434.953	458.62
435.175	490.62
435.397	510.62
435.618	534.62
435.84	564.62
436.062	662.62
436.284	722.62
436.505	640.62
436.727	582.62
436.949	516.62
437.17	488.62
437.392	483.62
437.614	514.62
437.835	544.62
438.057	638.62
438.278	756.62
438.5	739.62
438.721	802.62
438.943	743.62
439.165	604.62
439.386	562.62
439.608	579.62
439.829	545.62
440.05	580.62
440.272	635.62
440.493	588.62
440.715	532.62
440.936	518.62
441.158	516.62
441.379	465.62
441.6	486.62
441.822	516.62
442.043	574.62
442.264	651.62
442.486	729.62
442.707	592.62
442.928	561.62
443.149	543.62
443.371	568.62
443.592	612.62
443.813	688.62
444.034	747.62
444.255	632.62
444.476	563.62
444.698	514.62
444.919	496.62
445.14	592.62
445.361	586.62
445.582	570.62
445.803	658.62
446.024	770.62
446.245	763.62
446.466	722.62
446.687	605.62
446.908	549.62
447.129	512.62
447.35	486.62
447.571	489.62
447.792	498.62
448.013	479.62
448.234	526.62
448.455	593.62
448.675	682.62
448.896	788.62
449.117	674.62
449.338	641.62
449.559	745.62
449.779	820.62
450	662.62
450.221	564.62
450.442	516.62
450.662	493.62
450.883	509.62
451.104	521.62
451.324	488.62
451.545	472.62
451.766	471.62
451.986	439.62
452.207	428.62
452.428	432.62
452.648	450.62
452.869	433.62
453.089	471.62
453.31	468.62
453.53	460.62
453.751	441.62
453.971	452.62
454.192	484.62
454.412	437.62
454.633	452.62
454.853	444.62
455.073	454.62
455.294	457.62
455.514	529.62
455.734	531.62
455.955	461.62
456.175	446.62
456.395	424.62
456.616	396.62
456.836	392.62
457.056	417.62
457.276	393.62
457.497	387.62
457.717	401.62
457.937	400.62
458.157	411.62
458.377	410.62
458.598	441.62
458.818	515.62
459.038	622.62
459.258	613.62
459.478	520.62
459.698	465.62
459.918	459.62
460.138	431.62
460.358	428.62
460.578	452.62
460.798	439.62
461.018	426.62
461.238	434.62
461.458	422.62
461.678	415.62
461.898	453.62
462.118	421.62
462.338	438.62
462.558	440.62
462.777	466.62
462.997	444.62
463.217	447.62
463.437	461.62
463.657	443.62
463.876	422.62
464.096	452.62
464.316	444.62
464.536	459.62
464.755	466.62
464.975	494.62
465.195	549.62
465.414	675.62
465.634	555.62
465.854	506.62
466.073	482.62
466.293	473.62
466.512	444.62
466.732	431.62
466.951	440.62
467.171	414.62
467.391	430.62
467.61	448.62
467.829	450.62
468.049	445.62
468.268	472.62
468.488	440.62
468.707	423.62
468.927	411.62
469.146	446.62
469.365	406.62
469.585	430.62
469.804	433.62
470.023	442.62
470.243	459.62
470.462	449.62
470.681	484.62
470.901	454.62
471.12	441.62
471.339	425.62
471.558	440.62
471.777	429.62
471.997	458.62
472.216	451.62
472.435	500.62
472.654	476.62
472.873	465.62
473.092	434.62
473.311	443.62
473.53	463.62
473.749	448.62
473.968	498.62
474.187	623.62
474.406	638.62
474.625	520.62
474.844	477.62
475.063	467.62
475.282	437.62
475.501	458.62
475.72	452.62
475.939	456.62
476.158	466.62
476.377	464.62
476.596	458.62
476.814	452.62
477.033	487.62
477.252	491.62
477.471	458.62
477.69	484.62
477.908	486.62
478.127	477.62
478.346	440.62
478.564	488.62
478.783	484.62
479.002	480.62
479.22	494.62
479.439	526.62
479.658	511.62
479.876	548.62
480.095	547.62
480.313	561.62
480.532	552.62
480.751	548.62
480.969	568.62
481.188	629.62
481.406	698.62
481.624	578.62
481.843	576.62
482.061	532.62
482.28	535.62
482.498	528.62
482.717	511.62
482.935	510.62
483.153	535.62
483.372	540.62
483.59	539.62
483.808	540.62
484.027	536.62
484.245	502.62
484.463	514.62
484.681	531.62
484.9	537.62
485.118	515.62
485.336	543.62
485.554	537.62
485.772	527.62
485.99	542.62
486.209	553.62
486.427	562.62
486.645	568.62
486.863	594.62
487.081	592.62
487.299	593.62
487.517	582.62
487.735	566.62
487.953	570.62
488.171	566.62
488.389	557.62
488.607	571.62
488.825	575.62
489.043	573.62
489.261	596.62
489.479	581.62
489.696	561.62
489.914	603.62
490.132	601.62
490.35	598.62
490.568	609.62
490.786	594.62
491.003	611.62
491.221	600.62
491.439	656.62
491.657	671.62
491.874	668.62
492.092	666.62
492.31	658.62
492.527	644.62
492.745	675.62
492.963	674.62
493.18	663.62
493.398	682.62
493.615	681.62
493.833	692.62
494.05	676.62
494.268	707.62
494.485	688.62
494.703	673.62
494.92	697.62
495.138	721.62
495.355	673.62
495.573	685.62
495.79	681.62
496.008	701.62
496.225	694.62
496.442	656.62
496.66	662.62
496.877	694.62
497.094	673.62
497.312	705.62
497.529	698.62
497.746	688.62
497.963	696.62
498.181	724.62
498.398	735.62
498.615	713.62
498.832	751.62
499.049	737.62
499.267	746.62
499.484	744.62
499.701	767.62
499.918	779.62
500.135	805.62
500.352	816.62
500.569	811.62
500.786	816.62
501.003	832.62
501.22	800.62
501.437	811.62
501.654	793.62
501.871	827.62
