Data from 1980.PennyLincolnUp.Lamp.En5.5.200Scan.071819.P1_HRD10591_16-38-13-958.txt Node
Date: Thu Jul 18 16:38:13 EDT 2019
User: cochatt
Spectrometer: HR+D1059
Trigger mode: 1
Integration Time (sec): 1.000000E-1
Scans to average: 1
Electric dark correction enabled: true
Nonlinearity correction enabled: false
Boxcar width: 0
XAxis mode: Wavelengths
Number of Pixels in Spectrum: 2048
>>>>>Begin Spectral Data<<<<<
223.165	-13.06
223.4	-13.06
223.635	-13.06
223.869	-7.06
224.104	-7.06
224.338	-11.06
224.573	-18.06
224.808	-11.06
225.042	-17.06
225.277	-15.06
225.511	-2.06
225.746	4.94
225.98	1.94
226.215	2.94
226.449	4.94
226.683	14.94
226.918	28.94
227.152	42.94
227.387	30.94
227.621	37.94
227.856	48.94
228.09	53.94
228.324	44.94
228.559	55.94
228.793	82.94
229.027	104.94
229.262	103.94
229.496	113.94
229.73	146.94
229.964	162.94
230.199	141.94
230.433	116.94
230.667	116.94
230.901	120.94
231.136	109.94
231.37	114.94
231.604	126.94
231.838	117.94
232.072	113.94
232.306	105.94
232.541	112.94
232.775	114.94
233.009	102.94
233.243	97.94
233.477	98.94
233.711	103.94
233.945	116.94
234.179	118.94
234.413	125.94
234.647	114.94
234.881	125.94
235.115	130.94
235.349	113.94
235.583	118.94
235.817	114.94
236.051	129.94
236.285	109.94
236.519	119.94
236.753	120.94
236.987	157.94
237.221	193.94
237.455	271.94
237.689	210.94
237.922	146.94
238.156	157.94
238.39	128.94
238.624	138.94
238.858	112.94
239.091	115.94
239.325	119.94
239.559	128.94
239.793	141.94
240.027	144.94
240.26	150.94
240.494	161.94
240.728	176.94
240.961	162.94
241.195	156.94
241.429	138.94
241.662	137.94
241.896	145.94
242.13	150.94
242.363	130.94
242.597	129.94
242.83	129.94
243.064	150.94
243.298	151.94
243.531	140.94
243.765	156.94
243.998	145.94
244.232	148.94
244.465	145.94
244.699	148.94
244.932	144.94
245.166	167.94
245.399	144.94
245.633	162.94
245.866	147.94
246.099	156.94
246.333	149.94
246.566	153.94
246.8	137.94
247.033	162.94
247.266	162.94
247.5	168.94
247.733	172.94
247.966	157.94
248.2	187.94
248.433	193.94
248.666	170.94
248.899	182.94
249.133	204.94
249.366	234.94
249.599	232.94
249.832	190.94
250.066	185.94
250.299	189.94
250.532	192.94
250.765	214.94
250.998	236.94
251.231	236.94
251.465	221.94
251.698	233.94
251.931	206.94
252.164	203.94
252.397	220.94
252.63	208.94
252.863	222.94
253.096	228.94
253.329	229.94
253.562	249.94
253.795	235.94
254.028	233.94
254.261	228.94
254.494	260.94
254.727	282.94
254.96	312.94
255.193	306.94
255.426	268.94
255.659	264.94
255.892	266.94
256.124	258.94
256.357	247.94
256.59	241.94
256.823	226.94
257.056	220.94
257.289	209.94
257.521	220.94
257.754	224.94
257.987	208.94
258.22	227.94
258.452	205.94
258.685	208.94
258.918	213.94
259.151	225.94
259.383	218.94
259.616	227.94
259.849	231.94
260.081	235.94
260.314	276.94
260.547	279.94
260.779	251.94
261.012	254.94
261.244	244.94
261.477	242.94
261.71	252.94
261.942	246.94
262.175	235.94
262.407	235.94
262.64	215.94
262.872	226.94
263.105	216.94
263.337	223.94
263.57	234.94
263.802	221.94
264.035	211.94
264.267	228.94
264.499	202.94
264.732	213.94
264.964	204.94
265.197	224.94
265.429	203.94
265.661	224.94
265.894	223.94
266.126	201.94
266.358	217.94
266.591	223.94
266.823	228.94
267.055	229.94
267.287	228.94
267.52	209.94
267.752	225.94
267.984	220.94
268.216	238.94
268.448	240.94
268.681	241.94
268.913	253.94
269.145	264.94
269.377	274.94
269.609	284.94
269.841	286.94
270.073	273.94
270.306	295.94
270.538	320.94
270.77	332.94
271.002	330.94
271.234	304.94
271.466	323.94
271.698	316.94
271.93	352.94
272.162	340.94
272.394	345.94
272.626	325.94
272.858	316.94
273.09	286.94
273.322	288.94
273.553	296.94
273.785	257.94
274.017	268.94
274.249	271.94
274.481	268.94
274.713	264.94
274.945	275.94
275.176	284.94
275.408	297.94
275.64	277.94
275.872	260.94
276.104	276.94
276.335	276.94
276.567	271.94
276.799	297.94
277.031	315.94
277.262	330.94
277.494	333.94
277.726	315.94
277.957	301.94
278.189	280.94
278.421	270.94
278.652	269.94
278.884	286.94
279.115	276.94
279.347	267.94
279.579	266.94
279.81	268.94
280.042	262.94
280.273	280.94
280.505	276.94
280.736	265.94
280.968	259.94
281.199	267.94
281.431	252.94
281.662	275.94
281.894	269.94
282.125	268.94
282.356	286.94
282.588	317.94
282.819	314.94
283.051	304.94
283.282	283.94
283.513	268.94
283.745	262.94
283.976	266.94
284.207	291.94
284.439	270.94
284.67	285.94
284.901	282.94
285.132	288.94
285.364	275.94
285.595	268.94
285.826	282.94
286.057	278.94
286.288	273.94
286.52	274.94
286.751	262.94
286.982	271.94
287.213	270.94
287.444	288.94
287.675	274.94
287.906	290.94
288.138	302.94
288.369	297.94
288.6	293.94
288.831	282.94
289.062	286.94
289.293	277.94
289.524	293.94
289.755	284.94
289.986	285.94
290.217	280.94
290.448	297.94
290.679	275.94
290.91	261.94
291.141	266.94
291.371	289.94
291.602	299.94
291.833	277.94
292.064	264.94
292.295	287.94
292.526	258.94
292.757	277.94
292.987	285.94
293.218	288.94
293.449	276.94
293.68	287.94
293.91	275.94
294.141	280.94
294.372	284.94
294.603	270.94
294.833	286.94
295.064	289.94
295.295	291.94
295.525	276.94
295.756	283.94
295.987	286.94
296.217	322.94
296.448	334.94
296.679	306.94
296.909	289.94
297.14	266.94
297.37	285.94
297.601	293.94
297.831	288.94
298.062	291.94
298.292	291.94
298.523	309.94
298.753	284.94
298.984	288.94
299.214	300.94
299.445	293.94
299.675	286.94
299.905	304.94
300.136	291.94
300.366	308.94
300.597	312.94
300.827	291.94
301.057	306.94
301.288	328.94
301.518	316.94
301.748	319.94
301.979	315.94
302.209	312.94
302.439	316.94
302.669	338.94
302.9	329.94
303.13	310.94
303.36	292.94
303.59	337.94
303.82	329.94
304.051	305.94
304.281	311.94
304.511	301.94
304.741	317.94
304.971	309.94
305.201	331.94
305.431	327.94
305.661	312.94
305.891	308.94
306.121	342.94
306.352	307.94
306.582	320.94
306.812	313.94
307.042	323.94
307.272	325.94
307.502	321.94
307.731	322.94
307.961	326.94
308.191	318.94
308.421	332.94
308.651	338.94
308.881	332.94
309.111	321.94
309.341	327.94
309.571	338.94
309.8	356.94
310.03	369.94
310.26	382.94
310.49	362.94
310.72	390.94
310.949	388.94
311.179	416.94
311.409	393.94
311.639	385.94
311.868	373.94
312.098	388.94
312.328	376.94
312.557	401.94
312.787	448.94
313.017	408.94
313.246	385.94
313.476	370.94
313.706	371.94
313.935	391.94
314.165	394.94
314.394	402.94
314.624	404.94
314.853	383.94
315.083	391.94
315.312	374.94
315.542	378.94
315.771	373.94
316.001	344.94
316.23	348.94
316.46	352.94
316.689	372.94
316.919	368.94
317.148	386.94
317.377	400.94
317.607	402.94
317.836	366.94
318.065	366.94
318.295	364.94
318.524	370.94
318.753	358.94
318.983	360.94
319.212	358.94
319.441	371.94
319.67	388.94
319.9	388.94
320.129	384.94
320.358	388.94
320.587	377.94
320.816	394.94
321.046	408.94
321.275	397.94
321.504	400.94
321.733	394.94
321.962	425.94
322.191	416.94
322.42	450.94
322.649	483.94
322.878	483.94
323.108	468.94
323.337	527.94
323.566	527.94
323.795	589.94
324.024	650.94
324.253	800.94
324.482	1130.94
324.71	1767.94
324.939	2562.94
325.168	2228.94
325.397	1133.94
325.626	763.94
325.855	612.94
326.084	561.94
326.313	528.94
326.542	545.94
326.77	625.94
326.999	740.94
327.228	1021.94
327.457	1548.94
327.686	1890.94
327.914	1336.94
328.143	851.94
328.372	722.94
328.6	680.94
328.829	605.94
329.058	638.94
329.287	640.94
329.515	610.94
329.744	572.94
329.972	563.94
330.201	587.94
330.43	631.94
330.658	652.94
330.887	679.94
331.115	668.94
331.344	601.94
331.572	533.94
331.801	532.94
332.03	529.94
332.258	476.94
332.486	463.94
332.715	463.94
332.943	443.94
333.172	450.94
333.4	458.94
333.629	452.94
333.857	468.94
334.085	496.94
334.314	488.94
334.542	548.94
334.771	548.94
334.999	518.94
335.227	481.94
335.455	471.94
335.684	425.94
335.912	412.94
336.14	423.94
336.369	431.94
336.597	442.94
336.825	434.94
337.053	438.94
337.281	418.94
337.51	430.94
337.738	450.94
337.966	422.94
338.194	451.94
338.422	443.94
338.65	429.94
338.878	410.94
339.106	421.94
339.334	420.94
339.562	427.94
339.79	395.94
340.018	429.94
340.246	421.94
340.474	423.94
340.702	449.94
340.93	421.94
341.158	424.94
341.386	397.94
341.614	434.94
341.842	414.94
342.07	418.94
342.298	426.94
342.526	402.94
342.754	420.94
342.981	401.94
343.209	405.94
343.437	404.94
343.665	393.94
343.893	405.94
344.12	420.94
344.348	402.94
344.576	405.94
344.804	442.94
345.031	428.94
345.259	426.94
345.487	428.94
345.714	433.94
345.942	425.94
346.17	413.94
346.397	400.94
346.625	415.94
346.853	381.94
347.08	398.94
347.308	411.94
347.535	419.94
347.763	432.94
347.99	426.94
348.218	432.94
348.445	431.94
348.673	426.94
348.9	430.94
349.128	400.94
349.355	388.94
349.583	400.94
349.81	386.94
350.037	397.94
350.265	398.94
350.492	389.94
350.72	415.94
350.947	380.94
351.174	419.94
351.402	429.94
351.629	422.94
351.856	436.94
352.083	432.94
352.311	440.94
352.538	440.94
352.765	433.94
352.992	437.94
353.22	412.94
353.447	419.94
353.674	399.94
353.901	400.94
354.128	392.94
354.355	392.94
354.583	373.94
354.81	377.94
355.037	373.94
355.264	392.94
355.491	374.94
355.718	347.94
355.945	376.94
356.172	370.94
356.399	376.94
356.626	373.94
356.853	381.94
357.08	374.94
357.307	362.94
357.534	364.94
357.761	395.94
357.988	378.94
358.215	383.94
358.441	362.94
358.668	374.94
358.895	382.94
359.122	370.94
359.349	400.94
359.576	414.94
359.802	436.94
360.029	458.94
360.256	498.94
360.483	454.94
360.709	420.94
360.936	420.94
361.163	404.94
361.39	409.94
361.616	417.94
361.843	412.94
362.07	409.94
362.296	380.94
362.523	424.94
362.749	406.94
362.976	392.94
363.203	402.94
363.429	386.94
363.656	393.94
363.882	382.94
364.109	377.94
364.335	382.94
364.562	373.94
364.788	378.94
365.015	403.94
365.241	394.94
365.468	383.94
365.694	398.94
365.92	410.94
366.147	385.94
366.373	390.94
366.599	388.94
366.826	384.94
367.052	383.94
367.278	367.94
367.505	395.94
367.731	388.94
367.957	389.94
368.184	372.94
368.41	380.94
368.636	406.94
368.862	382.94
369.089	389.94
369.315	374.94
369.541	381.94
369.767	388.94
369.993	393.94
370.219	382.94
370.445	380.94
370.672	366.94
370.898	363.94
371.124	383.94
371.35	360.94
371.576	376.94
371.802	359.94
372.028	370.94
372.254	361.94
372.48	365.94
372.706	354.94
372.932	386.94
373.158	359.94
373.384	382.94
373.61	360.94
373.835	374.94
374.061	373.94
374.287	385.94
374.513	378.94
374.739	378.94
374.965	384.94
375.191	383.94
375.416	371.94
375.642	376.94
375.868	380.94
376.094	379.94
376.319	379.94
376.545	375.94
376.771	368.94
376.997	376.94
377.222	360.94
377.448	378.94
377.674	363.94
377.899	359.94
378.125	362.94
378.35	356.94
378.576	368.94
378.802	372.94
379.027	387.94
379.253	381.94
379.478	340.94
379.704	377.94
379.929	377.94
380.155	340.94
380.38	374.94
380.606	368.94
380.831	371.94
381.057	349.94
381.282	380.94
381.507	360.94
381.733	384.94
381.958	377.94
382.184	370.94
382.409	378.94
382.634	396.94
382.86	354.94
383.085	396.94
383.31	382.94
383.535	374.94
383.761	395.94
383.986	386.94
384.211	375.94
384.436	378.94
384.662	396.94
384.887	369.94
385.112	386.94
385.337	408.94
385.562	404.94
385.787	396.94
386.013	391.94
386.238	412.94
386.463	388.94
386.688	380.94
386.913	376.94
387.138	396.94
387.363	391.94
387.588	392.94
387.813	394.94
388.038	388.94
388.263	389.94
388.488	377.94
388.713	400.94
388.938	401.94
389.163	403.94
389.387	404.94
389.612	400.94
389.837	399.94
390.062	373.94
390.287	392.94
390.512	384.94
390.736	390.94
390.961	403.94
391.186	392.94
391.411	393.94
391.636	403.94
391.86	413.94
392.085	414.94
392.31	402.94
392.534	395.94
392.759	404.94
392.984	415.94
393.208	406.94
393.433	392.94
393.658	398.94
393.882	390.94
394.107	403.94
394.331	397.94
394.556	399.94
394.78	412.94
395.005	390.94
395.229	415.94
395.454	396.94
395.678	409.94
395.903	418.94
396.127	455.94
396.352	433.94
396.576	397.94
396.801	411.94
397.025	401.94
397.249	441.94
397.474	428.94
397.698	443.94
397.922	420.94
398.147	418.94
398.371	447.94
398.595	435.94
398.82	434.94
399.044	424.94
399.268	450.94
399.492	472.94
399.717	500.94
399.941	504.94
400.165	551.94
400.389	567.94
400.613	524.94
400.837	482.94
401.062	481.94
401.286	477.94
401.51	445.94
401.734	459.94
401.958	449.94
402.182	439.94
402.406	455.94
402.63	466.94
402.854	450.94
403.078	452.94
403.302	433.94
403.526	458.94
403.75	467.94
403.974	461.94
404.198	475.94
404.422	468.94
404.645	480.94
404.869	481.94
405.093	493.94
405.317	560.94
405.541	570.94
405.765	523.94
405.988	508.94
406.212	524.94
406.436	535.94
406.66	534.94
406.883	514.94
407.107	554.94
407.331	594.94
407.555	629.94
407.778	629.94
408.002	579.94
408.226	523.94
408.449	537.94
408.673	525.94
408.896	545.94
409.12	593.94
409.344	566.94
409.567	505.94
409.791	481.94
410.014	466.94
410.238	453.94
410.461	492.94
410.685	496.94
410.908	476.94
411.132	536.94
411.355	543.94
411.578	544.94
411.802	480.94
412.025	486.94
412.249	476.94
412.472	486.94
412.695	529.94
412.919	567.94
413.142	486.94
413.365	489.94
413.589	469.94
413.812	480.94
414.035	441.94
414.258	439.94
414.482	443.94
414.705	432.94
414.928	460.94
415.151	449.94
415.374	439.94
415.597	455.94
415.821	434.94
416.044	452.94
416.267	461.94
416.49	454.94
416.713	461.94
416.936	434.94
417.159	425.94
417.382	441.94
417.605	457.94
417.828	478.94
418.051	468.94
418.274	458.94
418.497	462.94
418.72	436.94
418.943	468.94
419.166	475.94
419.389	479.94
419.611	487.94
419.834	489.94
420.057	486.94
420.28	488.94
420.503	489.94
420.726	460.94
420.948	485.94
421.171	545.94
421.394	560.94
421.617	502.94
421.839	483.94
422.062	482.94
422.285	491.94
422.507	554.94
422.73	630.94
422.953	626.94
423.175	545.94
423.398	499.94
423.621	480.94
423.843	502.94
424.066	534.94
424.288	513.94
424.511	537.94
424.733	601.94
424.956	668.94
425.178	656.94
425.401	651.94
425.623	656.94
425.846	588.94
426.068	554.94
426.291	537.94
426.513	515.94
426.735	545.94
426.958	605.94
427.18	670.94
427.402	790.94
427.625	902.94
427.847	798.94
428.069	702.94
428.292	596.94
428.514	538.94
428.736	508.94
428.958	513.94
429.181	500.94
429.403	486.94
429.625	488.94
429.847	539.94
430.069	609.94
430.292	605.94
430.514	505.94
430.736	487.94
430.958	487.94
431.18	469.94
431.402	473.94
431.624	469.94
431.846	471.94
432.068	448.94
432.29	447.94
432.512	468.94
432.734	474.94
432.956	483.94
433.178	469.94
433.4	477.94
433.622	479.94
433.844	464.94
434.066	468.94
434.287	440.94
434.509	466.94
434.731	461.94
434.953	468.94
435.175	504.94
435.397	524.94
435.618	530.94
435.84	579.94
436.062	679.94
436.284	774.94
436.505	622.94
436.727	556.94
436.949	490.94
437.17	507.94
437.392	505.94
437.614	539.94
437.835	562.94
438.057	681.94
438.278	776.94
438.5	771.94
438.721	821.94
438.943	772.94
439.165	656.94
439.386	584.94
439.608	564.94
439.829	536.94
440.05	582.94
440.272	650.94
440.493	620.94
440.715	523.94
440.936	519.94
441.158	504.94
441.379	519.94
441.6	521.94
441.822	555.94
442.043	588.94
442.264	651.94
442.486	732.94
442.707	588.94
442.928	568.94
443.149	563.94
443.371	578.94
443.592	631.94
443.813	717.94
444.034	799.94
444.255	655.94
444.476	575.94
444.698	544.94
444.919	536.94
445.14	595.94
445.361	576.94
445.582	578.94
445.803	642.94
446.024	775.94
446.245	781.94
446.466	700.94
446.687	622.94
446.908	569.94
447.129	538.94
447.35	502.94
447.571	508.94
447.792	497.94
448.013	522.94
448.234	533.94
448.455	601.94
448.675	717.94
448.896	812.94
449.117	702.94
449.338	646.94
449.559	770.94
449.779	838.94
450	669.94
450.221	579.94
450.442	506.94
450.662	518.94
450.883	496.94
451.104	549.94
451.324	512.94
451.545	490.94
451.766	454.94
451.986	449.94
452.207	442.94
452.428	444.94
452.648	443.94
452.869	451.94
453.089	469.94
453.31	481.94
453.53	467.94
453.751	450.94
453.971	461.94
454.192	488.94
454.412	455.94
454.633	454.94
454.853	437.94
455.073	460.94
455.294	448.94
455.514	554.94
455.734	563.94
455.955	452.94
456.175	423.94
456.395	432.94
456.616	427.94
456.836	406.94
457.056	420.94
457.276	413.94
457.497	419.94
457.717	404.94
457.937	429.94
458.157	438.94
458.377	426.94
458.598	458.94
458.818	552.94
459.038	628.94
459.258	641.94
459.478	553.94
459.698	488.94
459.918	466.94
460.138	449.94
460.358	455.94
460.578	445.94
460.798	461.94
461.018	450.94
461.238	450.94
461.458	440.94
461.678	434.94
461.898	452.94
462.118	429.94
462.338	472.94
462.558	440.94
462.777	446.94
462.997	474.94
463.217	462.94
463.437	476.94
463.657	489.94
463.876	473.94
464.096	468.94
464.316	463.94
464.536	501.94
464.755	499.94
464.975	484.94
465.195	546.94
465.414	632.94
465.634	573.94
465.854	518.94
466.073	473.94
466.293	468.94
466.512	458.94
466.732	454.94
466.951	433.94
467.171	427.94
467.391	448.94
467.61	460.94
467.829	456.94
468.049	484.94
468.268	463.94
468.488	452.94
468.707	439.94
468.927	420.94
469.146	439.94
469.365	414.94
469.585	416.94
469.804	441.94
470.023	459.94
470.243	471.94
470.462	462.94
470.681	496.94
470.901	467.94
471.12	428.94
471.339	462.94
471.558	472.94
471.777	467.94
471.997	442.94
472.216	489.94
472.435	514.94
472.654	495.94
472.873	444.94
473.092	481.94
473.311	456.94
473.53	452.94
473.749	469.94
473.968	516.94
474.187	646.94
474.406	658.94
474.625	532.94
474.844	471.94
475.063	480.94
475.282	468.94
475.501	461.94
475.72	460.94
475.939	435.94
476.158	474.94
476.377	474.94
476.596	468.94
476.814	491.94
477.033	486.94
477.252	481.94
477.471	466.94
477.69	476.94
477.908	455.94
478.127	486.94
478.346	477.94
478.564	469.94
478.783	511.94
479.002	488.94
479.22	507.94
479.439	545.94
479.658	558.94
479.876	543.94
480.095	554.94
480.313	594.94
480.532	581.94
480.751	545.94
480.969	571.94
481.188	643.94
481.406	703.94
481.624	624.94
481.843	552.94
482.061	532.94
482.28	544.94
482.498	556.94
482.717	528.94
482.935	534.94
483.153	530.94
483.372	537.94
483.59	552.94
483.808	560.94
484.027	527.94
484.245	549.94
484.463	538.94
484.681	554.94
484.9	555.94
485.118	565.94
485.336	530.94
485.554	566.94
485.772	563.94
485.99	550.94
486.209	562.94
486.427	564.94
486.645	579.94
486.863	589.94
487.081	590.94
487.299	602.94
487.517	588.94
487.735	578.94
487.953	581.94
488.171	583.94
488.389	579.94
488.607	591.94
488.825	588.94
489.043	578.94
489.261	602.94
489.479	601.94
489.696	613.94
489.914	604.94
490.132	599.94
490.35	604.94
490.568	596.94
490.786	612.94
491.003	642.94
491.221	636.94
491.439	663.94
491.657	657.94
491.874	670.94
492.092	670.94
492.31	678.94
492.527	684.94
492.745	673.94
492.963	691.94
493.18	710.94
493.398	682.94
493.615	712.94
493.833	719.94
494.05	697.94
494.268	704.94
494.485	657.94
494.703	694.94
494.92	701.94
495.138	709.94
495.355	713.94
495.573	709.94
495.79	708.94
496.008	723.94
496.225	712.94
496.442	699.94
496.66	685.94
496.877	697.94
497.094	690.94
497.312	715.94
497.529	720.94
497.746	743.94
497.963	713.94
498.181	734.94
498.398	744.94
498.615	750.94
498.832	741.94
499.049	740.94
499.267	770.94
499.484	775.94
499.701	816.94
499.918	793.94
500.135	846.94
500.352	844.94
500.569	871.94
500.786	883.94
501.003	869.94
501.22	873.94
501.437	832.94
501.654	842.94
501.871	841.94
