Data from 1980.PennyLincolnUp.Lamp.En5.5.200Scan.071819.P1_HRD10591_16-35-35-956.txt Node
Date: Thu Jul 18 16:35:35 EDT 2019
User: cochatt
Spectrometer: HR+D1059
Trigger mode: 1
Integration Time (sec): 1.000000E-1
Scans to average: 1
Electric dark correction enabled: true
Nonlinearity correction enabled: false
Boxcar width: 0
XAxis mode: Wavelengths
Number of Pixels in Spectrum: 2048
>>>>>Begin Spectral Data<<<<<
223.165	-25.12
223.4	-25.12
223.635	-25.12
223.869	-19.12
224.104	-19.12
224.338	-20.12
224.573	5.88
224.808	-9.12
225.042	-17.12
225.277	-9.12
225.511	-9.12
225.746	13.88
225.98	0.88
226.215	11.88
226.449	8.88
226.683	21.88
226.918	38.88
227.152	25.88
227.387	41.88
227.621	41.88
227.856	40.88
228.09	26.88
228.324	47.88
228.559	58.88
228.793	64.88
229.027	80.88
229.262	119.88
229.496	102.88
229.73	122.88
229.964	124.88
230.199	121.88
230.433	121.88
230.667	112.88
230.901	104.88
231.136	104.88
231.37	96.88
231.604	100.88
231.838	109.88
232.072	100.88
232.306	108.88
232.541	101.88
232.775	102.88
233.009	106.88
233.243	105.88
233.477	95.88
233.711	110.88
233.945	99.88
234.179	96.88
234.413	105.88
234.647	95.88
234.881	99.88
235.115	104.88
235.349	87.88
235.583	116.88
235.817	104.88
236.051	118.88
236.285	103.88
236.519	108.88
236.753	115.88
236.987	132.88
237.221	143.88
237.455	179.88
237.689	160.88
237.922	127.88
238.156	110.88
238.39	113.88
238.624	120.88
238.858	111.88
239.091	113.88
239.325	102.88
239.559	93.88
239.793	127.88
240.027	118.88
240.26	136.88
240.494	143.88
240.728	123.88
240.961	137.88
241.195	108.88
241.429	126.88
241.662	124.88
241.896	106.88
242.13	122.88
242.363	104.88
242.597	110.88
242.83	120.88
243.064	114.88
243.298	125.88
243.531	128.88
243.765	111.88
243.998	122.88
244.232	110.88
244.465	127.88
244.699	110.88
244.932	129.88
245.166	117.88
245.399	119.88
245.633	121.88
245.866	122.88
246.099	112.88
246.333	119.88
246.566	110.88
246.8	118.88
247.033	124.88
247.266	128.88
247.5	124.88
247.733	141.88
247.966	157.88
248.2	148.88
248.433	142.88
248.666	143.88
248.899	155.88
249.133	175.88
249.366	178.88
249.599	170.88
249.832	162.88
250.066	158.88
250.299	152.88
250.532	153.88
250.765	182.88
250.998	178.88
251.231	194.88
251.465	177.88
251.698	178.88
251.931	166.88
252.164	190.88
252.397	168.88
252.63	180.88
252.863	182.88
253.096	184.88
253.329	186.88
253.562	172.88
253.795	193.88
254.028	194.88
254.261	187.88
254.494	201.88
254.727	212.88
254.96	211.88
255.193	211.88
255.426	186.88
255.659	199.88
255.892	155.88
256.124	180.88
256.357	176.88
256.59	162.88
256.823	164.88
257.056	175.88
257.289	169.88
257.521	170.88
257.754	153.88
257.987	181.88
258.22	181.88
258.452	151.88
258.685	168.88
258.918	178.88
259.151	187.88
259.383	171.88
259.616	169.88
259.849	183.88
260.081	199.88
260.314	206.88
260.547	199.88
260.779	197.88
261.012	162.88
261.244	183.88
261.477	170.88
261.71	183.88
261.942	190.88
262.175	175.88
262.407	156.88
262.64	163.88
262.872	161.88
263.105	176.88
263.337	162.88
263.57	174.88
263.802	155.88
264.035	175.88
264.267	152.88
264.499	168.88
264.732	150.88
264.964	136.88
265.197	160.88
265.429	155.88
265.661	166.88
265.894	162.88
266.126	158.88
266.358	158.88
266.591	166.88
266.823	162.88
267.055	159.88
267.287	164.88
267.52	161.88
267.752	154.88
267.984	175.88
268.216	165.88
268.448	172.88
268.681	180.88
268.913	175.88
269.145	198.88
269.377	199.88
269.609	192.88
269.841	195.88
270.073	196.88
270.306	218.88
270.538	220.88
270.77	228.88
271.002	208.88
271.234	207.88
271.466	219.88
271.698	226.88
271.93	223.88
272.162	242.88
272.394	242.88
272.626	240.88
272.858	200.88
273.09	211.88
273.322	216.88
273.553	202.88
273.785	176.88
274.017	182.88
274.249	198.88
274.481	182.88
274.713	174.88
274.945	195.88
275.176	200.88
275.408	189.88
275.64	180.88
275.872	184.88
276.104	193.88
276.335	199.88
276.567	205.88
276.799	217.88
277.031	220.88
277.262	231.88
277.494	212.88
277.726	216.88
277.957	225.88
278.189	187.88
278.421	193.88
278.652	200.88
278.884	196.88
279.115	185.88
279.347	197.88
279.579	215.88
279.81	236.88
280.042	237.88
280.273	203.88
280.505	209.88
280.736	200.88
280.968	176.88
281.199	179.88
281.431	165.88
281.662	156.88
281.894	191.88
282.125	191.88
282.356	195.88
282.588	218.88
282.819	207.88
283.051	180.88
283.282	176.88
283.513	176.88
283.745	185.88
283.976	191.88
284.207	177.88
284.439	185.88
284.67	181.88
284.901	177.88
285.132	186.88
285.364	190.88
285.595	181.88
285.826	192.88
286.057	191.88
286.288	178.88
286.52	183.88
286.751	195.88
286.982	193.88
287.213	186.88
287.444	191.88
287.675	188.88
287.906	200.88
288.138	192.88
288.369	210.88
288.6	207.88
288.831	189.88
289.062	176.88
289.293	190.88
289.524	182.88
289.755	170.88
289.986	191.88
290.217	178.88
290.448	200.88
290.679	163.88
290.91	187.88
291.141	188.88
291.371	179.88
291.602	191.88
291.833	195.88
292.064	175.88
292.295	180.88
292.526	190.88
292.757	199.88
292.987	175.88
293.218	191.88
293.449	175.88
293.68	192.88
293.91	190.88
294.141	193.88
294.372	182.88
294.603	179.88
294.833	188.88
295.064	184.88
295.295	199.88
295.525	194.88
295.756	199.88
295.987	198.88
296.217	216.88
296.448	216.88
296.679	186.88
296.909	175.88
297.14	183.88
297.37	192.88
297.601	197.88
297.831	188.88
298.062	178.88
298.292	188.88
298.523	182.88
298.753	184.88
298.984	187.88
299.214	197.88
299.445	185.88
299.675	200.88
299.905	195.88
300.136	190.88
300.366	176.88
300.597	187.88
300.827	214.88
301.057	207.88
301.288	220.88
301.518	213.88
301.748	196.88
301.979	194.88
302.209	218.88
302.439	201.88
302.669	199.88
302.9	201.88
303.13	210.88
303.36	200.88
303.59	210.88
303.82	207.88
304.051	200.88
304.281	220.88
304.511	202.88
304.741	198.88
304.971	205.88
305.201	202.88
305.431	206.88
305.661	194.88
305.891	193.88
306.121	213.88
306.352	223.88
306.582	207.88
306.812	194.88
307.042	194.88
307.272	209.88
307.502	230.88
307.731	203.88
307.961	223.88
308.191	207.88
308.421	220.88
308.651	203.88
308.881	217.88
309.111	230.88
309.341	218.88
309.571	235.88
309.8	234.88
310.03	222.88
310.26	244.88
310.49	253.88
310.72	247.88
310.949	271.88
311.179	273.88
311.409	262.88
311.639	249.88
311.868	257.88
312.098	242.88
312.328	267.88
312.557	278.88
312.787	294.88
313.017	280.88
313.246	277.88
313.476	250.88
313.706	236.88
313.935	234.88
314.165	237.88
314.394	256.88
314.624	262.88
314.853	255.88
315.083	247.88
315.312	241.88
315.542	253.88
315.771	244.88
316.001	225.88
316.23	230.88
316.46	238.88
316.689	227.88
316.919	271.88
317.148	264.88
317.377	251.88
317.607	252.88
317.836	245.88
318.065	245.88
318.295	260.88
318.524	252.88
318.753	248.88
318.983	257.88
319.212	254.88
319.441	251.88
319.67	231.88
319.9	229.88
320.129	233.88
320.358	247.88
320.587	227.88
320.816	261.88
321.046	258.88
321.275	268.88
321.504	253.88
321.733	249.88
321.962	266.88
322.191	300.88
322.42	288.88
322.649	290.88
322.878	321.88
323.108	329.88
323.337	352.88
323.566	370.88
323.795	404.88
324.024	446.88
324.253	558.88
324.482	772.88
324.71	1099.88
324.939	1393.88
325.168	1225.88
325.397	772.88
325.626	520.88
325.855	432.88
326.084	396.88
326.313	367.88
326.542	379.88
326.77	410.88
326.999	481.88
327.228	663.88
327.457	934.88
327.686	1123.88
327.914	836.88
328.143	548.88
328.372	502.88
328.6	451.88
328.829	443.88
329.058	431.88
329.287	431.88
329.515	443.88
329.744	367.88
329.972	354.88
330.201	360.88
330.43	397.88
330.658	424.88
330.887	469.88
331.115	438.88
331.344	378.88
331.572	345.88
331.801	321.88
332.03	320.88
332.258	322.88
332.486	300.88
332.715	298.88
332.943	299.88
333.172	286.88
333.4	292.88
333.629	288.88
333.857	307.88
334.085	305.88
334.314	296.88
334.542	313.88
334.771	328.88
334.999	311.88
335.227	295.88
335.455	272.88
335.684	266.88
335.912	273.88
336.14	274.88
336.369	272.88
336.597	283.88
336.825	279.88
337.053	276.88
337.281	280.88
337.51	281.88
337.738	283.88
337.966	272.88
338.194	268.88
338.422	278.88
338.65	287.88
338.878	270.88
339.106	259.88
339.334	268.88
339.562	270.88
339.79	266.88
340.018	274.88
340.246	263.88
340.474	276.88
340.702	268.88
340.93	256.88
341.158	257.88
341.386	262.88
341.614	277.88
341.842	269.88
342.07	287.88
342.298	255.88
342.526	273.88
342.754	242.88
342.981	243.88
343.209	251.88
343.437	259.88
343.665	258.88
343.893	266.88
344.12	247.88
344.348	259.88
344.576	271.88
344.804	279.88
345.031	275.88
345.259	308.88
345.487	306.88
345.714	273.88
345.942	296.88
346.17	263.88
346.397	260.88
346.625	264.88
346.853	268.88
347.08	270.88
347.308	267.88
347.535	286.88
347.763	286.88
347.99	281.88
348.218	286.88
348.445	285.88
348.673	266.88
348.9	267.88
349.128	277.88
349.355	263.88
349.583	259.88
349.81	243.88
350.037	268.88
350.265	246.88
350.492	247.88
350.72	247.88
350.947	265.88
351.174	272.88
351.402	278.88
351.629	281.88
351.856	291.88
352.083	282.88
352.311	284.88
352.538	298.88
352.765	301.88
352.992	295.88
353.22	291.88
353.447	302.88
353.674	287.88
353.901	247.88
354.128	259.88
354.355	246.88
354.583	243.88
354.81	230.88
355.037	249.88
355.264	231.88
355.491	245.88
355.718	253.88
355.945	232.88
356.172	257.88
356.399	252.88
356.626	234.88
356.853	255.88
357.08	252.88
357.307	234.88
357.534	234.88
357.761	239.88
357.988	239.88
358.215	245.88
358.441	234.88
358.668	245.88
358.895	248.88
359.122	271.88
359.349	258.88
359.576	274.88
359.802	304.88
360.029	320.88
360.256	333.88
360.483	312.88
360.709	316.88
360.936	288.88
361.163	283.88
361.39	274.88
361.616	270.88
361.843	270.88
362.07	286.88
362.296	275.88
362.523	278.88
362.749	277.88
362.976	272.88
363.203	256.88
363.429	253.88
363.656	255.88
363.882	262.88
364.109	273.88
364.335	259.88
364.562	242.88
364.788	249.88
365.015	250.88
365.241	264.88
365.468	275.88
365.694	268.88
365.92	241.88
366.147	251.88
366.373	251.88
366.599	248.88
366.826	242.88
367.052	254.88
367.278	266.88
367.505	275.88
367.731	259.88
367.957	251.88
368.184	264.88
368.41	276.88
368.636	273.88
368.862	261.88
369.089	265.88
369.315	255.88
369.541	263.88
369.767	274.88
369.993	263.88
370.219	245.88
370.445	255.88
370.672	262.88
370.898	217.88
371.124	246.88
371.35	240.88
371.576	248.88
371.802	268.88
372.028	252.88
372.254	259.88
372.48	230.88
372.706	254.88
372.932	238.88
373.158	236.88
373.384	258.88
373.61	264.88
373.835	256.88
374.061	247.88
374.287	263.88
374.513	245.88
374.739	275.88
374.965	255.88
375.191	247.88
375.416	231.88
375.642	245.88
375.868	257.88
376.094	248.88
376.319	246.88
376.545	234.88
376.771	246.88
376.997	257.88
377.222	254.88
377.448	249.88
377.674	246.88
377.899	266.88
378.125	225.88
378.35	241.88
378.576	235.88
378.802	254.88
379.027	250.88
379.253	258.88
379.478	237.88
379.704	260.88
379.929	247.88
380.155	253.88
380.38	247.88
380.606	246.88
380.831	262.88
381.057	258.88
381.282	248.88
381.507	235.88
381.733	256.88
381.958	279.88
382.184	267.88
382.409	260.88
382.634	263.88
382.86	255.88
383.085	273.88
383.31	268.88
383.535	272.88
383.761	260.88
383.986	254.88
384.211	274.88
384.436	258.88
384.662	256.88
384.887	262.88
385.112	267.88
385.337	258.88
385.562	262.88
385.787	270.88
386.013	286.88
386.238	279.88
386.463	292.88
386.688	266.88
386.913	247.88
387.138	269.88
387.363	283.88
387.588	256.88
387.813	261.88
388.038	266.88
388.263	260.88
388.488	278.88
388.713	263.88
388.938	259.88
389.163	257.88
389.387	269.88
389.612	243.88
389.837	270.88
390.062	242.88
390.287	265.88
390.512	241.88
390.736	260.88
390.961	252.88
391.186	262.88
391.411	280.88
391.636	251.88
391.86	258.88
392.085	264.88
392.31	251.88
392.534	267.88
392.759	277.88
392.984	271.88
393.208	309.88
393.433	344.88
393.658	346.88
393.882	280.88
394.107	278.88
394.331	264.88
394.556	258.88
394.78	270.88
395.005	267.88
395.229	248.88
395.454	260.88
395.678	260.88
395.903	266.88
396.127	293.88
396.352	315.88
396.576	284.88
396.801	308.88
397.025	301.88
397.249	290.88
397.474	278.88
397.698	278.88
397.922	263.88
398.147	292.88
398.371	289.88
398.595	290.88
398.82	279.88
399.044	283.88
399.268	274.88
399.492	306.88
399.717	313.88
399.941	324.88
400.165	334.88
400.389	344.88
400.613	307.88
400.837	292.88
401.062	303.88
401.286	294.88
401.51	298.88
401.734	267.88
401.958	289.88
402.182	280.88
402.406	296.88
402.63	308.88
402.854	302.88
403.078	307.88
403.302	288.88
403.526	315.88
403.75	311.88
403.974	292.88
404.198	311.88
404.422	311.88
404.645	283.88
404.869	310.88
405.093	303.88
405.317	347.88
405.541	348.88
405.765	332.88
405.988	327.88
406.212	315.88
406.436	322.88
406.66	368.88
406.883	336.88
407.107	351.88
407.331	364.88
407.555	411.88
407.778	394.88
408.002	386.88
408.226	350.88
408.449	344.88
408.673	357.88
408.896	348.88
409.12	379.88
409.344	358.88
409.567	328.88
409.791	325.88
410.014	311.88
410.238	295.88
410.461	290.88
410.685	322.88
410.908	328.88
411.132	353.88
411.355	368.88
411.578	352.88
411.802	316.88
412.025	300.88
412.249	310.88
412.472	324.88
412.695	334.88
412.919	325.88
413.142	312.88
413.365	292.88
413.589	311.88
413.812	306.88
414.035	276.88
414.258	282.88
414.482	293.88
414.705	272.88
414.928	283.88
415.151	285.88
415.374	278.88
415.597	280.88
415.821	278.88
416.044	292.88
416.267	287.88
416.49	296.88
416.713	304.88
416.936	287.88
417.159	289.88
417.382	306.88
417.605	298.88
417.828	308.88
418.051	315.88
418.274	303.88
418.497	308.88
418.72	321.88
418.943	297.88
419.166	305.88
419.389	313.88
419.611	320.88
419.834	304.88
420.057	330.88
420.28	324.88
420.503	310.88
420.726	288.88
420.948	331.88
421.171	352.88
421.394	383.88
421.617	347.88
421.839	318.88
422.062	313.88
422.285	326.88
422.507	372.88
422.73	412.88
422.953	424.88
423.175	369.88
423.398	331.88
423.621	310.88
423.843	343.88
424.066	360.88
424.288	352.88
424.511	345.88
424.733	385.88
424.956	450.88
425.178	414.88
425.401	433.88
425.623	431.88
425.846	408.88
426.068	378.88
426.291	358.88
426.513	362.88
426.735	388.88
426.958	407.88
427.18	423.88
427.402	510.88
427.625	548.88
427.847	523.88
428.069	457.88
428.292	401.88
428.514	376.88
428.736	368.88
428.958	352.88
429.181	350.88
429.403	327.88
429.625	340.88
429.847	385.88
430.069	397.88
430.292	408.88
430.514	356.88
430.736	348.88
430.958	347.88
431.18	311.88
431.402	317.88
431.624	328.88
431.846	319.88
432.068	315.88
432.29	294.88
432.512	306.88
432.734	312.88
432.956	317.88
433.178	319.88
433.4	334.88
433.622	318.88
433.844	331.88
434.066	313.88
434.287	307.88
434.509	311.88
434.731	312.88
434.953	329.88
435.175	331.88
435.397	364.88
435.618	364.88
435.84	393.88
436.062	442.88
436.284	440.88
436.505	396.88
436.727	368.88
436.949	355.88
437.17	345.88
437.392	345.88
437.614	352.88
437.835	380.88
438.057	446.88
438.278	506.88
438.5	509.88
438.721	526.88
438.943	495.88
439.165	422.88
439.386	380.88
439.608	396.88
439.829	389.88
440.05	391.88
440.272	396.88
440.493	387.88
440.715	378.88
440.936	342.88
441.158	341.88
441.379	332.88
441.6	368.88
441.822	354.88
442.043	400.88
442.264	443.88
442.486	447.88
442.707	415.88
442.928	376.88
443.149	382.88
443.371	409.88
443.592	421.88
443.813	479.88
444.034	486.88
444.255	436.88
444.476	401.88
444.698	355.88
444.919	372.88
445.14	447.88
445.361	417.88
445.582	384.88
445.803	424.88
446.024	455.88
446.245	481.88
446.466	442.88
446.687	381.88
446.908	379.88
447.129	360.88
447.35	362.88
447.571	359.88
447.792	350.88
448.013	355.88
448.234	357.88
448.455	376.88
448.675	475.88
448.896	508.88
449.117	446.88
449.338	438.88
449.559	496.88
449.779	520.88
450	459.88
450.221	396.88
450.442	358.88
450.662	354.88
450.883	362.88
451.104	383.88
451.324	375.88
451.545	359.88
451.766	323.88
451.986	327.88
452.207	311.88
452.428	300.88
452.648	320.88
452.869	326.88
453.089	311.88
453.31	331.88
453.53	329.88
453.751	327.88
453.971	326.88
454.192	333.88
454.412	347.88
454.633	333.88
454.853	283.88
455.073	318.88
455.294	332.88
455.514	379.88
455.734	377.88
455.955	315.88
456.175	293.88
456.395	317.88
456.616	299.88
456.836	291.88
457.056	282.88
457.276	253.88
457.497	290.88
457.717	285.88
457.937	299.88
458.157	295.88
458.377	285.88
458.598	315.88
458.818	373.88
459.038	448.88
459.258	436.88
459.478	371.88
459.698	343.88
459.918	328.88
460.138	306.88
460.358	304.88
460.578	312.88
460.798	306.88
461.018	293.88
461.238	292.88
461.458	303.88
461.678	282.88
461.898	310.88
462.118	304.88
462.338	306.88
462.558	297.88
462.777	281.88
462.997	310.88
463.217	327.88
463.437	301.88
463.657	306.88
463.876	322.88
464.096	298.88
464.316	321.88
464.536	338.88
464.755	330.88
464.975	342.88
465.195	390.88
465.414	482.88
465.634	408.88
465.854	400.88
466.073	349.88
466.293	318.88
466.512	325.88
466.732	333.88
466.951	322.88
467.171	311.88
467.391	329.88
467.61	330.88
467.829	332.88
468.049	327.88
468.268	302.88
468.488	311.88
468.707	295.88
468.927	298.88
469.146	297.88
469.365	303.88
469.585	312.88
469.804	331.88
470.023	345.88
470.243	319.88
470.462	333.88
470.681	318.88
470.901	346.88
471.12	322.88
471.339	322.88
471.558	317.88
471.777	317.88
471.997	319.88
472.216	313.88
472.435	321.88
472.654	302.88
472.873	310.88
473.092	318.88
473.311	312.88
473.53	321.88
473.749	340.88
473.968	383.88
474.187	414.88
474.406	424.88
474.625	371.88
474.844	319.88
475.063	326.88
475.282	303.88
475.501	314.88
475.72	343.88
475.939	310.88
476.158	323.88
476.377	306.88
476.596	315.88
476.814	347.88
477.033	332.88
477.252	336.88
477.471	335.88
477.69	344.88
477.908	340.88
478.127	354.88
478.346	353.88
478.564	323.88
478.783	333.88
479.002	346.88
479.22	371.88
479.439	378.88
479.658	388.88
479.876	373.88
480.095	375.88
480.313	417.88
480.532	394.88
480.751	382.88
480.969	378.88
481.188	402.88
481.406	430.88
481.624	390.88
481.843	373.88
482.061	376.88
482.28	374.88
482.498	379.88
482.717	355.88
482.935	370.88
483.153	370.88
483.372	378.88
483.59	360.88
483.808	359.88
484.027	365.88
484.245	374.88
484.463	376.88
484.681	391.88
484.9	386.88
485.118	390.88
485.336	378.88
485.554	393.88
485.772	385.88
485.99	366.88
486.209	378.88
486.427	387.88
486.645	394.88
486.863	412.88
487.081	422.88
487.299	416.88
487.517	425.88
487.735	426.88
487.953	404.88
488.171	412.88
488.389	410.88
488.607	403.88
488.825	417.88
489.043	419.88
489.261	427.88
489.479	451.88
489.696	418.88
489.914	416.88
490.132	442.88
490.35	439.88
490.568	432.88
490.786	449.88
491.003	455.88
491.221	456.88
491.439	482.88
491.657	466.88
491.874	463.88
492.092	471.88
492.31	455.88
492.527	488.88
492.745	502.88
492.963	488.88
493.18	478.88
493.398	506.88
493.615	494.88
493.833	490.88
494.05	499.88
494.268	489.88
494.485	508.88
494.703	504.88
494.92	489.88
495.138	491.88
495.355	528.88
495.573	500.88
495.79	513.88
496.008	514.88
496.225	516.88
496.442	504.88
496.66	507.88
496.877	486.88
497.094	524.88
497.312	498.88
497.529	524.88
497.746	526.88
497.963	525.88
498.181	553.88
498.398	546.88
498.615	543.88
498.832	523.88
499.049	539.88
499.267	523.88
499.484	547.88
499.701	541.88
499.918	554.88
500.135	570.88
500.352	578.88
500.569	585.88
500.786	576.88
501.003	589.88
501.22	552.88
501.437	573.88
501.654	578.88
501.871	576.88
502.088	562.88
