Data from 1980.PennyLincolnUp.Lamp.En5.5.200Scan.071819.P1_HRD10591_16-38-19-957.txt Node
Date: Thu Jul 18 16:38:19 EDT 2019
User: cochatt
Spectrometer: HR+D1059
Trigger mode: 1
Integration Time (sec): 1.000000E-1
Scans to average: 1
Electric dark correction enabled: true
Nonlinearity correction enabled: false
Boxcar width: 0
XAxis mode: Wavelengths
Number of Pixels in Spectrum: 2048
>>>>>Begin Spectral Data<<<<<
223.165	-18.5
223.4	-18.5
223.635	-18.5
223.869	-17.5
224.104	-14.5
224.338	-7.5
224.573	-15.5
224.808	-10.5
225.042	-13.5
225.277	-12.5
225.511	2.5
225.746	6.5
225.98	2.5
226.215	11.5
226.449	17.5
226.683	11.5
226.918	19.5
227.152	38.5
227.387	31.5
227.621	40.5
227.856	40.5
228.09	31.5
228.324	57.5
228.559	54.5
228.793	58.5
229.027	100.5
229.262	110.5
229.496	103.5
229.73	132.5
229.964	172.5
230.199	148.5
230.433	114.5
230.667	115.5
230.901	113.5
231.136	114.5
231.37	112.5
231.604	123.5
231.838	109.5
232.072	115.5
232.306	113.5
232.541	107.5
232.775	126.5
233.009	105.5
233.243	105.5
233.477	114.5
233.711	124.5
233.945	112.5
234.179	92.5
234.413	115.5
234.647	114.5
234.881	105.5
235.115	118.5
235.349	125.5
235.583	122.5
235.817	118.5
236.051	123.5
236.285	112.5
236.519	126.5
236.753	129.5
236.987	146.5
237.221	190.5
237.455	242.5
237.689	193.5
237.922	163.5
238.156	143.5
238.39	137.5
238.624	126.5
238.858	128.5
239.091	126.5
239.325	126.5
239.559	127.5
239.793	129.5
240.027	134.5
240.26	158.5
240.494	158.5
240.728	163.5
240.961	152.5
241.195	150.5
241.429	149.5
241.662	134.5
241.896	124.5
242.13	130.5
242.363	147.5
242.597	138.5
242.83	142.5
243.064	150.5
243.298	135.5
243.531	148.5
243.765	131.5
243.998	135.5
244.232	134.5
244.465	143.5
244.699	129.5
244.932	155.5
245.166	153.5
245.399	166.5
245.633	140.5
245.866	138.5
246.099	152.5
246.333	142.5
246.566	137.5
246.8	154.5
247.033	147.5
247.266	150.5
247.5	150.5
247.733	160.5
247.966	175.5
248.2	177.5
248.433	169.5
248.666	163.5
248.899	191.5
249.133	200.5
249.366	219.5
249.599	207.5
249.832	190.5
250.066	180.5
250.299	203.5
250.532	207.5
250.765	202.5
250.998	246.5
251.231	231.5
251.465	242.5
251.698	220.5
251.931	201.5
252.164	206.5
252.397	205.5
252.63	206.5
252.863	194.5
253.096	216.5
253.329	246.5
253.562	214.5
253.795	257.5
254.028	219.5
254.261	221.5
254.494	232.5
254.727	272.5
254.96	308.5
255.193	308.5
255.426	272.5
255.659	246.5
255.892	242.5
256.124	241.5
256.357	242.5
256.59	232.5
256.823	233.5
257.056	236.5
257.289	203.5
257.521	219.5
257.754	224.5
257.987	206.5
258.22	218.5
258.452	231.5
258.685	209.5
258.918	207.5
259.151	236.5
259.383	228.5
259.616	228.5
259.849	239.5
260.081	246.5
260.314	271.5
260.547	270.5
260.779	260.5
261.012	243.5
261.244	225.5
261.477	233.5
261.71	236.5
261.942	231.5
262.175	260.5
262.407	235.5
262.64	216.5
262.872	224.5
263.105	218.5
263.337	211.5
263.57	225.5
263.802	206.5
264.035	227.5
264.267	214.5
264.499	207.5
264.732	216.5
264.964	218.5
265.197	197.5
265.429	213.5
265.661	220.5
265.894	212.5
266.126	208.5
266.358	212.5
266.591	213.5
266.823	238.5
267.055	225.5
267.287	233.5
267.52	240.5
267.752	240.5
267.984	218.5
268.216	219.5
268.448	239.5
268.681	220.5
268.913	240.5
269.145	248.5
269.377	269.5
269.609	282.5
269.841	274.5
270.073	287.5
270.306	300.5
270.538	337.5
270.77	314.5
271.002	324.5
271.234	304.5
271.466	308.5
271.698	314.5
271.93	332.5
272.162	328.5
272.394	312.5
272.626	307.5
272.858	307.5
273.09	314.5
273.322	271.5
273.553	263.5
273.785	275.5
274.017	276.5
274.249	276.5
274.481	283.5
274.713	275.5
274.945	263.5
275.176	270.5
275.408	274.5
275.64	279.5
275.872	258.5
276.104	262.5
276.335	268.5
276.567	274.5
276.799	286.5
277.031	292.5
277.262	323.5
277.494	321.5
277.726	305.5
277.957	297.5
278.189	298.5
278.421	290.5
278.652	265.5
278.884	277.5
279.115	264.5
279.347	262.5
279.579	263.5
279.81	274.5
280.042	246.5
280.273	272.5
280.505	266.5
280.736	265.5
280.968	260.5
281.199	274.5
281.431	264.5
281.662	268.5
281.894	269.5
282.125	258.5
282.356	286.5
282.588	312.5
282.819	320.5
283.051	280.5
283.282	242.5
283.513	255.5
283.745	272.5
283.976	272.5
284.207	290.5
284.439	299.5
284.67	273.5
284.901	283.5
285.132	262.5
285.364	250.5
285.595	263.5
285.826	263.5
286.057	265.5
286.288	257.5
286.52	278.5
286.751	276.5
286.982	273.5
287.213	268.5
287.444	266.5
287.675	267.5
287.906	281.5
288.138	269.5
288.369	291.5
288.6	311.5
288.831	286.5
289.062	283.5
289.293	272.5
289.524	276.5
289.755	268.5
289.986	286.5
290.217	276.5
290.448	277.5
290.679	261.5
290.91	274.5
291.141	287.5
291.371	255.5
291.602	287.5
291.833	294.5
292.064	256.5
292.295	272.5
292.526	282.5
292.757	267.5
292.987	266.5
293.218	260.5
293.449	281.5
293.68	291.5
293.91	268.5
294.141	266.5
294.372	262.5
294.603	279.5
294.833	289.5
295.064	269.5
295.295	266.5
295.525	294.5
295.756	267.5
295.987	284.5
296.217	322.5
296.448	336.5
296.679	310.5
296.909	272.5
297.14	286.5
297.37	263.5
297.601	266.5
297.831	269.5
298.062	267.5
298.292	283.5
298.523	274.5
298.753	288.5
298.984	304.5
299.214	297.5
299.445	284.5
299.675	278.5
299.905	269.5
300.136	295.5
300.366	304.5
300.597	282.5
300.827	286.5
301.057	294.5
301.288	313.5
301.518	294.5
301.748	296.5
301.979	315.5
302.209	342.5
302.439	318.5
302.669	308.5
302.9	306.5
303.13	292.5
303.36	294.5
303.59	305.5
303.82	310.5
304.051	318.5
304.281	325.5
304.511	304.5
304.741	304.5
304.971	291.5
305.201	298.5
305.431	295.5
305.661	314.5
305.891	293.5
306.121	314.5
306.352	331.5
306.582	314.5
306.812	294.5
307.042	286.5
307.272	326.5
307.502	322.5
307.731	319.5
307.961	325.5
308.191	296.5
308.421	323.5
308.651	327.5
308.881	316.5
309.111	320.5
309.341	327.5
309.571	351.5
309.8	354.5
310.03	356.5
310.26	367.5
310.49	351.5
310.72	385.5
310.949	376.5
311.179	382.5
311.409	380.5
311.639	374.5
311.868	372.5
312.098	374.5
312.328	390.5
312.557	392.5
312.787	413.5
313.017	411.5
313.246	394.5
313.476	379.5
313.706	377.5
313.935	373.5
314.165	386.5
314.394	395.5
314.624	406.5
314.853	392.5
315.083	370.5
315.312	374.5
315.542	344.5
315.771	335.5
316.001	354.5
316.23	345.5
316.46	338.5
316.689	358.5
316.919	368.5
317.148	367.5
317.377	380.5
317.607	383.5
317.836	382.5
318.065	376.5
318.295	358.5
318.524	370.5
318.753	355.5
318.983	353.5
319.212	352.5
319.441	371.5
319.67	360.5
319.9	374.5
320.129	362.5
320.358	370.5
320.587	380.5
320.816	395.5
321.046	391.5
321.275	396.5
321.504	390.5
321.733	390.5
321.962	418.5
322.191	403.5
322.42	426.5
322.649	457.5
322.878	490.5
323.108	480.5
323.337	506.5
323.566	521.5
323.795	555.5
324.024	644.5
324.253	799.5
324.482	1110.5
324.71	1728.5
324.939	2472.5
325.168	2194.5
325.397	1134.5
325.626	774.5
325.855	595.5
326.084	547.5
326.313	536.5
326.542	521.5
326.77	586.5
326.999	705.5
327.228	992.5
327.457	1492.5
327.686	1891.5
327.914	1285.5
328.143	833.5
328.372	707.5
328.6	654.5
328.829	630.5
329.058	615.5
329.287	633.5
329.515	582.5
329.744	551.5
329.972	531.5
330.201	554.5
330.43	609.5
330.658	635.5
330.887	675.5
331.115	643.5
331.344	537.5
331.572	532.5
331.801	504.5
332.03	490.5
332.258	469.5
332.486	440.5
332.715	435.5
332.943	428.5
333.172	441.5
333.4	442.5
333.629	443.5
333.857	463.5
334.085	459.5
334.314	512.5
334.542	556.5
334.771	550.5
334.999	498.5
335.227	454.5
335.455	452.5
335.684	441.5
335.912	414.5
336.14	422.5
336.369	420.5
336.597	419.5
336.825	450.5
337.053	427.5
337.281	404.5
337.51	414.5
337.738	421.5
337.966	406.5
338.194	424.5
338.422	441.5
338.65	412.5
338.878	422.5
339.106	394.5
339.334	396.5
339.562	417.5
339.79	399.5
340.018	425.5
340.246	410.5
340.474	418.5
340.702	425.5
340.93	409.5
341.158	373.5
341.386	411.5
341.614	402.5
341.842	392.5
342.07	403.5
342.298	384.5
342.526	399.5
342.754	386.5
342.981	391.5
343.209	387.5
343.437	395.5
343.665	401.5
343.893	410.5
344.12	386.5
344.348	412.5
344.576	392.5
344.804	406.5
345.031	414.5
345.259	423.5
345.487	428.5
345.714	425.5
345.942	408.5
346.17	403.5
346.397	424.5
346.625	391.5
346.853	403.5
347.08	385.5
347.308	425.5
347.535	400.5
347.763	436.5
347.99	421.5
348.218	420.5
348.445	408.5
348.673	433.5
348.9	404.5
349.128	379.5
349.355	379.5
349.583	369.5
349.81	386.5
350.037	373.5
350.265	370.5
350.492	373.5
350.72	369.5
350.947	406.5
351.174	431.5
351.402	434.5
351.629	418.5
351.856	425.5
352.083	418.5
352.311	423.5
352.538	440.5
352.765	420.5
352.992	419.5
353.22	398.5
353.447	388.5
353.674	376.5
353.901	366.5
354.128	379.5
354.355	384.5
354.583	357.5
354.81	376.5
355.037	373.5
355.264	362.5
355.491	344.5
355.718	361.5
355.945	358.5
356.172	362.5
356.399	355.5
356.626	353.5
356.853	372.5
357.08	368.5
357.307	353.5
357.534	349.5
357.761	379.5
357.988	379.5
358.215	347.5
358.441	373.5
358.668	368.5
358.895	372.5
359.122	371.5
359.349	387.5
359.576	437.5
359.802	426.5
360.029	473.5
360.256	460.5
360.483	444.5
360.709	413.5
360.936	396.5
361.163	381.5
361.39	412.5
361.616	407.5
361.843	403.5
362.07	398.5
362.296	409.5
362.523	383.5
362.749	376.5
362.976	395.5
363.203	376.5
363.429	367.5
363.656	389.5
363.882	386.5
364.109	382.5
364.335	372.5
364.562	393.5
364.788	359.5
365.015	358.5
365.241	378.5
365.468	387.5
365.694	399.5
365.92	400.5
366.147	374.5
366.373	374.5
366.599	385.5
366.826	360.5
367.052	376.5
367.278	360.5
367.505	359.5
367.731	399.5
367.957	374.5
368.184	379.5
368.41	378.5
368.636	400.5
368.862	388.5
369.089	386.5
369.315	379.5
369.541	389.5
369.767	374.5
369.993	345.5
370.219	363.5
370.445	362.5
370.672	363.5
370.898	366.5
371.124	366.5
371.35	352.5
371.576	363.5
371.802	376.5
372.028	356.5
372.254	360.5
372.48	357.5
372.706	363.5
372.932	361.5
373.158	369.5
373.384	352.5
373.61	359.5
373.835	362.5
374.061	362.5
374.287	372.5
374.513	390.5
374.739	378.5
374.965	361.5
375.191	382.5
375.416	377.5
375.642	340.5
375.868	372.5
376.094	377.5
376.319	358.5
376.545	348.5
376.771	352.5
376.997	356.5
377.222	358.5
377.448	363.5
377.674	364.5
377.899	382.5
378.125	384.5
378.35	357.5
378.576	369.5
378.802	340.5
379.027	354.5
379.253	360.5
379.478	351.5
379.704	374.5
379.929	382.5
380.155	369.5
380.38	347.5
380.606	368.5
380.831	342.5
381.057	374.5
381.282	347.5
381.507	372.5
381.733	361.5
381.958	368.5
382.184	361.5
382.409	374.5
382.634	367.5
382.86	377.5
383.085	372.5
383.31	361.5
383.535	368.5
383.761	360.5
383.986	378.5
384.211	379.5
384.436	361.5
384.662	355.5
384.887	370.5
385.112	373.5
385.337	356.5
385.562	378.5
385.787	394.5
386.013	394.5
386.238	396.5
386.463	397.5
386.688	384.5
386.913	386.5
387.138	378.5
387.363	361.5
387.588	364.5
387.813	384.5
388.038	382.5
388.263	399.5
388.488	378.5
388.713	380.5
388.938	375.5
389.163	390.5
389.387	387.5
389.612	378.5
389.837	368.5
390.062	367.5
390.287	389.5
390.512	377.5
390.736	355.5
390.961	376.5
391.186	394.5
391.411	364.5
391.636	390.5
391.86	378.5
392.085	393.5
392.31	382.5
392.534	381.5
392.759	373.5
392.984	380.5
393.208	378.5
393.433	392.5
393.658	378.5
393.882	391.5
394.107	377.5
394.331	392.5
394.556	386.5
394.78	390.5
395.005	392.5
395.229	387.5
395.454	384.5
395.678	388.5
395.903	409.5
396.127	441.5
396.352	438.5
396.576	413.5
396.801	392.5
397.025	404.5
397.249	415.5
397.474	425.5
397.698	400.5
397.922	422.5
398.147	414.5
398.371	435.5
398.595	424.5
398.82	426.5
399.044	435.5
399.268	446.5
399.492	446.5
399.717	467.5
399.941	470.5
400.165	529.5
400.389	548.5
400.613	506.5
400.837	461.5
401.062	449.5
401.286	423.5
401.51	431.5
401.734	427.5
401.958	444.5
402.182	450.5
402.406	450.5
402.63	442.5
402.854	453.5
403.078	446.5
403.302	460.5
403.526	460.5
403.75	469.5
403.974	450.5
404.198	432.5
404.422	458.5
404.645	477.5
404.869	475.5
405.093	512.5
405.317	550.5
405.541	579.5
405.765	506.5
405.988	498.5
406.212	510.5
406.436	501.5
406.66	531.5
406.883	504.5
407.107	514.5
407.331	576.5
407.555	624.5
407.778	618.5
408.002	571.5
408.226	509.5
408.449	510.5
408.673	515.5
408.896	538.5
409.12	566.5
409.344	555.5
409.567	500.5
409.791	479.5
410.014	460.5
410.238	462.5
410.461	466.5
410.685	486.5
410.908	507.5
411.132	548.5
411.355	566.5
411.578	532.5
411.802	478.5
412.025	471.5
412.249	474.5
412.472	489.5
412.695	532.5
412.919	528.5
413.142	486.5
413.365	468.5
413.589	443.5
413.812	430.5
414.035	441.5
414.258	425.5
414.482	441.5
414.705	416.5
414.928	435.5
415.151	419.5
415.374	443.5
415.597	424.5
415.821	415.5
416.044	440.5
416.267	454.5
416.49	427.5
416.713	443.5
416.936	423.5
417.159	430.5
417.382	442.5
417.605	444.5
417.828	465.5
418.051	471.5
418.274	471.5
418.497	453.5
418.72	430.5
418.943	456.5
419.166	447.5
419.389	461.5
419.611	464.5
419.834	464.5
420.057	435.5
420.28	460.5
420.503	461.5
420.726	452.5
420.948	480.5
421.171	522.5
421.394	573.5
421.617	492.5
421.839	461.5
422.062	471.5
422.285	486.5
422.507	527.5
422.73	626.5
422.953	613.5
423.175	506.5
423.398	475.5
423.621	497.5
423.843	506.5
424.066	527.5
424.288	512.5
424.511	532.5
424.733	579.5
424.956	668.5
425.178	660.5
425.401	634.5
425.623	671.5
425.846	579.5
426.068	548.5
426.291	514.5
426.513	513.5
426.735	518.5
426.958	553.5
427.18	650.5
427.402	751.5
427.625	843.5
427.847	786.5
428.069	670.5
428.292	591.5
428.514	550.5
428.736	523.5
428.958	487.5
429.181	474.5
429.403	487.5
429.625	494.5
429.847	540.5
430.069	608.5
430.292	586.5
430.514	493.5
430.736	487.5
430.958	468.5
431.18	453.5
431.402	454.5
431.624	443.5
431.846	444.5
432.068	458.5
432.29	439.5
432.512	470.5
432.734	445.5
432.956	450.5
433.178	448.5
433.4	468.5
433.622	465.5
433.844	441.5
434.066	426.5
434.287	437.5
434.509	448.5
434.731	463.5
434.953	468.5
435.175	470.5
435.397	516.5
435.618	518.5
435.84	583.5
436.062	653.5
436.284	711.5
436.505	609.5
436.727	555.5
436.949	483.5
437.17	471.5
437.392	476.5
437.614	502.5
437.835	571.5
438.057	633.5
438.278	770.5
438.5	723.5
438.721	792.5
438.943	731.5
439.165	625.5
439.386	553.5
439.608	538.5
439.829	564.5
440.05	574.5
440.272	611.5
440.493	587.5
440.715	549.5
440.936	514.5
441.158	474.5
441.379	486.5
441.6	528.5
441.822	520.5
442.043	564.5
442.264	626.5
442.486	674.5
442.707	585.5
442.928	552.5
443.149	545.5
443.371	546.5
443.592	610.5
443.813	707.5
444.034	753.5
444.255	644.5
444.476	531.5
444.698	494.5
444.919	510.5
445.14	569.5
445.361	534.5
445.582	589.5
445.803	634.5
446.024	725.5
446.245	737.5
446.466	694.5
446.687	599.5
446.908	542.5
447.129	497.5
447.35	476.5
447.571	489.5
447.792	478.5
448.013	481.5
448.234	500.5
448.455	585.5
448.675	674.5
448.896	779.5
449.117	670.5
449.338	626.5
449.559	725.5
449.779	813.5
450	656.5
450.221	555.5
450.442	510.5
450.662	511.5
450.883	487.5
451.104	535.5
451.324	519.5
451.545	484.5
451.766	454.5
451.986	458.5
452.207	437.5
452.428	416.5
452.648	422.5
452.869	427.5
453.089	444.5
453.31	451.5
453.53	448.5
453.751	447.5
453.971	463.5
454.192	475.5
454.412	455.5
454.633	438.5
454.853	427.5
455.073	431.5
455.294	454.5
455.514	555.5
455.734	534.5
455.955	448.5
456.175	402.5
456.395	375.5
456.616	416.5
456.836	405.5
457.056	407.5
457.276	379.5
457.497	396.5
457.717	392.5
457.937	410.5
458.157	410.5
458.377	428.5
458.598	453.5
458.818	506.5
459.038	606.5
459.258	606.5
459.478	496.5
459.698	481.5
459.918	440.5
460.138	440.5
460.358	431.5
460.578	452.5
460.798	453.5
461.018	448.5
461.238	426.5
461.458	432.5
461.678	416.5
461.898	406.5
462.118	418.5
462.338	426.5
462.558	434.5
462.777	450.5
462.997	451.5
463.217	440.5
463.437	468.5
463.657	460.5
463.876	448.5
464.096	434.5
464.316	444.5
464.536	472.5
464.755	458.5
464.975	490.5
465.195	528.5
465.414	619.5
465.634	544.5
465.854	512.5
466.073	471.5
466.293	438.5
466.512	448.5
466.732	416.5
466.951	442.5
467.171	436.5
467.391	442.5
467.61	448.5
467.829	430.5
468.049	434.5
468.268	459.5
468.488	450.5
468.707	433.5
468.927	408.5
469.146	419.5
469.365	413.5
469.585	409.5
469.804	438.5
470.023	458.5
470.243	459.5
470.462	476.5
470.681	479.5
470.901	470.5
471.12	450.5
471.339	435.5
471.558	459.5
471.777	454.5
471.997	422.5
472.216	450.5
472.435	504.5
472.654	511.5
472.873	462.5
473.092	454.5
473.311	455.5
473.53	444.5
473.749	474.5
473.968	504.5
474.187	626.5
474.406	627.5
474.625	514.5
474.844	467.5
475.063	467.5
475.282	441.5
475.501	413.5
475.72	432.5
475.939	454.5
476.158	452.5
476.377	457.5
476.596	441.5
476.814	452.5
477.033	467.5
477.252	480.5
477.471	471.5
477.69	484.5
477.908	474.5
478.127	467.5
478.346	498.5
478.564	483.5
478.783	501.5
479.002	497.5
479.22	503.5
479.439	527.5
479.658	547.5
479.876	550.5
480.095	528.5
480.313	583.5
480.532	556.5
480.751	542.5
480.969	553.5
481.188	639.5
481.406	702.5
481.624	602.5
481.843	554.5
482.061	539.5
482.28	531.5
482.498	527.5
482.717	528.5
482.935	524.5
483.153	530.5
483.372	515.5
483.59	514.5
483.808	518.5
484.027	534.5
484.245	535.5
484.463	529.5
484.681	533.5
484.9	536.5
485.118	515.5
485.336	542.5
485.554	533.5
485.772	527.5
485.99	555.5
486.209	546.5
486.427	567.5
486.645	590.5
486.863	591.5
487.081	586.5
487.299	556.5
487.517	571.5
487.735	574.5
487.953	573.5
488.171	585.5
488.389	566.5
488.607	588.5
488.825	583.5
489.043	579.5
489.261	572.5
489.479	591.5
489.696	591.5
489.914	589.5
490.132	584.5
490.35	618.5
490.568	608.5
490.786	616.5
491.003	624.5
491.221	635.5
491.439	638.5
491.657	683.5
491.874	651.5
492.092	651.5
492.31	652.5
492.527	674.5
492.745	695.5
492.963	662.5
493.18	651.5
493.398	675.5
493.615	686.5
493.833	675.5
494.05	668.5
494.268	707.5
494.485	689.5
494.703	712.5
494.92	690.5
495.138	679.5
495.355	681.5
495.573	673.5
495.79	700.5
496.008	688.5
496.225	675.5
496.442	692.5
496.66	692.5
496.877	677.5
497.094	699.5
497.312	680.5
497.529	696.5
497.746	704.5
497.963	724.5
498.181	729.5
498.398	734.5
498.615	731.5
498.832	734.5
499.049	731.5
499.267	752.5
499.484	772.5
499.701	803.5
499.918	779.5
500.135	803.5
500.352	801.5
500.569	844.5
500.786	868.5
501.003	836.5
501.22	808.5
501.437	820.5
501.654	828.5
501.871	818.5
502.088	780.5
502.305	752.5
502.522	750.5
502.739	719.5
502.956	703.5
503.172	699.5
503.389	691.5
503.606	675.5
503.823	717.5
504.04	686.5
504.256	700.5
504.473	677.5
504.69	671.5
504.907	672.5
505.123	664.5
505.34	659.5
505.557	660.5
505.773	661.5
505.99	668.5
506.207	672.5
506.423	681.5
506.64	646.5
506.856	638.5
507.073	652.5
507.289	650.5
507.506	651.5
507.722	642.5
507.939	700.5
508.155	658.5
508.372	645.5
508.588	641.5
508.805	619.5
509.021	642.5
509.238	662.5
509.454	675.5
509.67	656.5
509.887	656.5
510.103	656.5
510.319	670.5
510.536	793.5
510.752	1360.5
510.968	1107.5
511.184	708.5
511.401	638.5
511.617	624.5
511.833	616.5
512.049	615.5
512.265	638.5
512.481	627.5
512.698	594.5
512.914	600.5
513.13	609.5
513.346	628.5
513.562	619.5
513.778	606.5
513.994	634.5
514.21	638.5
514.426	684.5
514.642	730.5
514.858	767.5
515.074	782.5
515.29	1003.5
515.506	1556.5
515.721	1227.5
515.937	768.5
516.153	700.5
516.369	652.5
516.585	644.5
516.801	631.5
517.016	617.5
517.232	590.5
517.448	594.5
517.664	635.5
517.879	624.5
518.095	598.5
518.311	608.5
518.527	608.5
518.742	612.5
518.958	611.5
519.173	586.5
519.389	607.5
519.605	604.5
519.82	629.5
