Data from 1980.PennyLincolnUp.Lamp.En5.5.200Scan.071819.P1_HRD10591_16-36-45-957.txt Node
Date: Thu Jul 18 16:36:45 EDT 2019
User: cochatt
Spectrometer: HR+D1059
Trigger mode: 1
Integration Time (sec): 1.000000E-1
Scans to average: 1
Electric dark correction enabled: true
Nonlinearity correction enabled: false
Boxcar width: 0
XAxis mode: Wavelengths
Number of Pixels in Spectrum: 2048
>>>>>Begin Spectral Data<<<<<
223.165	-6.88
223.4	-6.88
223.635	-6.88
223.869	-20.88
224.104	-12.88
224.338	-19.88
224.573	-20.88
224.808	-5.88
225.042	-24.88
225.277	-3.88
225.511	-18.88
225.746	5.12
225.98	4.12
226.215	26.12
226.449	16.12
226.683	20.12
226.918	26.12
227.152	37.12
227.387	34.12
227.621	46.12
227.856	57.12
228.09	46.12
228.324	55.12
228.559	52.12
228.793	84.12
229.027	96.12
229.262	96.12
229.496	117.12
229.73	114.12
229.964	160.12
230.199	123.12
230.433	109.12
230.667	93.12
230.901	115.12
231.136	110.12
231.37	102.12
231.604	119.12
231.838	95.12
232.072	97.12
232.306	112.12
232.541	110.12
232.775	125.12
233.009	96.12
233.243	117.12
233.477	103.12
233.711	114.12
233.945	118.12
234.179	102.12
234.413	108.12
234.647	119.12
234.881	111.12
235.115	122.12
235.349	115.12
235.583	107.12
235.817	126.12
236.051	124.12
236.285	115.12
236.519	127.12
236.753	138.12
236.987	133.12
237.221	181.12
237.455	219.12
237.689	184.12
237.922	150.12
238.156	115.12
238.39	130.12
238.624	123.12
238.858	128.12
239.091	120.12
239.325	125.12
239.559	124.12
239.793	130.12
240.027	124.12
240.26	144.12
240.494	153.12
240.728	157.12
240.961	146.12
241.195	133.12
241.429	126.12
241.662	135.12
241.896	128.12
242.13	140.12
242.363	132.12
242.597	136.12
242.83	126.12
243.064	125.12
243.298	134.12
243.531	142.12
243.765	132.12
243.998	121.12
244.232	145.12
244.465	137.12
244.699	145.12
244.932	155.12
245.166	148.12
245.399	137.12
245.633	139.12
245.866	140.12
246.099	155.12
246.333	149.12
246.566	144.12
246.8	139.12
247.033	151.12
247.266	162.12
247.5	165.12
247.733	168.12
247.966	164.12
248.2	163.12
248.433	169.12
248.666	167.12
248.899	184.12
249.133	199.12
249.366	200.12
249.599	203.12
249.832	183.12
250.066	177.12
250.299	195.12
250.532	192.12
250.765	210.12
250.998	223.12
251.231	214.12
251.465	228.12
251.698	211.12
251.931	211.12
252.164	202.12
252.397	194.12
252.63	207.12
252.863	207.12
253.096	229.12
253.329	244.12
253.562	249.12
253.795	232.12
254.028	229.12
254.261	229.12
254.494	220.12
254.727	247.12
254.96	272.12
255.193	282.12
255.426	245.12
255.659	237.12
255.892	213.12
256.124	220.12
256.357	230.12
256.59	216.12
256.823	219.12
257.056	220.12
257.289	189.12
257.521	211.12
257.754	215.12
257.987	193.12
258.22	208.12
258.452	206.12
258.685	198.12
258.918	190.12
259.151	198.12
259.383	199.12
259.616	224.12
259.849	225.12
260.081	206.12
260.314	236.12
260.547	244.12
260.779	250.12
261.012	236.12
261.244	230.12
261.477	215.12
261.71	214.12
261.942	230.12
262.175	228.12
262.407	231.12
262.64	208.12
262.872	199.12
263.105	208.12
263.337	212.12
263.57	209.12
263.802	204.12
264.035	198.12
264.267	200.12
264.499	196.12
264.732	199.12
264.964	213.12
265.197	206.12
265.429	198.12
265.661	202.12
265.894	215.12
266.126	196.12
266.358	200.12
266.591	190.12
266.823	205.12
267.055	216.12
267.287	231.12
267.52	217.12
267.752	211.12
267.984	214.12
268.216	218.12
268.448	208.12
268.681	216.12
268.913	222.12
269.145	255.12
269.377	266.12
269.609	251.12
269.841	261.12
270.073	256.12
270.306	275.12
270.538	294.12
270.77	308.12
271.002	291.12
271.234	286.12
271.466	286.12
271.698	287.12
271.93	301.12
272.162	317.12
272.394	293.12
272.626	278.12
272.858	269.12
273.09	265.12
273.322	272.12
273.553	248.12
273.785	244.12
274.017	258.12
274.249	256.12
274.481	246.12
274.713	235.12
274.945	254.12
275.176	242.12
275.408	249.12
275.64	241.12
275.872	237.12
276.104	245.12
276.335	242.12
276.567	254.12
276.799	274.12
277.031	279.12
277.262	307.12
277.494	292.12
277.726	286.12
277.957	266.12
278.189	249.12
278.421	265.12
278.652	252.12
278.884	273.12
279.115	242.12
279.347	244.12
279.579	233.12
279.81	246.12
280.042	244.12
280.273	237.12
280.505	229.12
280.736	235.12
280.968	247.12
281.199	244.12
281.431	250.12
281.662	242.12
281.894	258.12
282.125	234.12
282.356	253.12
282.588	251.12
282.819	276.12
283.051	253.12
283.282	238.12
283.513	223.12
283.745	242.12
283.976	244.12
284.207	259.12
284.439	246.12
284.67	241.12
284.901	237.12
285.132	246.12
285.364	243.12
285.595	227.12
285.826	240.12
286.057	265.12
286.288	255.12
286.52	255.12
286.751	242.12
286.982	224.12
287.213	234.12
287.444	259.12
287.675	251.12
287.906	258.12
288.138	268.12
288.369	272.12
288.6	275.12
288.831	262.12
289.062	263.12
289.293	248.12
289.524	252.12
289.755	250.12
289.986	262.12
290.217	239.12
290.448	242.12
290.679	243.12
290.91	276.12
291.141	280.12
291.371	252.12
291.602	248.12
291.833	239.12
292.064	256.12
292.295	232.12
292.526	248.12
292.757	263.12
292.987	255.12
293.218	238.12
293.449	243.12
293.68	263.12
293.91	262.12
294.141	255.12
294.372	239.12
294.603	262.12
294.833	265.12
295.064	250.12
295.295	264.12
295.525	266.12
295.756	264.12
295.987	254.12
296.217	306.12
296.448	301.12
296.679	282.12
296.909	240.12
297.14	272.12
297.37	243.12
297.601	276.12
297.831	248.12
298.062	259.12
298.292	258.12
298.523	266.12
298.753	258.12
298.984	274.12
299.214	266.12
299.445	272.12
299.675	272.12
299.905	270.12
300.136	261.12
300.366	253.12
300.597	258.12
300.827	285.12
301.057	293.12
301.288	284.12
301.518	285.12
301.748	279.12
301.979	293.12
302.209	260.12
302.439	281.12
302.669	258.12
302.9	270.12
303.13	279.12
303.36	269.12
303.59	309.12
303.82	306.12
304.051	302.12
304.281	275.12
304.511	283.12
304.741	279.12
304.971	275.12
305.201	281.12
305.431	288.12
305.661	285.12
305.891	270.12
306.121	281.12
306.352	275.12
306.582	299.12
306.812	301.12
307.042	290.12
307.272	278.12
307.502	280.12
307.731	281.12
307.961	299.12
308.191	271.12
308.421	282.12
308.651	281.12
308.881	286.12
309.111	292.12
309.341	311.12
309.571	312.12
309.8	307.12
310.03	336.12
310.26	322.12
310.49	330.12
310.72	315.12
310.949	345.12
311.179	354.12
311.409	355.12
311.639	324.12
311.868	351.12
312.098	327.12
312.328	345.12
312.557	365.12
312.787	370.12
313.017	361.12
313.246	346.12
313.476	334.12
313.706	363.12
313.935	342.12
314.165	346.12
314.394	349.12
314.624	342.12
314.853	344.12
315.083	325.12
315.312	344.12
315.542	312.12
315.771	331.12
316.001	310.12
316.23	323.12
316.46	340.12
316.689	345.12
316.919	349.12
317.148	347.12
317.377	340.12
317.607	321.12
317.836	335.12
318.065	336.12
318.295	332.12
318.524	332.12
318.753	340.12
318.983	327.12
319.212	317.12
319.441	338.12
319.67	338.12
319.9	346.12
320.129	322.12
320.358	331.12
320.587	357.12
320.816	346.12
321.046	359.12
321.275	353.12
321.504	335.12
321.733	366.12
321.962	358.12
322.191	375.12
322.42	392.12
322.649	406.12
322.878	426.12
323.108	440.12
323.337	452.12
323.566	486.12
323.795	494.12
324.024	546.12
324.253	662.12
324.482	914.12
324.71	1463.12
324.939	2086.12
325.168	1857.12
325.397	946.12
325.626	668.12
325.855	542.12
326.084	479.12
326.313	487.12
326.542	486.12
326.77	524.12
326.999	597.12
327.228	823.12
327.457	1315.12
327.686	1583.12
327.914	1098.12
328.143	716.12
328.372	612.12
328.6	549.12
328.829	546.12
329.058	557.12
329.287	550.12
329.515	547.12
329.744	478.12
329.972	462.12
330.201	500.12
330.43	520.12
330.658	549.12
330.887	575.12
331.115	548.12
331.344	475.12
331.572	447.12
331.801	457.12
332.03	447.12
332.258	419.12
332.486	395.12
332.715	398.12
332.943	404.12
333.172	392.12
333.4	391.12
333.629	403.12
333.857	404.12
334.085	416.12
334.314	425.12
334.542	448.12
334.771	453.12
334.999	456.12
335.227	413.12
335.455	381.12
335.684	376.12
335.912	396.12
336.14	401.12
336.369	382.12
336.597	390.12
336.825	393.12
337.053	399.12
337.281	377.12
337.51	378.12
337.738	380.12
337.966	368.12
338.194	399.12
338.422	386.12
338.65	392.12
338.878	384.12
339.106	365.12
339.334	380.12
339.562	362.12
339.79	356.12
340.018	374.12
340.246	372.12
340.474	379.12
340.702	379.12
340.93	380.12
341.158	377.12
341.386	369.12
341.614	379.12
341.842	367.12
342.07	360.12
342.298	374.12
342.526	348.12
342.754	348.12
342.981	350.12
343.209	341.12
343.437	348.12
343.665	364.12
343.893	369.12
344.12	376.12
344.348	366.12
344.576	358.12
344.804	383.12
345.031	370.12
345.259	390.12
345.487	405.12
345.714	379.12
345.942	360.12
346.17	363.12
346.397	376.12
346.625	380.12
346.853	355.12
347.08	354.12
347.308	375.12
347.535	375.12
347.763	377.12
347.99	377.12
348.218	381.12
348.445	396.12
348.673	372.12
348.9	375.12
349.128	360.12
349.355	341.12
349.583	348.12
349.81	349.12
350.037	348.12
350.265	340.12
350.492	336.12
350.72	336.12
350.947	359.12
351.174	392.12
351.402	380.12
351.629	378.12
351.856	364.12
352.083	390.12
352.311	380.12
352.538	386.12
352.765	382.12
352.992	386.12
353.22	364.12
353.447	367.12
353.674	365.12
353.901	351.12
354.128	339.12
354.355	338.12
354.583	352.12
354.81	364.12
355.037	336.12
355.264	340.12
355.491	323.12
355.718	320.12
355.945	340.12
356.172	365.12
356.399	341.12
356.626	348.12
356.853	341.12
357.08	309.12
357.307	330.12
357.534	343.12
357.761	330.12
357.988	354.12
358.215	327.12
358.441	334.12
358.668	340.12
358.895	345.12
359.122	354.12
359.349	370.12
359.576	370.12
359.802	382.12
360.029	422.12
360.256	428.12
360.483	408.12
360.709	368.12
360.936	379.12
361.163	358.12
361.39	370.12
361.616	382.12
361.843	365.12
362.07	373.12
362.296	374.12
362.523	365.12
362.749	358.12
362.976	372.12
363.203	365.12
363.429	359.12
363.656	354.12
363.882	346.12
364.109	344.12
364.335	351.12
364.562	355.12
364.788	331.12
365.015	342.12
365.241	331.12
365.468	384.12
365.694	365.12
365.92	357.12
366.147	354.12
366.373	359.12
366.599	325.12
366.826	348.12
367.052	335.12
367.278	338.12
367.505	353.12
367.731	325.12
367.957	351.12
368.184	346.12
368.41	358.12
368.636	375.12
368.862	354.12
369.089	358.12
369.315	347.12
369.541	354.12
369.767	351.12
369.993	350.12
370.219	351.12
370.445	356.12
370.672	360.12
370.898	348.12
371.124	336.12
371.35	328.12
371.576	350.12
371.802	338.12
372.028	328.12
372.254	347.12
372.48	342.12
372.706	340.12
372.932	367.12
373.158	331.12
373.384	365.12
373.61	319.12
373.835	343.12
374.061	352.12
374.287	360.12
374.513	364.12
374.739	352.12
374.965	343.12
375.191	356.12
375.416	337.12
375.642	355.12
375.868	343.12
376.094	333.12
376.319	348.12
376.545	356.12
376.771	334.12
376.997	337.12
377.222	327.12
377.448	341.12
377.674	340.12
377.899	349.12
378.125	331.12
378.35	308.12
378.576	322.12
378.802	348.12
379.027	330.12
379.253	346.12
379.478	352.12
379.704	344.12
379.929	336.12
380.155	336.12
380.38	337.12
380.606	349.12
380.831	342.12
381.057	360.12
381.282	348.12
381.507	338.12
381.733	352.12
381.958	321.12
382.184	329.12
382.409	329.12
382.634	340.12
382.86	336.12
383.085	350.12
383.31	331.12
383.535	337.12
383.761	350.12
383.986	352.12
384.211	357.12
384.436	368.12
384.662	343.12
384.887	354.12
385.112	337.12
385.337	357.12
385.562	361.12
385.787	354.12
386.013	357.12
386.238	362.12
386.463	360.12
386.688	357.12
386.913	372.12
387.138	342.12
387.363	361.12
387.588	347.12
387.813	366.12
388.038	356.12
388.263	338.12
388.488	352.12
388.713	373.12
388.938	363.12
389.163	363.12
389.387	363.12
389.612	366.12
389.837	360.12
390.062	372.12
390.287	367.12
390.512	377.12
390.736	350.12
390.961	364.12
391.186	359.12
391.411	368.12
391.636	370.12
391.86	370.12
392.085	373.12
392.31	360.12
392.534	360.12
392.759	376.12
392.984	371.12
393.208	352.12
393.433	356.12
393.658	359.12
393.882	382.12
394.107	372.12
394.331	382.12
394.556	376.12
394.78	357.12
395.005	351.12
395.229	370.12
395.454	371.12
395.678	371.12
395.903	379.12
396.127	395.12
396.352	424.12
396.576	374.12
396.801	366.12
397.025	383.12
397.249	396.12
397.474	382.12
397.698	372.12
397.922	381.12
398.147	407.12
398.371	428.12
398.595	398.12
398.82	410.12
399.044	379.12
399.268	408.12
399.492	424.12
399.717	453.12
399.941	454.12
400.165	479.12
400.389	504.12
400.613	470.12
400.837	436.12
401.062	429.12
401.286	428.12
401.51	407.12
401.734	401.12
401.958	432.12
402.182	394.12
402.406	417.12
402.63	426.12
402.854	413.12
403.078	400.12
403.302	419.12
403.526	430.12
403.75	432.12
403.974	435.12
404.198	414.12
404.422	420.12
404.645	433.12
404.869	429.12
405.093	464.12
405.317	490.12
405.541	514.12
405.765	490.12
405.988	464.12
406.212	464.12
406.436	462.12
406.66	474.12
406.883	476.12
407.107	499.12
407.331	508.12
407.555	579.12
407.778	573.12
408.002	511.12
408.226	476.12
408.449	467.12
408.673	451.12
408.896	506.12
409.12	529.12
409.344	493.12
409.567	458.12
409.791	451.12
410.014	448.12
410.238	424.12
410.461	430.12
410.685	438.12
410.908	435.12
411.132	456.12
411.355	490.12
411.578	494.12
411.802	426.12
412.025	444.12
412.249	429.12
412.472	443.12
412.695	473.12
412.919	496.12
413.142	431.12
413.365	430.12
413.589	415.12
413.812	416.12
414.035	398.12
414.258	379.12
414.482	401.12
414.705	402.12
414.928	412.12
415.151	398.12
415.374	391.12
415.597	389.12
415.821	400.12
416.044	378.12
416.267	406.12
416.49	409.12
416.713	410.12
416.936	391.12
417.159	416.12
417.382	407.12
417.605	431.12
417.828	413.12
418.051	432.12
418.274	424.12
418.497	414.12
418.72	435.12
418.943	407.12
419.166	413.12
419.389	428.12
419.611	456.12
419.834	430.12
420.057	432.12
420.28	415.12
420.503	432.12
420.726	448.12
420.948	460.12
421.171	482.12
421.394	490.12
421.617	453.12
421.839	438.12
422.062	439.12
422.285	460.12
422.507	513.12
422.73	554.12
422.953	543.12
423.175	499.12
423.398	459.12
423.621	456.12
423.843	462.12
424.066	464.12
424.288	468.12
424.511	462.12
424.733	525.12
424.956	624.12
425.178	605.12
425.401	592.12
425.623	613.12
425.846	522.12
426.068	501.12
426.291	476.12
426.513	482.12
426.735	477.12
426.958	510.12
427.18	576.12
427.402	731.12
427.625	815.12
427.847	714.12
428.069	610.12
428.292	525.12
428.514	504.12
428.736	460.12
428.958	466.12
429.181	444.12
429.403	446.12
429.625	469.12
429.847	471.12
430.069	564.12
430.292	547.12
430.514	462.12
430.736	438.12
430.958	411.12
431.18	426.12
431.402	397.12
431.624	423.12
431.846	415.12
432.068	407.12
432.29	411.12
432.512	418.12
432.734	422.12
432.956	418.12
433.178	443.12
433.4	436.12
433.622	429.12
433.844	412.12
434.066	414.12
434.287	414.12
434.509	400.12
434.731	416.12
434.953	457.12
435.175	443.12
435.397	478.12
435.618	474.12
435.84	527.12
436.062	610.12
436.284	650.12
436.505	558.12
436.727	501.12
436.949	466.12
437.17	459.12
437.392	467.12
437.614	465.12
437.835	485.12
438.057	607.12
438.278	678.12
438.5	660.12
438.721	719.12
438.943	676.12
439.165	556.12
439.386	524.12
439.608	489.12
439.829	486.12
440.05	529.12
440.272	555.12
440.493	525.12
440.715	468.12
440.936	450.12
441.158	435.12
441.379	456.12
441.6	454.12
441.822	492.12
442.043	499.12
442.264	600.12
442.486	629.12
442.707	542.12
442.928	511.12
443.149	535.12
443.371	516.12
443.592	552.12
443.813	645.12
444.034	692.12
444.255	596.12
444.476	510.12
444.698	476.12
444.919	482.12
445.14	540.12
445.361	517.12
445.582	522.12
445.803	567.12
446.024	658.12
446.245	672.12
446.466	648.12
446.687	543.12
446.908	510.12
447.129	472.12
447.35	466.12
447.571	437.12
447.792	442.12
448.013	443.12
448.234	448.12
448.455	531.12
448.675	613.12
448.896	703.12
449.117	602.12
449.338	583.12
449.559	664.12
449.779	742.12
450	605.12
450.221	502.12
450.442	466.12
450.662	453.12
450.883	458.12
451.104	478.12
451.324	480.12
451.545	446.12
451.766	430.12
451.986	393.12
452.207	394.12
452.428	396.12
452.648	413.12
452.869	406.12
453.089	415.12
453.31	422.12
453.53	419.12
453.751	420.12
453.971	405.12
454.192	422.12
454.412	426.12
454.633	400.12
454.853	384.12
455.073	397.12
455.294	429.12
455.514	485.12
455.734	476.12
455.955	401.12
456.175	392.12
456.395	382.12
456.616	364.12
456.836	379.12
457.056	359.12
457.276	376.12
457.497	386.12
457.717	360.12
457.937	367.12
458.157	398.12
458.377	379.12
458.598	408.12
458.818	467.12
459.038	570.12
459.258	564.12
459.478	489.12
459.698	441.12
459.918	437.12
460.138	407.12
460.358	417.12
460.578	389.12
460.798	405.12
461.018	438.12
461.238	420.12
461.458	404.12
461.678	398.12
461.898	395.12
462.118	394.12
462.338	411.12
462.558	401.12
462.777	421.12
462.997	424.12
463.217	425.12
463.437	412.12
463.657	428.12
463.876	423.12
464.096	428.12
464.316	411.12
464.536	442.12
464.755	452.12
464.975	460.12
465.195	494.12
465.414	562.12
465.634	481.12
465.854	462.12
466.073	436.12
466.293	414.12
466.512	430.12
466.732	420.12
466.951	407.12
467.171	404.12
467.391	396.12
467.61	399.12
467.829	387.12
468.049	388.12
468.268	411.12
468.488	389.12
468.707	378.12
468.927	375.12
469.146	382.12
469.365	376.12
469.585	398.12
469.804	415.12
470.023	446.12
470.243	401.12
470.462	410.12
470.681	431.12
470.901	429.12
471.12	395.12
471.339	419.12
471.558	415.12
471.777	403.12
471.997	408.12
472.216	415.12
472.435	430.12
472.654	421.12
472.873	385.12
473.092	427.12
473.311	403.12
473.53	389.12
473.749	412.12
473.968	463.12
474.187	565.12
474.406	587.12
474.625	457.12
474.844	434.12
475.063	416.12
475.282	401.12
475.501	414.12
475.72	445.12
475.939	435.12
476.158	411.12
476.377	428.12
476.596	410.12
476.814	441.12
477.033	415.12
477.252	422.12
477.471	444.12
477.69	450.12
477.908	446.12
478.127	444.12
478.346	436.12
478.564	437.12
478.783	464.12
479.002	445.12
479.22	445.12
479.439	464.12
479.658	495.12
479.876	480.12
480.095	508.12
480.313	506.12
480.532	501.12
480.751	511.12
480.969	483.12
481.188	551.12
481.406	586.12
481.624	524.12
481.843	504.12
482.061	516.12
482.28	479.12
482.498	482.12
482.717	466.12
482.935	485.12
483.153	468.12
483.372	488.12
483.59	509.12
483.808	476.12
484.027	486.12
484.245	514.12
484.463	496.12
484.681	492.12
484.9	490.12
485.118	490.12
485.336	498.12
485.554	489.12
485.772	505.12
485.99	486.12
486.209	502.12
486.427	517.12
486.645	524.12
486.863	507.12
487.081	558.12
487.299	516.12
487.517	523.12
487.735	511.12
487.953	500.12
488.171	510.12
488.389	526.12
488.607	518.12
488.825	537.12
489.043	519.12
489.261	526.12
489.479	537.12
489.696	564.12
489.914	539.12
490.132	537.12
490.35	562.12
490.568	563.12
490.786	578.12
491.003	553.12
491.221	589.12
491.439	609.12
491.657	601.12
491.874	600.12
492.092	594.12
492.31	591.12
492.527	612.12
492.745	583.12
492.963	634.12
493.18	616.12
493.398	628.12
493.615	619.12
493.833	624.12
494.05	636.12
494.268	608.12
494.485	636.12
494.703	593.12
494.92	608.12
495.138	624.12
495.355	604.12
495.573	617.12
495.79	620.12
496.008	615.12
496.225	629.12
496.442	619.12
496.66	626.12
496.877	632.12
497.094	633.12
497.312	647.12
497.529	626.12
497.746	630.12
497.963	645.12
498.181	659.12
498.398	642.12
498.615	641.12
498.832	683.12
499.049	655.12
499.267	691.12
499.484	687.12
499.701	702.12
499.918	726.12
500.135	742.12
500.352	780.12
500.569	775.12
500.786	760.12
501.003	780.12
501.22	764.12
501.437	726.12
501.654	744.12
501.871	714.12
502.088	725.12
