Data from 1980.PennyLincolnUp.Lamp.En5.5.200Scan.071819.P1_HRD10591_16-37-23-957.txt Node
Date: Thu Jul 18 16:37:23 EDT 2019
User: cochatt
Spectrometer: HR+D1059
Trigger mode: 1
Integration Time (sec): 1.000000E-1
Scans to average: 1
Electric dark correction enabled: true
Nonlinearity correction enabled: false
Boxcar width: 0
XAxis mode: Wavelengths
Number of Pixels in Spectrum: 2048
>>>>>Begin Spectral Data<<<<<
223.165	-15.06
223.4	-15.06
223.635	-15.06
223.869	-22.06
224.104	-30.06
224.338	-9.06
224.573	-11.06
224.808	-7.06
225.042	-19.06
225.277	-4.06
225.511	-16.06
225.746	14.94
225.98	3.94
226.215	7.94
226.449	19.94
226.683	35.94
226.918	21.94
227.152	28.94
227.387	20.94
227.621	34.94
227.856	35.94
228.09	45.94
228.324	50.94
228.559	55.94
228.793	80.94
229.027	98.94
229.262	108.94
229.496	108.94
229.73	145.94
229.964	168.94
230.199	137.94
230.433	128.94
230.667	118.94
230.901	110.94
231.136	117.94
231.37	116.94
231.604	107.94
231.838	116.94
232.072	100.94
232.306	119.94
232.541	137.94
232.775	125.94
233.009	104.94
233.243	110.94
233.477	104.94
233.711	117.94
233.945	117.94
234.179	126.94
234.413	109.94
234.647	115.94
234.881	116.94
235.115	115.94
235.349	128.94
235.583	121.94
235.817	111.94
236.051	124.94
236.285	120.94
236.519	122.94
236.753	132.94
236.987	138.94
237.221	177.94
237.455	247.94
237.689	204.94
237.922	146.94
238.156	144.94
238.39	123.94
238.624	124.94
238.858	134.94
239.091	114.94
239.325	124.94
239.559	134.94
239.793	131.94
240.027	135.94
240.26	145.94
240.494	149.94
240.728	156.94
240.961	169.94
241.195	141.94
241.429	147.94
241.662	135.94
241.896	133.94
242.13	135.94
242.363	127.94
242.597	142.94
242.83	157.94
243.064	159.94
243.298	138.94
243.531	136.94
243.765	140.94
243.998	142.94
244.232	133.94
244.465	150.94
244.699	128.94
244.932	140.94
245.166	133.94
245.399	141.94
245.633	152.94
245.866	149.94
246.099	141.94
246.333	161.94
246.566	163.94
246.8	146.94
247.033	157.94
247.266	170.94
247.5	167.94
247.733	170.94
247.966	173.94
248.2	169.94
248.433	172.94
248.666	175.94
248.899	185.94
249.133	214.94
249.366	215.94
249.599	205.94
249.832	184.94
250.066	199.94
250.299	186.94
250.532	192.94
250.765	222.94
250.998	209.94
251.231	239.94
251.465	215.94
251.698	200.94
251.931	205.94
252.164	194.94
252.397	198.94
252.63	212.94
252.863	217.94
253.096	226.94
253.329	215.94
253.562	234.94
253.795	231.94
254.028	229.94
254.261	221.94
254.494	232.94
254.727	260.94
254.96	292.94
255.193	283.94
255.426	251.94
255.659	230.94
255.892	246.94
256.124	248.94
256.357	226.94
256.59	222.94
256.823	228.94
257.056	240.94
257.289	207.94
257.521	216.94
257.754	202.94
257.987	201.94
258.22	222.94
258.452	208.94
258.685	191.94
258.918	197.94
259.151	232.94
259.383	214.94
259.616	214.94
259.849	235.94
260.081	240.94
260.314	273.94
260.547	273.94
260.779	262.94
261.012	234.94
261.244	237.94
261.477	220.94
261.71	227.94
261.942	214.94
262.175	241.94
262.407	230.94
262.64	211.94
262.872	233.94
263.105	231.94
263.337	199.94
263.57	192.94
263.802	208.94
264.035	216.94
264.267	205.94
264.499	209.94
264.732	211.94
264.964	215.94
265.197	212.94
265.429	216.94
265.661	209.94
265.894	208.94
266.126	200.94
266.358	221.94
266.591	212.94
266.823	239.94
267.055	216.94
267.287	222.94
267.52	205.94
267.752	218.94
267.984	212.94
268.216	233.94
268.448	237.94
268.681	218.94
268.913	255.94
269.145	241.94
269.377	274.94
269.609	273.94
269.841	282.94
270.073	270.94
270.306	299.94
270.538	318.94
270.77	303.94
271.002	300.94
271.234	287.94
271.466	310.94
271.698	315.94
271.93	327.94
272.162	310.94
272.394	315.94
272.626	316.94
272.858	311.94
273.09	293.94
273.322	271.94
273.553	262.94
273.785	275.94
274.017	252.94
274.249	266.94
274.481	258.94
274.713	233.94
274.945	271.94
275.176	280.94
275.408	268.94
275.64	264.94
275.872	258.94
276.104	247.94
276.335	255.94
276.567	273.94
276.799	281.94
277.031	315.94
277.262	329.94
277.494	313.94
277.726	300.94
277.957	289.94
278.189	272.94
278.421	256.94
278.652	278.94
278.884	255.94
279.115	261.94
279.347	256.94
279.579	247.94
279.81	229.94
280.042	249.94
280.273	259.94
280.505	258.94
280.736	264.94
280.968	254.94
281.199	258.94
281.431	253.94
281.662	271.94
281.894	245.94
282.125	265.94
282.356	281.94
282.588	282.94
282.819	316.94
283.051	278.94
283.282	270.94
283.513	263.94
283.745	241.94
283.976	249.94
284.207	279.94
284.439	269.94
284.67	264.94
284.901	291.94
285.132	255.94
285.364	266.94
285.595	273.94
285.826	248.94
286.057	259.94
286.288	269.94
286.52	256.94
286.751	266.94
286.982	262.94
287.213	265.94
287.444	263.94
287.675	273.94
287.906	271.94
288.138	298.94
288.369	283.94
288.6	287.94
288.831	297.94
289.062	266.94
289.293	290.94
289.524	276.94
289.755	285.94
289.986	272.94
290.217	276.94
290.448	259.94
290.679	277.94
290.91	279.94
291.141	269.94
291.371	269.94
291.602	261.94
291.833	240.94
292.064	260.94
292.295	256.94
292.526	268.94
292.757	272.94
292.987	270.94
293.218	259.94
293.449	262.94
293.68	274.94
293.91	269.94
294.141	279.94
294.372	271.94
294.603	277.94
294.833	262.94
295.064	259.94
295.295	269.94
295.525	283.94
295.756	278.94
295.987	298.94
296.217	313.94
296.448	308.94
296.679	295.94
296.909	273.94
297.14	256.94
297.37	268.94
297.601	275.94
297.831	282.94
298.062	292.94
298.292	258.94
298.523	295.94
298.753	279.94
298.984	279.94
299.214	277.94
299.445	292.94
299.675	301.94
299.905	276.94
300.136	274.94
300.366	288.94
300.597	297.94
300.827	279.94
301.057	284.94
301.288	294.94
301.518	312.94
301.748	284.94
301.979	308.94
302.209	309.94
302.439	293.94
302.669	308.94
302.9	287.94
303.13	309.94
303.36	295.94
303.59	323.94
303.82	315.94
304.051	306.94
304.281	301.94
304.511	275.94
304.741	301.94
304.971	274.94
305.201	291.94
305.431	282.94
305.661	285.94
305.891	290.94
306.121	294.94
306.352	297.94
306.582	306.94
306.812	303.94
307.042	311.94
307.272	311.94
307.502	308.94
307.731	319.94
307.961	326.94
308.191	316.94
308.421	313.94
308.651	320.94
308.881	320.94
309.111	309.94
309.341	310.94
309.571	330.94
309.8	351.94
310.03	330.94
310.26	361.94
310.49	358.94
310.72	378.94
310.949	397.94
311.179	388.94
311.409	378.94
311.639	360.94
311.868	352.94
312.098	362.94
312.328	342.94
312.557	375.94
312.787	410.94
313.017	405.94
313.246	393.94
313.476	362.94
313.706	360.94
313.935	359.94
314.165	395.94
314.394	404.94
314.624	388.94
314.853	369.94
315.083	363.94
315.312	345.94
315.542	367.94
315.771	343.94
316.001	335.94
316.23	349.94
316.46	329.94
316.689	355.94
316.919	337.94
317.148	356.94
317.377	396.94
317.607	361.94
317.836	372.94
318.065	353.94
318.295	349.94
318.524	359.94
318.753	338.94
318.983	359.94
319.212	373.94
319.441	377.94
319.67	368.94
319.9	356.94
320.129	363.94
320.358	367.94
320.587	351.94
320.816	366.94
321.046	383.94
321.275	396.94
321.504	385.94
321.733	384.94
321.962	396.94
322.191	409.94
322.42	424.94
322.649	449.94
322.878	444.94
323.108	483.94
323.337	471.94
323.566	500.94
323.795	535.94
324.024	610.94
324.253	749.94
324.482	1044.94
324.71	1641.94
324.939	2345.94
325.168	2036.94
325.397	1121.94
325.626	714.94
325.855	601.94
326.084	523.94
326.313	508.94
326.542	536.94
326.77	577.94
326.999	671.94
327.228	944.94
327.457	1436.94
327.686	1746.94
327.914	1218.94
328.143	794.94
328.372	684.94
328.6	626.94
328.829	603.94
329.058	588.94
329.287	619.94
329.515	579.94
329.744	527.94
329.972	505.94
330.201	532.94
330.43	582.94
330.658	630.94
330.887	634.94
331.115	627.94
331.344	537.94
331.572	501.94
331.801	495.94
332.03	472.94
332.258	476.94
332.486	448.94
332.715	427.94
332.943	423.94
333.172	431.94
333.4	411.94
333.629	421.94
333.857	469.94
334.085	449.94
334.314	471.94
334.542	513.94
334.771	538.94
334.999	470.94
335.227	433.94
335.455	436.94
335.684	416.94
335.912	416.94
336.14	408.94
336.369	409.94
336.597	415.94
336.825	415.94
337.053	406.94
337.281	415.94
337.51	413.94
337.738	405.94
337.966	379.94
338.194	419.94
338.422	404.94
338.65	412.94
338.878	421.94
339.106	385.94
339.334	386.94
339.562	391.94
339.79	396.94
340.018	385.94
340.246	423.94
340.474	409.94
340.702	411.94
340.93	391.94
341.158	372.94
341.386	397.94
341.614	411.94
341.842	405.94
342.07	403.94
342.298	376.94
342.526	380.94
342.754	374.94
342.981	373.94
343.209	383.94
343.437	383.94
343.665	388.94
343.893	391.94
344.12	394.94
344.348	411.94
344.576	392.94
344.804	407.94
345.031	434.94
345.259	425.94
345.487	421.94
345.714	402.94
345.942	417.94
346.17	375.94
346.397	372.94
346.625	396.94
346.853	384.94
347.08	387.94
347.308	385.94
347.535	401.94
347.763	405.94
347.99	403.94
348.218	413.94
348.445	413.94
348.673	395.94
348.9	397.94
349.128	393.94
349.355	397.94
349.583	355.94
349.81	393.94
350.037	389.94
350.265	374.94
350.492	389.94
350.72	364.94
350.947	381.94
351.174	407.94
351.402	394.94
351.629	411.94
351.856	397.94
352.083	391.94
352.311	396.94
352.538	418.94
352.765	438.94
352.992	411.94
353.22	398.94
353.447	385.94
353.674	396.94
353.901	374.94
354.128	360.94
354.355	365.94
354.583	349.94
354.81	354.94
355.037	369.94
355.264	347.94
355.491	374.94
355.718	369.94
355.945	359.94
356.172	356.94
356.399	354.94
356.626	377.94
356.853	362.94
357.08	342.94
357.307	349.94
357.534	361.94
357.761	352.94
357.988	359.94
358.215	353.94
358.441	344.94
358.668	364.94
358.895	375.94
359.122	375.94
359.349	372.94
359.576	382.94
359.802	411.94
360.029	453.94
360.256	486.94
360.483	439.94
360.709	421.94
360.936	399.94
361.163	388.94
361.39	377.94
361.616	399.94
361.843	404.94
362.07	396.94
362.296	381.94
362.523	396.94
362.749	386.94
362.976	384.94
363.203	390.94
363.429	365.94
363.656	398.94
363.882	377.94
364.109	368.94
364.335	354.94
364.562	375.94
364.788	371.94
365.015	361.94
365.241	361.94
365.468	380.94
365.694	371.94
365.92	389.94
366.147	355.94
366.373	369.94
366.599	362.94
366.826	376.94
367.052	371.94
367.278	356.94
367.505	371.94
367.731	370.94
367.957	370.94
368.184	380.94
368.41	365.94
368.636	369.94
368.862	375.94
369.089	397.94
369.315	367.94
369.541	360.94
369.767	362.94
369.993	376.94
370.219	348.94
370.445	357.94
370.672	362.94
370.898	352.94
371.124	344.94
371.35	344.94
371.576	367.94
371.802	357.94
372.028	354.94
372.254	353.94
372.48	344.94
372.706	389.94
372.932	369.94
373.158	364.94
373.384	367.94
373.61	353.94
373.835	356.94
374.061	372.94
374.287	373.94
374.513	354.94
374.739	385.94
374.965	355.94
375.191	343.94
375.416	363.94
375.642	361.94
375.868	344.94
376.094	353.94
376.319	354.94
376.545	362.94
376.771	347.94
376.997	357.94
377.222	346.94
377.448	347.94
377.674	360.94
377.899	368.94
378.125	359.94
378.35	349.94
378.576	378.94
378.802	357.94
379.027	353.94
379.253	369.94
379.478	348.94
379.704	343.94
379.929	364.94
380.155	348.94
380.38	364.94
380.606	367.94
380.831	358.94
381.057	353.94
381.282	360.94
381.507	360.94
381.733	353.94
381.958	364.94
382.184	338.94
382.409	388.94
382.634	373.94
382.86	351.94
383.085	369.94
383.31	352.94
383.535	353.94
383.761	360.94
383.986	371.94
384.211	363.94
384.436	365.94
384.662	353.94
384.887	359.94
385.112	357.94
385.337	383.94
385.562	377.94
385.787	389.94
386.013	387.94
386.238	384.94
386.463	380.94
386.688	388.94
386.913	373.94
387.138	357.94
387.363	383.94
387.588	383.94
387.813	388.94
388.038	372.94
388.263	363.94
388.488	385.94
388.713	369.94
388.938	387.94
389.163	390.94
389.387	367.94
389.612	363.94
389.837	376.94
390.062	383.94
390.287	363.94
390.512	376.94
390.736	383.94
390.961	382.94
391.186	367.94
391.411	376.94
391.636	376.94
391.86	380.94
392.085	386.94
392.31	388.94
392.534	395.94
392.759	383.94
392.984	379.94
393.208	384.94
393.433	378.94
393.658	395.94
393.882	380.94
394.107	362.94
394.331	389.94
394.556	385.94
394.78	402.94
395.005	376.94
395.229	379.94
395.454	387.94
395.678	389.94
395.903	399.94
396.127	409.94
396.352	411.94
396.576	413.94
396.801	407.94
397.025	396.94
397.249	385.94
397.474	394.94
397.698	408.94
397.922	413.94
398.147	435.94
398.371	430.94
398.595	424.94
398.82	405.94
399.044	426.94
399.268	450.94
399.492	461.94
399.717	456.94
399.941	469.94
400.165	511.94
400.389	520.94
400.613	501.94
400.837	461.94
401.062	437.94
401.286	436.94
401.51	431.94
401.734	431.94
401.958	399.94
402.182	435.94
402.406	434.94
402.63	453.94
402.854	440.94
403.078	451.94
403.302	435.94
403.526	469.94
403.75	436.94
403.974	444.94
404.198	436.94
404.422	480.94
404.645	457.94
404.869	467.94
405.093	479.94
405.317	544.94
405.541	540.94
405.765	506.94
405.988	458.94
406.212	495.94
406.436	521.94
406.66	505.94
406.883	493.94
407.107	523.94
407.331	540.94
407.555	629.94
407.778	608.94
408.002	545.94
408.226	518.94
408.449	506.94
408.673	516.94
408.896	519.94
409.12	577.94
409.344	552.94
409.567	487.94
409.791	457.94
410.014	460.94
410.238	444.94
410.461	432.94
410.685	462.94
410.908	471.94
411.132	519.94
411.355	524.94
411.578	495.94
411.802	482.94
412.025	453.94
412.249	468.94
412.472	493.94
412.695	519.94
412.919	516.94
413.142	475.94
413.365	443.94
413.589	448.94
413.812	431.94
414.035	426.94
414.258	420.94
414.482	438.94
414.705	434.94
414.928	412.94
415.151	419.94
415.374	427.94
415.597	404.94
415.821	435.94
416.044	421.94
416.267	434.94
416.49	435.94
416.713	437.94
416.936	417.94
417.159	435.94
417.382	450.94
417.605	443.94
417.828	442.94
418.051	445.94
418.274	426.94
418.497	450.94
418.72	427.94
418.943	424.94
419.166	468.94
419.389	457.94
419.611	471.94
419.834	459.94
420.057	458.94
420.28	457.94
420.503	451.94
420.726	460.94
420.948	485.94
421.171	530.94
421.394	560.94
421.617	500.94
421.839	464.94
422.062	447.94
422.285	466.94
422.507	543.94
422.73	607.94
422.953	601.94
423.175	497.94
423.398	504.94
423.621	479.94
423.843	490.94
424.066	498.94
424.288	517.94
424.511	520.94
424.733	574.94
424.956	632.94
425.178	634.94
425.401	628.94
425.623	633.94
425.846	539.94
426.068	523.94
426.291	519.94
426.513	495.94
426.735	534.94
426.958	568.94
427.18	626.94
427.402	767.94
427.625	843.94
427.847	772.94
428.069	663.94
428.292	583.94
428.514	524.94
428.736	485.94
428.958	465.94
429.181	474.94
429.403	468.94
429.625	477.94
429.847	514.94
430.069	577.94
430.292	570.94
430.514	503.94
430.736	481.94
430.958	458.94
431.18	426.94
431.402	448.94
431.624	420.94
431.846	445.94
432.068	426.94
432.29	415.94
432.512	446.94
432.734	436.94
432.956	451.94
433.178	467.94
433.4	443.94
433.622	449.94
433.844	450.94
434.066	431.94
434.287	440.94
434.509	445.94
434.731	430.94
434.953	450.94
435.175	472.94
435.397	502.94
435.618	514.94
435.84	541.94
436.062	633.94
436.284	697.94
436.505	593.94
436.727	547.94
436.949	510.94
437.17	490.94
437.392	475.94
437.614	489.94
437.835	532.94
438.057	629.94
438.278	720.94
438.5	712.94
438.721	803.94
438.943	748.94
439.165	605.94
439.386	561.94
439.608	525.94
439.829	535.94
440.05	565.94
440.272	595.94
440.493	576.94
440.715	521.94
440.936	500.94
441.158	488.94
441.379	468.94
441.6	513.94
441.822	524.94
442.043	568.94
442.264	639.94
442.486	675.94
442.707	581.94
442.928	524.94
443.149	535.94
443.371	577.94
443.592	599.94
443.813	677.94
444.034	743.94
444.255	612.94
444.476	558.94
444.698	514.94
444.919	499.94
445.14	618.94
445.361	588.94
445.582	573.94
445.803	622.94
446.024	716.94
446.245	729.94
446.466	666.94
446.687	573.94
446.908	538.94
447.129	492.94
447.35	445.94
447.571	458.94
447.792	461.94
448.013	477.94
448.234	496.94
448.455	547.94
448.675	671.94
448.896	762.94
449.117	640.94
449.338	615.94
449.559	693.94
449.779	809.94
450	652.94
450.221	548.94
450.442	502.94
450.662	471.94
450.883	485.94
451.104	503.94
451.324	487.94
451.545	447.94
451.766	442.94
451.986	430.94
452.207	440.94
452.428	411.94
452.648	416.94
452.869	423.94
453.089	438.94
453.31	450.94
453.53	417.94
453.751	437.94
453.971	447.94
454.192	471.94
454.412	460.94
454.633	425.94
454.853	412.94
455.073	421.94
455.294	437.94
455.514	540.94
455.734	512.94
455.955	440.94
456.175	415.94
456.395	387.94
456.616	405.94
456.836	396.94
457.056	403.94
457.276	377.94
457.497	392.94
457.717	403.94
457.937	411.94
458.157	405.94
458.377	397.94
458.598	433.94
458.818	531.94
459.038	619.94
459.258	623.94
459.478	511.94
459.698	469.94
459.918	435.94
460.138	441.94
460.358	452.94
460.578	444.94
460.798	447.94
461.018	426.94
461.238	427.94
461.458	429.94
461.678	424.94
461.898	431.94
462.118	437.94
462.338	439.94
462.558	437.94
462.777	428.94
462.997	432.94
463.217	452.94
463.437	450.94
463.657	456.94
463.876	443.94
464.096	449.94
464.316	441.94
464.536	460.94
464.755	455.94
464.975	473.94
465.195	533.94
465.414	617.94
465.634	543.94
465.854	511.94
466.073	427.94
466.293	436.94
466.512	431.94
466.732	418.94
466.951	407.94
467.171	419.94
467.391	418.94
467.61	454.94
467.829	455.94
468.049	460.94
468.268	447.94
468.488	432.94
468.707	412.94
468.927	413.94
469.146	431.94
469.365	437.94
469.585	400.94
469.804	439.94
470.023	456.94
470.243	450.94
470.462	467.94
470.681	462.94
470.901	455.94
471.12	443.94
471.339	435.94
471.558	432.94
471.777	440.94
471.997	440.94
472.216	445.94
472.435	487.94
472.654	457.94
472.873	452.94
473.092	434.94
473.311	433.94
473.53	421.94
473.749	446.94
473.968	482.94
474.187	608.94
474.406	629.94
474.625	506.94
474.844	456.94
475.063	450.94
475.282	417.94
475.501	458.94
475.72	454.94
475.939	441.94
476.158	467.94
476.377	479.94
476.596	430.94
476.814	460.94
477.033	461.94
477.252	486.94
477.471	467.94
477.69	471.94
477.908	475.94
478.127	468.94
478.346	480.94
478.564	466.94
478.783	489.94
479.002	475.94
479.22	482.94
479.439	499.94
479.658	537.94
479.876	542.94
480.095	535.94
480.313	561.94
480.532	557.94
480.751	528.94
480.969	530.94
481.188	611.94
481.406	683.94
481.624	589.94
481.843	541.94
482.061	521.94
482.28	515.94
482.498	523.94
482.717	533.94
482.935	512.94
483.153	509.94
483.372	509.94
483.59	507.94
483.808	500.94
484.027	533.94
484.245	516.94
484.463	519.94
484.681	535.94
484.9	518.94
485.118	541.94
485.336	517.94
485.554	546.94
485.772	548.94
485.99	529.94
486.209	544.94
486.427	540.94
486.645	532.94
486.863	580.94
487.081	554.94
487.299	568.94
487.517	563.94
487.735	580.94
487.953	554.94
488.171	551.94
488.389	568.94
488.607	545.94
488.825	548.94
489.043	573.94
489.261	589.94
489.479	559.94
489.696	567.94
489.914	563.94
490.132	575.94
490.35	601.94
490.568	577.94
490.786	606.94
491.003	599.94
491.221	609.94
491.439	626.94
491.657	608.94
491.874	641.94
492.092	651.94
492.31	637.94
492.527	656.94
492.745	669.94
492.963	651.94
493.18	654.94
493.398	682.94
493.615	677.94
493.833	651.94
494.05	676.94
494.268	672.94
494.485	659.94
494.703	677.94
494.92	672.94
495.138	651.94
495.355	662.94
495.573	648.94
495.79	672.94
496.008	693.94
496.225	659.94
496.442	662.94
496.66	651.94
496.877	664.94
497.094	673.94
497.312	658.94
497.529	689.94
497.746	684.94
497.963	710.94
498.181	716.94
498.398	705.94
498.615	705.94
498.832	695.94
499.049	716.94
499.267	710.94
499.484	742.94
499.701	752.94
499.918	790.94
500.135	767.94
500.352	811.94
500.569	811.94
500.786	823.94
501.003	787.94
501.22	818.94
501.437	815.94
501.654	797.94
501.871	799.94
