Data from 1980.PennyLincolnUp.Lamp.En5.5.200Scan.071819.P1_HRD10591_16-38-40-957.txt Node
Date: Thu Jul 18 16:38:40 EDT 2019
User: cochatt
Spectrometer: HR+D1059
Trigger mode: 1
Integration Time (sec): 1.000000E-1
Scans to average: 1
Electric dark correction enabled: true
Nonlinearity correction enabled: false
Boxcar width: 0
XAxis mode: Wavelengths
Number of Pixels in Spectrum: 2048
>>>>>Begin Spectral Data<<<<<
223.165	-20.44
223.4	-20.44
223.635	-20.44
223.869	-19.44
224.104	-22.44
224.338	-22.44
224.573	-15.44
224.808	-6.44
225.042	0.56
225.277	-5.44
225.511	-5.44
225.746	-4.44
225.98	-1.44
226.215	19.56
226.449	-3.44
226.683	30.56
226.918	33.56
227.152	42.56
227.387	31.56
227.621	44.56
227.856	36.56
228.09	37.56
228.324	36.56
228.559	51.56
228.793	72.56
229.027	94.56
229.262	108.56
229.496	122.56
229.73	147.56
229.964	177.56
230.199	124.56
230.433	122.56
230.667	120.56
230.901	99.56
231.136	115.56
231.37	90.56
231.604	102.56
231.838	113.56
232.072	111.56
232.306	109.56
232.541	118.56
232.775	109.56
233.009	115.56
233.243	127.56
233.477	110.56
233.711	116.56
233.945	115.56
234.179	113.56
234.413	112.56
234.647	119.56
234.881	106.56
235.115	126.56
235.349	109.56
235.583	113.56
235.817	113.56
236.051	129.56
236.285	115.56
236.519	123.56
236.753	140.56
236.987	144.56
237.221	201.56
237.455	245.56
237.689	196.56
237.922	142.56
238.156	137.56
238.39	141.56
238.624	125.56
238.858	142.56
239.091	121.56
239.325	107.56
239.559	123.56
239.793	146.56
240.027	138.56
240.26	143.56
240.494	166.56
240.728	150.56
240.961	170.56
241.195	157.56
241.429	140.56
241.662	139.56
241.896	126.56
242.13	125.56
242.363	117.56
242.597	137.56
242.83	145.56
243.064	127.56
243.298	134.56
243.531	137.56
243.765	151.56
243.998	125.56
244.232	154.56
244.465	150.56
244.699	130.56
244.932	124.56
245.166	151.56
245.399	142.56
245.633	145.56
245.866	151.56
246.099	164.56
246.333	142.56
246.566	163.56
246.8	145.56
247.033	135.56
247.266	145.56
247.5	149.56
247.733	162.56
247.966	161.56
248.2	171.56
248.433	178.56
248.666	178.56
248.899	189.56
249.133	213.56
249.366	220.56
249.599	213.56
249.832	202.56
250.066	196.56
250.299	192.56
250.532	210.56
250.765	209.56
250.998	240.56
251.231	243.56
251.465	229.56
251.698	211.56
251.931	208.56
252.164	210.56
252.397	187.56
252.63	204.56
252.863	216.56
253.096	214.56
253.329	217.56
253.562	239.56
253.795	231.56
254.028	226.56
254.261	225.56
254.494	248.56
254.727	260.56
254.96	313.56
255.193	306.56
255.426	275.56
255.659	248.56
255.892	259.56
256.124	243.56
256.357	246.56
256.59	243.56
256.823	223.56
257.056	228.56
257.289	207.56
257.521	222.56
257.754	221.56
257.987	212.56
258.22	219.56
258.452	228.56
258.685	229.56
258.918	227.56
259.151	220.56
259.383	214.56
259.616	224.56
259.849	230.56
260.081	257.56
260.314	266.56
260.547	271.56
260.779	266.56
261.012	239.56
261.244	243.56
261.477	253.56
261.71	235.56
261.942	246.56
262.175	253.56
262.407	243.56
262.64	234.56
262.872	229.56
263.105	240.56
263.337	218.56
263.57	209.56
263.802	198.56
264.035	200.56
264.267	201.56
264.499	200.56
264.732	216.56
264.964	206.56
265.197	213.56
265.429	210.56
265.661	206.56
265.894	200.56
266.126	226.56
266.358	218.56
266.591	210.56
266.823	234.56
267.055	232.56
267.287	241.56
267.52	218.56
267.752	212.56
267.984	217.56
268.216	227.56
268.448	245.56
268.681	232.56
268.913	243.56
269.145	261.56
269.377	275.56
269.609	279.56
269.841	290.56
270.073	287.56
270.306	285.56
270.538	333.56
270.77	329.56
271.002	328.56
271.234	316.56
271.466	315.56
271.698	320.56
271.93	327.56
272.162	345.56
272.394	353.56
272.626	308.56
272.858	277.56
273.09	299.56
273.322	263.56
273.553	244.56
273.785	265.56
274.017	264.56
274.249	282.56
274.481	273.56
274.713	261.56
274.945	274.56
275.176	276.56
275.408	267.56
275.64	261.56
275.872	260.56
276.104	252.56
276.335	261.56
276.567	267.56
276.799	278.56
277.031	313.56
277.262	324.56
277.494	333.56
277.726	315.56
277.957	288.56
278.189	293.56
278.421	273.56
278.652	259.56
278.884	237.56
279.115	259.56
279.347	272.56
279.579	268.56
279.81	270.56
280.042	275.56
280.273	275.56
280.505	239.56
280.736	265.56
280.968	255.56
281.199	260.56
281.431	249.56
281.662	241.56
281.894	254.56
282.125	284.56
282.356	298.56
282.588	303.56
282.819	315.56
283.051	276.56
283.282	259.56
283.513	248.56
283.745	258.56
283.976	258.56
284.207	270.56
284.439	287.56
284.67	266.56
284.901	248.56
285.132	270.56
285.364	262.56
285.595	251.56
285.826	255.56
286.057	277.56
286.288	273.56
286.52	259.56
286.751	269.56
286.982	257.56
287.213	252.56
287.444	255.56
287.675	275.56
287.906	290.56
288.138	291.56
288.369	305.56
288.6	288.56
288.831	277.56
289.062	267.56
289.293	272.56
289.524	273.56
289.755	269.56
289.986	277.56
290.217	283.56
290.448	265.56
290.679	284.56
290.91	267.56
291.141	277.56
291.371	284.56
291.602	279.56
291.833	282.56
292.064	265.56
292.295	287.56
292.526	273.56
292.757	284.56
292.987	269.56
293.218	247.56
293.449	257.56
293.68	271.56
293.91	255.56
294.141	248.56
294.372	262.56
294.603	269.56
294.833	291.56
295.064	292.56
295.295	279.56
295.525	260.56
295.756	289.56
295.987	299.56
296.217	316.56
296.448	337.56
296.679	310.56
296.909	269.56
297.14	269.56
297.37	284.56
297.601	291.56
297.831	269.56
298.062	266.56
298.292	287.56
298.523	288.56
298.753	300.56
298.984	287.56
299.214	281.56
299.445	297.56
299.675	273.56
299.905	289.56
300.136	307.56
300.366	277.56
300.597	293.56
300.827	297.56
301.057	312.56
301.288	310.56
301.518	298.56
301.748	295.56
301.979	307.56
302.209	304.56
302.439	311.56
302.669	290.56
302.9	301.56
303.13	305.56
303.36	307.56
303.59	333.56
303.82	319.56
304.051	307.56
304.281	295.56
304.511	301.56
304.741	282.56
304.971	289.56
305.201	303.56
305.431	315.56
305.661	310.56
305.891	306.56
306.121	297.56
306.352	303.56
306.582	324.56
306.812	313.56
307.042	326.56
307.272	309.56
307.502	310.56
307.731	328.56
307.961	299.56
308.191	315.56
308.421	325.56
308.651	316.56
308.881	314.56
309.111	323.56
309.341	320.56
309.571	338.56
309.8	337.56
310.03	353.56
310.26	397.56
310.49	375.56
310.72	359.56
310.949	396.56
311.179	385.56
311.409	372.56
311.639	378.56
311.868	374.56
312.098	381.56
312.328	391.56
312.557	411.56
312.787	389.56
313.017	413.56
313.246	382.56
313.476	355.56
313.706	375.56
313.935	395.56
314.165	397.56
314.394	393.56
314.624	395.56
314.853	381.56
315.083	357.56
315.312	377.56
315.542	376.56
315.771	359.56
316.001	339.56
316.23	357.56
316.46	358.56
316.689	341.56
316.919	354.56
317.148	377.56
317.377	389.56
317.607	385.56
317.836	372.56
318.065	354.56
318.295	360.56
318.524	344.56
318.753	367.56
318.983	364.56
319.212	355.56
319.441	383.56
319.67	381.56
319.9	364.56
320.129	363.56
320.358	377.56
320.587	364.56
320.816	381.56
321.046	381.56
321.275	388.56
321.504	386.56
321.733	392.56
321.962	401.56
322.191	428.56
322.42	445.56
322.649	469.56
322.878	468.56
323.108	487.56
323.337	514.56
323.566	541.56
323.795	560.56
324.024	632.56
324.253	799.56
324.482	1146.56
324.71	1735.56
324.939	2517.56
325.168	2220.56
325.397	1160.56
325.626	763.56
325.855	618.56
326.084	575.56
326.313	540.56
326.542	550.56
326.77	594.56
326.999	700.56
327.228	1034.56
327.457	1532.56
327.686	1886.56
327.914	1308.56
328.143	844.56
328.372	723.56
328.6	659.56
328.829	637.56
329.058	647.56
329.287	647.56
329.515	609.56
329.744	536.56
329.972	545.56
330.201	564.56
330.43	617.56
330.658	636.56
330.887	669.56
331.115	667.56
331.344	557.56
331.572	495.56
331.801	489.56
332.03	496.56
332.258	471.56
332.486	447.56
332.715	438.56
332.943	438.56
333.172	433.56
333.4	456.56
333.629	465.56
333.857	469.56
334.085	495.56
334.314	492.56
334.542	531.56
334.771	534.56
334.999	497.56
335.227	458.56
335.455	452.56
335.684	438.56
335.912	416.56
336.14	426.56
336.369	417.56
336.597	433.56
336.825	443.56
337.053	427.56
337.281	424.56
337.51	410.56
337.738	429.56
337.966	443.56
338.194	405.56
338.422	440.56
338.65	421.56
338.878	388.56
339.106	403.56
339.334	401.56
339.562	392.56
339.79	411.56
340.018	415.56
340.246	393.56
340.474	431.56
340.702	407.56
340.93	407.56
341.158	401.56
341.386	410.56
341.614	410.56
341.842	402.56
342.07	396.56
342.298	393.56
342.526	400.56
342.754	393.56
342.981	394.56
343.209	379.56
343.437	383.56
343.665	413.56
343.893	385.56
344.12	379.56
344.348	409.56
344.576	417.56
344.804	426.56
345.031	433.56
345.259	445.56
345.487	397.56
345.714	396.56
345.942	408.56
346.17	405.56
346.397	387.56
346.625	403.56
346.853	381.56
347.08	403.56
347.308	403.56
347.535	422.56
347.763	423.56
347.99	395.56
348.218	406.56
348.445	421.56
348.673	417.56
348.9	396.56
349.128	386.56
349.355	387.56
349.583	391.56
349.81	370.56
350.037	386.56
350.265	391.56
350.492	385.56
350.72	394.56
350.947	379.56
351.174	406.56
351.402	427.56
351.629	417.56
351.856	426.56
352.083	417.56
352.311	425.56
352.538	436.56
352.765	433.56
352.992	408.56
353.22	415.56
353.447	396.56
353.674	415.56
353.901	401.56
354.128	396.56
354.355	368.56
354.583	364.56
354.81	351.56
355.037	350.56
355.264	376.56
355.491	379.56
355.718	369.56
355.945	356.56
356.172	373.56
356.399	360.56
356.626	355.56
356.853	362.56
357.08	367.56
357.307	359.56
357.534	350.56
357.761	356.56
357.988	376.56
358.215	373.56
358.441	364.56
358.668	391.56
358.895	387.56
359.122	387.56
359.349	398.56
359.576	410.56
359.802	435.56
360.029	470.56
360.256	472.56
360.483	443.56
360.709	411.56
360.936	409.56
361.163	416.56
361.39	420.56
361.616	417.56
361.843	395.56
362.07	400.56
362.296	416.56
362.523	396.56
362.749	394.56
362.976	397.56
363.203	388.56
363.429	373.56
363.656	403.56
363.882	387.56
364.109	379.56
364.335	364.56
364.562	380.56
364.788	376.56
365.015	380.56
365.241	385.56
365.468	367.56
365.694	381.56
365.92	393.56
366.147	358.56
366.373	375.56
366.599	374.56
366.826	393.56
367.052	371.56
367.278	372.56
367.505	374.56
367.731	354.56
367.957	381.56
368.184	389.56
368.41	379.56
368.636	367.56
368.862	393.56
369.089	417.56
369.315	393.56
369.541	377.56
369.767	379.56
369.993	385.56
370.219	385.56
370.445	374.56
370.672	360.56
370.898	371.56
371.124	369.56
371.35	362.56
371.576	353.56
371.802	373.56
372.028	357.56
372.254	345.56
372.48	349.56
372.706	360.56
372.932	358.56
373.158	361.56
373.384	387.56
373.61	367.56
373.835	371.56
374.061	346.56
374.287	364.56
374.513	367.56
374.739	371.56
374.965	368.56
375.191	352.56
375.416	358.56
375.642	345.56
375.868	364.56
376.094	367.56
376.319	355.56
376.545	344.56
376.771	355.56
376.997	360.56
377.222	345.56
377.448	355.56
377.674	360.56
377.899	347.56
378.125	372.56
378.35	327.56
378.576	354.56
378.802	341.56
379.027	359.56
379.253	367.56
379.478	359.56
379.704	372.56
379.929	377.56
380.155	363.56
380.38	367.56
380.606	352.56
380.831	353.56
381.057	347.56
381.282	364.56
381.507	355.56
381.733	351.56
381.958	371.56
382.184	365.56
382.409	361.56
382.634	356.56
382.86	364.56
383.085	365.56
383.31	369.56
383.535	373.56
383.761	375.56
383.986	342.56
384.211	381.56
384.436	369.56
384.662	386.56
384.887	379.56
385.112	370.56
385.337	376.56
385.562	403.56
385.787	379.56
386.013	391.56
386.238	379.56
386.463	412.56
386.688	372.56
386.913	365.56
387.138	378.56
387.363	371.56
387.588	375.56
387.813	387.56
388.038	378.56
388.263	362.56
388.488	398.56
388.713	361.56
388.938	390.56
389.163	385.56
389.387	382.56
389.612	377.56
389.837	399.56
390.062	395.56
390.287	376.56
390.512	383.56
390.736	385.56
390.961	395.56
391.186	377.56
391.411	370.56
391.636	385.56
391.86	387.56
392.085	381.56
392.31	394.56
392.534	390.56
392.759	402.56
392.984	392.56
393.208	375.56
393.433	389.56
393.658	368.56
393.882	383.56
394.107	372.56
394.331	377.56
394.556	367.56
394.78	373.56
395.005	382.56
395.229	367.56
395.454	385.56
395.678	404.56
395.903	423.56
396.127	438.56
396.352	449.56
396.576	398.56
396.801	402.56
397.025	398.56
397.249	377.56
397.474	423.56
397.698	423.56
397.922	417.56
398.147	403.56
398.371	429.56
398.595	425.56
398.82	408.56
399.044	419.56
399.268	442.56
399.492	465.56
399.717	473.56
399.941	483.56
400.165	521.56
400.389	534.56
400.613	532.56
400.837	469.56
401.062	443.56
401.286	440.56
401.51	432.56
401.734	432.56
401.958	425.56
402.182	435.56
402.406	431.56
402.63	456.56
402.854	443.56
403.078	451.56
403.302	460.56
403.526	461.56
403.75	474.56
403.974	462.56
404.198	447.56
404.422	447.56
404.645	482.56
404.869	467.56
405.093	503.56
405.317	535.56
405.541	555.56
405.765	529.56
405.988	485.56
406.212	496.56
406.436	519.56
406.66	524.56
406.883	515.56
407.107	513.56
407.331	576.56
407.555	635.56
407.778	623.56
408.002	557.56
408.226	529.56
408.449	498.56
408.673	502.56
408.896	543.56
409.12	577.56
409.344	547.56
409.567	483.56
409.791	475.56
410.014	468.56
410.238	456.56
410.461	472.56
410.685	458.56
410.908	488.56
411.132	529.56
411.355	559.56
411.578	522.56
411.802	480.56
412.025	457.56
412.249	475.56
412.472	511.56
412.695	541.56
412.919	523.56
413.142	468.56
413.365	458.56
413.589	439.56
413.812	454.56
414.035	448.56
414.258	424.56
414.482	423.56
414.705	416.56
414.928	428.56
415.151	431.56
415.374	419.56
415.597	433.56
415.821	436.56
416.044	417.56
416.267	447.56
416.49	428.56
416.713	436.56
416.936	449.56
417.159	425.56
417.382	452.56
417.605	452.56
417.828	451.56
418.051	491.56
418.274	459.56
418.497	455.56
418.72	447.56
418.943	424.56
419.166	437.56
419.389	478.56
419.611	465.56
419.834	454.56
420.057	484.56
420.28	456.56
420.503	466.56
420.726	465.56
420.948	476.56
421.171	501.56
421.394	545.56
421.617	487.56
421.839	466.56
422.062	488.56
422.285	492.56
422.507	545.56
422.73	612.56
422.953	616.56
423.175	538.56
423.398	484.56
423.621	488.56
423.843	496.56
424.066	499.56
424.288	522.56
424.511	530.56
424.733	580.56
424.956	677.56
425.178	625.56
425.401	626.56
425.623	633.56
425.846	575.56
426.068	533.56
426.291	527.56
426.513	511.56
426.735	539.56
426.958	554.56
427.18	683.56
427.402	767.56
427.625	858.56
427.847	782.56
428.069	675.56
428.292	589.56
428.514	516.56
428.736	499.56
428.958	499.56
429.181	457.56
429.403	473.56
429.625	494.56
429.847	525.56
430.069	610.56
430.292	594.56
430.514	519.56
430.736	488.56
430.958	473.56
431.18	445.56
431.402	458.56
431.624	431.56
431.846	435.56
432.068	437.56
432.29	436.56
432.512	453.56
432.734	473.56
432.956	457.56
433.178	474.56
433.4	486.56
433.622	434.56
433.844	443.56
434.066	444.56
434.287	445.56
434.509	453.56
434.731	447.56
434.953	471.56
435.175	477.56
435.397	509.56
435.618	517.56
435.84	556.56
436.062	664.56
436.284	712.56
436.505	601.56
436.727	559.56
436.949	504.56
437.17	492.56
437.392	479.56
437.614	489.56
437.835	544.56
438.057	676.56
438.278	739.56
438.5	736.56
438.721	802.56
438.943	769.56
439.165	611.56
439.386	550.56
439.608	557.56
439.829	537.56
440.05	573.56
440.272	621.56
440.493	588.56
440.715	529.56
440.936	503.56
441.158	483.56
441.379	465.56
441.6	475.56
441.822	516.56
442.043	571.56
442.264	631.56
442.486	685.56
442.707	604.56
442.928	567.56
443.149	546.56
443.371	581.56
443.592	610.56
443.813	671.56
444.034	748.56
444.255	635.56
444.476	539.56
444.698	527.56
444.919	509.56
445.14	575.56
445.361	605.56
445.582	557.56
445.803	651.56
446.024	767.56
446.245	749.56
446.466	689.56
446.687	580.56
446.908	530.56
447.129	507.56
447.35	501.56
447.571	492.56
447.792	495.56
448.013	495.56
448.234	529.56
448.455	574.56
448.675	683.56
448.896	801.56
449.117	660.56
449.338	631.56
449.559	751.56
449.779	835.56
450	644.56
450.221	559.56
450.442	517.56
450.662	503.56
450.883	507.56
451.104	520.56
451.324	530.56
451.545	474.56
451.766	453.56
451.986	458.56
452.207	419.56
452.428	449.56
452.648	434.56
452.869	426.56
453.089	432.56
453.31	459.56
453.53	457.56
453.751	427.56
453.971	457.56
454.192	480.56
454.412	465.56
454.633	441.56
454.853	446.56
455.073	435.56
455.294	483.56
455.514	540.56
455.734	540.56
455.955	449.56
456.175	415.56
456.395	409.56
456.616	379.56
456.836	404.56
457.056	390.56
457.276	422.56
457.497	402.56
457.717	396.56
457.937	418.56
458.157	408.56
458.377	404.56
458.598	443.56
458.818	521.56
459.038	599.56
459.258	612.56
459.478	517.56
459.698	457.56
459.918	425.56
460.138	449.56
460.358	443.56
460.578	437.56
460.798	442.56
461.018	445.56
461.238	442.56
461.458	439.56
461.678	418.56
461.898	433.56
462.118	426.56
462.338	455.56
462.558	437.56
462.777	433.56
462.997	446.56
463.217	461.56
463.437	456.56
463.657	457.56
463.876	451.56
464.096	463.56
464.316	456.56
464.536	469.56
464.755	463.56
464.975	476.56
465.195	554.56
465.414	631.56
465.634	561.56
465.854	499.56
466.073	478.56
466.293	462.56
466.512	452.56
466.732	417.56
466.951	433.56
467.171	417.56
467.391	442.56
467.61	461.56
467.829	488.56
468.049	456.56
468.268	449.56
468.488	437.56
468.707	420.56
468.927	410.56
469.146	443.56
469.365	414.56
469.585	419.56
469.804	422.56
470.023	444.56
470.243	420.56
470.462	464.56
470.681	463.56
470.901	481.56
471.12	445.56
471.339	467.56
471.558	441.56
471.777	444.56
471.997	456.56
472.216	446.56
472.435	495.56
472.654	445.56
472.873	451.56
473.092	432.56
473.311	447.56
473.53	451.56
473.749	473.56
473.968	507.56
474.187	656.56
474.406	648.56
474.625	500.56
474.844	477.56
475.063	460.56
475.282	446.56
475.501	468.56
475.72	449.56
475.939	443.56
476.158	443.56
476.377	458.56
476.596	454.56
476.814	447.56
477.033	475.56
477.252	459.56
477.471	468.56
477.69	477.56
477.908	488.56
478.127	476.56
478.346	484.56
478.564	489.56
478.783	460.56
479.002	490.56
479.22	504.56
479.439	523.56
479.658	555.56
479.876	536.56
480.095	531.56
480.313	585.56
480.532	551.56
480.751	560.56
480.969	551.56
481.188	633.56
481.406	695.56
481.624	615.56
481.843	559.56
482.061	549.56
482.28	549.56
482.498	522.56
482.717	521.56
482.935	531.56
483.153	546.56
483.372	525.56
483.59	525.56
483.808	517.56
484.027	523.56
484.245	512.56
484.463	521.56
484.681	522.56
484.9	523.56
485.118	516.56
485.336	539.56
485.554	543.56
485.772	527.56
485.99	545.56
486.209	551.56
486.427	566.56
486.645	575.56
486.863	585.56
487.081	568.56
487.299	576.56
487.517	569.56
487.735	581.56
487.953	579.56
488.171	585.56
488.389	566.56
488.607	579.56
488.825	588.56
489.043	569.56
489.261	615.56
489.479	577.56
489.696	590.56
489.914	568.56
490.132	587.56
490.35	592.56
490.568	605.56
490.786	612.56
491.003	604.56
491.221	625.56
491.439	642.56
491.657	644.56
491.874	684.56
492.092	667.56
492.31	666.56
492.527	652.56
492.745	651.56
492.963	660.56
493.18	694.56
493.398	668.56
493.615	673.56
493.833	689.56
494.05	678.56
494.268	672.56
494.485	675.56
494.703	690.56
494.92	689.56
495.138	693.56
495.355	680.56
495.573	692.56
495.79	690.56
496.008	679.56
496.225	668.56
496.442	668.56
496.66	682.56
496.877	687.56
497.094	699.56
497.312	702.56
497.529	688.56
497.746	675.56
497.963	701.56
498.181	718.56
498.398	719.56
498.615	747.56
498.832	752.56
499.049	737.56
499.267	717.56
499.484	750.56
499.701	757.56
499.918	776.56
500.135	811.56
500.352	788.56
500.569	839.56
500.786	829.56
501.003	846.56
501.22	821.56
501.437	817.56
501.654	824.56
501.871	828.56
