Data from 1980.PennyLincolnUp.Lamp.En5.5.200Scan.071819.P1_HRD10591_16-38-15-957.txt Node
Date: Thu Jul 18 16:38:15 EDT 2019
User: cochatt
Spectrometer: HR+D1059
Trigger mode: 1
Integration Time (sec): 1.000000E-1
Scans to average: 1
Electric dark correction enabled: true
Nonlinearity correction enabled: false
Boxcar width: 0
XAxis mode: Wavelengths
Number of Pixels in Spectrum: 2048
>>>>>Begin Spectral Data<<<<<
223.165	0.38
223.4	0.38
223.635	0.38
223.869	-11.62
224.104	-13.62
224.338	-24.62
224.573	-30.62
224.808	-11.62
225.042	-17.62
225.277	-6.62
225.511	-2.62
225.746	-1.62
225.98	-8.62
226.215	24.38
226.449	23.38
226.683	27.38
226.918	30.38
227.152	23.38
227.387	36.38
227.621	35.38
227.856	33.38
228.09	52.38
228.324	54.38
228.559	54.38
228.793	66.38
229.027	106.38
229.262	115.38
229.496	122.38
229.73	148.38
229.964	167.38
230.199	139.38
230.433	117.38
230.667	120.38
230.901	126.38
231.136	118.38
231.37	121.38
231.604	109.38
231.838	114.38
232.072	131.38
232.306	114.38
232.541	116.38
232.775	118.38
233.009	110.38
233.243	106.38
233.477	109.38
233.711	103.38
233.945	112.38
234.179	125.38
234.413	122.38
234.647	123.38
234.881	130.38
235.115	113.38
235.349	123.38
235.583	119.38
235.817	124.38
236.051	133.38
236.285	126.38
236.519	128.38
236.753	140.38
236.987	166.38
237.221	199.38
237.455	271.38
237.689	211.38
237.922	145.38
238.156	142.38
238.39	131.38
238.624	121.38
238.858	118.38
239.091	137.38
239.325	125.38
239.559	142.38
239.793	135.38
240.027	137.38
240.26	158.38
240.494	157.38
240.728	159.38
240.961	154.38
241.195	162.38
241.429	148.38
241.662	145.38
241.896	129.38
242.13	125.38
242.363	145.38
242.597	142.38
242.83	152.38
243.064	151.38
243.298	147.38
243.531	146.38
243.765	141.38
243.998	140.38
244.232	135.38
244.465	149.38
244.699	134.38
244.932	138.38
245.166	146.38
245.399	139.38
245.633	160.38
245.866	135.38
246.099	150.38
246.333	145.38
246.566	153.38
246.8	142.38
247.033	149.38
247.266	141.38
247.5	162.38
247.733	167.38
247.966	183.38
248.2	175.38
248.433	177.38
248.666	174.38
248.899	187.38
249.133	211.38
249.366	225.38
249.599	207.38
249.832	197.38
250.066	204.38
250.299	190.38
250.532	190.38
250.765	204.38
250.998	246.38
251.231	245.38
251.465	229.38
251.698	211.38
251.931	198.38
252.164	200.38
252.397	196.38
252.63	198.38
252.863	186.38
253.096	233.38
253.329	243.38
253.562	257.38
253.795	213.38
254.028	231.38
254.261	218.38
254.494	232.38
254.727	261.38
254.96	299.38
255.193	296.38
255.426	263.38
255.659	240.38
255.892	247.38
256.124	263.38
256.357	267.38
256.59	243.38
256.823	216.38
257.056	225.38
257.289	234.38
257.521	234.38
257.754	216.38
257.987	223.38
258.22	216.38
258.452	208.38
258.685	226.38
258.918	212.38
259.151	212.38
259.383	220.38
259.616	218.38
259.849	246.38
260.081	251.38
260.314	266.38
260.547	257.38
260.779	263.38
261.012	254.38
261.244	226.38
261.477	237.38
261.71	234.38
261.942	248.38
262.175	241.38
262.407	242.38
262.64	229.38
262.872	223.38
263.105	215.38
263.337	218.38
263.57	222.38
263.802	222.38
264.035	214.38
264.267	209.38
264.499	207.38
264.732	215.38
264.964	226.38
265.197	219.38
265.429	213.38
265.661	223.38
265.894	216.38
266.126	228.38
266.358	212.38
266.591	216.38
266.823	230.38
267.055	238.38
267.287	227.38
267.52	207.38
267.752	230.38
267.984	211.38
268.216	233.38
268.448	232.38
268.681	246.38
268.913	252.38
269.145	289.38
269.377	285.38
269.609	279.38
269.841	282.38
270.073	290.38
270.306	300.38
270.538	324.38
270.77	314.38
271.002	319.38
271.234	317.38
271.466	317.38
271.698	341.38
271.93	332.38
272.162	362.38
272.394	336.38
272.626	303.38
272.858	311.38
273.09	275.38
273.322	298.38
273.553	265.38
273.785	275.38
274.017	260.38
274.249	275.38
274.481	261.38
274.713	248.38
274.945	275.38
275.176	278.38
275.408	259.38
275.64	264.38
275.872	252.38
276.104	261.38
276.335	257.38
276.567	271.38
276.799	302.38
277.031	305.38
277.262	319.38
277.494	339.38
277.726	317.38
277.957	282.38
278.189	285.38
278.421	275.38
278.652	265.38
278.884	268.38
279.115	270.38
279.347	266.38
279.579	255.38
279.81	249.38
280.042	257.38
280.273	275.38
280.505	270.38
280.736	273.38
280.968	259.38
281.199	262.38
281.431	278.38
281.662	275.38
281.894	267.38
282.125	276.38
282.356	283.38
282.588	310.38
282.819	323.38
283.051	291.38
283.282	262.38
283.513	266.38
283.745	274.38
283.976	291.38
284.207	259.38
284.439	261.38
284.67	278.38
284.901	279.38
285.132	290.38
285.364	273.38
285.595	271.38
285.826	273.38
286.057	271.38
286.288	264.38
286.52	266.38
286.751	270.38
286.982	300.38
287.213	281.38
287.444	283.38
287.675	264.38
287.906	302.38
288.138	279.38
288.369	284.38
288.6	281.38
288.831	300.38
289.062	286.38
289.293	283.38
289.524	266.38
289.755	286.38
289.986	258.38
290.217	277.38
290.448	277.38
290.679	264.38
290.91	286.38
291.141	265.38
291.371	278.38
291.602	277.38
291.833	269.38
292.064	264.38
292.295	276.38
292.526	269.38
292.757	282.38
292.987	267.38
293.218	263.38
293.449	271.38
293.68	286.38
293.91	296.38
294.141	294.38
294.372	264.38
294.603	270.38
294.833	283.38
295.064	264.38
295.295	262.38
295.525	285.38
295.756	283.38
295.987	291.38
296.217	310.38
296.448	331.38
296.679	295.38
296.909	279.38
297.14	277.38
297.37	291.38
297.601	278.38
297.831	269.38
298.062	292.38
298.292	283.38
298.523	286.38
298.753	276.38
298.984	292.38
299.214	286.38
299.445	297.38
299.675	268.38
299.905	294.38
300.136	286.38
300.366	272.38
300.597	275.38
300.827	309.38
301.057	306.38
301.288	310.38
301.518	319.38
301.748	301.38
301.979	312.38
302.209	309.38
302.439	307.38
302.669	297.38
302.9	317.38
303.13	316.38
303.36	296.38
303.59	294.38
303.82	316.38
304.051	327.38
304.281	327.38
304.511	288.38
304.741	301.38
304.971	292.38
305.201	300.38
305.431	304.38
305.661	317.38
305.891	297.38
306.121	306.38
306.352	305.38
306.582	314.38
306.812	303.38
307.042	309.38
307.272	322.38
307.502	306.38
307.731	307.38
307.961	316.38
308.191	305.38
308.421	300.38
308.651	323.38
308.881	335.38
309.111	316.38
309.341	341.38
309.571	323.38
309.8	348.38
310.03	357.38
310.26	369.38
310.49	368.38
310.72	379.38
310.949	398.38
311.179	408.38
311.409	385.38
311.639	375.38
311.868	392.38
312.098	361.38
312.328	385.38
312.557	402.38
312.787	413.38
313.017	405.38
313.246	376.38
313.476	385.38
313.706	365.38
313.935	351.38
314.165	380.38
314.394	387.38
314.624	375.38
314.853	370.38
315.083	371.38
315.312	355.38
315.542	365.38
315.771	343.38
316.001	373.38
316.23	364.38
316.46	350.38
316.689	371.38
316.919	369.38
317.148	382.38
317.377	385.38
317.607	393.38
317.836	366.38
318.065	371.38
318.295	359.38
318.524	362.38
318.753	367.38
318.983	379.38
319.212	361.38
319.441	356.38
319.67	380.38
319.9	355.38
320.129	345.38
320.358	363.38
320.587	393.38
320.816	379.38
321.046	380.38
321.275	394.38
321.504	378.38
321.733	414.38
321.962	386.38
322.191	408.38
322.42	429.38
322.649	441.38
322.878	440.38
323.108	486.38
323.337	505.38
323.566	533.38
323.795	567.38
324.024	631.38
324.253	765.38
324.482	1128.38
324.71	1707.38
324.939	2477.38
325.168	2190.38
325.397	1147.38
325.626	762.38
325.855	597.38
326.084	551.38
326.313	528.38
326.542	532.38
326.77	594.38
326.999	687.38
327.228	999.38
327.457	1529.38
327.686	1876.38
327.914	1299.38
328.143	825.38
328.372	703.38
328.6	641.38
328.829	596.38
329.058	647.38
329.287	629.38
329.515	583.38
329.744	539.38
329.972	535.38
330.201	571.38
330.43	597.38
330.658	659.38
330.887	668.38
331.115	653.38
331.344	542.38
331.572	493.38
331.801	501.38
332.03	499.38
332.258	486.38
332.486	445.38
332.715	446.38
332.943	445.38
333.172	446.38
333.4	453.38
333.629	442.38
333.857	458.38
334.085	481.38
334.314	470.38
334.542	526.38
334.771	549.38
334.999	485.38
335.227	458.38
335.455	420.38
335.684	437.38
335.912	421.38
336.14	424.38
336.369	408.38
336.597	436.38
336.825	417.38
337.053	425.38
337.281	405.38
337.51	422.38
337.738	418.38
337.966	413.38
338.194	409.38
338.422	404.38
338.65	403.38
338.878	401.38
339.106	382.38
339.334	399.38
339.562	394.38
339.79	397.38
340.018	395.38
340.246	399.38
340.474	429.38
340.702	409.38
340.93	398.38
341.158	401.38
341.386	413.38
341.614	412.38
341.842	419.38
342.07	406.38
342.298	419.38
342.526	388.38
342.754	379.38
342.981	388.38
343.209	365.38
343.437	374.38
343.665	371.38
343.893	401.38
344.12	397.38
344.348	396.38
344.576	420.38
344.804	409.38
345.031	417.38
345.259	427.38
345.487	406.38
345.714	417.38
345.942	413.38
346.17	403.38
346.397	401.38
346.625	394.38
346.853	385.38
347.08	416.38
347.308	395.38
347.535	391.38
347.763	420.38
347.99	395.38
348.218	423.38
348.445	414.38
348.673	422.38
348.9	417.38
349.128	385.38
349.355	398.38
349.583	382.38
349.81	387.38
350.037	366.38
350.265	381.38
350.492	368.38
350.72	398.38
350.947	400.38
351.174	425.38
351.402	411.38
351.629	411.38
351.856	407.38
352.083	423.38
352.311	421.38
352.538	423.38
352.765	427.38
352.992	425.38
353.22	415.38
353.447	400.38
353.674	391.38
353.901	383.38
354.128	362.38
354.355	369.38
354.583	364.38
354.81	365.38
355.037	358.38
355.264	358.38
355.491	360.38
355.718	361.38
355.945	343.38
356.172	369.38
356.399	356.38
356.626	339.38
356.853	354.38
357.08	345.38
357.307	350.38
357.534	380.38
357.761	356.38
357.988	366.38
358.215	348.38
358.441	359.38
358.668	357.38
358.895	358.38
359.122	387.38
359.349	401.38
359.576	399.38
359.802	440.38
360.029	458.38
360.256	481.38
360.483	466.38
360.709	414.38
360.936	383.38
361.163	415.38
361.39	396.38
361.616	395.38
361.843	395.38
362.07	380.38
362.296	387.38
362.523	401.38
362.749	405.38
362.976	384.38
363.203	387.38
363.429	377.38
363.656	383.38
363.882	383.38
364.109	386.38
364.335	366.38
364.562	373.38
364.788	359.38
365.015	381.38
365.241	374.38
365.468	393.38
365.694	383.38
365.92	395.38
366.147	377.38
366.373	366.38
366.599	359.38
366.826	359.38
367.052	355.38
367.278	377.38
367.505	352.38
367.731	372.38
367.957	366.38
368.184	379.38
368.41	397.38
368.636	386.38
368.862	386.38
369.089	354.38
369.315	374.38
369.541	377.38
369.767	359.38
369.993	375.38
370.219	377.38
370.445	369.38
370.672	370.38
370.898	373.38
371.124	360.38
371.35	376.38
371.576	375.38
371.802	369.38
372.028	354.38
372.254	355.38
372.48	352.38
372.706	356.38
372.932	360.38
373.158	375.38
373.384	383.38
373.61	378.38
373.835	385.38
374.061	348.38
374.287	354.38
374.513	358.38
374.739	382.38
374.965	375.38
375.191	373.38
375.416	371.38
375.642	365.38
375.868	369.38
376.094	353.38
376.319	375.38
376.545	362.38
376.771	337.38
376.997	363.38
377.222	369.38
377.448	364.38
377.674	353.38
377.899	366.38
378.125	354.38
378.35	363.38
378.576	358.38
378.802	353.38
379.027	357.38
379.253	364.38
379.478	359.38
379.704	351.38
379.929	358.38
380.155	389.38
380.38	354.38
380.606	374.38
380.831	362.38
381.057	381.38
381.282	365.38
381.507	361.38
381.733	362.38
381.958	375.38
382.184	361.38
382.409	369.38
382.634	380.38
382.86	373.38
383.085	371.38
383.31	358.38
383.535	361.38
383.761	378.38
383.986	378.38
384.211	377.38
384.436	375.38
384.662	377.38
384.887	382.38
385.112	394.38
385.337	376.38
385.562	389.38
385.787	380.38
386.013	375.38
386.238	382.38
386.463	387.38
386.688	376.38
386.913	382.38
387.138	378.38
387.363	375.38
387.588	343.38
387.813	385.38
388.038	374.38
388.263	377.38
388.488	379.38
388.713	385.38
388.938	387.38
389.163	376.38
389.387	381.38
389.612	380.38
389.837	375.38
390.062	379.38
390.287	396.38
390.512	373.38
390.736	371.38
390.961	373.38
391.186	394.38
391.411	389.38
391.636	375.38
391.86	381.38
392.085	385.38
392.31	364.38
392.534	379.38
392.759	395.38
392.984	391.38
393.208	389.38
393.433	379.38
393.658	391.38
393.882	383.38
394.107	383.38
394.331	397.38
394.556	379.38
394.78	379.38
395.005	377.38
395.229	378.38
395.454	396.38
395.678	396.38
395.903	418.38
396.127	444.38
396.352	419.38
396.576	417.38
396.801	404.38
397.025	405.38
397.249	392.38
397.474	427.38
397.698	394.38
397.922	416.38
398.147	438.38
398.371	443.38
398.595	432.38
398.82	427.38
399.044	421.38
399.268	435.38
399.492	449.38
399.717	462.38
399.941	476.38
400.165	517.38
400.389	544.38
400.613	509.38
400.837	423.38
401.062	449.38
401.286	442.38
401.51	469.38
401.734	448.38
401.958	442.38
402.182	437.38
402.406	446.38
402.63	454.38
402.854	455.38
403.078	445.38
403.302	467.38
403.526	433.38
403.75	445.38
403.974	468.38
404.198	470.38
404.422	451.38
404.645	462.38
404.869	473.38
405.093	487.38
405.317	546.38
405.541	561.38
405.765	515.38
405.988	488.38
406.212	503.38
406.436	500.38
406.66	547.38
406.883	509.38
407.107	506.38
407.331	551.38
407.555	627.38
407.778	629.38
408.002	581.38
408.226	505.38
408.449	506.38
408.673	512.38
408.896	530.38
409.12	571.38
409.344	545.38
409.567	482.38
409.791	441.38
410.014	462.38
410.238	448.38
410.461	470.38
410.685	472.38
410.908	491.38
411.132	505.38
411.355	553.38
411.578	542.38
411.802	487.38
412.025	459.38
412.249	463.38
412.472	483.38
412.695	560.38
412.919	538.38
413.142	497.38
413.365	455.38
413.589	454.38
413.812	426.38
414.035	427.38
414.258	429.38
414.482	445.38
414.705	436.38
414.928	417.38
415.151	429.38
415.374	440.38
415.597	421.38
415.821	430.38
416.044	467.38
416.267	453.38
416.49	437.38
416.713	407.38
416.936	437.38
417.159	430.38
417.382	449.38
417.605	447.38
417.828	470.38
418.051	474.38
418.274	473.38
418.497	449.38
418.72	466.38
418.943	431.38
419.166	471.38
419.389	469.38
419.611	475.38
419.834	451.38
420.057	473.38
420.28	459.38
420.503	480.38
420.726	469.38
420.948	469.38
421.171	533.38
421.394	527.38
421.617	504.38
421.839	447.38
422.062	464.38
422.285	484.38
422.507	520.38
422.73	604.38
422.953	593.38
423.175	533.38
423.398	505.38
423.621	474.38
423.843	497.38
424.066	522.38
424.288	500.38
424.511	521.38
424.733	601.38
424.956	670.38
425.178	651.38
425.401	619.38
425.623	646.38
425.846	560.38
426.068	529.38
426.291	507.38
426.513	519.38
426.735	533.38
426.958	592.38
427.18	652.38
427.402	786.38
427.625	869.38
427.847	783.38
428.069	681.38
428.292	595.38
428.514	538.38
428.736	534.38
428.958	479.38
429.181	494.38
429.403	473.38
429.625	484.38
429.847	525.38
430.069	573.38
430.292	568.38
430.514	492.38
430.736	458.38
430.958	471.38
431.18	486.38
431.402	451.38
431.624	414.38
431.846	439.38
432.068	441.38
432.29	445.38
432.512	452.38
432.734	447.38
432.956	444.38
433.178	468.38
433.4	476.38
433.622	454.38
433.844	455.38
434.066	415.38
434.287	441.38
434.509	432.38
434.731	442.38
434.953	451.38
435.175	483.38
435.397	479.38
435.618	519.38
435.84	575.38
436.062	646.38
436.284	729.38
436.505	622.38
436.727	535.38
436.949	481.38
437.17	477.38
437.392	484.38
437.614	514.38
437.835	558.38
438.057	639.38
438.278	760.38
438.5	732.38
438.721	812.38
438.943	788.38
439.165	611.38
439.386	551.38
439.608	550.38
439.829	531.38
440.05	587.38
440.272	638.38
440.493	585.38
440.715	523.38
440.936	509.38
441.158	493.38
441.379	490.38
441.6	531.38
441.822	533.38
442.043	547.38
442.264	649.38
442.486	692.38
442.707	581.38
442.928	541.38
443.149	543.38
443.371	571.38
443.592	605.38
443.813	682.38
444.034	787.38
444.255	639.38
444.476	561.38
444.698	517.38
444.919	509.38
445.14	607.38
445.361	556.38
445.582	565.38
445.803	639.38
446.024	742.38
446.245	753.38
446.466	683.38
446.687	570.38
446.908	514.38
447.129	509.38
447.35	492.38
447.571	495.38
447.792	482.38
448.013	491.38
448.234	530.38
448.455	574.38
448.675	671.38
448.896	761.38
449.117	661.38
449.338	663.38
449.559	735.38
449.779	806.38
450	654.38
450.221	570.38
450.442	536.38
450.662	492.38
450.883	485.38
451.104	506.38
451.324	515.38
451.545	492.38
451.766	469.38
451.986	435.38
452.207	433.38
452.428	438.38
452.648	433.38
452.869	430.38
453.089	458.38
453.31	475.38
453.53	435.38
453.751	446.38
453.971	444.38
454.192	473.38
454.412	443.38
454.633	448.38
454.853	419.38
455.073	451.38
455.294	475.38
455.514	535.38
455.734	518.38
455.955	450.38
456.175	417.38
456.395	389.38
456.616	422.38
456.836	403.38
457.056	388.38
457.276	388.38
457.497	408.38
457.717	391.38
457.937	410.38
458.157	422.38
458.377	421.38
458.598	445.38
458.818	494.38
459.038	622.38
459.258	610.38
459.478	517.38
459.698	457.38
459.918	442.38
460.138	441.38
460.358	437.38
460.578	422.38
460.798	451.38
461.018	425.38
461.238	446.38
461.458	420.38
461.678	425.38
461.898	418.38
462.118	429.38
462.338	432.38
462.558	461.38
462.777	435.38
462.997	462.38
463.217	443.38
463.437	451.38
463.657	447.38
463.876	437.38
464.096	444.38
464.316	452.38
464.536	457.38
464.755	460.38
464.975	502.38
465.195	540.38
465.414	629.38
465.634	571.38
465.854	505.38
466.073	483.38
466.293	451.38
466.512	450.38
466.732	437.38
466.951	421.38
467.171	422.38
467.391	436.38
467.61	443.38
467.829	449.38
468.049	441.38
468.268	454.38
468.488	433.38
468.707	438.38
468.927	440.38
469.146	425.38
469.365	430.38
469.585	411.38
469.804	429.38
470.023	453.38
470.243	427.38
470.462	462.38
470.681	478.38
470.901	474.38
471.12	446.38
471.339	431.38
471.558	441.38
471.777	441.38
471.997	421.38
472.216	473.38
472.435	484.38
472.654	479.38
472.873	454.38
473.092	440.38
473.311	470.38
473.53	449.38
473.749	452.38
473.968	514.38
474.187	620.38
474.406	657.38
474.625	507.38
474.844	463.38
475.063	436.38
475.282	435.38
475.501	427.38
475.72	453.38
475.939	452.38
476.158	449.38
476.377	449.38
476.596	444.38
476.814	446.38
477.033	494.38
477.252	481.38
477.471	462.38
477.69	460.38
477.908	463.38
478.127	489.38
478.346	476.38
478.564	479.38
478.783	461.38
479.002	493.38
479.22	504.38
479.439	502.38
479.658	523.38
479.876	540.38
480.095	541.38
480.313	587.38
480.532	563.38
480.751	526.38
480.969	550.38
481.188	635.38
481.406	688.38
481.624	605.38
481.843	564.38
482.061	534.38
482.28	523.38
482.498	512.38
482.717	492.38
482.935	525.38
483.153	527.38
483.372	528.38
483.59	510.38
483.808	524.38
484.027	529.38
484.245	536.38
484.463	510.38
484.681	511.38
484.9	531.38
485.118	516.38
485.336	541.38
485.554	537.38
485.772	524.38
485.99	554.38
486.209	542.38
486.427	556.38
486.645	561.38
486.863	598.38
487.081	578.38
487.299	574.38
487.517	576.38
487.735	587.38
487.953	562.38
488.171	574.38
488.389	567.38
488.607	556.38
488.825	570.38
489.043	583.38
489.261	577.38
489.479	577.38
489.696	577.38
489.914	574.38
490.132	575.38
490.35	610.38
490.568	588.38
490.786	600.38
491.003	615.38
491.221	629.38
491.439	652.38
491.657	653.38
491.874	647.38
492.092	637.38
492.31	681.38
492.527	674.38
492.745	669.38
492.963	671.38
493.18	674.38
493.398	672.38
493.615	711.38
493.833	696.38
494.05	673.38
494.268	693.38
494.485	674.38
494.703	683.38
494.92	692.38
495.138	675.38
495.355	692.38
495.573	704.38
495.79	692.38
496.008	685.38
496.225	670.38
496.442	678.38
496.66	675.38
496.877	678.38
497.094	685.38
497.312	689.38
497.529	695.38
497.746	672.38
497.963	720.38
498.181	717.38
498.398	719.38
498.615	726.38
498.832	731.38
499.049	748.38
499.267	724.38
499.484	744.38
499.701	756.38
499.918	780.38
500.135	805.38
500.352	823.38
500.569	835.38
500.786	795.38
501.003	850.38
501.22	814.38
501.437	806.38
501.654	786.38
501.871	812.38
