Data from 1980.PennyLincolnUp.Lamp.En5.5.200Scan.071819.P1_HRD10591_16-37-22-957.txt Node
Date: Thu Jul 18 16:37:22 EDT 2019
User: cochatt
Spectrometer: HR+D1059
Trigger mode: 1
Integration Time (sec): 1.000000E-1
Scans to average: 1
Electric dark correction enabled: true
Nonlinearity correction enabled: false
Boxcar width: 0
XAxis mode: Wavelengths
Number of Pixels in Spectrum: 2048
>>>>>Begin Spectral Data<<<<<
223.165	-7.69
223.4	-7.69
223.635	-7.69
223.869	-21.69
224.104	-5.69
224.338	-16.69
224.573	-18.69
224.808	-15.69
225.042	-15.69
225.277	-1.69
225.511	0.31
225.746	0.31
225.98	9.31
226.215	14.31
226.449	10.31
226.683	14.31
226.918	24.31
227.152	30.31
227.387	24.31
227.621	31.31
227.856	40.31
228.09	52.31
228.324	46.31
228.559	50.31
228.793	76.31
229.027	88.31
229.262	109.31
229.496	124.31
229.73	148.31
229.964	178.31
230.199	129.31
230.433	129.31
230.667	128.31
230.901	112.31
231.136	111.31
231.37	107.31
231.604	134.31
231.838	130.31
232.072	100.31
232.306	119.31
232.541	108.31
232.775	114.31
233.009	119.31
233.243	109.31
233.477	112.31
233.711	129.31
233.945	111.31
234.179	119.31
234.413	124.31
234.647	124.31
234.881	136.31
235.115	111.31
235.349	134.31
235.583	132.31
235.817	127.31
236.051	123.31
236.285	146.31
236.519	122.31
236.753	131.31
236.987	154.31
237.221	198.31
237.455	254.31
237.689	208.31
237.922	150.31
238.156	142.31
238.39	135.31
238.624	137.31
238.858	136.31
239.091	125.31
239.325	132.31
239.559	136.31
239.793	127.31
240.027	144.31
240.26	146.31
240.494	163.31
240.728	160.31
240.961	156.31
241.195	144.31
241.429	137.31
241.662	140.31
241.896	132.31
242.13	133.31
242.363	127.31
242.597	127.31
242.83	133.31
243.064	134.31
243.298	135.31
243.531	144.31
243.765	133.31
243.998	141.31
244.232	130.31
244.465	140.31
244.699	137.31
244.932	138.31
245.166	148.31
245.399	144.31
245.633	151.31
245.866	141.31
246.099	154.31
246.333	155.31
246.566	154.31
246.8	142.31
247.033	155.31
247.266	142.31
247.5	168.31
247.733	178.31
247.966	175.31
248.2	181.31
248.433	173.31
248.666	188.31
248.899	191.31
249.133	196.31
249.366	216.31
249.599	192.31
249.832	194.31
250.066	193.31
250.299	182.31
250.532	188.31
250.765	203.31
250.998	236.31
251.231	254.31
251.465	242.31
251.698	234.31
251.931	205.31
252.164	220.31
252.397	216.31
252.63	215.31
252.863	206.31
253.096	212.31
253.329	222.31
253.562	242.31
253.795	228.31
254.028	218.31
254.261	239.31
254.494	246.31
254.727	244.31
254.96	292.31
255.193	289.31
255.426	264.31
255.659	234.31
255.892	246.31
256.124	243.31
256.357	240.31
256.59	215.31
256.823	222.31
257.056	215.31
257.289	226.31
257.521	199.31
257.754	219.31
257.987	226.31
258.22	230.31
258.452	225.31
258.685	208.31
258.918	211.31
259.151	207.31
259.383	233.31
259.616	227.31
259.849	229.31
260.081	236.31
260.314	259.31
260.547	270.31
260.779	267.31
261.012	238.31
261.244	232.31
261.477	223.31
261.71	215.31
261.942	236.31
262.175	232.31
262.407	232.31
262.64	218.31
262.872	207.31
263.105	223.31
263.337	227.31
263.57	210.31
263.802	208.31
264.035	200.31
264.267	213.31
264.499	220.31
264.732	198.31
264.964	216.31
265.197	206.31
265.429	206.31
265.661	210.31
265.894	207.31
266.126	202.31
266.358	208.31
266.591	221.31
266.823	229.31
267.055	231.31
267.287	232.31
267.52	224.31
267.752	216.31
267.984	226.31
268.216	214.31
268.448	226.31
268.681	226.31
268.913	238.31
269.145	272.31
269.377	297.31
269.609	300.31
269.841	273.31
270.073	270.31
270.306	306.31
270.538	312.31
270.77	327.31
271.002	290.31
271.234	296.31
271.466	319.31
271.698	332.31
271.93	315.31
272.162	336.31
272.394	316.31
272.626	309.31
272.858	303.31
273.09	286.31
273.322	273.31
273.553	273.31
273.785	275.31
274.017	262.31
274.249	274.31
274.481	261.31
274.713	265.31
274.945	271.31
275.176	254.31
275.408	274.31
275.64	278.31
275.872	281.31
276.104	259.31
276.335	273.31
276.567	270.31
276.799	271.31
277.031	317.31
277.262	316.31
277.494	328.31
277.726	290.31
277.957	291.31
278.189	275.31
278.421	282.31
278.652	271.31
278.884	260.31
279.115	262.31
279.347	264.31
279.579	251.31
279.81	253.31
280.042	237.31
280.273	257.31
280.505	252.31
280.736	248.31
280.968	263.31
281.199	262.31
281.431	259.31
281.662	262.31
281.894	266.31
282.125	255.31
282.356	292.31
282.588	297.31
282.819	291.31
283.051	263.31
283.282	231.31
283.513	262.31
283.745	258.31
283.976	270.31
284.207	278.31
284.439	274.31
284.67	254.31
284.901	268.31
285.132	262.31
285.364	263.31
285.595	255.31
285.826	269.31
286.057	273.31
286.288	272.31
286.52	265.31
286.751	254.31
286.982	273.31
287.213	275.31
287.444	271.31
287.675	265.31
287.906	271.31
288.138	293.31
288.369	291.31
288.6	293.31
288.831	278.31
289.062	275.31
289.293	260.31
289.524	274.31
289.755	277.31
289.986	260.31
290.217	286.31
290.448	288.31
290.679	271.31
290.91	276.31
291.141	267.31
291.371	266.31
291.602	282.31
291.833	278.31
292.064	288.31
292.295	278.31
292.526	279.31
292.757	260.31
292.987	268.31
293.218	277.31
293.449	285.31
293.68	264.31
293.91	262.31
294.141	285.31
294.372	259.31
294.603	254.31
294.833	270.31
295.064	265.31
295.295	277.31
295.525	279.31
295.756	288.31
295.987	270.31
296.217	310.31
296.448	325.31
296.679	274.31
296.909	266.31
297.14	270.31
297.37	269.31
297.601	280.31
297.831	267.31
298.062	278.31
298.292	285.31
298.523	277.31
298.753	294.31
298.984	287.31
299.214	268.31
299.445	290.31
299.675	282.31
299.905	277.31
300.136	290.31
300.366	304.31
300.597	292.31
300.827	301.31
301.057	297.31
301.288	308.31
301.518	308.31
301.748	313.31
301.979	306.31
302.209	332.31
302.439	312.31
302.669	287.31
302.9	314.31
303.13	287.31
303.36	303.31
303.59	312.31
303.82	325.31
304.051	311.31
304.281	332.31
304.511	287.31
304.741	299.31
304.971	312.31
305.201	308.31
305.431	309.31
305.661	315.31
305.891	288.31
306.121	296.31
306.352	308.31
306.582	319.31
306.812	316.31
307.042	326.31
307.272	291.31
307.502	331.31
307.731	325.31
307.961	297.31
308.191	313.31
308.421	320.31
308.651	322.31
308.881	312.31
309.111	295.31
309.341	326.31
309.571	331.31
309.8	351.31
310.03	344.31
310.26	366.31
310.49	352.31
310.72	385.31
310.949	389.31
311.179	388.31
311.409	388.31
311.639	355.31
311.868	356.31
312.098	367.31
312.328	383.31
312.557	392.31
312.787	386.31
313.017	379.31
313.246	356.31
313.476	362.31
313.706	346.31
313.935	348.31
314.165	353.31
314.394	380.31
314.624	378.31
314.853	367.31
315.083	382.31
315.312	355.31
315.542	336.31
315.771	343.31
316.001	350.31
316.23	361.31
316.46	350.31
316.689	355.31
316.919	364.31
317.148	356.31
317.377	362.31
317.607	375.31
317.836	376.31
318.065	351.31
318.295	351.31
318.524	341.31
318.753	349.31
318.983	363.31
319.212	368.31
319.441	356.31
319.67	386.31
319.9	361.31
320.129	379.31
320.358	372.31
320.587	392.31
320.816	371.31
321.046	388.31
321.275	385.31
321.504	397.31
321.733	393.31
321.962	387.31
322.191	391.31
322.42	424.31
322.649	431.31
322.878	445.31
323.108	458.31
323.337	486.31
323.566	494.31
323.795	553.31
324.024	612.31
324.253	739.31
324.482	1048.31
324.71	1552.31
324.939	2252.31
325.168	2001.31
325.397	1098.31
325.626	728.31
325.855	574.31
326.084	529.31
326.313	508.31
326.542	536.31
326.77	552.31
326.999	654.31
327.228	928.31
327.457	1394.31
327.686	1714.31
327.914	1190.31
328.143	779.31
328.372	694.31
328.6	610.31
328.829	572.31
329.058	574.31
329.287	580.31
329.515	587.31
329.744	526.31
329.972	515.31
330.201	543.31
330.43	603.31
330.658	604.31
330.887	638.31
331.115	626.31
331.344	509.31
331.572	485.31
331.801	472.31
332.03	483.31
332.258	446.31
332.486	442.31
332.715	456.31
332.943	423.31
333.172	434.31
333.4	426.31
333.629	431.31
333.857	444.31
334.085	458.31
334.314	506.31
334.542	500.31
334.771	510.31
334.999	487.31
335.227	422.31
335.455	424.31
335.684	405.31
335.912	422.31
336.14	401.31
336.369	411.31
336.597	427.31
336.825	423.31
337.053	423.31
337.281	409.31
337.51	420.31
337.738	412.31
337.966	406.31
338.194	404.31
338.422	402.31
338.65	393.31
338.878	411.31
339.106	394.31
339.334	396.31
339.562	395.31
339.79	423.31
340.018	405.31
340.246	420.31
340.474	394.31
340.702	408.31
340.93	395.31
341.158	399.31
341.386	399.31
341.614	404.31
341.842	414.31
342.07	399.31
342.298	377.31
342.526	387.31
342.754	387.31
342.981	378.31
343.209	379.31
343.437	387.31
343.665	386.31
343.893	412.31
344.12	403.31
344.348	412.31
344.576	406.31
344.804	403.31
345.031	402.31
345.259	434.31
345.487	415.31
345.714	410.31
345.942	395.31
346.17	404.31
346.397	383.31
346.625	383.31
346.853	403.31
347.08	402.31
347.308	382.31
347.535	394.31
347.763	392.31
347.99	429.31
348.218	410.31
348.445	417.31
348.673	423.31
348.9	398.31
349.128	387.31
349.355	395.31
349.583	360.31
349.81	382.31
350.037	363.31
350.265	372.31
350.492	370.31
350.72	375.31
350.947	408.31
351.174	393.31
351.402	405.31
351.629	395.31
351.856	412.31
352.083	391.31
352.311	411.31
352.538	424.31
352.765	408.31
352.992	389.31
353.22	408.31
353.447	404.31
353.674	393.31
353.901	370.31
354.128	344.31
354.355	362.31
354.583	378.31
354.81	356.31
355.037	367.31
355.264	379.31
355.491	362.31
355.718	329.31
355.945	364.31
356.172	348.31
356.399	366.31
356.626	359.31
356.853	355.31
357.08	356.31
357.307	365.31
357.534	354.31
357.761	359.31
357.988	373.31
358.215	370.31
358.441	354.31
358.668	367.31
358.895	359.31
359.122	384.31
359.349	372.31
359.576	380.31
359.802	411.31
360.029	468.31
360.256	474.31
360.483	443.31
360.709	383.31
360.936	399.31
361.163	393.31
361.39	410.31
361.616	400.31
361.843	394.31
362.07	392.31
362.296	404.31
362.523	406.31
362.749	381.31
362.976	386.31
363.203	378.31
363.429	384.31
363.656	400.31
363.882	373.31
364.109	371.31
364.335	360.31
364.562	372.31
364.788	375.31
365.015	358.31
365.241	375.31
365.468	380.31
365.694	368.31
365.92	376.31
366.147	372.31
366.373	383.31
366.599	380.31
366.826	367.31
367.052	341.31
367.278	376.31
367.505	364.31
367.731	365.31
367.957	383.31
368.184	394.31
368.41	382.31
368.636	378.31
368.862	394.31
369.089	394.31
369.315	372.31
369.541	376.31
369.767	379.31
369.993	381.31
370.219	348.31
370.445	360.31
370.672	373.31
370.898	354.31
371.124	363.31
371.35	351.31
371.576	354.31
371.802	350.31
372.028	340.31
372.254	343.31
372.48	359.31
372.706	368.31
372.932	347.31
373.158	376.31
373.384	383.31
373.61	368.31
373.835	372.31
374.061	356.31
374.287	357.31
374.513	346.31
374.739	381.31
374.965	374.31
375.191	393.31
375.416	370.31
375.642	342.31
375.868	352.31
376.094	366.31
376.319	355.31
376.545	368.31
376.771	375.31
376.997	368.31
377.222	359.31
377.448	346.31
377.674	360.31
377.899	363.31
378.125	356.31
378.35	355.31
378.576	342.31
378.802	374.31
379.027	372.31
379.253	358.31
379.478	350.31
379.704	379.31
379.929	358.31
380.155	372.31
380.38	366.31
380.606	372.31
380.831	383.31
381.057	359.31
381.282	350.31
381.507	354.31
381.733	368.31
381.958	376.31
382.184	391.31
382.409	390.31
382.634	362.31
382.86	368.31
383.085	377.31
383.31	376.31
383.535	377.31
383.761	374.31
383.986	374.31
384.211	377.31
384.436	391.31
384.662	377.31
384.887	374.31
385.112	375.31
385.337	360.31
385.562	381.31
385.787	401.31
386.013	425.31
386.238	406.31
386.463	397.31
386.688	392.31
386.913	390.31
387.138	370.31
387.363	400.31
387.588	374.31
387.813	374.31
388.038	378.31
388.263	405.31
388.488	406.31
388.713	378.31
388.938	367.31
389.163	384.31
389.387	386.31
389.612	379.31
389.837	341.31
390.062	385.31
390.287	400.31
390.512	382.31
390.736	389.31
390.961	373.31
391.186	391.31
391.411	381.31
391.636	378.31
391.86	407.31
392.085	382.31
392.31	377.31
392.534	393.31
392.759	407.31
392.984	389.31
393.208	377.31
393.433	394.31
393.658	389.31
393.882	371.31
394.107	387.31
394.331	413.31
394.556	388.31
394.78	387.31
395.005	389.31
395.229	389.31
395.454	394.31
395.678	403.31
395.903	429.31
396.127	432.31
396.352	424.31
396.576	398.31
396.801	420.31
397.025	387.31
397.249	416.31
397.474	403.31
397.698	418.31
397.922	432.31
398.147	438.31
398.371	442.31
398.595	423.31
398.82	410.31
399.044	428.31
399.268	462.31
399.492	461.31
399.717	505.31
399.941	516.31
400.165	533.31
400.389	524.31
400.613	515.31
400.837	472.31
401.062	450.31
401.286	436.31
401.51	445.31
401.734	446.31
401.958	412.31
402.182	435.31
402.406	455.31
402.63	446.31
402.854	452.31
403.078	460.31
403.302	433.31
403.526	442.31
403.75	456.31
403.974	448.31
404.198	447.31
404.422	471.31
404.645	462.31
404.869	449.31
405.093	499.31
405.317	549.31
405.541	574.31
405.765	511.31
405.988	475.31
406.212	507.31
406.436	509.31
406.66	534.31
406.883	504.31
407.107	519.31
407.331	554.31
407.555	609.31
407.778	605.31
408.002	556.31
408.226	525.31
408.449	501.31
408.673	510.31
408.896	529.31
409.12	574.31
409.344	541.31
409.567	475.31
409.791	478.31
410.014	451.31
410.238	460.31
410.461	464.31
410.685	467.31
410.908	478.31
411.132	508.31
411.355	548.31
411.578	504.31
411.802	469.31
412.025	452.31
412.249	456.31
412.472	491.31
412.695	531.31
412.919	515.31
413.142	480.31
413.365	458.31
413.589	450.31
413.812	443.31
414.035	430.31
414.258	429.31
414.482	418.31
414.705	447.31
414.928	439.31
415.151	435.31
415.374	428.31
415.597	422.31
415.821	427.31
416.044	434.31
416.267	427.31
416.49	426.31
416.713	439.31
416.936	425.31
417.159	429.31
417.382	447.31
417.605	430.31
417.828	450.31
418.051	477.31
418.274	431.31
418.497	462.31
418.72	449.31
418.943	440.31
419.166	447.31
419.389	464.31
419.611	454.31
419.834	470.31
420.057	466.31
420.28	467.31
420.503	470.31
420.726	471.31
420.948	475.31
421.171	515.31
421.394	550.31
421.617	496.31
421.839	459.31
422.062	471.31
422.285	491.31
422.507	548.31
422.73	618.31
422.953	601.31
423.175	526.31
423.398	484.31
423.621	486.31
423.843	506.31
424.066	491.31
424.288	492.31
424.511	514.31
424.733	568.31
424.956	657.31
425.178	612.31
425.401	630.31
425.623	648.31
425.846	541.31
426.068	507.31
426.291	534.31
426.513	491.31
426.735	516.31
426.958	564.31
427.18	645.31
427.402	772.31
427.625	859.31
427.847	768.31
428.069	645.31
428.292	605.31
428.514	533.31
428.736	518.31
428.958	499.31
429.181	480.31
429.403	482.31
429.625	484.31
429.847	538.31
430.069	603.31
430.292	578.31
430.514	501.31
430.736	473.31
430.958	467.31
431.18	452.31
431.402	443.31
431.624	431.31
431.846	446.31
432.068	442.31
432.29	421.31
432.512	446.31
432.734	462.31
432.956	438.31
433.178	480.31
433.4	472.31
433.622	464.31
433.844	453.31
434.066	427.31
434.287	441.31
434.509	456.31
434.731	447.31
434.953	443.31
435.175	465.31
435.397	510.31
435.618	506.31
435.84	566.31
436.062	635.31
436.284	716.31
436.505	587.31
436.727	538.31
436.949	518.31
437.17	502.31
437.392	480.31
437.614	505.31
437.835	547.31
438.057	654.31
438.278	733.31
438.5	727.31
438.721	772.31
438.943	772.31
439.165	598.31
439.386	573.31
439.608	549.31
439.829	535.31
440.05	550.31
440.272	581.31
440.493	571.31
440.715	506.31
440.936	495.31
441.158	476.31
441.379	488.31
441.6	493.31
441.822	519.31
442.043	546.31
442.264	621.31
442.486	685.31
442.707	586.31
442.928	560.31
443.149	548.31
443.371	579.31
443.592	620.31
443.813	693.31
444.034	728.31
444.255	597.31
444.476	545.31
444.698	520.31
444.919	509.31
445.14	656.31
445.361	570.31
445.582	566.31
445.803	621.31
446.024	732.31
446.245	739.31
446.466	668.31
446.687	560.31
446.908	538.31
447.129	482.31
447.35	494.31
447.571	480.31
447.792	477.31
448.013	475.31
448.234	532.31
448.455	572.31
448.675	669.31
448.896	791.31
449.117	647.31
449.338	644.31
449.559	727.31
449.779	791.31
450	665.31
450.221	547.31
450.442	500.31
450.662	452.31
450.883	490.31
451.104	510.31
451.324	494.31
451.545	471.31
451.766	436.31
451.986	411.31
452.207	442.31
452.428	434.31
452.648	424.31
452.869	447.31
453.089	454.31
453.31	464.31
453.53	474.31
453.751	439.31
453.971	434.31
454.192	457.31
454.412	439.31
454.633	448.31
454.853	443.31
455.073	423.31
455.294	462.31
455.514	529.31
455.734	516.31
455.955	454.31
456.175	406.31
456.395	402.31
456.616	407.31
456.836	392.31
457.056	401.31
457.276	405.31
457.497	387.31
457.717	386.31
457.937	409.31
458.157	408.31
458.377	409.31
458.598	454.31
458.818	499.31
459.038	584.31
459.258	589.31
459.478	527.31
459.698	458.31
459.918	464.31
460.138	451.31
460.358	427.31
460.578	461.31
460.798	454.31
461.018	469.31
461.238	454.31
461.458	418.31
461.678	427.31
461.898	425.31
462.118	442.31
462.338	447.31
462.558	444.31
462.777	455.31
462.997	456.31
463.217	450.31
463.437	466.31
463.657	436.31
463.876	451.31
464.096	463.31
464.316	470.31
464.536	464.31
464.755	487.31
464.975	468.31
465.195	526.31
465.414	615.31
465.634	540.31
465.854	487.31
466.073	472.31
466.293	456.31
466.512	425.31
466.732	416.31
466.951	449.31
467.171	427.31
467.391	436.31
467.61	423.31
467.829	447.31
468.049	430.31
468.268	455.31
468.488	447.31
468.707	437.31
468.927	423.31
469.146	438.31
469.365	427.31
469.585	430.31
469.804	431.31
470.023	431.31
470.243	453.31
470.462	439.31
470.681	456.31
470.901	471.31
471.12	447.31
471.339	439.31
471.558	454.31
471.777	460.31
471.997	423.31
472.216	433.31
472.435	494.31
472.654	474.31
472.873	448.31
473.092	480.31
473.311	456.31
473.53	447.31
473.749	462.31
473.968	494.31
474.187	600.31
474.406	617.31
474.625	509.31
474.844	461.31
475.063	455.31
475.282	443.31
475.501	447.31
475.72	444.31
475.939	438.31
476.158	450.31
476.377	454.31
476.596	457.31
476.814	461.31
477.033	461.31
477.252	490.31
477.471	475.31
477.69	478.31
477.908	468.31
478.127	482.31
478.346	477.31
478.564	470.31
478.783	484.31
479.002	471.31
479.22	484.31
479.439	516.31
479.658	535.31
479.876	535.31
480.095	528.31
480.313	556.31
480.532	551.31
480.751	539.31
480.969	544.31
481.188	608.31
481.406	641.31
481.624	582.31
481.843	530.31
482.061	538.31
482.28	539.31
482.498	519.31
482.717	512.31
482.935	512.31
483.153	520.31
483.372	499.31
483.59	535.31
483.808	526.31
484.027	513.31
484.245	534.31
484.463	549.31
484.681	532.31
484.9	542.31
485.118	535.31
485.336	523.31
485.554	523.31
485.772	550.31
485.99	542.31
486.209	554.31
486.427	555.31
486.645	567.31
486.863	569.31
487.081	567.31
487.299	585.31
487.517	596.31
487.735	564.31
487.953	573.31
488.171	583.31
488.389	591.31
488.607	581.31
488.825	557.31
489.043	562.31
489.261	571.31
489.479	574.31
489.696	581.31
489.914	589.31
490.132	572.31
490.35	603.31
490.568	593.31
490.786	620.31
491.003	621.31
491.221	619.31
491.439	632.31
491.657	634.31
491.874	628.31
492.092	636.31
492.31	642.31
492.527	662.31
492.745	653.31
492.963	655.31
493.18	659.31
493.398	662.31
493.615	698.31
493.833	668.31
494.05	668.31
494.268	655.31
494.485	684.31
494.703	677.31
494.92	674.31
495.138	651.31
495.355	652.31
495.573	649.31
495.79	667.31
496.008	684.31
496.225	682.31
496.442	692.31
496.66	668.31
496.877	666.31
497.094	666.31
497.312	683.31
497.529	691.31
497.746	690.31
497.963	699.31
498.181	709.31
498.398	710.31
498.615	703.31
498.832	731.31
499.049	764.31
499.267	755.31
499.484	758.31
499.701	755.31
499.918	760.31
500.135	830.31
500.352	831.31
500.569	828.31
500.786	824.31
501.003	840.31
501.22	825.31
501.437	818.31
501.654	788.31
501.871	791.31
