Data from 1980.PennyLincolnUp.Lamp.En5.5.200Scan.071819.P1_HRD10591_16-36-55-956.txt Node
Date: Thu Jul 18 16:36:55 EDT 2019
User: cochatt
Spectrometer: HR+D1059
Trigger mode: 1
Integration Time (sec): 1.000000E-1
Scans to average: 1
Electric dark correction enabled: true
Nonlinearity correction enabled: false
Boxcar width: 0
XAxis mode: Wavelengths
Number of Pixels in Spectrum: 2048
>>>>>Begin Spectral Data<<<<<
223.165	-19.94
223.4	-19.94
223.635	-19.94
223.869	-18.94
224.104	-18.94
224.338	-10.94
224.573	-17.94
224.808	-8.94
225.042	-2.94
225.277	-7.94
225.511	12.06
225.746	1.06
225.98	9.06
226.215	5.06
226.449	15.06
226.683	7.06
226.918	28.06
227.152	29.06
227.387	40.06
227.621	44.06
227.856	53.06
228.09	52.06
228.324	72.06
228.559	57.06
228.793	75.06
229.027	119.06
229.262	115.06
229.496	111.06
229.73	155.06
229.964	170.06
230.199	137.06
230.433	127.06
230.667	119.06
230.901	121.06
231.136	115.06
231.37	98.06
231.604	129.06
231.838	117.06
232.072	110.06
232.306	113.06
232.541	102.06
232.775	112.06
233.009	114.06
233.243	117.06
233.477	108.06
233.711	105.06
233.945	111.06
234.179	112.06
234.413	116.06
234.647	117.06
234.881	123.06
235.115	124.06
235.349	110.06
235.583	125.06
235.817	107.06
236.051	126.06
236.285	137.06
236.519	124.06
236.753	134.06
236.987	143.06
237.221	191.06
237.455	229.06
237.689	193.06
237.922	127.06
238.156	131.06
238.39	129.06
238.624	128.06
238.858	139.06
239.091	125.06
239.325	118.06
239.559	127.06
239.793	127.06
240.027	119.06
240.26	147.06
240.494	155.06
240.728	135.06
240.961	147.06
241.195	155.06
241.429	151.06
241.662	129.06
241.896	131.06
242.13	135.06
242.363	132.06
242.597	155.06
242.83	132.06
243.064	149.06
243.298	136.06
243.531	131.06
243.765	136.06
243.998	143.06
244.232	135.06
244.465	126.06
244.699	152.06
244.932	154.06
245.166	140.06
245.399	136.06
245.633	149.06
245.866	155.06
246.099	143.06
246.333	147.06
246.566	158.06
246.8	153.06
247.033	156.06
247.266	152.06
247.5	183.06
247.733	157.06
247.966	170.06
248.2	172.06
248.433	170.06
248.666	191.06
248.899	183.06
249.133	192.06
249.366	200.06
249.599	214.06
249.832	192.06
250.066	183.06
250.299	166.06
250.532	186.06
250.765	197.06
250.998	220.06
251.231	241.06
251.465	226.06
251.698	205.06
251.931	202.06
252.164	202.06
252.397	200.06
252.63	215.06
252.863	207.06
253.096	228.06
253.329	232.06
253.562	247.06
253.795	229.06
254.028	217.06
254.261	229.06
254.494	228.06
254.727	271.06
254.96	300.06
255.193	277.06
255.426	264.06
255.659	237.06
255.892	247.06
256.124	232.06
256.357	243.06
256.59	233.06
256.823	234.06
257.056	217.06
257.289	216.06
257.521	216.06
257.754	209.06
257.987	206.06
258.22	229.06
258.452	220.06
258.685	199.06
258.918	223.06
259.151	195.06
259.383	222.06
259.616	214.06
259.849	233.06
260.081	232.06
260.314	283.06
260.547	257.06
260.779	247.06
261.012	235.06
261.244	222.06
261.477	228.06
261.71	233.06
261.942	236.06
262.175	246.06
262.407	239.06
262.64	218.06
262.872	208.06
263.105	225.06
263.337	211.06
263.57	221.06
263.802	208.06
264.035	209.06
264.267	214.06
264.499	196.06
264.732	207.06
264.964	203.06
265.197	205.06
265.429	202.06
265.661	220.06
265.894	206.06
266.126	214.06
266.358	209.06
266.591	198.06
266.823	218.06
267.055	234.06
267.287	218.06
267.52	219.06
267.752	207.06
267.984	214.06
268.216	222.06
268.448	216.06
268.681	216.06
268.913	229.06
269.145	257.06
269.377	275.06
269.609	277.06
269.841	276.06
270.073	270.06
270.306	291.06
270.538	311.06
270.77	335.06
271.002	300.06
271.234	292.06
271.466	289.06
271.698	309.06
271.93	343.06
272.162	321.06
272.394	323.06
272.626	309.06
272.858	299.06
273.09	262.06
273.322	262.06
273.553	261.06
273.785	277.06
274.017	262.06
274.249	263.06
274.481	259.06
274.713	247.06
274.945	283.06
275.176	262.06
275.408	270.06
275.64	251.06
275.872	244.06
276.104	253.06
276.335	279.06
276.567	259.06
276.799	284.06
277.031	303.06
277.262	294.06
277.494	282.06
277.726	300.06
277.957	272.06
278.189	273.06
278.421	277.06
278.652	263.06
278.884	245.06
279.115	249.06
279.347	262.06
279.579	263.06
279.81	248.06
280.042	263.06
280.273	246.06
280.505	252.06
280.736	260.06
280.968	281.06
281.199	256.06
281.431	260.06
281.662	242.06
281.894	259.06
282.125	250.06
282.356	272.06
282.588	299.06
282.819	300.06
283.051	255.06
283.282	255.06
283.513	248.06
283.745	268.06
283.976	240.06
284.207	267.06
284.439	265.06
284.67	259.06
284.901	273.06
285.132	261.06
285.364	261.06
285.595	255.06
285.826	249.06
286.057	246.06
286.288	260.06
286.52	258.06
286.751	262.06
286.982	254.06
287.213	263.06
287.444	263.06
287.675	280.06
287.906	287.06
288.138	294.06
288.369	312.06
288.6	284.06
288.831	278.06
289.062	279.06
289.293	268.06
289.524	269.06
289.755	283.06
289.986	262.06
290.217	265.06
290.448	274.06
290.679	281.06
290.91	264.06
291.141	264.06
291.371	268.06
291.602	242.06
291.833	243.06
292.064	271.06
292.295	270.06
292.526	272.06
292.757	287.06
292.987	292.06
293.218	273.06
293.449	271.06
293.68	262.06
293.91	279.06
294.141	262.06
294.372	285.06
294.603	284.06
294.833	264.06
295.064	269.06
295.295	279.06
295.525	254.06
295.756	264.06
295.987	296.06
296.217	297.06
296.448	322.06
296.679	283.06
296.909	272.06
297.14	255.06
297.37	271.06
297.601	276.06
297.831	284.06
298.062	278.06
298.292	261.06
298.523	269.06
298.753	291.06
298.984	282.06
299.214	286.06
299.445	284.06
299.675	279.06
299.905	283.06
300.136	296.06
300.366	270.06
300.597	298.06
300.827	284.06
301.057	270.06
301.288	294.06
301.518	302.06
301.748	300.06
301.979	293.06
302.209	297.06
302.439	315.06
302.669	284.06
302.9	289.06
303.13	295.06
303.36	288.06
303.59	318.06
303.82	308.06
304.051	332.06
304.281	291.06
304.511	286.06
304.741	308.06
304.971	308.06
305.201	303.06
305.431	299.06
305.661	290.06
305.891	292.06
306.121	310.06
306.352	312.06
306.582	308.06
306.812	328.06
307.042	283.06
307.272	313.06
307.502	283.06
307.731	319.06
307.961	313.06
308.191	296.06
308.421	309.06
308.651	311.06
308.881	310.06
309.111	287.06
309.341	330.06
309.571	345.06
309.8	338.06
310.03	359.06
310.26	348.06
310.49	349.06
310.72	359.06
310.949	375.06
311.179	380.06
311.409	365.06
311.639	359.06
311.868	356.06
312.098	368.06
312.328	354.06
312.557	380.06
312.787	379.06
313.017	383.06
313.246	350.06
313.476	350.06
313.706	350.06
313.935	365.06
314.165	360.06
314.394	378.06
314.624	389.06
314.853	371.06
315.083	358.06
315.312	334.06
315.542	344.06
315.771	363.06
316.001	343.06
316.23	336.06
316.46	335.06
316.689	341.06
316.919	347.06
317.148	354.06
317.377	359.06
317.607	363.06
317.836	351.06
318.065	357.06
318.295	332.06
318.524	343.06
318.753	359.06
318.983	363.06
319.212	347.06
319.441	370.06
319.67	372.06
319.9	367.06
320.129	341.06
320.358	364.06
320.587	351.06
320.816	368.06
321.046	375.06
321.275	383.06
321.504	367.06
321.733	383.06
321.962	393.06
322.191	380.06
322.42	389.06
322.649	437.06
322.878	426.06
323.108	439.06
323.337	474.06
323.566	484.06
323.795	540.06
324.024	581.06
324.253	735.06
324.482	1007.06
324.71	1535.06
324.939	2254.06
325.168	1963.06
325.397	1016.06
325.626	673.06
325.855	563.06
326.084	505.06
326.313	512.06
326.542	496.06
326.77	545.06
326.999	651.06
327.228	914.06
327.457	1360.06
327.686	1681.06
327.914	1125.06
328.143	739.06
328.372	651.06
328.6	586.06
328.829	580.06
329.058	581.06
329.287	607.06
329.515	571.06
329.744	524.06
329.972	505.06
330.201	503.06
330.43	553.06
330.658	592.06
330.887	607.06
331.115	615.06
331.344	505.06
331.572	477.06
331.801	477.06
332.03	464.06
332.258	465.06
332.486	428.06
332.715	406.06
332.943	409.06
333.172	411.06
333.4	443.06
333.629	428.06
333.857	436.06
334.085	461.06
334.314	454.06
334.542	517.06
334.771	523.06
334.999	460.06
335.227	437.06
335.455	425.06
335.684	419.06
335.912	408.06
336.14	399.06
336.369	405.06
336.597	434.06
336.825	420.06
337.053	391.06
337.281	383.06
337.51	410.06
337.738	405.06
337.966	399.06
338.194	407.06
338.422	410.06
338.65	416.06
338.878	382.06
339.106	378.06
339.334	398.06
339.562	385.06
339.79	379.06
340.018	400.06
340.246	392.06
340.474	390.06
340.702	380.06
340.93	397.06
341.158	396.06
341.386	384.06
341.614	397.06
341.842	393.06
342.07	373.06
342.298	388.06
342.526	360.06
342.754	364.06
342.981	371.06
343.209	383.06
343.437	407.06
343.665	392.06
343.893	385.06
344.12	389.06
344.348	391.06
344.576	409.06
344.804	407.06
345.031	403.06
345.259	422.06
345.487	414.06
345.714	406.06
345.942	387.06
346.17	401.06
346.397	392.06
346.625	379.06
346.853	391.06
347.08	362.06
347.308	405.06
347.535	387.06
347.763	400.06
347.99	413.06
348.218	405.06
348.445	406.06
348.673	403.06
348.9	414.06
349.128	368.06
349.355	376.06
349.583	371.06
349.81	375.06
350.037	366.06
350.265	370.06
350.492	383.06
350.72	383.06
350.947	377.06
351.174	376.06
351.402	386.06
351.629	379.06
351.856	403.06
352.083	405.06
352.311	413.06
352.538	421.06
352.765	398.06
352.992	393.06
353.22	381.06
353.447	385.06
353.674	398.06
353.901	378.06
354.128	341.06
354.355	371.06
354.583	369.06
354.81	361.06
355.037	340.06
355.264	354.06
355.491	344.06
355.718	355.06
355.945	347.06
356.172	347.06
356.399	358.06
356.626	355.06
356.853	359.06
357.08	348.06
357.307	359.06
357.534	351.06
357.761	347.06
357.988	362.06
358.215	360.06
358.441	349.06
358.668	355.06
358.895	358.06
359.122	377.06
359.349	369.06
359.576	391.06
359.802	397.06
360.029	412.06
360.256	454.06
360.483	424.06
360.709	407.06
360.936	389.06
361.163	388.06
361.39	356.06
361.616	377.06
361.843	367.06
362.07	389.06
362.296	415.06
362.523	398.06
362.749	372.06
362.976	389.06
363.203	384.06
363.429	371.06
363.656	357.06
363.882	381.06
364.109	352.06
364.335	335.06
364.562	373.06
364.788	347.06
365.015	353.06
365.241	368.06
365.468	378.06
365.694	384.06
365.92	376.06
366.147	360.06
366.373	365.06
366.599	341.06
366.826	371.06
367.052	347.06
367.278	360.06
367.505	352.06
367.731	376.06
367.957	358.06
368.184	353.06
368.41	369.06
368.636	391.06
368.862	389.06
369.089	380.06
369.315	360.06
369.541	361.06
369.767	361.06
369.993	360.06
370.219	378.06
370.445	367.06
370.672	373.06
370.898	349.06
371.124	337.06
371.35	352.06
371.576	342.06
371.802	340.06
372.028	355.06
372.254	355.06
372.48	333.06
372.706	361.06
372.932	341.06
373.158	340.06
373.384	363.06
373.61	375.06
373.835	351.06
374.061	356.06
374.287	368.06
374.513	373.06
374.739	358.06
374.965	371.06
375.191	357.06
375.416	363.06
375.642	391.06
375.868	377.06
376.094	359.06
376.319	352.06
376.545	379.06
376.771	347.06
376.997	373.06
377.222	359.06
377.448	347.06
377.674	360.06
377.899	373.06
378.125	350.06
378.35	363.06
378.576	351.06
378.802	363.06
379.027	337.06
379.253	362.06
379.478	350.06
379.704	360.06
379.929	365.06
380.155	330.06
380.38	367.06
380.606	375.06
380.831	347.06
381.057	354.06
381.282	359.06
381.507	367.06
381.733	371.06
381.958	354.06
382.184	339.06
382.409	344.06
382.634	363.06
382.86	352.06
383.085	334.06
383.31	338.06
383.535	364.06
383.761	366.06
383.986	378.06
384.211	348.06
384.436	377.06
384.662	364.06
384.887	373.06
385.112	378.06
385.337	356.06
385.562	371.06
385.787	395.06
386.013	398.06
386.238	397.06
386.463	394.06
386.688	384.06
386.913	369.06
387.138	379.06
387.363	379.06
387.588	382.06
387.813	393.06
388.038	382.06
388.263	389.06
388.488	381.06
388.713	369.06
388.938	382.06
389.163	389.06
389.387	379.06
389.612	386.06
389.837	394.06
390.062	344.06
390.287	385.06
390.512	375.06
390.736	384.06
390.961	373.06
391.186	377.06
391.411	367.06
391.636	367.06
391.86	389.06
392.085	399.06
392.31	383.06
392.534	393.06
392.759	388.06
392.984	384.06
393.208	380.06
393.433	413.06
393.658	385.06
393.882	382.06
394.107	365.06
394.331	411.06
394.556	383.06
394.78	383.06
395.005	397.06
395.229	389.06
395.454	391.06
395.678	393.06
395.903	392.06
396.127	416.06
396.352	430.06
396.576	416.06
396.801	404.06
397.025	409.06
397.249	410.06
397.474	394.06
397.698	394.06
397.922	407.06
398.147	428.06
398.371	432.06
398.595	436.06
398.82	435.06
399.044	427.06
399.268	440.06
399.492	435.06
399.717	467.06
399.941	508.06
400.165	535.06
400.389	519.06
400.613	480.06
400.837	470.06
401.062	459.06
401.286	435.06
401.51	420.06
401.734	415.06
401.958	424.06
402.182	421.06
402.406	432.06
402.63	431.06
402.854	451.06
403.078	445.06
403.302	447.06
403.526	470.06
403.75	463.06
403.974	447.06
404.198	433.06
404.422	463.06
404.645	458.06
404.869	455.06
405.093	473.06
405.317	513.06
405.541	536.06
405.765	494.06
405.988	483.06
406.212	499.06
406.436	521.06
406.66	502.06
406.883	501.06
407.107	504.06
407.331	524.06
407.555	616.06
407.778	611.06
408.002	548.06
408.226	512.06
408.449	500.06
408.673	495.06
408.896	549.06
409.12	551.06
409.344	553.06
409.567	465.06
409.791	469.06
410.014	461.06
410.238	435.06
410.461	447.06
410.685	438.06
410.908	460.06
411.132	507.06
411.355	553.06
411.578	507.06
411.802	473.06
412.025	443.06
412.249	458.06
412.472	474.06
412.695	508.06
412.919	503.06
413.142	466.06
413.365	456.06
413.589	436.06
413.812	443.06
414.035	435.06
414.258	417.06
414.482	430.06
414.705	425.06
414.928	425.06
415.151	430.06
415.374	427.06
415.597	409.06
415.821	414.06
416.044	407.06
416.267	442.06
416.49	433.06
416.713	422.06
416.936	442.06
417.159	408.06
417.382	423.06
417.605	415.06
417.828	443.06
418.051	466.06
418.274	429.06
418.497	455.06
418.72	435.06
418.943	413.06
419.166	447.06
419.389	449.06
419.611	455.06
419.834	443.06
420.057	457.06
420.28	477.06
420.503	459.06
420.726	440.06
420.948	459.06
421.171	501.06
421.394	507.06
421.617	484.06
421.839	463.06
422.062	427.06
422.285	470.06
422.507	531.06
422.73	596.06
422.953	559.06
423.175	493.06
423.398	455.06
423.621	467.06
423.843	491.06
424.066	486.06
424.288	490.06
424.511	523.06
424.733	573.06
424.956	636.06
425.178	624.06
425.401	632.06
425.623	646.06
425.846	548.06
426.068	532.06
426.291	494.06
426.513	514.06
426.735	506.06
426.958	577.06
427.18	631.06
427.402	747.06
427.625	801.06
427.847	757.06
428.069	617.06
428.292	556.06
428.514	506.06
428.736	486.06
428.958	480.06
429.181	471.06
429.403	464.06
429.625	496.06
429.847	517.06
430.069	605.06
430.292	590.06
430.514	505.06
430.736	487.06
430.958	453.06
431.18	470.06
431.402	449.06
431.624	435.06
431.846	429.06
432.068	407.06
432.29	444.06
432.512	441.06
432.734	444.06
432.956	439.06
433.178	460.06
433.4	455.06
433.622	459.06
433.844	431.06
434.066	424.06
434.287	428.06
434.509	447.06
434.731	444.06
434.953	462.06
435.175	464.06
435.397	506.06
435.618	519.06
435.84	554.06
436.062	629.06
436.284	691.06
436.505	580.06
436.727	518.06
436.949	484.06
437.17	494.06
437.392	479.06
437.614	462.06
437.835	518.06
438.057	630.06
438.278	727.06
438.5	718.06
438.721	793.06
438.943	746.06
439.165	607.06
439.386	551.06
439.608	527.06
439.829	521.06
440.05	548.06
440.272	579.06
440.493	544.06
440.715	507.06
440.936	492.06
441.158	486.06
441.379	463.06
441.6	494.06
441.822	488.06
442.043	523.06
442.264	638.06
442.486	665.06
442.707	576.06
442.928	537.06
443.149	537.06
443.371	563.06
443.592	593.06
443.813	651.06
444.034	728.06
444.255	584.06
444.476	537.06
444.698	496.06
444.919	480.06
445.14	607.06
445.361	564.06
445.582	537.06
445.803	616.06
446.024	715.06
446.245	699.06
446.466	649.06
446.687	584.06
446.908	519.06
447.129	483.06
447.35	477.06
447.571	460.06
447.792	470.06
448.013	481.06
448.234	500.06
448.455	549.06
448.675	641.06
448.896	776.06
449.117	646.06
449.338	605.06
449.559	703.06
449.779	805.06
450	653.06
450.221	539.06
450.442	496.06
450.662	475.06
450.883	472.06
451.104	475.06
451.324	475.06
451.545	464.06
451.766	441.06
451.986	443.06
452.207	413.06
452.428	393.06
452.648	415.06
452.869	428.06
453.089	438.06
453.31	441.06
453.53	425.06
453.751	438.06
453.971	423.06
454.192	446.06
454.412	437.06
454.633	436.06
454.853	436.06
455.073	423.06
455.294	443.06
455.514	524.06
455.734	507.06
455.955	435.06
456.175	406.06
456.395	389.06
456.616	394.06
456.836	397.06
457.056	418.06
457.276	392.06
457.497	399.06
457.717	382.06
457.937	401.06
458.157	401.06
458.377	422.06
458.598	430.06
458.818	490.06
459.038	602.06
459.258	590.06
459.478	493.06
459.698	469.06
459.918	417.06
460.138	433.06
460.358	423.06
460.578	436.06
460.798	438.06
461.018	437.06
461.238	419.06
461.458	415.06
461.678	433.06
461.898	429.06
462.118	414.06
462.338	438.06
462.558	451.06
462.777	439.06
462.997	438.06
463.217	438.06
463.437	466.06
463.657	457.06
463.876	453.06
464.096	449.06
464.316	453.06
464.536	456.06
464.755	460.06
464.975	472.06
465.195	521.06
465.414	613.06
465.634	529.06
465.854	471.06
466.073	467.06
466.293	429.06
466.512	442.06
466.732	437.06
466.951	413.06
467.171	420.06
467.391	415.06
467.61	426.06
467.829	458.06
468.049	436.06
468.268	437.06
468.488	417.06
468.707	418.06
468.927	408.06
469.146	390.06
469.365	419.06
469.585	406.06
469.804	441.06
470.023	433.06
470.243	427.06
470.462	419.06
470.681	434.06
470.901	428.06
471.12	422.06
471.339	410.06
471.558	429.06
471.777	432.06
471.997	429.06
472.216	441.06
472.435	467.06
472.654	436.06
472.873	419.06
473.092	423.06
473.311	443.06
473.53	429.06
473.749	437.06
473.968	500.06
474.187	582.06
474.406	622.06
474.625	496.06
474.844	456.06
475.063	444.06
475.282	437.06
475.501	447.06
475.72	436.06
475.939	416.06
476.158	432.06
476.377	446.06
476.596	439.06
476.814	444.06
477.033	469.06
477.252	450.06
477.471	458.06
477.69	475.06
477.908	462.06
478.127	462.06
478.346	459.06
478.564	476.06
478.783	480.06
479.002	457.06
479.22	485.06
479.439	498.06
479.658	511.06
479.876	514.06
480.095	510.06
480.313	556.06
480.532	529.06
480.751	528.06
480.969	512.06
481.188	584.06
481.406	630.06
481.624	563.06
481.843	533.06
482.061	524.06
482.28	517.06
482.498	515.06
482.717	520.06
482.935	510.06
483.153	513.06
483.372	512.06
483.59	513.06
483.808	495.06
484.027	521.06
484.245	511.06
484.463	516.06
484.681	513.06
484.9	529.06
485.118	527.06
485.336	519.06
485.554	536.06
485.772	539.06
485.99	518.06
486.209	545.06
486.427	519.06
486.645	519.06
486.863	556.06
487.081	577.06
487.299	530.06
487.517	551.06
487.735	547.06
487.953	545.06
488.171	562.06
488.389	536.06
488.607	543.06
488.825	573.06
489.043	558.06
489.261	567.06
489.479	561.06
489.696	559.06
489.914	571.06
490.132	574.06
490.35	581.06
490.568	573.06
490.786	599.06
491.003	612.06
491.221	620.06
491.439	610.06
491.657	628.06
491.874	630.06
492.092	637.06
492.31	623.06
492.527	651.06
492.745	645.06
492.963	638.06
493.18	655.06
493.398	638.06
493.615	656.06
493.833	669.06
494.05	655.06
494.268	665.06
494.485	657.06
494.703	634.06
494.92	663.06
495.138	671.06
495.355	672.06
495.573	669.06
495.79	637.06
496.008	685.06
496.225	688.06
496.442	663.06
496.66	663.06
496.877	649.06
497.094	664.06
497.312	667.06
497.529	663.06
497.746	655.06
497.963	670.06
498.181	684.06
498.398	699.06
498.615	712.06
498.832	716.06
499.049	713.06
499.267	725.06
499.484	759.06
499.701	769.06
499.918	789.06
500.135	789.06
500.352	813.06
500.569	804.06
500.786	824.06
501.003	812.06
501.22	819.06
501.437	784.06
501.654	828.06
501.871	803.06
