Data from 1980.PennyLincolnUp.Lamp.En5.5.200Scan.071819.P1_HRD10591_16-37-59-957.txt Node
Date: Thu Jul 18 16:37:59 EDT 2019
User: cochatt
Spectrometer: HR+D1059
Trigger mode: 1
Integration Time (sec): 1.000000E-1
Scans to average: 1
Electric dark correction enabled: true
Nonlinearity correction enabled: false
Boxcar width: 0
XAxis mode: Wavelengths
Number of Pixels in Spectrum: 2048
>>>>>Begin Spectral Data<<<<<
223.165	-21.5
223.4	-21.5
223.635	-21.5
223.869	-23.5
224.104	-12.5
224.338	-3.5
224.573	1.5
224.808	-4.5
225.042	5.5
225.277	-14.5
225.511	-4.5
225.746	-5.5
225.98	-12.5
226.215	2.5
226.449	32.5
226.683	14.5
226.918	22.5
227.152	23.5
227.387	41.5
227.621	39.5
227.856	44.5
228.09	57.5
228.324	46.5
228.559	48.5
228.793	59.5
229.027	91.5
229.262	93.5
229.496	118.5
229.73	132.5
229.964	172.5
230.199	143.5
230.433	117.5
230.667	115.5
230.901	106.5
231.136	107.5
231.37	114.5
231.604	122.5
231.838	113.5
232.072	95.5
232.306	110.5
232.541	106.5
232.775	117.5
233.009	105.5
233.243	106.5
233.477	102.5
233.711	119.5
233.945	121.5
234.179	112.5
234.413	117.5
234.647	100.5
234.881	104.5
235.115	117.5
235.349	124.5
235.583	116.5
235.817	128.5
236.051	123.5
236.285	126.5
236.519	130.5
236.753	131.5
236.987	160.5
237.221	190.5
237.455	230.5
237.689	195.5
237.922	156.5
238.156	138.5
238.39	139.5
238.624	132.5
238.858	124.5
239.091	131.5
239.325	121.5
239.559	122.5
239.793	126.5
240.027	130.5
240.26	130.5
240.494	152.5
240.728	147.5
240.961	152.5
241.195	142.5
241.429	131.5
241.662	133.5
241.896	131.5
242.13	133.5
242.363	130.5
242.597	122.5
242.83	144.5
243.064	135.5
243.298	146.5
243.531	148.5
243.765	127.5
243.998	135.5
244.232	145.5
244.465	139.5
244.699	125.5
244.932	137.5
245.166	135.5
245.399	143.5
245.633	139.5
245.866	148.5
246.099	136.5
246.333	129.5
246.566	130.5
246.8	136.5
247.033	146.5
247.266	134.5
247.5	177.5
247.733	171.5
247.966	164.5
248.2	163.5
248.433	171.5
248.666	166.5
248.899	177.5
249.133	194.5
249.366	212.5
249.599	210.5
249.832	191.5
250.066	194.5
250.299	184.5
250.532	190.5
250.765	203.5
250.998	217.5
251.231	228.5
251.465	212.5
251.698	206.5
251.931	204.5
252.164	207.5
252.397	179.5
252.63	198.5
252.863	195.5
253.096	210.5
253.329	235.5
253.562	212.5
253.795	220.5
254.028	221.5
254.261	224.5
254.494	234.5
254.727	258.5
254.96	286.5
255.193	276.5
255.426	261.5
255.659	220.5
255.892	240.5
256.124	230.5
256.357	233.5
256.59	227.5
256.823	215.5
257.056	210.5
257.289	235.5
257.521	204.5
257.754	212.5
257.987	218.5
258.22	209.5
258.452	200.5
258.685	221.5
258.918	225.5
259.151	223.5
259.383	213.5
259.616	236.5
259.849	228.5
260.081	231.5
260.314	259.5
260.547	263.5
260.779	250.5
261.012	230.5
261.244	231.5
261.477	217.5
261.71	223.5
261.942	219.5
262.175	248.5
262.407	222.5
262.64	218.5
262.872	212.5
263.105	200.5
263.337	188.5
263.57	211.5
263.802	206.5
264.035	220.5
264.267	194.5
264.499	205.5
264.732	210.5
264.964	211.5
265.197	210.5
265.429	202.5
265.661	206.5
265.894	196.5
266.126	199.5
266.358	198.5
266.591	194.5
266.823	206.5
267.055	222.5
267.287	231.5
267.52	226.5
267.752	221.5
267.984	220.5
268.216	201.5
268.448	206.5
268.681	216.5
268.913	241.5
269.145	265.5
269.377	274.5
269.609	262.5
269.841	266.5
270.073	255.5
270.306	314.5
270.538	324.5
270.77	315.5
271.002	310.5
271.234	303.5
271.466	314.5
271.698	299.5
271.93	323.5
272.162	331.5
272.394	327.5
272.626	325.5
272.858	283.5
273.09	276.5
273.322	265.5
273.553	279.5
273.785	244.5
274.017	251.5
274.249	246.5
274.481	251.5
274.713	254.5
274.945	266.5
275.176	271.5
275.408	242.5
275.64	247.5
275.872	250.5
276.104	271.5
276.335	272.5
276.567	284.5
276.799	273.5
277.031	300.5
277.262	316.5
277.494	332.5
277.726	283.5
277.957	276.5
278.189	266.5
278.421	252.5
278.652	258.5
278.884	268.5
279.115	247.5
279.347	270.5
279.579	248.5
279.81	262.5
280.042	264.5
280.273	258.5
280.505	263.5
280.736	237.5
280.968	247.5
281.199	240.5
281.431	237.5
281.662	263.5
281.894	265.5
282.125	260.5
282.356	273.5
282.588	284.5
282.819	295.5
283.051	286.5
283.282	238.5
283.513	244.5
283.745	267.5
283.976	250.5
284.207	265.5
284.439	267.5
284.67	250.5
284.901	251.5
285.132	243.5
285.364	256.5
285.595	240.5
285.826	272.5
286.057	242.5
286.288	241.5
286.52	264.5
286.751	257.5
286.982	252.5
287.213	258.5
287.444	265.5
287.675	268.5
287.906	259.5
288.138	263.5
288.369	274.5
288.6	278.5
288.831	277.5
289.062	271.5
289.293	294.5
289.524	268.5
289.755	273.5
289.986	265.5
290.217	246.5
290.448	279.5
290.679	275.5
290.91	255.5
291.141	269.5
291.371	250.5
291.602	266.5
291.833	282.5
292.064	234.5
292.295	258.5
292.526	258.5
292.757	266.5
292.987	259.5
293.218	252.5
293.449	258.5
293.68	259.5
293.91	262.5
294.141	251.5
294.372	261.5
294.603	266.5
294.833	248.5
295.064	259.5
295.295	256.5
295.525	283.5
295.756	269.5
295.987	278.5
296.217	312.5
296.448	314.5
296.679	290.5
296.909	261.5
297.14	265.5
297.37	259.5
297.601	284.5
297.831	257.5
298.062	263.5
298.292	258.5
298.523	272.5
298.753	279.5
298.984	268.5
299.214	275.5
299.445	274.5
299.675	279.5
299.905	290.5
300.136	278.5
300.366	287.5
300.597	276.5
300.827	282.5
301.057	290.5
301.288	298.5
301.518	280.5
301.748	290.5
301.979	292.5
302.209	297.5
302.439	292.5
302.669	295.5
302.9	306.5
303.13	288.5
303.36	287.5
303.59	304.5
303.82	308.5
304.051	308.5
304.281	281.5
304.511	264.5
304.741	273.5
304.971	280.5
305.201	283.5
305.431	290.5
305.661	283.5
305.891	279.5
306.121	291.5
306.352	306.5
306.582	310.5
306.812	306.5
307.042	295.5
307.272	285.5
307.502	297.5
307.731	292.5
307.961	289.5
308.191	303.5
308.421	302.5
308.651	321.5
308.881	320.5
309.111	291.5
309.341	304.5
309.571	324.5
309.8	338.5
310.03	335.5
310.26	354.5
310.49	343.5
310.72	343.5
310.949	368.5
311.179	388.5
311.409	362.5
311.639	369.5
311.868	350.5
312.098	346.5
312.328	353.5
312.557	392.5
312.787	405.5
313.017	387.5
313.246	358.5
313.476	350.5
313.706	360.5
313.935	357.5
314.165	354.5
314.394	392.5
314.624	386.5
314.853	374.5
315.083	348.5
315.312	354.5
315.542	322.5
315.771	343.5
316.001	356.5
316.23	342.5
316.46	348.5
316.689	343.5
316.919	344.5
317.148	358.5
317.377	327.5
317.607	346.5
317.836	359.5
318.065	334.5
318.295	367.5
318.524	334.5
318.753	347.5
318.983	341.5
319.212	351.5
319.441	374.5
319.67	350.5
319.9	352.5
320.129	357.5
320.358	366.5
320.587	367.5
320.816	377.5
321.046	382.5
321.275	369.5
321.504	375.5
321.733	360.5
321.962	390.5
322.191	395.5
322.42	423.5
322.649	431.5
322.878	461.5
323.108	458.5
323.337	490.5
323.566	521.5
323.795	578.5
324.024	616.5
324.253	751.5
324.482	1114.5
324.71	1651.5
324.939	2376.5
325.168	2088.5
325.397	1136.5
325.626	738.5
325.855	607.5
326.084	534.5
326.313	530.5
326.542	518.5
326.77	586.5
326.999	685.5
327.228	922.5
327.457	1488.5
327.686	1826.5
327.914	1248.5
328.143	809.5
328.372	699.5
328.6	608.5
328.829	613.5
329.058	622.5
329.287	605.5
329.515	566.5
329.744	517.5
329.972	507.5
330.201	556.5
330.43	597.5
330.658	631.5
330.887	666.5
331.115	645.5
331.344	517.5
331.572	467.5
331.801	496.5
332.03	452.5
332.258	460.5
332.486	442.5
332.715	432.5
332.943	408.5
333.172	432.5
333.4	428.5
333.629	448.5
333.857	437.5
334.085	445.5
334.314	482.5
334.542	507.5
334.771	508.5
334.999	454.5
335.227	425.5
335.455	413.5
335.684	406.5
335.912	398.5
336.14	375.5
336.369	376.5
336.597	410.5
336.825	402.5
337.053	391.5
337.281	392.5
337.51	389.5
337.738	406.5
337.966	402.5
338.194	409.5
338.422	399.5
338.65	404.5
338.878	428.5
339.106	395.5
339.334	382.5
339.562	381.5
339.79	404.5
340.018	400.5
340.246	385.5
340.474	413.5
340.702	399.5
340.93	382.5
341.158	380.5
341.386	392.5
341.614	379.5
341.842	404.5
342.07	382.5
342.298	398.5
342.526	352.5
342.754	369.5
342.981	358.5
343.209	380.5
343.437	382.5
343.665	351.5
343.893	369.5
344.12	381.5
344.348	364.5
344.576	390.5
344.804	390.5
345.031	401.5
345.259	425.5
345.487	402.5
345.714	412.5
345.942	383.5
346.17	399.5
346.397	366.5
346.625	380.5
346.853	385.5
347.08	386.5
347.308	388.5
347.535	395.5
347.763	386.5
347.99	380.5
348.218	400.5
348.445	410.5
348.673	385.5
348.9	394.5
349.128	382.5
349.355	369.5
349.583	371.5
349.81	354.5
350.037	355.5
350.265	367.5
350.492	383.5
350.72	375.5
350.947	389.5
351.174	407.5
351.402	396.5
351.629	385.5
351.856	399.5
352.083	392.5
352.311	419.5
352.538	418.5
352.765	410.5
352.992	396.5
353.22	396.5
353.447	372.5
353.674	361.5
353.901	342.5
354.128	342.5
354.355	356.5
354.583	370.5
354.81	354.5
355.037	337.5
355.264	353.5
355.491	351.5
355.718	351.5
355.945	344.5
356.172	353.5
356.399	342.5
356.626	326.5
356.853	348.5
357.08	340.5
357.307	353.5
357.534	347.5
357.761	341.5
357.988	360.5
358.215	350.5
358.441	338.5
358.668	348.5
358.895	371.5
359.122	364.5
359.349	382.5
359.576	374.5
359.802	407.5
360.029	438.5
360.256	461.5
360.483	420.5
360.709	394.5
360.936	399.5
361.163	378.5
361.39	390.5
361.616	369.5
361.843	379.5
362.07	382.5
362.296	372.5
362.523	399.5
362.749	383.5
362.976	377.5
363.203	374.5
363.429	353.5
363.656	371.5
363.882	378.5
364.109	349.5
364.335	368.5
364.562	371.5
364.788	376.5
365.015	367.5
365.241	348.5
365.468	356.5
365.694	363.5
365.92	363.5
366.147	343.5
366.373	357.5
366.599	366.5
366.826	360.5
367.052	359.5
367.278	342.5
367.505	348.5
367.731	340.5
367.957	347.5
368.184	350.5
368.41	337.5
368.636	388.5
368.862	383.5
369.089	381.5
369.315	362.5
369.541	354.5
369.767	363.5
369.993	338.5
370.219	361.5
370.445	326.5
370.672	329.5
370.898	358.5
371.124	360.5
371.35	336.5
371.576	338.5
371.802	331.5
372.028	328.5
372.254	355.5
372.48	350.5
372.706	341.5
372.932	350.5
373.158	337.5
373.384	350.5
373.61	340.5
373.835	330.5
374.061	331.5
374.287	356.5
374.513	360.5
374.739	338.5
374.965	370.5
375.191	358.5
375.416	342.5
375.642	347.5
375.868	345.5
376.094	351.5
376.319	340.5
376.545	334.5
376.771	322.5
376.997	346.5
377.222	342.5
377.448	343.5
377.674	338.5
377.899	339.5
378.125	350.5
378.35	325.5
378.576	344.5
378.802	327.5
379.027	330.5
379.253	327.5
379.478	339.5
379.704	331.5
379.929	337.5
380.155	347.5
380.38	336.5
380.606	348.5
380.831	340.5
381.057	347.5
381.282	355.5
381.507	354.5
381.733	349.5
381.958	357.5
382.184	342.5
382.409	352.5
382.634	359.5
382.86	362.5
383.085	356.5
383.31	356.5
383.535	359.5
383.761	342.5
383.986	356.5
384.211	351.5
384.436	366.5
384.662	335.5
384.887	354.5
385.112	346.5
385.337	359.5
385.562	361.5
385.787	376.5
386.013	380.5
386.238	390.5
386.463	376.5
386.688	368.5
386.913	376.5
387.138	363.5
387.363	364.5
387.588	356.5
387.813	351.5
388.038	353.5
388.263	363.5
388.488	360.5
388.713	368.5
388.938	380.5
389.163	376.5
389.387	364.5
389.612	355.5
389.837	382.5
390.062	379.5
390.287	370.5
390.512	352.5
390.736	380.5
390.961	375.5
391.186	358.5
391.411	365.5
391.636	353.5
391.86	354.5
392.085	367.5
392.31	352.5
392.534	355.5
392.759	369.5
392.984	380.5
393.208	358.5
393.433	382.5
393.658	376.5
393.882	373.5
394.107	362.5
394.331	368.5
394.556	348.5
394.78	372.5
395.005	357.5
395.229	370.5
395.454	364.5
395.678	368.5
395.903	384.5
396.127	408.5
396.352	417.5
396.576	392.5
396.801	384.5
397.025	371.5
397.249	379.5
397.474	378.5
397.698	400.5
397.922	397.5
398.147	416.5
398.371	391.5
398.595	407.5
398.82	403.5
399.044	398.5
399.268	396.5
399.492	410.5
399.717	420.5
399.941	469.5
400.165	478.5
400.389	512.5
400.613	490.5
400.837	449.5
401.062	452.5
401.286	410.5
401.51	434.5
401.734	433.5
401.958	406.5
402.182	438.5
402.406	424.5
402.63	441.5
402.854	428.5
403.078	424.5
403.302	424.5
403.526	432.5
403.75	442.5
403.974	430.5
404.198	439.5
404.422	428.5
404.645	423.5
404.869	427.5
405.093	456.5
405.317	510.5
405.541	548.5
405.765	519.5
405.988	474.5
406.212	486.5
406.436	509.5
406.66	509.5
406.883	485.5
407.107	501.5
407.331	522.5
407.555	587.5
407.778	610.5
408.002	540.5
408.226	478.5
408.449	487.5
408.673	477.5
408.896	524.5
409.12	532.5
409.344	521.5
409.567	462.5
409.791	459.5
410.014	430.5
410.238	425.5
410.461	432.5
410.685	438.5
410.908	445.5
411.132	495.5
411.355	513.5
411.578	505.5
411.802	459.5
412.025	417.5
412.249	451.5
412.472	467.5
412.695	504.5
412.919	487.5
413.142	438.5
413.365	436.5
413.589	415.5
413.812	399.5
414.035	405.5
414.258	419.5
414.482	396.5
414.705	404.5
414.928	402.5
415.151	398.5
415.374	394.5
415.597	418.5
415.821	383.5
416.044	409.5
416.267	416.5
416.49	397.5
416.713	414.5
416.936	415.5
417.159	418.5
417.382	402.5
417.605	419.5
417.828	446.5
418.051	431.5
418.274	432.5
418.497	414.5
418.72	423.5
418.943	394.5
419.166	424.5
419.389	449.5
419.611	432.5
419.834	428.5
420.057	443.5
420.28	462.5
420.503	442.5
420.726	439.5
420.948	458.5
421.171	514.5
421.394	530.5
421.617	490.5
421.839	444.5
422.062	452.5
422.285	451.5
422.507	503.5
422.73	586.5
422.953	571.5
423.175	509.5
423.398	468.5
423.621	463.5
423.843	486.5
424.066	474.5
424.288	480.5
424.511	492.5
424.733	548.5
424.956	642.5
425.178	602.5
425.401	614.5
425.623	633.5
425.846	536.5
426.068	507.5
426.291	487.5
426.513	491.5
426.735	512.5
426.958	543.5
427.18	627.5
427.402	771.5
427.625	820.5
427.847	754.5
428.069	634.5
428.292	552.5
428.514	489.5
428.736	485.5
428.958	475.5
429.181	454.5
429.403	446.5
429.625	464.5
429.847	489.5
430.069	598.5
430.292	566.5
430.514	478.5
430.736	446.5
430.958	467.5
431.18	434.5
431.402	436.5
431.624	427.5
431.846	394.5
432.068	412.5
432.29	426.5
432.512	414.5
432.734	438.5
432.956	427.5
433.178	427.5
433.4	441.5
433.622	437.5
433.844	432.5
434.066	430.5
434.287	425.5
434.509	423.5
434.731	428.5
434.953	422.5
435.175	435.5
435.397	476.5
435.618	496.5
435.84	539.5
436.062	631.5
436.284	674.5
436.505	532.5
436.727	515.5
436.949	478.5
437.17	474.5
437.392	463.5
437.614	474.5
437.835	518.5
438.057	609.5
438.278	728.5
438.5	698.5
438.721	752.5
438.943	718.5
439.165	582.5
439.386	569.5
439.608	518.5
439.829	507.5
440.05	549.5
440.272	581.5
440.493	549.5
440.715	492.5
440.936	459.5
441.158	462.5
441.379	470.5
441.6	457.5
441.822	476.5
442.043	528.5
442.264	657.5
442.486	657.5
442.707	546.5
442.928	524.5
443.149	522.5
443.371	536.5
443.592	587.5
443.813	681.5
444.034	730.5
444.255	626.5
444.476	530.5
444.698	497.5
444.919	471.5
445.14	594.5
445.361	561.5
445.582	556.5
445.803	610.5
446.024	743.5
446.245	726.5
446.466	650.5
446.687	558.5
446.908	526.5
447.129	494.5
447.35	476.5
447.571	457.5
447.792	459.5
448.013	486.5
448.234	480.5
448.455	551.5
448.675	640.5
448.896	747.5
449.117	637.5
449.338	586.5
449.559	684.5
449.779	774.5
450	641.5
450.221	542.5
450.442	499.5
450.662	481.5
450.883	498.5
451.104	501.5
451.324	481.5
451.545	442.5
451.766	455.5
451.986	400.5
452.207	405.5
452.428	412.5
452.648	429.5
452.869	416.5
453.089	434.5
453.31	446.5
453.53	418.5
453.751	394.5
453.971	419.5
454.192	448.5
454.412	423.5
454.633	430.5
454.853	429.5
455.073	413.5
455.294	452.5
455.514	528.5
455.734	514.5
455.955	408.5
456.175	410.5
456.395	382.5
456.616	385.5
456.836	378.5
457.056	372.5
457.276	352.5
457.497	376.5
457.717	372.5
457.937	407.5
458.157	418.5
458.377	390.5
458.598	431.5
458.818	493.5
459.038	578.5
459.258	598.5
459.478	505.5
459.698	448.5
459.918	430.5
460.138	421.5
460.358	404.5
460.578	398.5
460.798	423.5
461.018	421.5
461.238	406.5
461.458	414.5
461.678	420.5
461.898	434.5
462.118	406.5
462.338	416.5
462.558	406.5
462.777	413.5
462.997	400.5
463.217	427.5
463.437	426.5
463.657	434.5
463.876	402.5
464.096	419.5
464.316	421.5
464.536	434.5
464.755	458.5
464.975	443.5
465.195	494.5
465.414	614.5
465.634	554.5
465.854	465.5
466.073	452.5
466.293	445.5
466.512	419.5
466.732	412.5
466.951	421.5
467.171	414.5
467.391	404.5
467.61	438.5
467.829	430.5
468.049	431.5
468.268	422.5
468.488	405.5
468.707	391.5
468.927	411.5
469.146	396.5
469.365	409.5
469.585	401.5
469.804	415.5
470.023	426.5
470.243	417.5
470.462	415.5
470.681	443.5
470.901	456.5
471.12	417.5
471.339	432.5
471.558	427.5
471.777	424.5
471.997	418.5
472.216	428.5
472.435	471.5
472.654	463.5
472.873	433.5
473.092	427.5
473.311	427.5
473.53	419.5
473.749	427.5
473.968	485.5
474.187	576.5
474.406	591.5
474.625	502.5
474.844	456.5
475.063	442.5
475.282	417.5
475.501	434.5
475.72	448.5
475.939	426.5
476.158	462.5
476.377	425.5
476.596	437.5
476.814	430.5
477.033	456.5
477.252	438.5
477.471	438.5
477.69	446.5
477.908	439.5
478.127	440.5
478.346	452.5
478.564	466.5
478.783	471.5
479.002	466.5
479.22	456.5
479.439	471.5
479.658	506.5
479.876	518.5
480.095	507.5
480.313	542.5
480.532	520.5
480.751	510.5
480.969	535.5
481.188	609.5
481.406	642.5
481.624	570.5
481.843	536.5
482.061	518.5
482.28	491.5
482.498	525.5
482.717	488.5
482.935	495.5
483.153	498.5
483.372	513.5
483.59	507.5
483.808	510.5
484.027	498.5
484.245	519.5
484.463	511.5
484.681	514.5
484.9	518.5
485.118	490.5
485.336	512.5
485.554	496.5
485.772	525.5
485.99	505.5
486.209	514.5
486.427	533.5
486.645	542.5
486.863	562.5
487.081	548.5
487.299	525.5
487.517	545.5
487.735	551.5
487.953	546.5
488.171	554.5
488.389	549.5
488.607	540.5
488.825	543.5
489.043	548.5
489.261	535.5
489.479	546.5
489.696	551.5
489.914	544.5
490.132	569.5
490.35	558.5
490.568	568.5
490.786	592.5
491.003	595.5
491.221	599.5
491.439	636.5
491.657	612.5
491.874	611.5
492.092	639.5
492.31	638.5
492.527	645.5
492.745	646.5
492.963	639.5
493.18	657.5
493.398	638.5
493.615	646.5
493.833	666.5
494.05	653.5
494.268	660.5
494.485	647.5
494.703	664.5
494.92	647.5
495.138	673.5
495.355	680.5
495.573	647.5
495.79	660.5
496.008	667.5
496.225	659.5
496.442	666.5
496.66	645.5
496.877	651.5
497.094	645.5
497.312	657.5
497.529	660.5
497.746	675.5
497.963	673.5
498.181	687.5
498.398	704.5
498.615	687.5
498.832	695.5
499.049	675.5
499.267	699.5
499.484	710.5
499.701	730.5
499.918	719.5
500.135	756.5
500.352	746.5
500.569	765.5
500.786	794.5
501.003	777.5
501.22	763.5
501.437	779.5
501.654	753.5
501.871	743.5
502.088	738.5
502.305	734.5
502.522	716.5
502.739	692.5
502.956	660.5
503.172	658.5
503.389	661.5
503.606	651.5
503.823	657.5
504.04	666.5
504.256	652.5
504.473	636.5
504.69	633.5
504.907	630.5
505.123	618.5
505.34	609.5
505.557	665.5
505.773	631.5
505.99	630.5
506.207	628.5
506.423	616.5
506.64	622.5
506.856	590.5
507.073	618.5
507.289	625.5
507.506	607.5
507.722	634.5
507.939	656.5
508.155	636.5
508.372	625.5
508.588	581.5
508.805	615.5
509.021	608.5
509.238	618.5
509.454	622.5
509.67	646.5
509.887	600.5
510.103	624.5
510.319	634.5
510.536	743.5
510.752	1307.5
510.968	1072.5
511.184	657.5
511.401	626.5
511.617	601.5
511.833	587.5
512.049	591.5
512.265	574.5
512.481	589.5
512.698	573.5
512.914	571.5
513.13	556.5
513.346	571.5
513.562	580.5
513.778	596.5
513.994	583.5
514.21	588.5
514.426	650.5
514.642	701.5
514.858	751.5
515.074	794.5
515.29	976.5
515.506	1504.5
515.721	1202.5
515.937	768.5
516.153	664.5
516.369	632.5
516.585	610.5
516.801	570.5
517.016	586.5
517.232	582.5
517.448	587.5
517.664	577.5
517.879	573.5
518.095	590.5
518.311	588.5
518.527	558.5
518.742	589.5
518.958	556.5
519.173	586.5
519.389	604.5
519.605	582.5
519.82	588.5
