Data from 1980.PennyLincolnUp.Lamp.En5.5.200Scan.071819.P1_HRD10591_16-38-58-957.txt Node
Date: Thu Jul 18 16:38:58 EDT 2019
User: cochatt
Spectrometer: HR+D1059
Trigger mode: 1
Integration Time (sec): 1.000000E-1
Scans to average: 1
Electric dark correction enabled: true
Nonlinearity correction enabled: false
Boxcar width: 0
XAxis mode: Wavelengths
Number of Pixels in Spectrum: 2048
>>>>>Begin Spectral Data<<<<<
223.165	-17.62
223.4	-17.62
223.635	-17.62
223.869	-18.62
224.104	-2.62
224.338	-13.62
224.573	-16.62
224.808	-10.62
225.042	-0.62
225.277	-10.62
225.511	-9.62
225.746	5.38
225.98	-3.62
226.215	9.38
226.449	7.38
226.683	25.38
226.918	22.38
227.152	34.38
227.387	32.38
227.621	20.38
227.856	25.38
228.09	44.38
228.324	46.38
228.559	47.38
228.793	59.38
229.027	117.38
229.262	90.38
229.496	120.38
229.73	129.38
229.964	161.38
230.199	145.38
230.433	132.38
230.667	113.38
230.901	112.38
231.136	105.38
231.37	121.38
231.604	100.38
231.838	109.38
232.072	107.38
232.306	115.38
232.541	109.38
232.775	98.38
233.009	115.38
233.243	104.38
233.477	102.38
233.711	113.38
233.945	107.38
234.179	115.38
234.413	123.38
234.647	112.38
234.881	110.38
235.115	101.38
235.349	107.38
235.583	113.38
235.817	117.38
236.051	118.38
236.285	123.38
236.519	112.38
236.753	129.38
236.987	151.38
237.221	174.38
237.455	246.38
237.689	215.38
237.922	167.38
238.156	131.38
238.39	119.38
238.624	117.38
238.858	127.38
239.091	119.38
239.325	127.38
239.559	121.38
239.793	125.38
240.027	127.38
240.26	147.38
240.494	161.38
240.728	160.38
240.961	140.38
241.195	137.38
241.429	129.38
241.662	118.38
241.896	125.38
242.13	119.38
242.363	119.38
242.597	125.38
242.83	133.38
243.064	123.38
243.298	129.38
243.531	139.38
243.765	130.38
243.998	131.38
244.232	138.38
244.465	142.38
244.699	143.38
244.932	134.38
245.166	140.38
245.399	135.38
245.633	139.38
245.866	134.38
246.099	140.38
246.333	137.38
246.566	145.38
246.8	141.38
247.033	164.38
247.266	151.38
247.5	167.38
247.733	166.38
247.966	180.38
248.2	173.38
248.433	174.38
248.666	173.38
248.899	183.38
249.133	197.38
249.366	203.38
249.599	205.38
249.832	184.38
250.066	184.38
250.299	188.38
250.532	185.38
250.765	211.38
250.998	218.38
251.231	240.38
251.465	226.38
251.698	196.38
251.931	208.38
252.164	199.38
252.397	199.38
252.63	207.38
252.863	208.38
253.096	215.38
253.329	232.38
253.562	233.38
253.795	231.38
254.028	225.38
254.261	229.38
254.494	239.38
254.727	265.38
254.96	277.38
255.193	290.38
255.426	263.38
255.659	237.38
255.892	247.38
256.124	224.38
256.357	240.38
256.59	232.38
256.823	235.38
257.056	214.38
257.289	203.38
257.521	216.38
257.754	196.38
257.987	207.38
258.22	227.38
258.452	210.38
258.685	210.38
258.918	228.38
259.151	222.38
259.383	207.38
259.616	228.38
259.849	225.38
260.081	225.38
260.314	244.38
260.547	264.38
260.779	236.38
261.012	235.38
261.244	232.38
261.477	222.38
261.71	241.38
261.942	229.38
262.175	249.38
262.407	243.38
262.64	194.38
262.872	203.38
263.105	230.38
263.337	213.38
263.57	203.38
263.802	212.38
264.035	209.38
264.267	227.38
264.499	187.38
264.732	201.38
264.964	201.38
265.197	205.38
265.429	205.38
265.661	195.38
265.894	200.38
266.126	224.38
266.358	222.38
266.591	207.38
266.823	220.38
267.055	208.38
267.287	220.38
267.52	222.38
267.752	234.38
267.984	206.38
268.216	202.38
268.448	217.38
268.681	235.38
268.913	230.38
269.145	262.38
269.377	270.38
269.609	264.38
269.841	276.38
270.073	283.38
270.306	289.38
270.538	326.38
270.77	328.38
271.002	335.38
271.234	301.38
271.466	314.38
271.698	309.38
271.93	317.38
272.162	314.38
272.394	326.38
272.626	300.38
272.858	288.38
273.09	288.38
273.322	284.38
273.553	268.38
273.785	285.38
274.017	301.38
274.249	281.38
274.481	263.38
274.713	243.38
274.945	259.38
275.176	253.38
275.408	252.38
275.64	251.38
275.872	245.38
276.104	255.38
276.335	262.38
276.567	261.38
276.799	295.38
277.031	307.38
277.262	325.38
277.494	319.38
277.726	319.38
277.957	290.38
278.189	274.38
278.421	253.38
278.652	250.38
278.884	256.38
279.115	263.38
279.347	255.38
279.579	262.38
279.81	281.38
280.042	263.38
280.273	259.38
280.505	243.38
280.736	254.38
280.968	248.38
281.199	241.38
281.431	246.38
281.662	227.38
281.894	251.38
282.125	269.38
282.356	267.38
282.588	307.38
282.819	306.38
283.051	276.38
283.282	236.38
283.513	263.38
283.745	265.38
283.976	244.38
284.207	264.38
284.439	263.38
284.67	243.38
284.901	268.38
285.132	235.38
285.364	259.38
285.595	260.38
285.826	256.38
286.057	255.38
286.288	255.38
286.52	263.38
286.751	243.38
286.982	255.38
287.213	248.38
287.444	239.38
287.675	252.38
287.906	251.38
288.138	291.38
288.369	291.38
288.6	283.38
288.831	264.38
289.062	286.38
289.293	273.38
289.524	256.38
289.755	255.38
289.986	259.38
290.217	244.38
290.448	259.38
290.679	271.38
290.91	271.38
291.141	276.38
291.371	252.38
291.602	261.38
291.833	259.38
292.064	245.38
292.295	273.38
292.526	267.38
292.757	252.38
292.987	278.38
293.218	275.38
293.449	273.38
293.68	263.38
293.91	264.38
294.141	254.38
294.372	254.38
294.603	270.38
294.833	263.38
295.064	257.38
295.295	253.38
295.525	259.38
295.756	275.38
295.987	280.38
296.217	307.38
296.448	317.38
296.679	296.38
296.909	292.38
297.14	256.38
297.37	259.38
297.601	270.38
297.831	257.38
298.062	253.38
298.292	285.38
298.523	253.38
298.753	275.38
298.984	272.38
299.214	267.38
299.445	275.38
299.675	280.38
299.905	274.38
300.136	289.38
300.366	278.38
300.597	277.38
300.827	281.38
301.057	292.38
301.288	305.38
301.518	280.38
301.748	274.38
301.979	282.38
302.209	296.38
302.439	304.38
302.669	303.38
302.9	311.38
303.13	299.38
303.36	285.38
303.59	296.38
303.82	306.38
304.051	293.38
304.281	296.38
304.511	294.38
304.741	298.38
304.971	294.38
305.201	288.38
305.431	286.38
305.661	293.38
305.891	314.38
306.121	285.38
306.352	302.38
306.582	308.38
306.812	305.38
307.042	310.38
307.272	293.38
307.502	307.38
307.731	314.38
307.961	278.38
308.191	295.38
308.421	296.38
308.651	317.38
308.881	329.38
309.111	301.38
309.341	306.38
309.571	329.38
309.8	342.38
310.03	364.38
310.26	359.38
310.49	379.38
310.72	371.38
310.949	387.38
311.179	406.38
311.409	365.38
311.639	351.38
311.868	356.38
312.098	373.38
312.328	363.38
312.557	387.38
312.787	403.38
313.017	430.38
313.246	391.38
313.476	369.38
313.706	356.38
313.935	359.38
314.165	401.38
314.394	392.38
314.624	385.38
314.853	384.38
315.083	365.38
315.312	371.38
315.542	348.38
315.771	335.38
316.001	354.38
316.23	356.38
316.46	358.38
316.689	356.38
316.919	358.38
317.148	369.38
317.377	383.38
317.607	384.38
317.836	389.38
318.065	351.38
318.295	347.38
318.524	343.38
318.753	354.38
318.983	344.38
319.212	359.38
319.441	352.38
319.67	398.38
319.9	371.38
320.129	348.38
320.358	360.38
320.587	367.38
320.816	402.38
321.046	381.38
321.275	381.38
321.504	400.38
321.733	379.38
321.962	395.38
322.191	415.38
322.42	438.38
322.649	457.38
322.878	463.38
323.108	491.38
323.337	493.38
323.566	533.38
323.795	575.38
324.024	632.38
324.253	773.38
324.482	1160.38
324.71	1754.38
324.939	2584.38
325.168	2248.38
325.397	1220.38
325.626	779.38
325.855	639.38
326.084	556.38
326.313	548.38
326.542	521.38
326.77	595.38
326.999	737.38
327.228	1015.38
327.457	1514.38
327.686	1948.38
327.914	1319.38
328.143	841.38
328.372	724.38
328.6	662.38
328.829	628.38
329.058	679.38
329.287	671.38
329.515	612.38
329.744	543.38
329.972	535.38
330.201	563.38
330.43	633.38
330.658	656.38
330.887	676.38
331.115	680.38
331.344	561.38
331.572	485.38
331.801	513.38
332.03	495.38
332.258	462.38
332.486	454.38
332.715	424.38
332.943	422.38
333.172	436.38
333.4	430.38
333.629	432.38
333.857	460.38
334.085	462.38
334.314	507.38
334.542	519.38
334.771	548.38
334.999	512.38
335.227	460.38
335.455	439.38
335.684	435.38
335.912	412.38
336.14	416.38
336.369	409.38
336.597	409.38
336.825	435.38
337.053	429.38
337.281	415.38
337.51	388.38
337.738	384.38
337.966	429.38
338.194	416.38
338.422	409.38
338.65	413.38
338.878	376.38
339.106	387.38
339.334	375.38
339.562	388.38
339.79	385.38
340.018	383.38
340.246	406.38
340.474	397.38
340.702	411.38
340.93	392.38
341.158	377.38
341.386	396.38
341.614	391.38
341.842	390.38
342.07	383.38
342.298	389.38
342.526	385.38
342.754	381.38
342.981	360.38
343.209	371.38
343.437	351.38
343.665	383.38
343.893	387.38
344.12	388.38
344.348	399.38
344.576	383.38
344.804	413.38
345.031	411.38
345.259	414.38
345.487	404.38
345.714	405.38
345.942	390.38
346.17	411.38
346.397	389.38
346.625	401.38
346.853	396.38
347.08	397.38
347.308	410.38
347.535	403.38
347.763	408.38
347.99	407.38
348.218	402.38
348.445	420.38
348.673	419.38
348.9	407.38
349.128	376.38
349.355	363.38
349.583	365.38
349.81	380.38
350.037	379.38
350.265	382.38
350.492	375.38
350.72	381.38
350.947	383.38
351.174	391.38
351.402	417.38
351.629	398.38
351.856	406.38
352.083	427.38
352.311	405.38
352.538	422.38
352.765	412.38
352.992	408.38
353.22	401.38
353.447	395.38
353.674	368.38
353.901	382.38
354.128	369.38
354.355	362.38
354.583	375.38
354.81	371.38
355.037	356.38
355.264	349.38
355.491	363.38
355.718	346.38
355.945	355.38
356.172	349.38
356.399	351.38
356.626	342.38
356.853	342.38
357.08	347.38
357.307	320.38
357.534	357.38
357.761	351.38
357.988	355.38
358.215	358.38
358.441	364.38
358.668	339.38
358.895	373.38
359.122	350.38
359.349	397.38
359.576	393.38
359.802	429.38
360.029	463.38
360.256	479.38
360.483	439.38
360.709	399.38
360.936	390.38
361.163	379.38
361.39	413.38
361.616	408.38
361.843	380.38
362.07	393.38
362.296	400.38
362.523	390.38
362.749	377.38
362.976	379.38
363.203	381.38
363.429	367.38
363.656	383.38
363.882	355.38
364.109	367.38
364.335	369.38
364.562	373.38
364.788	384.38
365.015	373.38
365.241	363.38
365.468	365.38
365.694	372.38
365.92	372.38
366.147	384.38
366.373	370.38
366.599	361.38
366.826	372.38
367.052	357.38
367.278	358.38
367.505	360.38
367.731	372.38
367.957	343.38
368.184	345.38
368.41	380.38
368.636	382.38
368.862	376.38
369.089	385.38
369.315	343.38
369.541	345.38
369.767	354.38
369.993	368.38
370.219	347.38
370.445	355.38
370.672	348.38
370.898	341.38
371.124	361.38
371.35	348.38
371.576	348.38
371.802	344.38
372.028	333.38
372.254	341.38
372.48	352.38
372.706	338.38
372.932	352.38
373.158	371.38
373.384	359.38
373.61	351.38
373.835	352.38
374.061	355.38
374.287	349.38
374.513	343.38
374.739	366.38
374.965	359.38
375.191	341.38
375.416	323.38
375.642	351.38
375.868	338.38
376.094	355.38
376.319	339.38
376.545	344.38
376.771	340.38
376.997	347.38
377.222	349.38
377.448	338.38
377.674	358.38
377.899	337.38
378.125	344.38
378.35	344.38
378.576	323.38
378.802	336.38
379.027	359.38
379.253	353.38
379.478	349.38
379.704	363.38
379.929	344.38
380.155	343.38
380.38	363.38
380.606	367.38
380.831	341.38
381.057	350.38
381.282	353.38
381.507	357.38
381.733	354.38
381.958	366.38
382.184	339.38
382.409	356.38
382.634	364.38
382.86	355.38
383.085	349.38
383.31	359.38
383.535	356.38
383.761	356.38
383.986	354.38
384.211	362.38
384.436	359.38
384.662	340.38
384.887	377.38
385.112	365.38
385.337	368.38
385.562	381.38
385.787	368.38
386.013	381.38
386.238	377.38
386.463	371.38
386.688	390.38
386.913	363.38
387.138	369.38
387.363	368.38
387.588	374.38
387.813	353.38
388.038	357.38
388.263	362.38
388.488	371.38
388.713	334.38
388.938	362.38
389.163	356.38
389.387	377.38
389.612	367.38
389.837	366.38
390.062	357.38
390.287	365.38
390.512	371.38
390.736	361.38
390.961	361.38
391.186	366.38
391.411	363.38
391.636	371.38
391.86	365.38
392.085	365.38
392.31	370.38
392.534	360.38
392.759	373.38
392.984	379.38
393.208	359.38
393.433	350.38
393.658	381.38
393.882	341.38
394.107	370.38
394.331	356.38
394.556	352.38
394.78	374.38
395.005	372.38
395.229	360.38
395.454	372.38
395.678	383.38
395.903	400.38
396.127	426.38
396.352	404.38
396.576	386.38
396.801	401.38
397.025	369.38
397.249	382.38
397.474	371.38
397.698	373.38
397.922	390.38
398.147	419.38
398.371	405.38
398.595	411.38
398.82	409.38
399.044	408.38
399.268	403.38
399.492	424.38
399.717	451.38
399.941	468.38
400.165	509.38
400.389	505.38
400.613	487.38
400.837	450.38
401.062	410.38
401.286	413.38
401.51	406.38
401.734	403.38
401.958	408.38
402.182	429.38
402.406	440.38
402.63	456.38
402.854	421.38
403.078	426.38
403.302	437.38
403.526	421.38
403.75	440.38
403.974	445.38
404.198	417.38
404.422	453.38
404.645	452.38
404.869	464.38
405.093	501.38
405.317	523.38
405.541	550.38
405.765	501.38
405.988	478.38
406.212	472.38
406.436	502.38
406.66	522.38
406.883	492.38
407.107	508.38
407.331	539.38
407.555	628.38
407.778	603.38
408.002	539.38
408.226	527.38
408.449	495.38
408.673	476.38
408.896	519.38
409.12	552.38
409.344	520.38
409.567	467.38
409.791	456.38
410.014	455.38
410.238	451.38
410.461	413.38
410.685	448.38
410.908	472.38
411.132	499.38
411.355	533.38
411.578	522.38
411.802	460.38
412.025	467.38
412.249	462.38
412.472	453.38
412.695	547.38
412.919	503.38
413.142	475.38
413.365	455.38
413.589	455.38
413.812	419.38
414.035	413.38
414.258	430.38
414.482	413.38
414.705	407.38
414.928	392.38
415.151	406.38
415.374	410.38
415.597	425.38
415.821	419.38
416.044	407.38
416.267	423.38
416.49	418.38
416.713	423.38
416.936	403.38
417.159	429.38
417.382	425.38
417.605	434.38
417.828	451.38
418.051	453.38
418.274	431.38
418.497	443.38
418.72	430.38
418.943	427.38
419.166	457.38
419.389	468.38
419.611	429.38
419.834	450.38
420.057	447.38
420.28	449.38
420.503	460.38
420.726	433.38
420.948	473.38
421.171	520.38
421.394	525.38
421.617	483.38
421.839	444.38
422.062	433.38
422.285	477.38
422.507	513.38
422.73	581.38
422.953	583.38
423.175	494.38
423.398	478.38
423.621	486.38
423.843	496.38
424.066	505.38
424.288	496.38
424.511	517.38
424.733	593.38
424.956	625.38
425.178	637.38
425.401	620.38
425.623	642.38
425.846	560.38
426.068	541.38
426.291	499.38
426.513	514.38
426.735	517.38
426.958	563.38
427.18	614.38
427.402	752.38
427.625	823.38
427.847	762.38
428.069	674.38
428.292	600.38
428.514	538.38
428.736	497.38
428.958	473.38
429.181	464.38
429.403	449.38
429.625	468.38
429.847	532.38
430.069	592.38
430.292	567.38
430.514	479.38
430.736	468.38
430.958	461.38
431.18	463.38
431.402	448.38
431.624	405.38
431.846	405.38
432.068	407.38
432.29	431.38
432.512	414.38
432.734	442.38
432.956	450.38
433.178	431.38
433.4	457.38
433.622	435.38
433.844	435.38
434.066	430.38
434.287	437.38
434.509	423.38
434.731	456.38
434.953	451.38
435.175	489.38
435.397	502.38
435.618	502.38
435.84	559.38
436.062	625.38
436.284	675.38
436.505	593.38
436.727	547.38
436.949	495.38
437.17	481.38
437.392	480.38
437.614	470.38
437.835	534.38
438.057	636.38
438.278	738.38
438.5	718.38
438.721	751.38
438.943	751.38
439.165	599.38
439.386	547.38
439.608	536.38
439.829	547.38
440.05	567.38
440.272	594.38
440.493	565.38
440.715	526.38
440.936	470.38
441.158	485.38
441.379	488.38
441.6	507.38
441.822	511.38
442.043	559.38
442.264	636.38
442.486	665.38
442.707	555.38
442.928	513.38
443.149	539.38
443.371	557.38
443.592	595.38
443.813	700.38
444.034	719.38
444.255	599.38
444.476	536.38
444.698	494.38
444.919	491.38
445.14	592.38
445.361	535.38
445.582	559.38
445.803	643.38
446.024	749.38
446.245	749.38
446.466	654.38
446.687	566.38
446.908	520.38
447.129	498.38
447.35	497.38
447.571	483.38
447.792	471.38
448.013	491.38
448.234	492.38
448.455	574.38
448.675	650.38
448.896	773.38
449.117	651.38
449.338	627.38
449.559	716.38
449.779	797.38
450	664.38
450.221	525.38
450.442	481.38
450.662	475.38
450.883	483.38
451.104	496.38
451.324	476.38
451.545	484.38
451.766	454.38
451.986	447.38
452.207	418.38
452.428	423.38
452.648	429.38
452.869	429.38
453.089	442.38
453.31	451.38
453.53	428.38
453.751	427.38
453.971	442.38
454.192	467.38
454.412	457.38
454.633	438.38
454.853	433.38
455.073	411.38
455.294	428.38
455.514	526.38
455.734	506.38
455.955	448.38
456.175	410.38
456.395	411.38
456.616	393.38
456.836	386.38
457.056	410.38
457.276	391.38
457.497	395.38
457.717	386.38
457.937	392.38
458.157	403.38
458.377	423.38
458.598	455.38
458.818	502.38
459.038	612.38
459.258	606.38
459.478	498.38
459.698	463.38
459.918	444.38
460.138	414.38
460.358	402.38
460.578	429.38
460.798	414.38
461.018	433.38
461.238	424.38
461.458	411.38
461.678	419.38
461.898	399.38
462.118	409.38
462.338	421.38
462.558	431.38
462.777	413.38
462.997	421.38
463.217	435.38
463.437	434.38
463.657	468.38
463.876	433.38
464.096	443.38
464.316	427.38
464.536	465.38
464.755	458.38
464.975	467.38
465.195	514.38
465.414	631.38
465.634	550.38
465.854	486.38
466.073	455.38
466.293	444.38
466.512	415.38
466.732	429.38
466.951	418.38
467.171	425.38
467.391	429.38
467.61	447.38
467.829	436.38
468.049	450.38
468.268	445.38
468.488	415.38
468.707	411.38
468.927	408.38
469.146	393.38
469.365	417.38
469.585	405.38
469.804	423.38
470.023	439.38
470.243	433.38
470.462	441.38
470.681	455.38
470.901	465.38
471.12	459.38
471.339	439.38
471.558	429.38
471.777	444.38
471.997	443.38
472.216	445.38
472.435	465.38
472.654	487.38
472.873	424.38
473.092	439.38
473.311	440.38
473.53	426.38
473.749	440.38
473.968	494.38
474.187	609.38
474.406	629.38
474.625	504.38
474.844	459.38
475.063	435.38
475.282	422.38
475.501	447.38
475.72	456.38
475.939	448.38
476.158	438.38
476.377	443.38
476.596	427.38
476.814	447.38
477.033	448.38
477.252	441.38
477.471	469.38
477.69	477.38
477.908	432.38
478.127	461.38
478.346	455.38
478.564	467.38
478.783	460.38
479.002	489.38
479.22	482.38
479.439	505.38
479.658	528.38
479.876	544.38
480.095	534.38
480.313	535.38
480.532	551.38
480.751	521.38
480.969	521.38
481.188	628.38
481.406	699.38
481.624	596.38
481.843	561.38
482.061	527.38
482.28	511.38
482.498	488.38
482.717	504.38
482.935	504.38
483.153	502.38
483.372	514.38
483.59	518.38
483.808	503.38
484.027	500.38
484.245	528.38
484.463	528.38
484.681	524.38
484.9	521.38
485.118	516.38
485.336	501.38
485.554	505.38
485.772	521.38
485.99	531.38
486.209	539.38
486.427	510.38
486.645	555.38
486.863	579.38
487.081	571.38
487.299	551.38
487.517	575.38
487.735	544.38
487.953	573.38
488.171	559.38
488.389	541.38
488.607	564.38
488.825	571.38
489.043	560.38
489.261	573.38
489.479	569.38
489.696	576.38
489.914	584.38
490.132	556.38
490.35	561.38
490.568	580.38
490.786	592.38
491.003	608.38
491.221	630.38
491.439	635.38
491.657	633.38
491.874	631.38
492.092	668.38
492.31	659.38
492.527	668.38
492.745	655.38
492.963	657.38
493.18	650.38
493.398	672.38
493.615	651.38
493.833	646.38
494.05	668.38
494.268	669.38
494.485	648.38
494.703	664.38
494.92	677.38
495.138	677.38
495.355	695.38
495.573	696.38
495.79	683.38
496.008	673.38
496.225	684.38
496.442	669.38
496.66	649.38
496.877	680.38
497.094	680.38
497.312	675.38
497.529	663.38
497.746	675.38
497.963	698.38
498.181	689.38
498.398	709.38
498.615	715.38
498.832	691.38
499.049	714.38
499.267	704.38
499.484	724.38
499.701	736.38
499.918	752.38
500.135	763.38
500.352	762.38
500.569	798.38
500.786	805.38
501.003	790.38
501.22	780.38
501.437	780.38
501.654	772.38
501.871	804.38
