Data from 1980.PennyLincolnUp.Lamp.En5.5.200Scan.071819.P1_HRD10591_16-39-01-958.txt Node
Date: Thu Jul 18 16:39:01 EDT 2019
User: cochatt
Spectrometer: HR+D1059
Trigger mode: 1
Integration Time (sec): 1.000000E-1
Scans to average: 1
Electric dark correction enabled: true
Nonlinearity correction enabled: false
Boxcar width: 0
XAxis mode: Wavelengths
Number of Pixels in Spectrum: 2048
>>>>>Begin Spectral Data<<<<<
223.165	-18.19
223.4	-18.19
223.635	-18.19
223.869	-0.19
224.104	-22.19
224.338	0.81
224.573	-5.19
224.808	-16.19
225.042	-9.19
225.277	-13.19
225.511	-11.19
225.746	-1.19
225.98	5.81
226.215	2.81
226.449	11.81
226.683	22.81
226.918	28.81
227.152	23.81
227.387	25.81
227.621	48.81
227.856	48.81
228.09	44.81
228.324	62.81
228.559	48.81
228.793	75.81
229.027	103.81
229.262	109.81
229.496	130.81
229.73	144.81
229.964	161.81
230.199	152.81
230.433	130.81
230.667	108.81
230.901	118.81
231.136	121.81
231.37	120.81
231.604	122.81
231.838	113.81
232.072	110.81
232.306	108.81
232.541	114.81
232.775	128.81
233.009	107.81
233.243	112.81
233.477	126.81
233.711	118.81
233.945	125.81
234.179	127.81
234.413	119.81
234.647	133.81
234.881	124.81
235.115	112.81
235.349	128.81
235.583	122.81
235.817	113.81
236.051	140.81
236.285	130.81
236.519	142.81
236.753	149.81
236.987	156.81
237.221	203.81
237.455	252.81
237.689	194.81
237.922	141.81
238.156	136.81
238.39	164.81
238.624	142.81
238.858	129.81
239.091	126.81
239.325	134.81
239.559	140.81
239.793	132.81
240.027	139.81
240.26	146.81
240.494	160.81
240.728	152.81
240.961	175.81
241.195	149.81
241.429	146.81
241.662	140.81
241.896	146.81
242.13	148.81
242.363	134.81
242.597	141.81
242.83	142.81
243.064	140.81
243.298	142.81
243.531	131.81
243.765	136.81
243.998	166.81
244.232	150.81
244.465	148.81
244.699	156.81
244.932	160.81
245.166	164.81
245.399	120.81
245.633	130.81
245.866	164.81
246.099	163.81
246.333	152.81
246.566	158.81
246.8	143.81
247.033	156.81
247.266	166.81
247.5	158.81
247.733	190.81
247.966	187.81
248.2	172.81
248.433	190.81
248.666	210.81
248.899	209.81
249.133	210.81
249.366	229.81
249.599	206.81
249.832	208.81
250.066	197.81
250.299	203.81
250.532	187.81
250.765	219.81
250.998	246.81
251.231	252.81
251.465	225.81
251.698	214.81
251.931	219.81
252.164	212.81
252.397	203.81
252.63	206.81
252.863	228.81
253.096	236.81
253.329	232.81
253.562	233.81
253.795	241.81
254.028	235.81
254.261	240.81
254.494	241.81
254.727	276.81
254.96	313.81
255.193	312.81
255.426	280.81
255.659	258.81
255.892	244.81
256.124	235.81
256.357	252.81
256.59	236.81
256.823	214.81
257.056	219.81
257.289	212.81
257.521	225.81
257.754	217.81
257.987	228.81
258.22	226.81
258.452	224.81
258.685	225.81
258.918	217.81
259.151	221.81
259.383	241.81
259.616	232.81
259.849	231.81
260.081	256.81
260.314	270.81
260.547	282.81
260.779	253.81
261.012	258.81
261.244	225.81
261.477	241.81
261.71	221.81
261.942	263.81
262.175	259.81
262.407	242.81
262.64	231.81
262.872	220.81
263.105	232.81
263.337	216.81
263.57	221.81
263.802	209.81
264.035	210.81
264.267	227.81
264.499	202.81
264.732	223.81
264.964	214.81
265.197	204.81
265.429	208.81
265.661	208.81
265.894	210.81
266.126	209.81
266.358	213.81
266.591	217.81
266.823	233.81
267.055	225.81
267.287	218.81
267.52	222.81
267.752	235.81
267.984	219.81
268.216	225.81
268.448	230.81
268.681	221.81
268.913	255.81
269.145	261.81
269.377	289.81
269.609	280.81
269.841	292.81
270.073	292.81
270.306	308.81
270.538	323.81
270.77	342.81
271.002	326.81
271.234	312.81
271.466	321.81
271.698	314.81
271.93	349.81
272.162	330.81
272.394	345.81
272.626	328.81
272.858	297.81
273.09	294.81
273.322	304.81
273.553	277.81
273.785	289.81
274.017	276.81
274.249	282.81
274.481	271.81
274.713	304.81
274.945	253.81
275.176	272.81
275.408	271.81
275.64	261.81
275.872	261.81
276.104	286.81
276.335	265.81
276.567	273.81
276.799	292.81
277.031	317.81
277.262	316.81
277.494	335.81
277.726	292.81
277.957	289.81
278.189	293.81
278.421	269.81
278.652	273.81
278.884	278.81
279.115	280.81
279.347	275.81
279.579	274.81
279.81	268.81
280.042	275.81
280.273	252.81
280.505	259.81
280.736	267.81
280.968	274.81
281.199	261.81
281.431	264.81
281.662	278.81
281.894	259.81
282.125	246.81
282.356	282.81
282.588	306.81
282.819	312.81
283.051	282.81
283.282	262.81
283.513	249.81
283.745	279.81
283.976	264.81
284.207	277.81
284.439	288.81
284.67	273.81
284.901	262.81
285.132	266.81
285.364	260.81
285.595	263.81
285.826	272.81
286.057	251.81
286.288	255.81
286.52	257.81
286.751	272.81
286.982	270.81
287.213	281.81
287.444	270.81
287.675	282.81
287.906	294.81
288.138	278.81
288.369	283.81
288.6	296.81
288.831	318.81
289.062	312.81
289.293	296.81
289.524	296.81
289.755	277.81
289.986	273.81
290.217	278.81
290.448	267.81
290.679	284.81
290.91	282.81
291.141	284.81
291.371	286.81
291.602	277.81
291.833	272.81
292.064	278.81
292.295	282.81
292.526	268.81
292.757	256.81
292.987	274.81
293.218	272.81
293.449	283.81
293.68	272.81
293.91	267.81
294.141	274.81
294.372	264.81
294.603	283.81
294.833	275.81
295.064	283.81
295.295	283.81
295.525	273.81
295.756	294.81
295.987	278.81
296.217	308.81
296.448	328.81
296.679	317.81
296.909	288.81
297.14	280.81
297.37	288.81
297.601	282.81
297.831	270.81
298.062	273.81
298.292	279.81
298.523	292.81
298.753	289.81
298.984	280.81
299.214	297.81
299.445	301.81
299.675	292.81
299.905	307.81
300.136	298.81
300.366	291.81
300.597	310.81
300.827	304.81
301.057	312.81
301.288	293.81
301.518	294.81
301.748	314.81
301.979	296.81
302.209	306.81
302.439	312.81
302.669	308.81
302.9	316.81
303.13	293.81
303.36	306.81
303.59	320.81
303.82	325.81
304.051	335.81
304.281	328.81
304.511	303.81
304.741	301.81
304.971	309.81
305.201	286.81
305.431	309.81
305.661	316.81
305.891	304.81
306.121	291.81
306.352	335.81
306.582	324.81
306.812	309.81
307.042	313.81
307.272	304.81
307.502	331.81
307.731	321.81
307.961	326.81
308.191	304.81
308.421	313.81
308.651	316.81
308.881	322.81
309.111	339.81
309.341	328.81
309.571	338.81
309.8	349.81
310.03	366.81
310.26	373.81
310.49	374.81
310.72	381.81
310.949	397.81
311.179	392.81
311.409	374.81
311.639	392.81
311.868	377.81
312.098	339.81
312.328	379.81
312.557	412.81
312.787	417.81
313.017	415.81
313.246	386.81
313.476	377.81
313.706	368.81
313.935	367.81
314.165	395.81
314.394	406.81
314.624	394.81
314.853	390.81
315.083	378.81
315.312	367.81
315.542	361.81
315.771	363.81
316.001	361.81
316.23	357.81
316.46	365.81
316.689	362.81
316.919	385.81
317.148	386.81
317.377	395.81
317.607	386.81
317.836	382.81
318.065	362.81
318.295	352.81
318.524	369.81
318.753	362.81
318.983	385.81
319.212	353.81
319.441	385.81
319.67	393.81
319.9	377.81
320.129	361.81
320.358	369.81
320.587	372.81
320.816	400.81
321.046	396.81
321.275	400.81
321.504	398.81
321.733	407.81
321.962	394.81
322.191	434.81
322.42	455.81
322.649	473.81
322.878	472.81
323.108	472.81
323.337	502.81
323.566	556.81
323.795	578.81
324.024	650.81
324.253	802.81
324.482	1120.81
324.71	1724.81
324.939	2569.81
325.168	2229.81
325.397	1170.81
325.626	775.81
325.855	621.81
326.084	548.81
326.313	530.81
326.542	543.81
326.77	633.81
326.999	742.81
327.228	1010.81
327.457	1545.81
327.686	1903.81
327.914	1317.81
328.143	822.81
328.372	705.81
328.6	670.81
328.829	625.81
329.058	638.81
329.287	654.81
329.515	617.81
329.744	556.81
329.972	545.81
330.201	564.81
330.43	616.81
330.658	641.81
330.887	702.81
331.115	644.81
331.344	569.81
331.572	519.81
331.801	506.81
332.03	509.81
332.258	490.81
332.486	430.81
332.715	461.81
332.943	442.81
333.172	440.81
333.4	446.81
333.629	452.81
333.857	457.81
334.085	481.81
334.314	484.81
334.542	541.81
334.771	557.81
334.999	480.81
335.227	454.81
335.455	440.81
335.684	423.81
335.912	420.81
336.14	409.81
336.369	430.81
336.597	441.81
336.825	421.81
337.053	438.81
337.281	416.81
337.51	408.81
337.738	456.81
337.966	410.81
338.194	406.81
338.422	417.81
338.65	409.81
338.878	418.81
339.106	416.81
339.334	412.81
339.562	398.81
339.79	397.81
340.018	394.81
340.246	431.81
340.474	437.81
340.702	416.81
340.93	414.81
341.158	428.81
341.386	428.81
341.614	423.81
341.842	403.81
342.07	407.81
342.298	422.81
342.526	390.81
342.754	377.81
342.981	383.81
343.209	385.81
343.437	378.81
343.665	408.81
343.893	424.81
344.12	420.81
344.348	401.81
344.576	412.81
344.804	422.81
345.031	438.81
345.259	423.81
345.487	418.81
345.714	433.81
345.942	418.81
346.17	402.81
346.397	430.81
346.625	393.81
346.853	402.81
347.08	391.81
347.308	391.81
347.535	397.81
347.763	420.81
347.99	413.81
348.218	414.81
348.445	427.81
348.673	422.81
348.9	420.81
349.128	398.81
349.355	383.81
349.583	397.81
349.81	375.81
350.037	366.81
350.265	394.81
350.492	384.81
350.72	398.81
350.947	384.81
351.174	417.81
351.402	414.81
351.629	424.81
351.856	423.81
352.083	425.81
352.311	414.81
352.538	410.81
352.765	449.81
352.992	415.81
353.22	399.81
353.447	406.81
353.674	408.81
353.901	401.81
354.128	382.81
354.355	363.81
354.583	360.81
354.81	396.81
355.037	372.81
355.264	354.81
355.491	384.81
355.718	369.81
355.945	361.81
356.172	368.81
356.399	366.81
356.626	348.81
356.853	366.81
357.08	377.81
357.307	366.81
357.534	367.81
357.761	345.81
357.988	369.81
358.215	373.81
358.441	376.81
358.668	368.81
358.895	388.81
359.122	370.81
359.349	386.81
359.576	400.81
359.802	439.81
360.029	454.81
360.256	480.81
360.483	454.81
360.709	425.81
360.936	425.81
361.163	397.81
361.39	407.81
361.616	418.81
361.843	410.81
362.07	412.81
362.296	407.81
362.523	425.81
362.749	385.81
362.976	389.81
363.203	380.81
363.429	344.81
363.656	366.81
363.882	379.81
364.109	376.81
364.335	357.81
364.562	368.81
364.788	381.81
365.015	376.81
365.241	379.81
365.468	365.81
365.694	388.81
365.92	372.81
366.147	362.81
366.373	386.81
366.599	381.81
366.826	378.81
367.052	392.81
367.278	372.81
367.505	378.81
367.731	378.81
367.957	369.81
368.184	368.81
368.41	365.81
368.636	377.81
368.862	381.81
369.089	373.81
369.315	369.81
369.541	375.81
369.767	376.81
369.993	374.81
370.219	375.81
370.445	382.81
370.672	370.81
370.898	363.81
371.124	373.81
371.35	368.81
371.576	362.81
371.802	355.81
372.028	381.81
372.254	368.81
372.48	353.81
372.706	367.81
372.932	369.81
373.158	346.81
373.384	378.81
373.61	378.81
373.835	380.81
374.061	369.81
374.287	372.81
374.513	376.81
374.739	361.81
374.965	369.81
375.191	376.81
375.416	380.81
375.642	368.81
375.868	383.81
376.094	382.81
376.319	361.81
376.545	369.81
376.771	365.81
376.997	362.81
377.222	360.81
377.448	367.81
377.674	355.81
377.899	337.81
378.125	364.81
378.35	368.81
378.576	373.81
378.802	360.81
379.027	355.81
379.253	372.81
379.478	359.81
379.704	365.81
379.929	366.81
380.155	357.81
380.38	353.81
380.606	363.81
380.831	380.81
381.057	376.81
381.282	352.81
381.507	370.81
381.733	360.81
381.958	378.81
382.184	361.81
382.409	388.81
382.634	376.81
382.86	358.81
383.085	375.81
383.31	368.81
383.535	366.81
383.761	365.81
383.986	380.81
384.211	388.81
384.436	388.81
384.662	376.81
384.887	393.81
385.112	376.81
385.337	382.81
385.562	384.81
385.787	390.81
386.013	397.81
386.238	401.81
386.463	406.81
386.688	390.81
386.913	375.81
387.138	380.81
387.363	396.81
387.588	369.81
387.813	397.81
388.038	365.81
388.263	372.81
388.488	374.81
388.713	378.81
388.938	392.81
389.163	402.81
389.387	393.81
389.612	387.81
389.837	376.81
390.062	378.81
390.287	393.81
390.512	383.81
390.736	365.81
390.961	378.81
391.186	381.81
391.411	364.81
391.636	385.81
391.86	392.81
392.085	396.81
392.31	389.81
392.534	381.81
392.759	386.81
392.984	391.81
393.208	386.81
393.433	377.81
393.658	372.81
393.882	377.81
394.107	374.81
394.331	383.81
394.556	388.81
394.78	384.81
395.005	386.81
395.229	375.81
395.454	404.81
395.678	386.81
395.903	408.81
396.127	416.81
396.352	427.81
396.576	406.81
396.801	391.81
397.025	392.81
397.249	413.81
397.474	416.81
397.698	415.81
397.922	428.81
398.147	446.81
398.371	445.81
398.595	445.81
398.82	428.81
399.044	424.81
399.268	443.81
399.492	462.81
399.717	457.81
399.941	487.81
400.165	528.81
400.389	540.81
400.613	480.81
400.837	482.81
401.062	444.81
401.286	425.81
401.51	430.81
401.734	420.81
401.958	439.81
402.182	455.81
402.406	472.81
402.63	434.81
402.854	440.81
403.078	445.81
403.302	441.81
403.526	456.81
403.75	470.81
403.974	460.81
404.198	456.81
404.422	467.81
404.645	476.81
404.869	476.81
405.093	478.81
405.317	533.81
405.541	578.81
405.765	538.81
405.988	471.81
406.212	522.81
406.436	536.81
406.66	540.81
406.883	507.81
407.107	529.81
407.331	575.81
407.555	615.81
407.778	630.81
408.002	575.81
408.226	530.81
408.449	510.81
408.673	530.81
408.896	548.81
409.12	573.81
409.344	548.81
409.567	473.81
409.791	476.81
410.014	445.81
410.238	465.81
410.461	456.81
410.685	459.81
410.908	463.81
411.132	502.81
411.355	540.81
411.578	544.81
411.802	463.81
412.025	470.81
412.249	482.81
412.472	495.81
412.695	519.81
412.919	524.81
413.142	479.81
413.365	465.81
413.589	428.81
413.812	446.81
414.035	437.81
414.258	435.81
414.482	443.81
414.705	432.81
414.928	446.81
415.151	425.81
415.374	448.81
415.597	414.81
415.821	430.81
416.044	417.81
416.267	437.81
416.49	414.81
416.713	425.81
416.936	430.81
417.159	429.81
417.382	447.81
417.605	453.81
417.828	463.81
418.051	472.81
418.274	433.81
418.497	436.81
418.72	474.81
418.943	436.81
419.166	453.81
419.389	460.81
419.611	466.81
419.834	453.81
420.057	451.81
420.28	478.81
420.503	470.81
420.726	490.81
420.948	511.81
421.171	514.81
421.394	562.81
421.617	506.81
421.839	465.81
422.062	460.81
422.285	481.81
422.507	538.81
422.73	609.81
422.953	582.81
423.175	523.81
423.398	485.81
423.621	484.81
423.843	520.81
424.066	525.81
424.288	529.81
424.511	505.81
424.733	587.81
424.956	658.81
425.178	643.81
425.401	634.81
425.623	639.81
425.846	558.81
426.068	524.81
426.291	528.81
426.513	525.81
426.735	536.81
426.958	575.81
427.18	670.81
427.402	782.81
427.625	885.81
427.847	772.81
428.069	692.81
428.292	633.81
428.514	549.81
428.736	514.81
428.958	488.81
429.181	477.81
429.403	460.81
429.625	488.81
429.847	519.81
430.069	606.81
430.292	598.81
430.514	525.81
430.736	506.81
430.958	460.81
431.18	479.81
431.402	442.81
431.624	440.81
431.846	447.81
432.068	449.81
432.29	441.81
432.512	447.81
432.734	461.81
432.956	459.81
433.178	477.81
433.4	479.81
433.622	454.81
433.844	445.81
434.066	447.81
434.287	450.81
434.509	433.81
434.731	461.81
434.953	488.81
435.175	479.81
435.397	493.81
435.618	522.81
435.84	589.81
436.062	652.81
436.284	704.81
436.505	608.81
436.727	546.81
436.949	502.81
437.17	484.81
437.392	487.81
437.614	503.81
437.835	557.81
438.057	669.81
438.278	744.81
438.5	746.81
438.721	785.81
438.943	749.81
439.165	609.81
439.386	546.81
439.608	547.81
439.829	535.81
440.05	571.81
440.272	644.81
440.493	606.81
440.715	536.81
440.936	530.81
441.158	489.81
441.379	456.81
441.6	505.81
441.822	513.81
442.043	573.81
442.264	658.81
442.486	696.81
442.707	574.81
442.928	564.81
443.149	540.81
443.371	566.81
443.592	625.81
443.813	698.81
444.034	730.81
444.255	606.81
444.476	556.81
444.698	533.81
444.919	513.81
445.14	599.81
445.361	579.81
445.582	581.81
445.803	670.81
446.024	772.81
446.245	777.81
446.466	692.81
446.687	603.81
446.908	559.81
447.129	519.81
447.35	494.81
447.571	463.81
447.792	497.81
448.013	529.81
448.234	517.81
448.455	568.81
448.675	671.81
448.896	759.81
449.117	683.81
449.338	654.81
449.559	720.81
449.779	833.81
450	676.81
450.221	568.81
450.442	504.81
450.662	469.81
450.883	532.81
451.104	538.81
451.324	529.81
451.545	477.81
451.766	454.81
451.986	442.81
452.207	434.81
452.428	458.81
452.648	452.81
452.869	447.81
453.089	463.81
453.31	463.81
453.53	477.81
453.751	450.81
453.971	452.81
454.192	471.81
454.412	479.81
454.633	453.81
454.853	423.81
455.073	421.81
455.294	473.81
455.514	547.81
455.734	544.81
455.955	432.81
456.175	429.81
456.395	422.81
456.616	407.81
456.836	403.81
457.056	409.81
457.276	374.81
457.497	409.81
457.717	400.81
457.937	400.81
458.157	421.81
458.377	413.81
458.598	432.81
458.818	531.81
459.038	621.81
459.258	618.81
459.478	512.81
459.698	464.81
459.918	446.81
460.138	439.81
460.358	454.81
460.578	460.81
460.798	436.81
461.018	428.81
461.238	461.81
461.458	416.81
461.678	412.81
461.898	424.81
462.118	411.81
462.338	432.81
462.558	434.81
462.777	439.81
462.997	471.81
463.217	449.81
463.437	444.81
463.657	464.81
463.876	457.81
464.096	441.81
464.316	430.81
464.536	473.81
464.755	460.81
464.975	459.81
465.195	544.81
465.414	638.81
465.634	558.81
465.854	496.81
466.073	471.81
466.293	470.81
466.512	434.81
466.732	418.81
466.951	431.81
467.171	433.81
467.391	451.81
467.61	463.81
467.829	468.81
468.049	449.81
468.268	464.81
468.488	460.81
468.707	421.81
468.927	413.81
469.146	422.81
469.365	402.81
469.585	410.81
469.804	452.81
470.023	458.81
470.243	453.81
470.462	466.81
470.681	470.81
470.901	459.81
471.12	444.81
471.339	448.81
471.558	445.81
471.777	453.81
471.997	429.81
472.216	453.81
472.435	494.81
472.654	487.81
472.873	444.81
473.092	452.81
473.311	459.81
473.53	431.81
473.749	473.81
473.968	511.81
474.187	608.81
474.406	645.81
474.625	540.81
474.844	489.81
475.063	444.81
475.282	442.81
475.501	432.81
475.72	460.81
475.939	442.81
476.158	462.81
476.377	444.81
476.596	460.81
476.814	455.81
477.033	495.81
477.252	474.81
477.471	487.81
477.69	484.81
477.908	479.81
478.127	488.81
478.346	502.81
478.564	481.81
478.783	465.81
479.002	503.81
479.22	497.81
479.439	520.81
479.658	531.81
479.876	530.81
480.095	551.81
480.313	568.81
480.532	546.81
480.751	521.81
480.969	564.81
481.188	635.81
481.406	709.81
481.624	612.81
481.843	552.81
482.061	565.81
482.28	544.81
482.498	532.81
482.717	532.81
482.935	509.81
483.153	537.81
483.372	514.81
483.59	534.81
483.808	502.81
484.027	521.81
484.245	510.81
484.463	536.81
484.681	546.81
484.9	547.81
485.118	550.81
485.336	534.81
485.554	543.81
485.772	511.81
485.99	556.81
486.209	544.81
486.427	553.81
486.645	545.81
486.863	561.81
487.081	608.81
487.299	550.81
487.517	554.81
487.735	570.81
487.953	579.81
488.171	561.81
488.389	565.81
488.607	588.81
488.825	593.81
489.043	565.81
489.261	577.81
489.479	575.81
489.696	569.81
489.914	564.81
490.132	574.81
490.35	594.81
490.568	600.81
490.786	634.81
491.003	623.81
491.221	617.81
491.439	644.81
491.657	648.81
491.874	653.81
492.092	669.81
492.31	667.81
492.527	676.81
492.745	684.81
492.963	638.81
493.18	685.81
493.398	686.81
493.615	671.81
493.833	678.81
494.05	673.81
494.268	673.81
494.485	685.81
494.703	682.81
494.92	677.81
495.138	697.81
495.355	682.81
495.573	695.81
495.79	696.81
496.008	698.81
496.225	687.81
496.442	675.81
496.66	694.81
496.877	677.81
497.094	682.81
497.312	684.81
497.529	701.81
497.746	704.81
497.963	677.81
498.181	737.81
498.398	730.81
498.615	711.81
498.832	753.81
499.049	730.81
499.267	747.81
499.484	734.81
499.701	757.81
499.918	772.81
500.135	789.81
500.352	812.81
500.569	807.81
500.786	828.81
501.003	799.81
501.22	808.81
501.437	816.81
501.654	815.81
501.871	821.81
