Data from 1980.PennyLincolnUp.Lamp.En5.5.200Scan.071819.P1_HRD10591_16-38-44-958.txt Node
Date: Thu Jul 18 16:38:44 EDT 2019
User: cochatt
Spectrometer: HR+D1059
Trigger mode: 1
Integration Time (sec): 1.000000E-1
Scans to average: 1
Electric dark correction enabled: true
Nonlinearity correction enabled: false
Boxcar width: 0
XAxis mode: Wavelengths
Number of Pixels in Spectrum: 2048
>>>>>Begin Spectral Data<<<<<
223.165	-14.69
223.4	-14.69
223.635	-14.69
223.869	-15.69
224.104	-13.69
224.338	-7.69
224.573	-15.69
224.808	-7.69
225.042	-2.69
225.277	-1.69
225.511	-1.69
225.746	-1.69
225.98	5.31
226.215	9.31
226.449	13.31
226.683	17.31
226.918	16.31
227.152	21.31
227.387	34.31
227.621	33.31
227.856	32.31
228.09	54.31
228.324	44.31
228.559	54.31
228.793	72.31
229.027	108.31
229.262	110.31
229.496	134.31
229.73	162.31
229.964	173.31
230.199	142.31
230.433	113.31
230.667	124.31
230.901	111.31
231.136	113.31
231.37	125.31
231.604	111.31
231.838	120.31
232.072	109.31
232.306	121.31
232.541	115.31
232.775	116.31
233.009	125.31
233.243	123.31
233.477	127.31
233.711	111.31
233.945	126.31
234.179	103.31
234.413	115.31
234.647	120.31
234.881	124.31
235.115	104.31
235.349	113.31
235.583	133.31
235.817	124.31
236.051	124.31
236.285	130.31
236.519	135.31
236.753	133.31
236.987	140.31
237.221	198.31
237.455	261.31
237.689	208.31
237.922	140.31
238.156	133.31
238.39	129.31
238.624	135.31
238.858	127.31
239.091	136.31
239.325	104.31
239.559	133.31
239.793	135.31
240.027	124.31
240.26	148.31
240.494	150.31
240.728	159.31
240.961	156.31
241.195	153.31
241.429	134.31
241.662	134.31
241.896	123.31
242.13	111.31
242.363	131.31
242.597	131.31
242.83	125.31
243.064	142.31
243.298	131.31
243.531	134.31
243.765	130.31
243.998	143.31
244.232	128.31
244.465	149.31
244.699	149.31
244.932	130.31
245.166	143.31
245.399	136.31
245.633	141.31
245.866	143.31
246.099	150.31
246.333	139.31
246.566	165.31
246.8	154.31
247.033	153.31
247.266	163.31
247.5	177.31
247.733	171.31
247.966	165.31
248.2	187.31
248.433	182.31
248.666	184.31
248.899	184.31
249.133	214.31
249.366	210.31
249.599	199.31
249.832	195.31
250.066	181.31
250.299	189.31
250.532	208.31
250.765	213.31
250.998	221.31
251.231	231.31
251.465	225.31
251.698	191.31
251.931	200.31
252.164	207.31
252.397	223.31
252.63	205.31
252.863	211.31
253.096	214.31
253.329	232.31
253.562	218.31
253.795	223.31
254.028	226.31
254.261	218.31
254.494	237.31
254.727	255.31
254.96	298.31
255.193	283.31
255.426	264.31
255.659	248.31
255.892	236.31
256.124	238.31
256.357	232.31
256.59	227.31
256.823	202.31
257.056	229.31
257.289	229.31
257.521	228.31
257.754	214.31
257.987	181.31
258.22	203.31
258.452	195.31
258.685	210.31
258.918	206.31
259.151	214.31
259.383	204.31
259.616	229.31
259.849	225.31
260.081	243.31
260.314	261.31
260.547	263.31
260.779	278.31
261.012	236.31
261.244	221.31
261.477	217.31
261.71	230.31
261.942	234.31
262.175	262.31
262.407	228.31
262.64	207.31
262.872	232.31
263.105	211.31
263.337	213.31
263.57	214.31
263.802	213.31
264.035	219.31
264.267	207.31
264.499	208.31
264.732	217.31
264.964	223.31
265.197	224.31
265.429	195.31
265.661	211.31
265.894	203.31
266.126	214.31
266.358	203.31
266.591	218.31
266.823	243.31
267.055	215.31
267.287	226.31
267.52	213.31
267.752	199.31
267.984	220.31
268.216	211.31
268.448	242.31
268.681	246.31
268.913	237.31
269.145	257.31
269.377	278.31
269.609	289.31
269.841	263.31
270.073	283.31
270.306	288.31
270.538	333.31
270.77	324.31
271.002	323.31
271.234	309.31
271.466	319.31
271.698	326.31
271.93	340.31
272.162	313.31
272.394	331.31
272.626	299.31
272.858	276.31
273.09	275.31
273.322	255.31
273.553	253.31
273.785	258.31
274.017	257.31
274.249	268.31
274.481	257.31
274.713	262.31
274.945	259.31
275.176	260.31
275.408	248.31
275.64	246.31
275.872	245.31
276.104	261.31
276.335	256.31
276.567	286.31
276.799	285.31
277.031	285.31
277.262	312.31
277.494	307.31
277.726	307.31
277.957	293.31
278.189	275.31
278.421	271.31
278.652	260.31
278.884	276.31
279.115	253.31
279.347	235.31
279.579	243.31
279.81	256.31
280.042	249.31
280.273	269.31
280.505	257.31
280.736	252.31
280.968	252.31
281.199	266.31
281.431	243.31
281.662	262.31
281.894	249.31
282.125	252.31
282.356	272.31
282.588	289.31
282.819	297.31
283.051	265.31
283.282	250.31
283.513	272.31
283.745	268.31
283.976	262.31
284.207	257.31
284.439	287.31
284.67	260.31
284.901	251.31
285.132	260.31
285.364	264.31
285.595	262.31
285.826	271.31
286.057	271.31
286.288	259.31
286.52	265.31
286.751	264.31
286.982	277.31
287.213	275.31
287.444	262.31
287.675	270.31
287.906	289.31
288.138	286.31
288.369	285.31
288.6	279.31
288.831	292.31
289.062	279.31
289.293	258.31
289.524	273.31
289.755	259.31
289.986	268.31
290.217	257.31
290.448	264.31
290.679	272.31
290.91	279.31
291.141	263.31
291.371	279.31
291.602	268.31
291.833	262.31
292.064	263.31
292.295	262.31
292.526	270.31
292.757	268.31
292.987	250.31
293.218	284.31
293.449	273.31
293.68	263.31
293.91	273.31
294.141	263.31
294.372	269.31
294.603	268.31
294.833	272.31
295.064	266.31
295.295	267.31
295.525	257.31
295.756	273.31
295.987	282.31
296.217	314.31
296.448	334.31
296.679	289.31
296.909	248.31
297.14	278.31
297.37	286.31
297.601	266.31
297.831	271.31
298.062	290.31
298.292	279.31
298.523	286.31
298.753	289.31
298.984	281.31
299.214	268.31
299.445	276.31
299.675	281.31
299.905	306.31
300.136	296.31
300.366	280.31
300.597	284.31
300.827	303.31
301.057	279.31
301.288	297.31
301.518	290.31
301.748	299.31
301.979	292.31
302.209	280.31
302.439	297.31
302.669	300.31
302.9	297.31
303.13	299.31
303.36	316.31
303.59	305.31
303.82	312.31
304.051	299.31
304.281	281.31
304.511	311.31
304.741	293.31
304.971	269.31
305.201	293.31
305.431	303.31
305.661	295.31
305.891	311.31
306.121	297.31
306.352	316.31
306.582	315.31
306.812	307.31
307.042	305.31
307.272	310.31
307.502	298.31
307.731	289.31
307.961	316.31
308.191	322.31
308.421	307.31
308.651	300.31
308.881	312.31
309.111	317.31
309.341	316.31
309.571	326.31
309.8	326.31
310.03	337.31
310.26	358.31
310.49	367.31
310.72	358.31
310.949	390.31
311.179	397.31
311.409	361.31
311.639	356.31
311.868	351.31
312.098	366.31
312.328	381.31
312.557	382.31
312.787	385.31
313.017	393.31
313.246	379.31
313.476	350.31
313.706	379.31
313.935	350.31
314.165	373.31
314.394	394.31
314.624	390.31
314.853	385.31
315.083	363.31
315.312	358.31
315.542	343.31
315.771	337.31
316.001	347.31
316.23	357.31
316.46	361.31
316.689	363.31
316.919	365.31
317.148	365.31
317.377	369.31
317.607	348.31
317.836	372.31
318.065	328.31
318.295	362.31
318.524	338.31
318.753	348.31
318.983	326.31
319.212	345.31
319.441	373.31
319.67	374.31
319.9	349.31
320.129	354.31
320.358	357.31
320.587	369.31
320.816	373.31
321.046	373.31
321.275	381.31
321.504	381.31
321.733	382.31
321.962	397.31
322.191	405.31
322.42	415.31
322.649	453.31
322.878	446.31
323.108	465.31
323.337	485.31
323.566	518.31
323.795	553.31
324.024	602.31
324.253	756.31
324.482	1093.31
324.71	1649.31
324.939	2368.31
325.168	2116.31
325.397	1108.31
325.626	709.31
325.855	609.31
326.084	548.31
326.313	513.31
326.542	516.31
326.77	597.31
326.999	700.31
327.228	951.31
327.457	1463.31
327.686	1845.31
327.914	1245.31
328.143	817.31
328.372	706.31
328.6	635.31
328.829	609.31
329.058	635.31
329.287	622.31
329.515	563.31
329.744	518.31
329.972	508.31
330.201	548.31
330.43	595.31
330.658	633.31
330.887	655.31
331.115	630.31
331.344	528.31
331.572	492.31
331.801	490.31
332.03	493.31
332.258	460.31
332.486	435.31
332.715	419.31
332.943	416.31
333.172	427.31
333.4	425.31
333.629	430.31
333.857	459.31
334.085	463.31
334.314	441.31
334.542	499.31
334.771	540.31
334.999	475.31
335.227	435.31
335.455	437.31
335.684	435.31
335.912	413.31
336.14	407.31
336.369	404.31
336.597	416.31
336.825	420.31
337.053	413.31
337.281	403.31
337.51	403.31
337.738	414.31
337.966	407.31
338.194	409.31
338.422	407.31
338.65	404.31
338.878	392.31
339.106	386.31
339.334	382.31
339.562	386.31
339.79	400.31
340.018	403.31
340.246	402.31
340.474	417.31
340.702	397.31
340.93	413.31
341.158	376.31
341.386	395.31
341.614	401.31
341.842	406.31
342.07	393.31
342.298	375.31
342.526	375.31
342.754	382.31
342.981	372.31
343.209	351.31
343.437	373.31
343.665	397.31
343.893	395.31
344.12	382.31
344.348	399.31
344.576	411.31
344.804	409.31
345.031	399.31
345.259	430.31
345.487	405.31
345.714	397.31
345.942	376.31
346.17	387.31
346.397	385.31
346.625	407.31
346.853	377.31
347.08	385.31
347.308	386.31
347.535	398.31
347.763	407.31
347.99	401.31
348.218	397.31
348.445	393.31
348.673	407.31
348.9	398.31
349.128	381.31
349.355	367.31
349.583	387.31
349.81	373.31
350.037	367.31
350.265	369.31
350.492	375.31
350.72	380.31
350.947	385.31
351.174	397.31
351.402	400.31
351.629	395.31
351.856	395.31
352.083	395.31
352.311	415.31
352.538	412.31
352.765	410.31
352.992	407.31
353.22	385.31
353.447	394.31
353.674	379.31
353.901	366.31
354.128	341.31
354.355	375.31
354.583	365.31
354.81	351.31
355.037	354.31
355.264	349.31
355.491	353.31
355.718	367.31
355.945	365.31
356.172	366.31
356.399	362.31
356.626	343.31
356.853	351.31
357.08	344.31
357.307	348.31
357.534	373.31
357.761	360.31
357.988	339.31
358.215	355.31
358.441	345.31
358.668	347.31
358.895	359.31
359.122	364.31
359.349	378.31
359.576	388.31
359.802	407.31
360.029	443.31
360.256	487.31
360.483	431.31
360.709	414.31
360.936	407.31
361.163	388.31
361.39	410.31
361.616	388.31
361.843	377.31
362.07	405.31
362.296	383.31
362.523	381.31
362.749	387.31
362.976	397.31
363.203	376.31
363.429	378.31
363.656	377.31
363.882	385.31
364.109	362.31
364.335	357.31
364.562	375.31
364.788	390.31
365.015	371.31
365.241	377.31
365.468	379.31
365.694	379.31
365.92	385.31
366.147	361.31
366.373	359.31
366.599	366.31
366.826	353.31
367.052	361.31
367.278	353.31
367.505	342.31
367.731	350.31
367.957	355.31
368.184	352.31
368.41	370.31
368.636	367.31
368.862	381.31
369.089	382.31
369.315	365.31
369.541	365.31
369.767	345.31
369.993	375.31
370.219	360.31
370.445	363.31
370.672	358.31
370.898	353.31
371.124	369.31
371.35	355.31
371.576	366.31
371.802	348.31
372.028	342.31
372.254	333.31
372.48	346.31
372.706	352.31
372.932	361.31
373.158	334.31
373.384	358.31
373.61	350.31
373.835	371.31
374.061	365.31
374.287	347.31
374.513	366.31
374.739	366.31
374.965	361.31
375.191	364.31
375.416	341.31
375.642	352.31
375.868	373.31
376.094	372.31
376.319	351.31
376.545	353.31
376.771	326.31
376.997	345.31
377.222	344.31
377.448	352.31
377.674	373.31
377.899	353.31
378.125	363.31
378.35	344.31
378.576	332.31
378.802	327.31
379.027	356.31
379.253	335.31
379.478	346.31
379.704	349.31
379.929	350.31
380.155	335.31
380.38	352.31
380.606	367.31
380.831	351.31
381.057	351.31
381.282	363.31
381.507	335.31
381.733	349.31
381.958	350.31
382.184	342.31
382.409	350.31
382.634	361.31
382.86	363.31
383.085	354.31
383.31	357.31
383.535	360.31
383.761	364.31
383.986	372.31
384.211	376.31
384.436	370.31
384.662	363.31
384.887	364.31
385.112	378.31
385.337	369.31
385.562	353.31
385.787	370.31
386.013	378.31
386.238	380.31
386.463	380.31
386.688	379.31
386.913	377.31
387.138	355.31
387.363	365.31
387.588	392.31
387.813	385.31
388.038	381.31
388.263	396.31
388.488	363.31
388.713	355.31
388.938	382.31
389.163	387.31
389.387	397.31
389.612	377.31
389.837	379.31
390.062	351.31
390.287	364.31
390.512	362.31
390.736	375.31
390.961	359.31
391.186	369.31
391.411	371.31
391.636	365.31
391.86	374.31
392.085	377.31
392.31	344.31
392.534	377.31
392.759	382.31
392.984	383.31
393.208	371.31
393.433	359.31
393.658	350.31
393.882	377.31
394.107	356.31
394.331	371.31
394.556	375.31
394.78	396.31
395.005	386.31
395.229	375.31
395.454	371.31
395.678	379.31
395.903	400.31
396.127	402.31
396.352	407.31
396.576	417.31
396.801	379.31
397.025	373.31
397.249	378.31
397.474	399.31
397.698	391.31
397.922	402.31
398.147	428.31
398.371	421.31
398.595	441.31
398.82	407.31
399.044	408.31
399.268	422.31
399.492	432.31
399.717	447.31
399.941	471.31
400.165	503.31
400.389	513.31
400.613	489.31
400.837	447.31
401.062	435.31
401.286	418.31
401.51	434.31
401.734	419.31
401.958	415.31
402.182	426.31
402.406	464.31
402.63	429.31
402.854	444.31
403.078	436.31
403.302	434.31
403.526	435.31
403.75	437.31
403.974	445.31
404.198	438.31
404.422	428.31
404.645	439.31
404.869	441.31
405.093	478.31
405.317	509.31
405.541	565.31
405.765	502.31
405.988	496.31
406.212	473.31
406.436	513.31
406.66	512.31
406.883	496.31
407.107	512.31
407.331	536.31
407.555	571.31
407.778	596.31
408.002	553.31
408.226	502.31
408.449	497.31
408.673	471.31
408.896	523.31
409.12	540.31
409.344	527.31
409.567	473.31
409.791	433.31
410.014	444.31
410.238	445.31
410.461	429.31
410.685	455.31
410.908	479.31
411.132	503.31
411.355	539.31
411.578	506.31
411.802	471.31
412.025	449.31
412.249	465.31
412.472	481.31
412.695	527.31
412.919	505.31
413.142	474.31
413.365	447.31
413.589	434.31
413.812	459.31
414.035	420.31
414.258	417.31
414.482	428.31
414.705	408.31
414.928	412.31
415.151	417.31
415.374	412.31
415.597	423.31
415.821	417.31
416.044	431.31
416.267	430.31
416.49	433.31
416.713	422.31
416.936	407.31
417.159	411.31
417.382	414.31
417.605	449.31
417.828	445.31
418.051	464.31
418.274	430.31
418.497	430.31
418.72	419.31
418.943	430.31
419.166	430.31
419.389	472.31
419.611	452.31
419.834	446.31
420.057	456.31
420.28	453.31
420.503	428.31
420.726	445.31
420.948	472.31
421.171	483.31
421.394	549.31
421.617	479.31
421.839	461.31
422.062	481.31
422.285	465.31
422.507	524.31
422.73	582.31
422.953	595.31
423.175	539.31
423.398	473.31
423.621	481.31
423.843	501.31
424.066	497.31
424.288	532.31
424.511	527.31
424.733	561.31
424.956	639.31
425.178	623.31
425.401	612.31
425.623	634.31
425.846	528.31
426.068	510.31
426.291	498.31
426.513	499.31
426.735	540.31
426.958	561.31
427.18	622.31
427.402	753.31
427.625	868.31
427.847	764.31
428.069	677.31
428.292	571.31
428.514	515.31
428.736	499.31
428.958	500.31
429.181	470.31
429.403	487.31
429.625	495.31
429.847	497.31
430.069	570.31
430.292	559.31
430.514	500.31
430.736	476.31
430.958	461.31
431.18	444.31
431.402	440.31
431.624	415.31
431.846	421.31
432.068	418.31
432.29	443.31
432.512	437.31
432.734	461.31
432.956	440.31
433.178	455.31
433.4	439.31
433.622	442.31
433.844	445.31
434.066	435.31
434.287	423.31
434.509	439.31
434.731	444.31
434.953	453.31
435.175	467.31
435.397	488.31
435.618	493.31
435.84	544.31
436.062	621.31
436.284	696.31
436.505	609.31
436.727	520.31
436.949	487.31
437.17	466.31
437.392	457.31
437.614	477.31
437.835	532.31
438.057	616.31
438.278	699.31
438.5	724.31
438.721	779.31
438.943	741.31
439.165	605.31
439.386	535.31
439.608	517.31
439.829	540.31
440.05	567.31
440.272	603.31
440.493	576.31
440.715	527.31
440.936	497.31
441.158	479.31
441.379	468.31
441.6	490.31
441.822	494.31
442.043	534.31
442.264	612.31
442.486	675.31
442.707	582.31
442.928	541.31
443.149	541.31
443.371	566.31
443.592	590.31
443.813	674.31
444.034	735.31
444.255	602.31
444.476	542.31
444.698	502.31
444.919	483.31
445.14	577.31
445.361	540.31
445.582	553.31
445.803	634.31
446.024	719.31
446.245	744.31
446.466	675.31
446.687	579.31
446.908	532.31
447.129	488.31
447.35	487.31
447.571	467.31
447.792	435.31
448.013	464.31
448.234	479.31
448.455	567.31
448.675	640.31
448.896	749.31
449.117	665.31
449.338	614.31
449.559	701.31
449.779	790.31
450	651.31
450.221	552.31
450.442	504.31
450.662	473.31
450.883	462.31
451.104	520.31
451.324	509.31
451.545	469.31
451.766	452.31
451.986	419.31
452.207	437.31
452.428	415.31
452.648	425.31
452.869	437.31
453.089	424.31
453.31	463.31
453.53	439.31
453.751	425.31
453.971	439.31
454.192	463.31
454.412	467.31
454.633	424.31
454.853	432.31
455.073	413.31
455.294	446.31
455.514	550.31
455.734	503.31
455.955	439.31
456.175	408.31
456.395	415.31
456.616	396.31
456.836	410.31
457.056	397.31
457.276	373.31
457.497	404.31
457.717	399.31
457.937	415.31
458.157	421.31
458.377	399.31
458.598	422.31
458.818	492.31
459.038	615.31
459.258	603.31
459.478	501.31
459.698	445.31
459.918	440.31
460.138	434.31
460.358	416.31
460.578	431.31
460.798	424.31
461.018	437.31
461.238	417.31
461.458	428.31
461.678	431.31
461.898	400.31
462.118	435.31
462.338	431.31
462.558	427.31
462.777	416.31
462.997	436.31
463.217	433.31
463.437	432.31
463.657	441.31
463.876	436.31
464.096	434.31
464.316	447.31
464.536	448.31
464.755	453.31
464.975	455.31
465.195	526.31
465.414	607.31
465.634	543.31
465.854	498.31
466.073	469.31
466.293	429.31
466.512	431.31
466.732	426.31
466.951	400.31
467.171	426.31
467.391	435.31
467.61	444.31
467.829	460.31
468.049	451.31
468.268	469.31
468.488	424.31
468.707	416.31
468.927	417.31
469.146	421.31
469.365	424.31
469.585	401.31
469.804	418.31
470.023	435.31
470.243	445.31
470.462	437.31
470.681	462.31
470.901	464.31
471.12	458.31
471.339	435.31
471.558	422.31
471.777	435.31
471.997	413.31
472.216	451.31
472.435	484.31
472.654	453.31
472.873	461.31
473.092	432.31
473.311	429.31
473.53	438.31
473.749	451.31
473.968	498.31
474.187	597.31
474.406	637.31
474.625	511.31
474.844	451.31
475.063	421.31
475.282	452.31
475.501	440.31
475.72	439.31
475.939	445.31
476.158	428.31
476.377	430.31
476.596	439.31
476.814	455.31
477.033	446.31
477.252	459.31
477.471	468.31
477.69	457.31
477.908	447.31
478.127	477.31
478.346	467.31
478.564	453.31
478.783	465.31
479.002	450.31
479.22	486.31
479.439	512.31
479.658	529.31
479.876	534.31
480.095	529.31
480.313	535.31
480.532	529.31
480.751	514.31
480.969	553.31
481.188	589.31
481.406	675.31
481.624	581.31
481.843	552.31
482.061	522.31
482.28	539.31
482.498	493.31
482.717	513.31
482.935	518.31
483.153	509.31
483.372	513.31
483.59	506.31
483.808	499.31
484.027	512.31
484.245	502.31
484.463	514.31
484.681	513.31
484.9	512.31
485.118	526.31
485.336	502.31
485.554	524.31
485.772	528.31
485.99	540.31
486.209	529.31
486.427	514.31
486.645	560.31
486.863	557.31
487.081	596.31
487.299	577.31
487.517	542.31
487.735	527.31
487.953	541.31
488.171	553.31
488.389	554.31
488.607	542.31
488.825	549.31
489.043	565.31
489.261	556.31
489.479	567.31
489.696	575.31
489.914	563.31
490.132	580.31
490.35	561.31
490.568	585.31
490.786	578.31
491.003	606.31
491.221	626.31
491.439	625.31
491.657	647.31
491.874	645.31
492.092	631.31
492.31	662.31
492.527	651.31
492.745	659.31
492.963	661.31
493.18	660.31
493.398	642.31
493.615	659.31
493.833	630.31
494.05	669.31
494.268	641.31
494.485	670.31
494.703	665.31
494.92	649.31
495.138	683.31
495.355	683.31
495.573	666.31
495.79	662.31
496.008	668.31
496.225	647.31
496.442	650.31
496.66	688.31
496.877	678.31
497.094	662.31
497.312	660.31
497.529	651.31
497.746	689.31
497.963	673.31
498.181	702.31
498.398	713.31
498.615	681.31
498.832	700.31
499.049	713.31
499.267	697.31
499.484	753.31
499.701	747.31
499.918	754.31
500.135	778.31
500.352	766.31
500.569	803.31
500.786	821.31
501.003	810.31
501.22	765.31
501.437	776.31
501.654	798.31
501.871	784.31
