Data from 1980.PennyLincolnUp.Lamp.En5.5.200Scan.071819.P1_HRD10591_16-36-12-959.txt Node
Date: Thu Jul 18 16:36:12 EDT 2019
User: cochatt
Spectrometer: HR+D1059
Trigger mode: 1
Integration Time (sec): 1.000000E-1
Scans to average: 1
Electric dark correction enabled: true
Nonlinearity correction enabled: false
Boxcar width: 0
XAxis mode: Wavelengths
Number of Pixels in Spectrum: 2048
>>>>>Begin Spectral Data<<<<<
223.165	-8.44
223.4	-8.44
223.635	-8.44
223.869	-23.44
224.104	-11.44
224.338	-8.44
224.573	-18.44
224.808	-10.44
225.042	12.56
225.277	-6.44
225.511	-8.44
225.746	6.56
225.98	1.56
226.215	-6.44
226.449	7.56
226.683	19.56
226.918	20.56
227.152	33.56
227.387	41.56
227.621	30.56
227.856	47.56
228.09	44.56
228.324	42.56
228.559	42.56
228.793	51.56
229.027	77.56
229.262	100.56
229.496	89.56
229.73	112.56
229.964	123.56
230.199	117.56
230.433	107.56
230.667	99.56
230.901	103.56
231.136	113.56
231.37	109.56
231.604	110.56
231.838	79.56
232.072	107.56
232.306	108.56
232.541	102.56
232.775	116.56
233.009	88.56
233.243	99.56
233.477	105.56
233.711	97.56
233.945	101.56
234.179	107.56
234.413	98.56
234.647	111.56
234.881	108.56
235.115	92.56
235.349	117.56
235.583	100.56
235.817	104.56
236.051	105.56
236.285	112.56
236.519	99.56
236.753	119.56
236.987	122.56
237.221	153.56
237.455	179.56
237.689	147.56
237.922	133.56
238.156	112.56
238.39	103.56
238.624	121.56
238.858	119.56
239.091	115.56
239.325	95.56
239.559	107.56
239.793	122.56
240.027	95.56
240.26	117.56
240.494	133.56
240.728	131.56
240.961	138.56
241.195	122.56
241.429	125.56
241.662	97.56
241.896	120.56
242.13	115.56
242.363	114.56
242.597	116.56
242.83	121.56
243.064	125.56
243.298	121.56
243.531	109.56
243.765	122.56
243.998	119.56
244.232	116.56
244.465	109.56
244.699	120.56
244.932	127.56
245.166	122.56
245.399	121.56
245.633	113.56
245.866	128.56
246.099	124.56
246.333	130.56
246.566	132.56
246.8	134.56
247.033	127.56
247.266	127.56
247.5	123.56
247.733	141.56
247.966	147.56
248.2	151.56
248.433	158.56
248.666	168.56
248.899	145.56
249.133	156.56
249.366	188.56
249.599	157.56
249.832	151.56
250.066	163.56
250.299	149.56
250.532	149.56
250.765	167.56
250.998	164.56
251.231	195.56
251.465	175.56
251.698	169.56
251.931	163.56
252.164	170.56
252.397	176.56
252.63	179.56
252.863	185.56
253.096	165.56
253.329	177.56
253.562	176.56
253.795	172.56
254.028	194.56
254.261	178.56
254.494	190.56
254.727	210.56
254.96	214.56
255.193	205.56
255.426	213.56
255.659	198.56
255.892	184.56
256.124	180.56
256.357	191.56
256.59	181.56
256.823	182.56
257.056	171.56
257.289	186.56
257.521	176.56
257.754	176.56
257.987	172.56
258.22	161.56
258.452	183.56
258.685	164.56
258.918	155.56
259.151	177.56
259.383	171.56
259.616	186.56
259.849	186.56
260.081	193.56
260.314	189.56
260.547	213.56
260.779	198.56
261.012	192.56
261.244	187.56
261.477	179.56
261.71	189.56
261.942	185.56
262.175	162.56
262.407	193.56
262.64	186.56
262.872	179.56
263.105	169.56
263.337	171.56
263.57	155.56
263.802	169.56
264.035	172.56
264.267	163.56
264.499	170.56
264.732	179.56
264.964	170.56
265.197	148.56
265.429	179.56
265.661	166.56
265.894	172.56
266.126	170.56
266.358	178.56
266.591	160.56
266.823	183.56
267.055	175.56
267.287	169.56
267.52	177.56
267.752	171.56
267.984	187.56
268.216	185.56
268.448	192.56
268.681	178.56
268.913	195.56
269.145	219.56
269.377	200.56
269.609	214.56
269.841	205.56
270.073	209.56
270.306	216.56
270.538	245.56
270.77	246.56
271.002	245.56
271.234	228.56
271.466	228.56
271.698	243.56
271.93	244.56
272.162	236.56
272.394	243.56
272.626	218.56
272.858	208.56
273.09	227.56
273.322	213.56
273.553	180.56
273.785	211.56
274.017	203.56
274.249	200.56
274.481	204.56
274.713	194.56
274.945	186.56
275.176	207.56
275.408	200.56
275.64	199.56
275.872	197.56
276.104	195.56
276.335	188.56
276.567	202.56
276.799	227.56
277.031	232.56
277.262	227.56
277.494	228.56
277.726	230.56
277.957	214.56
278.189	224.56
278.421	227.56
278.652	191.56
278.884	201.56
279.115	216.56
279.347	195.56
279.579	201.56
279.81	208.56
280.042	202.56
280.273	188.56
280.505	189.56
280.736	191.56
280.968	195.56
281.199	194.56
281.431	210.56
281.662	197.56
281.894	198.56
282.125	224.56
282.356	222.56
282.588	219.56
282.819	227.56
283.051	208.56
283.282	199.56
283.513	194.56
283.745	208.56
283.976	207.56
284.207	213.56
284.439	206.56
284.67	220.56
284.901	212.56
285.132	202.56
285.364	195.56
285.595	209.56
285.826	203.56
286.057	205.56
286.288	197.56
286.52	217.56
286.751	193.56
286.982	194.56
287.213	210.56
287.444	213.56
287.675	212.56
287.906	220.56
288.138	225.56
288.369	223.56
288.6	227.56
288.831	213.56
289.062	220.56
289.293	207.56
289.524	221.56
289.755	215.56
289.986	216.56
290.217	211.56
290.448	205.56
290.679	179.56
290.91	204.56
291.141	207.56
291.371	205.56
291.602	211.56
291.833	201.56
292.064	201.56
292.295	205.56
292.526	224.56
292.757	217.56
292.987	203.56
293.218	204.56
293.449	221.56
293.68	204.56
293.91	215.56
294.141	224.56
294.372	209.56
294.603	227.56
294.833	191.56
295.064	219.56
295.295	212.56
295.525	199.56
295.756	219.56
295.987	225.56
296.217	249.56
296.448	253.56
296.679	232.56
296.909	226.56
297.14	223.56
297.37	216.56
297.601	231.56
297.831	210.56
298.062	232.56
298.292	230.56
298.523	234.56
298.753	218.56
298.984	219.56
299.214	239.56
299.445	231.56
299.675	225.56
299.905	212.56
300.136	208.56
300.366	226.56
300.597	227.56
300.827	251.56
301.057	239.56
301.288	235.56
301.518	231.56
301.748	217.56
301.979	245.56
302.209	232.56
302.439	243.56
302.669	245.56
302.9	228.56
303.13	225.56
303.36	230.56
303.59	219.56
303.82	251.56
304.051	235.56
304.281	231.56
304.511	219.56
304.741	243.56
304.971	230.56
305.201	228.56
305.431	236.56
305.661	244.56
305.891	239.56
306.121	230.56
306.352	230.56
306.582	245.56
306.812	212.56
307.042	243.56
307.272	233.56
307.502	242.56
307.731	243.56
307.961	231.56
308.191	251.56
308.421	232.56
308.651	229.56
308.881	242.56
309.111	230.56
309.341	247.56
309.571	256.56
309.8	265.56
310.03	265.56
310.26	259.56
310.49	259.56
310.72	276.56
310.949	267.56
311.179	257.56
311.409	274.56
311.639	265.56
311.868	267.56
312.098	276.56
312.328	271.56
312.557	273.56
312.787	289.56
313.017	288.56
313.246	282.56
313.476	267.56
313.706	247.56
313.935	260.56
314.165	284.56
314.394	281.56
314.624	275.56
314.853	276.56
315.083	269.56
315.312	282.56
315.542	269.56
315.771	267.56
316.001	271.56
316.23	265.56
316.46	264.56
316.689	280.56
316.919	274.56
317.148	275.56
317.377	279.56
317.607	283.56
317.836	287.56
318.065	261.56
318.295	262.56
318.524	250.56
318.753	287.56
318.983	270.56
319.212	279.56
319.441	280.56
319.67	270.56
319.9	281.56
320.129	265.56
320.358	280.56
320.587	276.56
320.816	284.56
321.046	279.56
321.275	297.56
321.504	283.56
321.733	293.56
321.962	287.56
322.191	289.56
322.42	299.56
322.649	305.56
322.878	328.56
323.108	335.56
323.337	342.56
323.566	345.56
323.795	367.56
324.024	376.56
324.253	471.56
324.482	633.56
324.71	975.56
324.939	1400.56
325.168	1299.56
325.397	687.56
325.626	471.56
325.855	389.56
326.084	361.56
326.313	343.56
326.542	339.56
326.77	380.56
326.999	417.56
327.228	580.56
327.457	875.56
327.686	1074.56
327.914	755.56
328.143	501.56
328.372	413.56
328.6	413.56
328.829	398.56
329.058	399.56
329.287	405.56
329.515	387.56
329.744	348.56
329.972	339.56
330.201	359.56
330.43	365.56
330.658	388.56
330.887	431.56
331.115	403.56
331.344	363.56
331.572	337.56
331.801	333.56
332.03	328.56
332.258	318.56
332.486	313.56
332.715	318.56
332.943	324.56
333.172	305.56
333.4	318.56
333.629	304.56
333.857	311.56
334.085	320.56
334.314	335.56
334.542	328.56
334.771	349.56
334.999	340.56
335.227	340.56
335.455	294.56
335.684	309.56
335.912	309.56
336.14	306.56
336.369	314.56
336.597	307.56
336.825	302.56
337.053	307.56
337.281	301.56
337.51	316.56
337.738	298.56
337.966	317.56
338.194	317.56
338.422	316.56
338.65	284.56
338.878	300.56
339.106	289.56
339.334	295.56
339.562	299.56
339.79	300.56
340.018	290.56
340.246	313.56
340.474	307.56
340.702	301.56
340.93	315.56
341.158	312.56
341.386	297.56
341.614	306.56
341.842	303.56
342.07	298.56
342.298	307.56
342.526	297.56
342.754	287.56
342.981	272.56
343.209	293.56
343.437	312.56
343.665	291.56
343.893	311.56
344.12	304.56
344.348	311.56
344.576	312.56
344.804	296.56
345.031	321.56
345.259	321.56
345.487	315.56
345.714	298.56
345.942	310.56
346.17	292.56
346.397	303.56
346.625	299.56
346.853	296.56
347.08	280.56
347.308	303.56
347.535	287.56
347.763	314.56
347.99	295.56
348.218	313.56
348.445	304.56
348.673	307.56
348.9	295.56
349.128	280.56
349.355	289.56
349.583	279.56
349.81	301.56
350.037	277.56
350.265	292.56
350.492	286.56
350.72	283.56
350.947	308.56
351.174	315.56
351.402	285.56
351.629	296.56
351.856	301.56
352.083	315.56
352.311	309.56
352.538	319.56
352.765	319.56
352.992	307.56
353.22	297.56
353.447	293.56
353.674	312.56
353.901	300.56
354.128	282.56
354.355	264.56
354.583	262.56
354.81	289.56
355.037	286.56
355.264	276.56
355.491	269.56
355.718	273.56
355.945	280.56
356.172	275.56
356.399	277.56
356.626	297.56
356.853	273.56
357.08	267.56
357.307	265.56
357.534	273.56
357.761	292.56
357.988	296.56
358.215	287.56
358.441	293.56
358.668	290.56
358.895	284.56
359.122	291.56
359.349	310.56
359.576	300.56
359.802	301.56
360.029	320.56
360.256	326.56
360.483	309.56
360.709	290.56
360.936	312.56
361.163	311.56
361.39	285.56
361.616	294.56
361.843	306.56
362.07	293.56
362.296	307.56
362.523	298.56
362.749	306.56
362.976	268.56
363.203	300.56
363.429	280.56
363.656	284.56
363.882	292.56
364.109	296.56
364.335	282.56
364.562	268.56
364.788	305.56
365.015	279.56
365.241	284.56
365.468	307.56
365.694	294.56
365.92	287.56
366.147	283.56
366.373	279.56
366.599	295.56
366.826	295.56
367.052	283.56
367.278	305.56
367.505	281.56
367.731	296.56
367.957	299.56
368.184	284.56
368.41	288.56
368.636	297.56
368.862	306.56
369.089	289.56
369.315	295.56
369.541	280.56
369.767	284.56
369.993	296.56
370.219	291.56
370.445	288.56
370.672	275.56
370.898	300.56
371.124	271.56
371.35	283.56
371.576	281.56
371.802	292.56
372.028	281.56
372.254	272.56
372.48	281.56
372.706	293.56
372.932	285.56
373.158	295.56
373.384	299.56
373.61	284.56
373.835	299.56
374.061	280.56
374.287	305.56
374.513	299.56
374.739	295.56
374.965	281.56
375.191	289.56
375.416	293.56
375.642	299.56
375.868	286.56
376.094	305.56
376.319	290.56
376.545	298.56
376.771	300.56
376.997	296.56
377.222	294.56
377.448	294.56
377.674	281.56
377.899	292.56
378.125	298.56
378.35	300.56
378.576	290.56
378.802	276.56
379.027	285.56
379.253	273.56
379.478	293.56
379.704	294.56
379.929	307.56
380.155	284.56
380.38	314.56
380.606	290.56
380.831	309.56
381.057	301.56
381.282	283.56
381.507	296.56
381.733	305.56
381.958	296.56
382.184	291.56
382.409	288.56
382.634	292.56
382.86	294.56
383.085	300.56
383.31	291.56
383.535	309.56
383.761	314.56
383.986	305.56
384.211	312.56
384.436	311.56
384.662	298.56
384.887	308.56
385.112	298.56
385.337	291.56
385.562	319.56
385.787	305.56
386.013	317.56
386.238	306.56
386.463	294.56
386.688	315.56
386.913	307.56
387.138	312.56
387.363	314.56
387.588	307.56
387.813	319.56
388.038	320.56
388.263	317.56
388.488	303.56
388.713	312.56
388.938	300.56
389.163	308.56
389.387	307.56
389.612	285.56
389.837	293.56
390.062	316.56
390.287	306.56
390.512	314.56
390.736	317.56
390.961	316.56
391.186	315.56
391.411	313.56
391.636	319.56
391.86	317.56
392.085	327.56
392.31	322.56
392.534	321.56
392.759	313.56
392.984	323.56
393.208	325.56
393.433	331.56
393.658	330.56
393.882	315.56
394.107	310.56
394.331	318.56
394.556	307.56
394.78	298.56
395.005	303.56
395.229	298.56
395.454	339.56
395.678	324.56
395.903	329.56
396.127	333.56
396.352	352.56
396.576	322.56
396.801	312.56
397.025	319.56
397.249	319.56
397.474	327.56
397.698	317.56
397.922	326.56
398.147	367.56
398.371	341.56
398.595	323.56
398.82	343.56
399.044	341.56
399.268	350.56
399.492	367.56
399.717	363.56
399.941	396.56
400.165	404.56
400.389	427.56
400.613	392.56
400.837	378.56
401.062	385.56
401.286	351.56
401.51	354.56
401.734	326.56
401.958	373.56
402.182	351.56
402.406	371.56
402.63	356.56
402.854	347.56
403.078	355.56
403.302	347.56
403.526	345.56
403.75	358.56
403.974	375.56
404.198	359.56
404.422	357.56
404.645	363.56
404.869	368.56
405.093	389.56
405.317	417.56
405.541	438.56
405.765	393.56
405.988	399.56
406.212	381.56
406.436	395.56
406.66	427.56
406.883	383.56
407.107	406.56
407.331	450.56
407.555	497.56
407.778	471.56
408.002	428.56
408.226	412.56
408.449	393.56
408.673	403.56
408.896	409.56
409.12	465.56
409.344	420.56
409.567	381.56
409.791	385.56
410.014	357.56
410.238	371.56
410.461	369.56
410.685	364.56
410.908	377.56
411.132	381.56
411.355	429.56
411.578	391.56
411.802	397.56
412.025	367.56
412.249	362.56
412.472	383.56
412.695	413.56
412.919	385.56
413.142	359.56
413.365	387.56
413.589	367.56
413.812	343.56
414.035	348.56
414.258	346.56
414.482	329.56
414.705	345.56
414.928	340.56
415.151	344.56
415.374	341.56
415.597	332.56
415.821	336.56
416.044	348.56
416.267	366.56
416.49	348.56
416.713	357.56
416.936	349.56
417.159	338.56
417.382	360.56
417.605	351.56
417.828	344.56
418.051	341.56
418.274	365.56
418.497	367.56
418.72	355.56
418.943	333.56
419.166	351.56
419.389	373.56
419.611	387.56
419.834	375.56
420.057	342.56
420.28	367.56
420.503	352.56
420.726	359.56
420.948	371.56
421.171	403.56
421.394	424.56
421.617	385.56
421.839	362.56
422.062	354.56
422.285	379.56
422.507	407.56
422.73	456.56
422.953	461.56
423.175	401.56
423.398	375.56
423.621	385.56
423.843	400.56
424.066	380.56
424.288	396.56
424.511	386.56
424.733	437.56
424.956	515.56
425.178	510.56
425.401	480.56
425.623	475.56
425.846	437.56
426.068	416.56
426.291	403.56
426.513	403.56
426.735	397.56
426.958	435.56
427.18	483.56
427.402	580.56
427.625	646.56
427.847	543.56
428.069	475.56
428.292	421.56
428.514	399.56
428.736	387.56
428.958	388.56
429.181	369.56
429.403	390.56
429.625	391.56
429.847	386.56
430.069	432.56
430.292	437.56
430.514	407.56
430.736	379.56
430.958	353.56
431.18	368.56
431.402	347.56
431.624	343.56
431.846	334.56
432.068	345.56
432.29	351.56
432.512	336.56
432.734	352.56
432.956	367.56
433.178	375.56
433.4	356.56
433.622	364.56
433.844	371.56
434.066	340.56
434.287	353.56
434.509	341.56
434.731	344.56
434.953	359.56
435.175	392.56
435.397	390.56
435.618	396.56
435.84	420.56
436.062	503.56
436.284	551.56
436.505	459.56
436.727	431.56
436.949	378.56
437.17	388.56
437.392	395.56
437.614	389.56
437.835	401.56
438.057	460.56
438.278	544.56
438.5	541.56
438.721	585.56
438.943	555.56
439.165	466.56
439.386	423.56
439.608	423.56
439.829	395.56
440.05	416.56
440.272	463.56
440.493	427.56
440.715	382.56
440.936	364.56
441.158	384.56
441.379	375.56
441.6	374.56
441.822	373.56
442.043	428.56
442.264	490.56
442.486	551.56
442.707	439.56
442.928	415.56
443.149	415.56
443.371	432.56
443.592	451.56
443.813	517.56
444.034	583.56
444.255	463.56
444.476	433.56
444.698	415.56
444.919	392.56
445.14	479.56
445.361	463.56
445.582	431.56
445.803	476.56
446.024	531.56
446.245	527.56
446.466	517.56
446.687	447.56
446.908	391.56
447.129	385.56
447.35	379.56
447.571	374.56
447.792	374.56
448.013	369.56
448.234	380.56
448.455	422.56
448.675	519.56
448.896	595.56
449.117	521.56
449.338	483.56
449.559	537.56
449.779	599.56
450	496.56
450.221	406.56
450.442	395.56
450.662	367.56
450.883	358.56
451.104	375.56
451.324	356.56
451.545	348.56
451.766	345.56
451.986	336.56
452.207	336.56
452.428	325.56
452.648	351.56
452.869	342.56
453.089	339.56
453.31	345.56
453.53	348.56
453.751	334.56
453.971	331.56
454.192	340.56
454.412	337.56
454.633	323.56
454.853	332.56
455.073	325.56
455.294	343.56
455.514	395.56
455.734	396.56
455.955	348.56
456.175	311.56
456.395	308.56
456.616	315.56
456.836	313.56
457.056	313.56
457.276	297.56
457.497	296.56
457.717	308.56
457.937	310.56
458.157	321.56
458.377	316.56
458.598	344.56
458.818	366.56
459.038	437.56
459.258	437.56
459.478	392.56
459.698	356.56
459.918	319.56
460.138	357.56
460.358	335.56
460.578	333.56
460.798	343.56
461.018	348.56
461.238	339.56
461.458	354.56
461.678	348.56
461.898	336.56
462.118	325.56
462.338	360.56
462.558	349.56
462.777	362.56
462.997	353.56
463.217	363.56
463.437	367.56
463.657	370.56
463.876	359.56
464.096	359.56
464.316	364.56
464.536	347.56
464.755	370.56
464.975	351.56
465.195	406.56
465.414	422.56
465.634	388.56
465.854	371.56
466.073	345.56
466.293	347.56
466.512	341.56
466.732	330.56
466.951	330.56
467.171	334.56
467.391	346.56
467.61	327.56
467.829	350.56
468.049	327.56
468.268	336.56
468.488	324.56
468.707	330.56
468.927	299.56
469.146	322.56
469.365	311.56
469.585	321.56
469.804	343.56
470.023	325.56
470.243	360.56
470.462	333.56
470.681	371.56
470.901	353.56
471.12	346.56
471.339	346.56
471.558	335.56
471.777	348.56
471.997	364.56
472.216	346.56
472.435	338.56
472.654	333.56
472.873	332.56
473.092	340.56
473.311	340.56
473.53	342.56
473.749	349.56
473.968	376.56
474.187	434.56
474.406	464.56
474.625	379.56
474.844	362.56
475.063	365.56
475.282	344.56
475.501	343.56
475.72	351.56
475.939	349.56
476.158	358.56
476.377	348.56
476.596	363.56
476.814	363.56
477.033	352.56
477.252	374.56
477.471	358.56
477.69	364.56
477.908	368.56
478.127	358.56
478.346	371.56
478.564	385.56
478.783	369.56
479.002	407.56
479.22	388.56
479.439	403.56
479.658	410.56
479.876	394.56
480.095	403.56
480.313	441.56
480.532	428.56
480.751	403.56
480.969	421.56
481.188	421.56
481.406	454.56
481.624	431.56
481.843	401.56
482.061	408.56
482.28	405.56
482.498	388.56
482.717	391.56
482.935	419.56
483.153	385.56
483.372	403.56
483.59	395.56
483.808	397.56
484.027	404.56
484.245	407.56
484.463	410.56
484.681	407.56
484.9	403.56
485.118	410.56
485.336	420.56
485.554	428.56
485.772	407.56
485.99	425.56
486.209	419.56
486.427	399.56
486.645	397.56
486.863	439.56
487.081	428.56
487.299	415.56
487.517	415.56
487.735	424.56
487.953	444.56
488.171	428.56
488.389	438.56
488.607	444.56
488.825	436.56
489.043	428.56
489.261	435.56
489.479	447.56
489.696	470.56
489.914	457.56
490.132	455.56
490.35	468.56
490.568	448.56
490.786	460.56
491.003	477.56
491.221	475.56
491.439	458.56
491.657	501.56
491.874	502.56
492.092	515.56
492.31	530.56
492.527	473.56
492.745	487.56
492.963	511.56
493.18	525.56
493.398	505.56
493.615	518.56
493.833	513.56
494.05	527.56
494.268	527.56
494.485	482.56
494.703	497.56
494.92	517.56
495.138	502.56
495.355	505.56
495.573	521.56
495.79	508.56
496.008	523.56
496.225	527.56
496.442	524.56
496.66	525.56
496.877	513.56
497.094	495.56
497.312	514.56
497.529	533.56
497.746	531.56
497.963	551.56
498.181	558.56
498.398	547.56
498.615	571.56
498.832	570.56
499.049	587.56
499.267	558.56
499.484	607.56
499.701	605.56
499.918	601.56
500.135	638.56
500.352	655.56
500.569	649.56
500.786	655.56
501.003	636.56
501.22	648.56
501.437	645.56
501.654	611.56
501.871	610.56
502.088	600.56
502.305	594.56
