Data from 1980.PennyLincolnUp.Lamp.En5.5.200Scan.071819.P1_HRD10591_16-39-16-958.txt Node
Date: Thu Jul 18 16:39:16 EDT 2019
User: cochatt
Spectrometer: HR+D1059
Trigger mode: 1
Integration Time (sec): 1.000000E-1
Scans to average: 1
Electric dark correction enabled: true
Nonlinearity correction enabled: false
Boxcar width: 0
XAxis mode: Wavelengths
Number of Pixels in Spectrum: 2048
>>>>>Begin Spectral Data<<<<<
223.165	-24.06
223.4	-24.06
223.635	-24.06
223.869	-6.06
224.104	-20.06
224.338	-17.06
224.573	-15.06
224.808	-15.06
225.042	-12.06
225.277	-5.06
225.511	-5.06
225.746	5.94
225.98	14.94
226.215	7.94
226.449	14.94
226.683	24.94
226.918	21.94
227.152	28.94
227.387	32.94
227.621	47.94
227.856	31.94
228.09	36.94
228.324	42.94
228.559	54.94
228.793	74.94
229.027	91.94
229.262	114.94
229.496	115.94
229.73	148.94
229.964	170.94
230.199	144.94
230.433	127.94
230.667	113.94
230.901	112.94
231.136	114.94
231.37	124.94
231.604	110.94
231.838	114.94
232.072	100.94
232.306	99.94
232.541	107.94
232.775	121.94
233.009	116.94
233.243	126.94
233.477	119.94
233.711	122.94
233.945	123.94
234.179	103.94
234.413	121.94
234.647	109.94
234.881	115.94
235.115	118.94
235.349	110.94
235.583	128.94
235.817	125.94
236.051	113.94
236.285	132.94
236.519	122.94
236.753	149.94
236.987	143.94
237.221	197.94
237.455	246.94
237.689	216.94
237.922	155.94
238.156	144.94
238.39	130.94
238.624	134.94
238.858	138.94
239.091	120.94
239.325	131.94
239.559	128.94
239.793	142.94
240.027	146.94
240.26	147.94
240.494	178.94
240.728	158.94
240.961	165.94
241.195	156.94
241.429	126.94
241.662	130.94
241.896	137.94
242.13	127.94
242.363	138.94
242.597	134.94
242.83	145.94
243.064	134.94
243.298	144.94
243.531	138.94
243.765	134.94
243.998	160.94
244.232	143.94
244.465	152.94
244.699	160.94
244.932	156.94
245.166	147.94
245.399	148.94
245.633	142.94
245.866	162.94
246.099	149.94
246.333	156.94
246.566	139.94
246.8	155.94
247.033	154.94
247.266	173.94
247.5	166.94
247.733	188.94
247.966	178.94
248.2	176.94
248.433	195.94
248.666	191.94
248.899	205.94
249.133	209.94
249.366	218.94
249.599	220.94
249.832	200.94
250.066	202.94
250.299	178.94
250.532	198.94
250.765	203.94
250.998	225.94
251.231	266.94
251.465	238.94
251.698	223.94
251.931	201.94
252.164	211.94
252.397	221.94
252.63	234.94
252.863	209.94
253.096	232.94
253.329	244.94
253.562	226.94
253.795	224.94
254.028	228.94
254.261	226.94
254.494	243.94
254.727	288.94
254.96	304.94
255.193	297.94
255.426	276.94
255.659	254.94
255.892	253.94
256.124	257.94
256.357	252.94
256.59	242.94
256.823	234.94
257.056	216.94
257.289	217.94
257.521	232.94
257.754	233.94
257.987	216.94
258.22	224.94
258.452	211.94
258.685	212.94
258.918	210.94
259.151	224.94
259.383	232.94
259.616	239.94
259.849	233.94
260.081	244.94
260.314	260.94
260.547	276.94
260.779	262.94
261.012	233.94
261.244	235.94
261.477	252.94
261.71	250.94
261.942	259.94
262.175	265.94
262.407	233.94
262.64	228.94
262.872	222.94
263.105	231.94
263.337	214.94
263.57	224.94
263.802	209.94
264.035	235.94
264.267	233.94
264.499	211.94
264.732	210.94
264.964	222.94
265.197	211.94
265.429	210.94
265.661	220.94
265.894	205.94
266.126	223.94
266.358	200.94
266.591	200.94
266.823	228.94
267.055	234.94
267.287	218.94
267.52	234.94
267.752	228.94
267.984	231.94
268.216	229.94
268.448	235.94
268.681	231.94
268.913	266.94
269.145	274.94
269.377	274.94
269.609	267.94
269.841	285.94
270.073	312.94
270.306	304.94
270.538	339.94
270.77	330.94
271.002	310.94
271.234	330.94
271.466	301.94
271.698	331.94
271.93	353.94
272.162	327.94
272.394	350.94
272.626	314.94
272.858	307.94
273.09	294.94
273.322	286.94
273.553	270.94
273.785	291.94
274.017	287.94
274.249	283.94
274.481	272.94
274.713	283.94
274.945	289.94
275.176	282.94
275.408	272.94
275.64	261.94
275.872	240.94
276.104	276.94
276.335	277.94
276.567	276.94
276.799	304.94
277.031	314.94
277.262	334.94
277.494	326.94
277.726	293.94
277.957	282.94
278.189	298.94
278.421	299.94
278.652	276.94
278.884	266.94
279.115	266.94
279.347	264.94
279.579	266.94
279.81	271.94
280.042	262.94
280.273	277.94
280.505	259.94
280.736	270.94
280.968	275.94
281.199	271.94
281.431	265.94
281.662	278.94
281.894	267.94
282.125	284.94
282.356	280.94
282.588	317.94
282.819	324.94
283.051	273.94
283.282	276.94
283.513	286.94
283.745	271.94
283.976	275.94
284.207	295.94
284.439	266.94
284.67	278.94
284.901	276.94
285.132	267.94
285.364	270.94
285.595	257.94
285.826	283.94
286.057	287.94
286.288	276.94
286.52	279.94
286.751	287.94
286.982	285.94
287.213	275.94
287.444	287.94
287.675	288.94
287.906	293.94
288.138	290.94
288.369	300.94
288.6	277.94
288.831	299.94
289.062	300.94
289.293	275.94
289.524	287.94
289.755	261.94
289.986	278.94
290.217	253.94
290.448	284.94
290.679	274.94
290.91	281.94
291.141	280.94
291.371	287.94
291.602	274.94
291.833	285.94
292.064	277.94
292.295	295.94
292.526	290.94
292.757	277.94
292.987	291.94
293.218	271.94
293.449	267.94
293.68	267.94
293.91	290.94
294.141	276.94
294.372	258.94
294.603	270.94
294.833	286.94
295.064	272.94
295.295	290.94
295.525	286.94
295.756	281.94
295.987	288.94
296.217	321.94
296.448	335.94
296.679	302.94
296.909	282.94
297.14	285.94
297.37	312.94
297.601	286.94
297.831	288.94
298.062	314.94
298.292	284.94
298.523	315.94
298.753	287.94
298.984	309.94
299.214	314.94
299.445	289.94
299.675	314.94
299.905	302.94
300.136	295.94
300.366	296.94
300.597	292.94
300.827	312.94
301.057	296.94
301.288	310.94
301.518	330.94
301.748	326.94
301.979	318.94
302.209	302.94
302.439	311.94
302.669	326.94
302.9	305.94
303.13	326.94
303.36	315.94
303.59	308.94
303.82	316.94
304.051	320.94
304.281	319.94
304.511	315.94
304.741	329.94
304.971	308.94
305.201	318.94
305.431	315.94
305.661	335.94
305.891	304.94
306.121	316.94
306.352	331.94
306.582	335.94
306.812	319.94
307.042	313.94
307.272	328.94
307.502	324.94
307.731	328.94
307.961	318.94
308.191	302.94
308.421	327.94
308.651	338.94
308.881	340.94
309.111	345.94
309.341	342.94
309.571	338.94
309.8	359.94
310.03	341.94
310.26	345.94
310.49	371.94
310.72	392.94
310.949	404.94
311.179	406.94
311.409	387.94
311.639	387.94
311.868	392.94
312.098	364.94
312.328	390.94
312.557	393.94
312.787	415.94
313.017	410.94
313.246	390.94
313.476	361.94
313.706	388.94
313.935	386.94
314.165	379.94
314.394	423.94
314.624	412.94
314.853	386.94
315.083	379.94
315.312	361.94
315.542	350.94
315.771	366.94
316.001	372.94
316.23	370.94
316.46	376.94
316.689	376.94
316.919	373.94
317.148	384.94
317.377	402.94
317.607	387.94
317.836	380.94
318.065	382.94
318.295	355.94
318.524	362.94
318.753	355.94
318.983	388.94
319.212	386.94
319.441	375.94
319.67	388.94
319.9	366.94
320.129	380.94
320.358	382.94
320.587	379.94
320.816	390.94
321.046	418.94
321.275	426.94
321.504	418.94
321.733	393.94
321.962	410.94
322.191	430.94
322.42	456.94
322.649	447.94
322.878	490.94
323.108	472.94
323.337	509.94
323.566	534.94
323.795	604.94
324.024	638.94
324.253	812.94
324.482	1194.94
324.71	1824.94
324.939	2584.94
325.168	2238.94
325.397	1156.94
325.626	770.94
325.855	634.94
326.084	562.94
326.313	521.94
326.542	564.94
326.77	613.94
326.999	731.94
327.228	1028.94
327.457	1574.94
327.686	1930.94
327.914	1346.94
328.143	853.94
328.372	746.94
328.6	656.94
328.829	640.94
329.058	635.94
329.287	657.94
329.515	597.94
329.744	548.94
329.972	538.94
330.201	577.94
330.43	634.94
330.658	691.94
330.887	684.94
331.115	678.94
331.344	566.94
331.572	530.94
331.801	524.94
332.03	516.94
332.258	489.94
332.486	469.94
332.715	452.94
332.943	444.94
333.172	434.94
333.4	465.94
333.629	480.94
333.857	457.94
334.085	498.94
334.314	531.94
334.542	554.94
334.771	564.94
334.999	537.94
335.227	468.94
335.455	438.94
335.684	440.94
335.912	443.94
336.14	422.94
336.369	438.94
336.597	425.94
336.825	444.94
337.053	439.94
337.281	426.94
337.51	404.94
337.738	419.94
337.966	408.94
338.194	434.94
338.422	451.94
338.65	415.94
338.878	415.94
339.106	409.94
339.334	422.94
339.562	403.94
339.79	403.94
340.018	421.94
340.246	418.94
340.474	415.94
340.702	427.94
340.93	418.94
341.158	409.94
341.386	430.94
341.614	434.94
341.842	414.94
342.07	425.94
342.298	415.94
342.526	392.94
342.754	402.94
342.981	377.94
343.209	407.94
343.437	392.94
343.665	388.94
343.893	418.94
344.12	387.94
344.348	406.94
344.576	425.94
344.804	432.94
345.031	459.94
345.259	446.94
345.487	447.94
345.714	427.94
345.942	442.94
346.17	412.94
346.397	440.94
346.625	423.94
346.853	397.94
347.08	408.94
347.308	414.94
347.535	409.94
347.763	436.94
347.99	434.94
348.218	427.94
348.445	422.94
348.673	416.94
348.9	414.94
349.128	406.94
349.355	397.94
349.583	399.94
349.81	419.94
350.037	396.94
350.265	404.94
350.492	414.94
350.72	397.94
350.947	413.94
351.174	437.94
351.402	412.94
351.629	412.94
351.856	408.94
352.083	417.94
352.311	444.94
352.538	460.94
352.765	426.94
352.992	430.94
353.22	422.94
353.447	414.94
353.674	410.94
353.901	394.94
354.128	374.94
354.355	389.94
354.583	359.94
354.81	378.94
355.037	378.94
355.264	363.94
355.491	359.94
355.718	362.94
355.945	361.94
356.172	362.94
356.399	363.94
356.626	373.94
356.853	352.94
357.08	356.94
357.307	367.94
357.534	354.94
357.761	370.94
357.988	363.94
358.215	378.94
358.441	374.94
358.668	368.94
358.895	369.94
359.122	388.94
359.349	394.94
359.576	404.94
359.802	443.94
360.029	473.94
360.256	484.94
360.483	470.94
360.709	427.94
360.936	418.94
361.163	432.94
361.39	414.94
361.616	444.94
361.843	404.94
362.07	404.94
362.296	415.94
362.523	407.94
362.749	405.94
362.976	404.94
363.203	415.94
363.429	378.94
363.656	396.94
363.882	378.94
364.109	404.94
364.335	382.94
364.562	382.94
364.788	380.94
365.015	378.94
365.241	404.94
365.468	386.94
365.694	415.94
365.92	404.94
366.147	387.94
366.373	384.94
366.599	378.94
366.826	392.94
367.052	384.94
367.278	377.94
367.505	370.94
367.731	398.94
367.957	381.94
368.184	383.94
368.41	391.94
368.636	395.94
368.862	418.94
369.089	395.94
369.315	384.94
369.541	398.94
369.767	374.94
369.993	390.94
370.219	377.94
370.445	394.94
370.672	376.94
370.898	383.94
371.124	391.94
371.35	375.94
371.576	387.94
371.802	374.94
372.028	368.94
372.254	362.94
372.48	366.94
372.706	368.94
372.932	362.94
373.158	377.94
373.384	384.94
373.61	384.94
373.835	356.94
374.061	378.94
374.287	373.94
374.513	388.94
374.739	365.94
374.965	371.94
375.191	369.94
375.416	374.94
375.642	378.94
375.868	376.94
376.094	359.94
376.319	375.94
376.545	374.94
376.771	375.94
376.997	363.94
377.222	355.94
377.448	376.94
377.674	357.94
377.899	364.94
378.125	373.94
378.35	383.94
378.576	362.94
378.802	349.94
379.027	356.94
379.253	367.94
379.478	372.94
379.704	380.94
379.929	371.94
380.155	357.94
380.38	374.94
380.606	383.94
380.831	378.94
381.057	380.94
381.282	365.94
381.507	386.94
381.733	378.94
381.958	378.94
382.184	385.94
382.409	393.94
382.634	380.94
382.86	396.94
383.085	378.94
383.31	364.94
383.535	380.94
383.761	394.94
383.986	387.94
384.211	392.94
384.436	385.94
384.662	399.94
384.887	409.94
385.112	400.94
385.337	378.94
385.562	388.94
385.787	386.94
386.013	411.94
386.238	418.94
386.463	423.94
386.688	413.94
386.913	379.94
387.138	402.94
387.363	392.94
387.588	384.94
387.813	381.94
388.038	394.94
388.263	386.94
388.488	400.94
388.713	376.94
388.938	399.94
389.163	431.94
389.387	408.94
389.612	389.94
389.837	385.94
390.062	396.94
390.287	384.94
390.512	386.94
390.736	395.94
390.961	388.94
391.186	414.94
391.411	388.94
391.636	388.94
391.86	417.94
392.085	402.94
392.31	411.94
392.534	400.94
392.759	402.94
392.984	417.94
393.208	419.94
393.433	406.94
393.658	359.94
393.882	404.94
394.107	386.94
394.331	384.94
394.556	383.94
394.78	399.94
395.005	404.94
395.229	395.94
395.454	412.94
395.678	407.94
395.903	423.94
396.127	409.94
396.352	470.94
396.576	394.94
396.801	404.94
397.025	396.94
397.249	415.94
397.474	434.94
397.698	416.94
397.922	432.94
398.147	455.94
398.371	459.94
398.595	442.94
398.82	425.94
399.044	419.94
399.268	456.94
399.492	478.94
399.717	489.94
399.941	522.94
400.165	536.94
400.389	549.94
400.613	531.94
400.837	483.94
401.062	454.94
401.286	460.94
401.51	461.94
401.734	458.94
401.958	446.94
402.182	464.94
402.406	473.94
402.63	485.94
402.854	458.94
403.078	450.94
403.302	469.94
403.526	496.94
403.75	477.94
403.974	474.94
404.198	467.94
404.422	444.94
404.645	484.94
404.869	480.94
405.093	532.94
405.317	564.94
405.541	584.94
405.765	528.94
405.988	508.94
406.212	526.94
406.436	537.94
406.66	567.94
406.883	524.94
407.107	538.94
407.331	577.94
407.555	658.94
407.778	627.94
408.002	584.94
408.226	543.94
408.449	524.94
408.673	548.94
408.896	562.94
409.12	588.94
409.344	550.94
409.567	515.94
409.791	484.94
410.014	487.94
410.238	475.94
410.461	464.94
410.685	474.94
410.908	466.94
411.132	537.94
411.355	573.94
411.578	531.94
411.802	494.94
412.025	465.94
412.249	498.94
412.472	509.94
412.695	575.94
412.919	537.94
413.142	487.94
413.365	494.94
413.589	466.94
413.812	464.94
414.035	464.94
414.258	470.94
414.482	444.94
414.705	434.94
414.928	432.94
415.151	442.94
415.374	431.94
415.597	440.94
415.821	435.94
416.044	444.94
416.267	459.94
416.49	461.94
416.713	424.94
416.936	470.94
417.159	452.94
417.382	472.94
417.605	468.94
417.828	486.94
418.051	492.94
418.274	455.94
418.497	470.94
418.72	451.94
418.943	454.94
419.166	471.94
419.389	494.94
419.611	474.94
419.834	488.94
420.057	499.94
420.28	508.94
420.503	480.94
420.726	471.94
420.948	512.94
421.171	549.94
421.394	564.94
421.617	490.94
421.839	487.94
422.062	513.94
422.285	507.94
422.507	549.94
422.73	633.94
422.953	626.94
423.175	532.94
423.398	518.94
423.621	505.94
423.843	533.94
424.066	520.94
424.288	538.94
424.511	536.94
424.733	587.94
424.956	704.94
425.178	660.94
425.401	667.94
425.623	678.94
425.846	586.94
426.068	545.94
426.291	545.94
426.513	513.94
426.735	544.94
426.958	597.94
427.18	656.94
427.402	775.94
427.625	917.94
427.847	826.94
428.069	700.94
428.292	594.94
428.514	542.94
428.736	509.94
428.958	508.94
429.181	514.94
429.403	475.94
429.625	539.94
429.847	564.94
430.069	626.94
430.292	612.94
430.514	528.94
430.736	484.94
430.958	498.94
431.18	471.94
431.402	467.94
431.624	451.94
431.846	465.94
432.068	455.94
432.29	466.94
432.512	453.94
432.734	450.94
432.956	452.94
433.178	473.94
433.4	481.94
433.622	478.94
433.844	465.94
434.066	451.94
434.287	451.94
434.509	461.94
434.731	478.94
434.953	478.94
435.175	508.94
435.397	530.94
435.618	548.94
435.84	554.94
436.062	662.94
436.284	772.94
436.505	623.94
436.727	547.94
436.949	500.94
437.17	502.94
437.392	512.94
437.614	514.94
437.835	549.94
438.057	664.94
438.278	783.94
438.5	756.94
438.721	837.94
438.943	786.94
439.165	662.94
439.386	570.94
439.608	541.94
439.829	558.94
440.05	593.94
440.272	658.94
440.493	615.94
440.715	576.94
440.936	531.94
441.158	518.94
441.379	515.94
441.6	510.94
441.822	528.94
442.043	573.94
442.264	674.94
442.486	717.94
442.707	600.94
442.928	570.94
443.149	579.94
443.371	585.94
443.592	646.94
443.813	727.94
444.034	768.94
444.255	635.94
444.476	571.94
444.698	547.94
444.919	543.94
445.14	614.94
445.361	601.94
445.582	578.94
445.803	672.94
446.024	777.94
446.245	806.94
446.466	694.94
446.687	606.94
446.908	561.94
447.129	526.94
447.35	532.94
447.571	512.94
447.792	501.94
448.013	510.94
448.234	546.94
448.455	578.94
448.675	708.94
448.896	761.94
449.117	681.94
449.338	645.94
449.559	752.94
449.779	835.94
450	682.94
450.221	605.94
450.442	528.94
450.662	515.94
450.883	506.94
451.104	545.94
451.324	497.94
451.545	489.94
451.766	489.94
451.986	485.94
452.207	452.94
452.428	446.94
452.648	440.94
452.869	471.94
453.089	479.94
453.31	482.94
453.53	474.94
453.751	455.94
453.971	461.94
454.192	500.94
454.412	490.94
454.633	461.94
454.853	448.94
455.073	446.94
455.294	487.94
455.514	529.94
455.734	562.94
455.955	457.94
456.175	436.94
456.395	467.94
456.616	423.94
456.836	402.94
457.056	434.94
457.276	416.94
457.497	417.94
457.717	440.94
457.937	415.94
458.157	442.94
458.377	439.94
458.598	469.94
458.818	539.94
459.038	627.94
459.258	632.94
459.478	525.94
459.698	479.94
459.918	459.94
460.138	449.94
460.358	436.94
460.578	459.94
460.798	479.94
461.018	441.94
461.238	448.94
461.458	448.94
461.678	449.94
461.898	458.94
462.118	454.94
462.338	452.94
462.558	473.94
462.777	480.94
462.997	471.94
463.217	472.94
463.437	440.94
463.657	481.94
463.876	463.94
464.096	467.94
464.316	481.94
464.536	485.94
464.755	496.94
464.975	475.94
465.195	555.94
465.414	659.94
465.634	561.94
465.854	494.94
466.073	488.94
466.293	462.94
466.512	449.94
466.732	464.94
466.951	456.94
467.171	465.94
467.391	455.94
467.61	484.94
467.829	479.94
468.049	471.94
468.268	492.94
468.488	467.94
468.707	436.94
468.927	448.94
469.146	431.94
469.365	450.94
469.585	444.94
469.804	445.94
470.023	464.94
470.243	444.94
470.462	478.94
470.681	479.94
470.901	482.94
471.12	460.94
471.339	469.94
471.558	469.94
471.777	455.94
471.997	449.94
472.216	464.94
472.435	502.94
472.654	493.94
472.873	468.94
473.092	450.94
473.311	438.94
473.53	467.94
473.749	473.94
473.968	536.94
474.187	642.94
474.406	658.94
474.625	531.94
474.844	476.94
475.063	488.94
475.282	456.94
475.501	479.94
475.72	467.94
475.939	470.94
476.158	468.94
476.377	473.94
476.596	476.94
476.814	480.94
477.033	477.94
477.252	500.94
477.471	480.94
477.69	478.94
477.908	500.94
478.127	485.94
478.346	493.94
478.564	503.94
478.783	501.94
479.002	497.94
479.22	527.94
479.439	521.94
479.658	563.94
479.876	525.94
480.095	558.94
480.313	602.94
480.532	597.94
480.751	566.94
480.969	573.94
481.188	648.94
481.406	707.94
481.624	613.94
481.843	581.94
482.061	567.94
482.28	572.94
482.498	534.94
482.717	556.94
482.935	547.94
483.153	553.94
483.372	558.94
483.59	528.94
483.808	569.94
484.027	553.94
484.245	567.94
484.463	549.94
484.681	553.94
484.9	528.94
485.118	547.94
485.336	562.94
485.554	578.94
485.772	558.94
485.99	559.94
486.209	579.94
486.427	565.94
486.645	579.94
486.863	600.94
487.081	622.94
487.299	600.94
487.517	586.94
487.735	602.94
487.953	592.94
488.171	583.94
488.389	612.94
488.607	613.94
488.825	611.94
489.043	590.94
489.261	614.94
489.479	615.94
489.696	606.94
489.914	619.94
490.132	599.94
490.35	622.94
490.568	616.94
490.786	628.94
491.003	630.94
491.221	657.94
491.439	658.94
491.657	674.94
491.874	715.94
492.092	672.94
492.31	668.94
492.527	690.94
492.745	697.94
492.963	679.94
493.18	672.94
493.398	714.94
493.615	695.94
493.833	709.94
494.05	706.94
494.268	679.94
494.485	705.94
494.703	712.94
494.92	708.94
495.138	710.94
495.355	703.94
495.573	699.94
495.79	719.94
496.008	706.94
496.225	701.94
496.442	666.94
496.66	724.94
496.877	710.94
497.094	704.94
497.312	728.94
497.529	728.94
497.746	733.94
497.963	734.94
498.181	753.94
498.398	747.94
498.615	751.94
498.832	766.94
499.049	728.94
499.267	770.94
499.484	802.94
499.701	787.94
499.918	788.94
500.135	827.94
500.352	842.94
500.569	864.94
500.786	889.94
501.003	843.94
501.22	840.94
501.437	839.94
501.654	840.94
501.871	857.94
