Data from 1980.PennyLincolnUp.Lamp.En5.5.200Scan.071819.P1_HRD10591_16-38-17-957.txt Node
Date: Thu Jul 18 16:38:17 EDT 2019
User: cochatt
Spectrometer: HR+D1059
Trigger mode: 1
Integration Time (sec): 1.000000E-1
Scans to average: 1
Electric dark correction enabled: true
Nonlinearity correction enabled: false
Boxcar width: 0
XAxis mode: Wavelengths
Number of Pixels in Spectrum: 2048
>>>>>Begin Spectral Data<<<<<
223.165	-8.19
223.4	-8.19
223.635	-8.19
223.869	-29.19
224.104	3.81
224.338	-8.19
224.573	-32.19
224.808	-3.19
225.042	-8.19
225.277	-9.19
225.511	5.81
225.746	-2.19
225.98	6.81
226.215	2.81
226.449	9.81
226.683	16.81
226.918	29.81
227.152	24.81
227.387	22.81
227.621	31.81
227.856	38.81
228.09	28.81
228.324	64.81
228.559	41.81
228.793	59.81
229.027	100.81
229.262	97.81
229.496	117.81
229.73	144.81
229.964	179.81
230.199	133.81
230.433	125.81
230.667	96.81
230.901	107.81
231.136	111.81
231.37	115.81
231.604	113.81
231.838	107.81
232.072	110.81
232.306	94.81
232.541	110.81
232.775	128.81
233.009	110.81
233.243	91.81
233.477	97.81
233.711	120.81
233.945	101.81
234.179	126.81
234.413	111.81
234.647	108.81
234.881	138.81
235.115	137.81
235.349	124.81
235.583	135.81
235.817	130.81
236.051	125.81
236.285	132.81
236.519	123.81
236.753	144.81
236.987	156.81
237.221	208.81
237.455	252.81
237.689	196.81
237.922	166.81
238.156	132.81
238.39	123.81
238.624	120.81
238.858	133.81
239.091	120.81
239.325	124.81
239.559	119.81
239.793	119.81
240.027	130.81
240.26	142.81
240.494	140.81
240.728	161.81
240.961	159.81
241.195	130.81
241.429	144.81
241.662	135.81
241.896	119.81
242.13	124.81
242.363	134.81
242.597	137.81
242.83	131.81
243.064	118.81
243.298	153.81
243.531	145.81
243.765	137.81
243.998	139.81
244.232	148.81
244.465	126.81
244.699	147.81
244.932	137.81
245.166	143.81
245.399	151.81
245.633	137.81
245.866	144.81
246.099	136.81
246.333	157.81
246.566	142.81
246.8	147.81
247.033	147.81
247.266	157.81
247.5	152.81
247.733	166.81
247.966	138.81
248.2	174.81
248.433	185.81
248.666	187.81
248.899	197.81
249.133	204.81
249.366	237.81
249.599	210.81
249.832	178.81
250.066	184.81
250.299	190.81
250.532	184.81
250.765	200.81
250.998	224.81
251.231	249.81
251.465	224.81
251.698	228.81
251.931	201.81
252.164	193.81
252.397	217.81
252.63	198.81
252.863	200.81
253.096	212.81
253.329	232.81
253.562	237.81
253.795	237.81
254.028	225.81
254.261	233.81
254.494	230.81
254.727	268.81
254.96	285.81
255.193	272.81
255.426	256.81
255.659	235.81
255.892	244.81
256.124	233.81
256.357	272.81
256.59	253.81
256.823	211.81
257.056	213.81
257.289	223.81
257.521	222.81
257.754	204.81
257.987	213.81
258.22	213.81
258.452	207.81
258.685	212.81
258.918	212.81
259.151	210.81
259.383	223.81
259.616	219.81
259.849	217.81
260.081	232.81
260.314	251.81
260.547	275.81
260.779	258.81
261.012	252.81
261.244	245.81
261.477	241.81
261.71	243.81
261.942	238.81
262.175	249.81
262.407	226.81
262.64	221.81
262.872	224.81
263.105	216.81
263.337	226.81
263.57	210.81
263.802	213.81
264.035	213.81
264.267	222.81
264.499	217.81
264.732	209.81
264.964	195.81
265.197	217.81
265.429	215.81
265.661	215.81
265.894	205.81
266.126	204.81
266.358	209.81
266.591	212.81
266.823	217.81
267.055	230.81
267.287	225.81
267.52	225.81
267.752	221.81
267.984	215.81
268.216	228.81
268.448	228.81
268.681	225.81
268.913	240.81
269.145	276.81
269.377	276.81
269.609	281.81
269.841	272.81
270.073	277.81
270.306	291.81
270.538	330.81
270.77	318.81
271.002	308.81
271.234	308.81
271.466	303.81
271.698	330.81
271.93	318.81
272.162	331.81
272.394	327.81
272.626	310.81
272.858	300.81
273.09	293.81
273.322	288.81
273.553	282.81
273.785	295.81
274.017	276.81
274.249	262.81
274.481	279.81
274.713	266.81
274.945	274.81
275.176	274.81
275.408	264.81
275.64	276.81
275.872	248.81
276.104	273.81
276.335	280.81
276.567	270.81
276.799	287.81
277.031	309.81
277.262	320.81
277.494	324.81
277.726	316.81
277.957	271.81
278.189	284.81
278.421	277.81
278.652	278.81
278.884	256.81
279.115	252.81
279.347	247.81
279.579	262.81
279.81	270.81
280.042	241.81
280.273	249.81
280.505	256.81
280.736	256.81
280.968	274.81
281.199	251.81
281.431	239.81
281.662	254.81
281.894	258.81
282.125	264.81
282.356	277.81
282.588	295.81
282.819	300.81
283.051	258.81
283.282	266.81
283.513	265.81
283.745	264.81
283.976	278.81
284.207	271.81
284.439	260.81
284.67	265.81
284.901	276.81
285.132	242.81
285.364	260.81
285.595	269.81
285.826	246.81
286.057	271.81
286.288	257.81
286.52	258.81
286.751	262.81
286.982	264.81
287.213	279.81
287.444	267.81
287.675	279.81
287.906	253.81
288.138	295.81
288.369	292.81
288.6	296.81
288.831	294.81
289.062	274.81
289.293	272.81
289.524	291.81
289.755	268.81
289.986	270.81
290.217	269.81
290.448	278.81
290.679	278.81
290.91	256.81
291.141	264.81
291.371	272.81
291.602	278.81
291.833	266.81
292.064	282.81
292.295	266.81
292.526	275.81
292.757	276.81
292.987	279.81
293.218	255.81
293.449	282.81
293.68	276.81
293.91	244.81
294.141	261.81
294.372	280.81
294.603	281.81
294.833	268.81
295.064	288.81
295.295	293.81
295.525	278.81
295.756	269.81
295.987	286.81
296.217	300.81
296.448	313.81
296.679	286.81
296.909	281.81
297.14	271.81
297.37	280.81
297.601	289.81
297.831	268.81
298.062	271.81
298.292	282.81
298.523	287.81
298.753	276.81
298.984	284.81
299.214	280.81
299.445	296.81
299.675	274.81
299.905	301.81
300.136	300.81
300.366	292.81
300.597	310.81
300.827	288.81
301.057	273.81
301.288	295.81
301.518	292.81
301.748	287.81
301.979	303.81
302.209	307.81
302.439	311.81
302.669	311.81
302.9	311.81
303.13	285.81
303.36	308.81
303.59	327.81
303.82	334.81
304.051	328.81
304.281	292.81
304.511	295.81
304.741	304.81
304.971	313.81
305.201	279.81
305.431	294.81
305.661	302.81
305.891	314.81
306.121	309.81
306.352	324.81
306.582	317.81
306.812	320.81
307.042	324.81
307.272	303.81
307.502	305.81
307.731	295.81
307.961	316.81
308.191	295.81
308.421	310.81
308.651	330.81
308.881	317.81
309.111	310.81
309.341	316.81
309.571	346.81
309.8	364.81
310.03	368.81
310.26	374.81
310.49	353.81
310.72	376.81
310.949	390.81
311.179	405.81
311.409	377.81
311.639	354.81
311.868	360.81
312.098	369.81
312.328	390.81
312.557	416.81
312.787	423.81
313.017	409.81
313.246	392.81
313.476	379.81
313.706	392.81
313.935	378.81
314.165	389.81
314.394	388.81
314.624	398.81
314.853	383.81
315.083	374.81
315.312	345.81
315.542	368.81
315.771	345.81
316.001	349.81
316.23	338.81
316.46	365.81
316.689	364.81
316.919	349.81
317.148	366.81
317.377	374.81
317.607	375.81
317.836	360.81
318.065	368.81
318.295	356.81
318.524	355.81
318.753	373.81
318.983	370.81
319.212	346.81
319.441	362.81
319.67	372.81
319.9	369.81
320.129	374.81
320.358	368.81
320.587	379.81
320.816	377.81
321.046	370.81
321.275	378.81
321.504	366.81
321.733	394.81
321.962	389.81
322.191	423.81
322.42	440.81
322.649	433.81
322.878	464.81
323.108	461.81
323.337	510.81
323.566	516.81
323.795	554.81
324.024	624.81
324.253	767.81
324.482	1120.81
324.71	1710.81
324.939	2552.81
325.168	2214.81
325.397	1168.81
325.626	771.81
325.855	600.81
326.084	540.81
326.313	525.81
326.542	534.81
326.77	605.81
326.999	721.81
327.228	998.81
327.457	1552.81
327.686	1858.81
327.914	1305.81
328.143	796.81
328.372	700.81
328.6	634.81
328.829	610.81
329.058	633.81
329.287	634.81
329.515	592.81
329.744	558.81
329.972	537.81
330.201	541.81
330.43	620.81
330.658	638.81
330.887	668.81
331.115	646.81
331.344	548.81
331.572	516.81
331.801	505.81
332.03	495.81
332.258	480.81
332.486	426.81
332.715	424.81
332.943	419.81
333.172	445.81
333.4	427.81
333.629	456.81
333.857	458.81
334.085	471.81
334.314	480.81
334.542	518.81
334.771	534.81
334.999	495.81
335.227	454.81
335.455	451.81
335.684	434.81
335.912	414.81
336.14	428.81
336.369	416.81
336.597	433.81
336.825	430.81
337.053	392.81
337.281	406.81
337.51	394.81
337.738	420.81
337.966	402.81
338.194	412.81
338.422	421.81
338.65	422.81
338.878	409.81
339.106	395.81
339.334	412.81
339.562	400.81
339.79	399.81
340.018	425.81
340.246	397.81
340.474	422.81
340.702	425.81
340.93	388.81
341.158	383.81
341.386	390.81
341.614	430.81
341.842	408.81
342.07	395.81
342.298	378.81
342.526	397.81
342.754	378.81
342.981	374.81
343.209	389.81
343.437	373.81
343.665	388.81
343.893	389.81
344.12	408.81
344.348	390.81
344.576	406.81
344.804	421.81
345.031	421.81
345.259	445.81
345.487	418.81
345.714	436.81
345.942	398.81
346.17	401.81
346.397	395.81
346.625	387.81
346.853	389.81
347.08	402.81
347.308	406.81
347.535	409.81
347.763	404.81
347.99	425.81
348.218	401.81
348.445	428.81
348.673	411.81
348.9	399.81
349.128	415.81
349.355	381.81
349.583	367.81
349.81	370.81
350.037	390.81
350.265	366.81
350.492	374.81
350.72	390.81
350.947	392.81
351.174	405.81
351.402	432.81
351.629	415.81
351.856	398.81
352.083	429.81
352.311	436.81
352.538	406.81
352.765	423.81
352.992	422.81
353.22	414.81
353.447	395.81
353.674	391.81
353.901	391.81
354.128	373.81
354.355	380.81
354.583	352.81
354.81	348.81
355.037	368.81
355.264	354.81
355.491	345.81
355.718	350.81
355.945	362.81
356.172	361.81
356.399	348.81
356.626	372.81
356.853	347.81
357.08	352.81
357.307	347.81
357.534	347.81
357.761	373.81
357.988	380.81
358.215	374.81
358.441	377.81
358.668	357.81
358.895	376.81
359.122	372.81
359.349	370.81
359.576	390.81
359.802	420.81
360.029	473.81
360.256	465.81
360.483	454.81
360.709	408.81
360.936	406.81
361.163	397.81
361.39	406.81
361.616	415.81
361.843	393.81
362.07	383.81
362.296	385.81
362.523	409.81
362.749	385.81
362.976	397.81
363.203	390.81
363.429	386.81
363.656	373.81
363.882	381.81
364.109	364.81
364.335	400.81
364.562	377.81
364.788	387.81
365.015	376.81
365.241	376.81
365.468	379.81
365.694	380.81
365.92	386.81
366.147	355.81
366.373	376.81
366.599	361.81
366.826	366.81
367.052	367.81
367.278	353.81
367.505	374.81
367.731	379.81
367.957	350.81
368.184	376.81
368.41	394.81
368.636	384.81
368.862	384.81
369.089	393.81
369.315	367.81
369.541	386.81
369.767	361.81
369.993	386.81
370.219	380.81
370.445	377.81
370.672	347.81
370.898	357.81
371.124	362.81
371.35	358.81
371.576	360.81
371.802	344.81
372.028	356.81
372.254	366.81
372.48	365.81
372.706	357.81
372.932	354.81
373.158	346.81
373.384	372.81
373.61	369.81
373.835	388.81
374.061	390.81
374.287	365.81
374.513	372.81
374.739	371.81
374.965	349.81
375.191	353.81
375.416	384.81
375.642	371.81
375.868	333.81
376.094	352.81
376.319	334.81
376.545	364.81
376.771	366.81
376.997	379.81
377.222	369.81
377.448	354.81
377.674	372.81
377.899	348.81
378.125	338.81
378.35	365.81
378.576	348.81
378.802	341.81
379.027	368.81
379.253	353.81
379.478	343.81
379.704	351.81
379.929	368.81
380.155	388.81
380.38	352.81
380.606	368.81
380.831	368.81
381.057	356.81
381.282	368.81
381.507	372.81
381.733	355.81
381.958	354.81
382.184	350.81
382.409	375.81
382.634	365.81
382.86	351.81
383.085	360.81
383.31	372.81
383.535	367.81
383.761	373.81
383.986	361.81
384.211	364.81
384.436	364.81
384.662	364.81
384.887	359.81
385.112	376.81
385.337	374.81
385.562	385.81
385.787	383.81
386.013	402.81
386.238	400.81
386.463	398.81
386.688	387.81
386.913	378.81
387.138	401.81
387.363	401.81
387.588	378.81
387.813	390.81
388.038	397.81
388.263	380.81
388.488	386.81
388.713	366.81
388.938	382.81
389.163	390.81
389.387	373.81
389.612	370.81
389.837	376.81
390.062	387.81
390.287	388.81
390.512	379.81
390.736	384.81
390.961	377.81
391.186	370.81
391.411	375.81
391.636	390.81
391.86	388.81
392.085	381.81
392.31	397.81
392.534	390.81
392.759	385.81
392.984	384.81
393.208	383.81
393.433	386.81
393.658	383.81
393.882	370.81
394.107	344.81
394.331	369.81
394.556	382.81
394.78	387.81
395.005	375.81
395.229	388.81
395.454	392.81
395.678	391.81
395.903	400.81
396.127	418.81
396.352	426.81
396.576	406.81
396.801	396.81
397.025	392.81
397.249	389.81
397.474	405.81
397.698	410.81
397.922	412.81
398.147	422.81
398.371	432.81
398.595	416.81
398.82	423.81
399.044	430.81
399.268	438.81
399.492	465.81
399.717	464.81
399.941	483.81
400.165	508.81
400.389	539.81
400.613	494.81
400.837	453.81
401.062	449.81
401.286	441.81
401.51	415.81
401.734	425.81
401.958	437.81
402.182	449.81
402.406	458.81
402.63	441.81
402.854	452.81
403.078	430.81
403.302	444.81
403.526	473.81
403.75	472.81
403.974	465.81
404.198	425.81
404.422	474.81
404.645	451.81
404.869	466.81
405.093	518.81
405.317	521.81
405.541	566.81
405.765	492.81
405.988	515.81
406.212	470.81
406.436	526.81
406.66	505.81
406.883	500.81
407.107	521.81
407.331	547.81
407.555	624.81
407.778	621.81
408.002	567.81
408.226	518.81
408.449	529.81
408.673	528.81
408.896	549.81
409.12	564.81
409.344	526.81
409.567	488.81
409.791	487.81
410.014	466.81
410.238	456.81
410.461	444.81
410.685	472.81
410.908	474.81
411.132	512.81
411.355	546.81
411.578	511.81
411.802	487.81
412.025	442.81
412.249	476.81
412.472	504.81
412.695	524.81
412.919	532.81
413.142	469.81
413.365	460.81
413.589	436.81
413.812	451.81
414.035	454.81
414.258	403.81
414.482	424.81
414.705	441.81
414.928	410.81
415.151	430.81
415.374	425.81
415.597	428.81
415.821	430.81
416.044	436.81
416.267	446.81
416.49	411.81
416.713	435.81
416.936	436.81
417.159	433.81
417.382	444.81
417.605	446.81
417.828	457.81
418.051	464.81
418.274	469.81
418.497	439.81
418.72	438.81
418.943	452.81
419.166	455.81
419.389	462.81
419.611	490.81
419.834	449.81
420.057	470.81
420.28	471.81
420.503	465.81
420.726	466.81
420.948	493.81
421.171	536.81
421.394	550.81
421.617	509.81
421.839	458.81
422.062	484.81
422.285	487.81
422.507	537.81
422.73	625.81
422.953	624.81
423.175	547.81
423.398	483.81
423.621	493.81
423.843	517.81
424.066	518.81
424.288	512.81
424.511	522.81
424.733	584.81
424.956	643.81
425.178	652.81
425.401	642.81
425.623	667.81
425.846	570.81
426.068	532.81
426.291	517.81
426.513	546.81
426.735	545.81
426.958	568.81
427.18	663.81
427.402	801.81
427.625	878.81
427.847	785.81
428.069	666.81
428.292	602.81
428.514	542.81
428.736	489.81
428.958	496.81
429.181	483.81
429.403	472.81
429.625	491.81
429.847	533.81
430.069	600.81
430.292	615.81
430.514	499.81
430.736	464.81
430.958	437.81
431.18	445.81
431.402	434.81
431.624	408.81
431.846	450.81
432.068	462.81
432.29	445.81
432.512	451.81
432.734	464.81
432.956	454.81
433.178	468.81
433.4	471.81
433.622	470.81
433.844	446.81
434.066	425.81
434.287	439.81
434.509	436.81
434.731	437.81
434.953	455.81
435.175	478.81
435.397	528.81
435.618	535.81
435.84	580.81
436.062	654.81
436.284	745.81
436.505	637.81
436.727	545.81
436.949	507.81
437.17	493.81
437.392	492.81
437.614	496.81
437.835	557.81
438.057	635.81
438.278	764.81
438.5	728.81
438.721	784.81
438.943	781.81
439.165	609.81
439.386	564.81
439.608	542.81
439.829	542.81
440.05	579.81
440.272	614.81
440.493	598.81
440.715	542.81
440.936	473.81
441.158	498.81
441.379	466.81
441.6	497.81
441.822	513.81
442.043	562.81
442.264	666.81
442.486	710.81
442.707	620.81
442.928	556.81
443.149	556.81
443.371	589.81
443.592	626.81
443.813	698.81
444.034	775.81
444.255	662.81
444.476	556.81
444.698	514.81
444.919	534.81
445.14	600.81
445.361	570.81
445.582	577.81
445.803	644.81
446.024	761.81
446.245	739.81
446.466	680.81
446.687	590.81
446.908	564.81
447.129	506.81
447.35	506.81
447.571	490.81
447.792	485.81
448.013	480.81
448.234	512.81
448.455	567.81
448.675	689.81
448.896	779.81
449.117	663.81
449.338	655.81
449.559	729.81
449.779	835.81
450	669.81
450.221	550.81
450.442	514.81
450.662	489.81
450.883	502.81
451.104	537.81
451.324	535.81
451.545	486.81
451.766	467.81
451.986	468.81
452.207	445.81
452.428	443.81
452.648	450.81
452.869	437.81
453.089	436.81
453.31	443.81
453.53	449.81
453.751	436.81
453.971	445.81
454.192	453.81
454.412	458.81
454.633	460.81
454.853	447.81
455.073	407.81
455.294	463.81
455.514	545.81
455.734	521.81
455.955	452.81
456.175	402.81
456.395	408.81
456.616	385.81
456.836	402.81
457.056	401.81
457.276	381.81
457.497	389.81
457.717	410.81
457.937	406.81
458.157	420.81
458.377	433.81
458.598	462.81
458.818	511.81
459.038	622.81
459.258	607.81
459.478	516.81
459.698	449.81
459.918	452.81
460.138	428.81
460.358	462.81
460.578	432.81
460.798	431.81
461.018	428.81
461.238	424.81
461.458	426.81
461.678	413.81
461.898	432.81
462.118	423.81
462.338	423.81
462.558	442.81
462.777	440.81
462.997	451.81
463.217	475.81
463.437	472.81
463.657	446.81
463.876	433.81
464.096	445.81
464.316	463.81
464.536	470.81
464.755	473.81
464.975	485.81
465.195	538.81
465.414	628.81
465.634	540.81
465.854	517.81
466.073	471.81
466.293	468.81
466.512	433.81
466.732	443.81
466.951	452.81
467.171	425.81
467.391	437.81
467.61	432.81
467.829	460.81
468.049	462.81
468.268	451.81
468.488	436.81
468.707	449.81
468.927	414.81
469.146	432.81
469.365	430.81
469.585	428.81
469.804	434.81
470.023	450.81
470.243	437.81
470.462	452.81
470.681	456.81
470.901	460.81
471.12	444.81
471.339	434.81
471.558	461.81
471.777	441.81
471.997	432.81
472.216	426.81
472.435	496.81
472.654	469.81
472.873	469.81
473.092	454.81
473.311	432.81
473.53	449.81
473.749	472.81
473.968	516.81
474.187	632.81
474.406	655.81
474.625	529.81
474.844	468.81
475.063	457.81
475.282	443.81
475.501	441.81
475.72	457.81
475.939	461.81
476.158	454.81
476.377	438.81
476.596	462.81
476.814	478.81
477.033	469.81
477.252	465.81
477.471	480.81
477.69	464.81
477.908	472.81
478.127	498.81
478.346	472.81
478.564	471.81
478.783	471.81
479.002	479.81
479.22	511.81
479.439	526.81
479.658	537.81
479.876	539.81
480.095	518.81
480.313	582.81
480.532	546.81
480.751	550.81
480.969	563.81
481.188	620.81
481.406	677.81
481.624	604.81
481.843	558.81
482.061	559.81
482.28	559.81
482.498	539.81
482.717	522.81
482.935	530.81
483.153	528.81
483.372	530.81
483.59	532.81
483.808	528.81
484.027	517.81
484.245	521.81
484.463	526.81
484.681	532.81
484.9	538.81
485.118	537.81
485.336	544.81
485.554	538.81
485.772	566.81
485.99	556.81
486.209	562.81
486.427	563.81
486.645	551.81
486.863	581.81
487.081	579.81
487.299	576.81
487.517	580.81
487.735	583.81
487.953	552.81
488.171	573.81
488.389	581.81
488.607	589.81
488.825	592.81
489.043	563.81
489.261	566.81
489.479	564.81
489.696	576.81
489.914	580.81
490.132	594.81
490.35	611.81
490.568	600.81
490.786	610.81
491.003	626.81
491.221	628.81
491.439	617.81
491.657	650.81
491.874	645.81
492.092	665.81
492.31	655.81
492.527	679.81
492.745	661.81
492.963	673.81
493.18	672.81
493.398	697.81
493.615	689.81
493.833	711.81
494.05	715.81
494.268	684.81
494.485	695.81
494.703	705.81
494.92	680.81
495.138	694.81
495.355	690.81
495.573	703.81
495.79	697.81
496.008	676.81
496.225	682.81
496.442	690.81
496.66	685.81
496.877	698.81
497.094	694.81
497.312	693.81
497.529	697.81
497.746	707.81
497.963	698.81
498.181	737.81
498.398	725.81
498.615	726.81
498.832	741.81
499.049	753.81
499.267	716.81
499.484	732.81
499.701	757.81
499.918	755.81
500.135	808.81
500.352	832.81
500.569	838.81
500.786	831.81
501.003	864.81
501.22	821.81
501.437	821.81
501.654	823.81
501.871	808.81
502.088	802.81
