Data from 1980.PennyLincolnUp.Lamp.En5.5.200Scan.071819.P1_HRD10591_16-37-46-957.txt Node
Date: Thu Jul 18 16:37:46 EDT 2019
User: cochatt
Spectrometer: HR+D1059
Trigger mode: 1
Integration Time (sec): 1.000000E-1
Scans to average: 1
Electric dark correction enabled: true
Nonlinearity correction enabled: false
Boxcar width: 0
XAxis mode: Wavelengths
Number of Pixels in Spectrum: 2048
>>>>>Begin Spectral Data<<<<<
223.165	-10.19
223.4	-10.19
223.635	-10.19
223.869	-18.19
224.104	-22.19
224.338	-22.19
224.573	-4.19
224.808	-9.19
225.042	5.81
225.277	-17.19
225.511	-8.19
225.746	-2.19
225.98	5.81
226.215	13.81
226.449	18.81
226.683	17.81
226.918	25.81
227.152	25.81
227.387	45.81
227.621	27.81
227.856	39.81
228.09	64.81
228.324	58.81
228.559	71.81
228.793	71.81
229.027	110.81
229.262	113.81
229.496	121.81
229.73	131.81
229.964	175.81
230.199	138.81
230.433	113.81
230.667	121.81
230.901	115.81
231.136	111.81
231.37	124.81
231.604	127.81
231.838	120.81
232.072	112.81
232.306	108.81
232.541	113.81
232.775	116.81
233.009	108.81
233.243	115.81
233.477	135.81
233.711	129.81
233.945	121.81
234.179	114.81
234.413	107.81
234.647	117.81
234.881	126.81
235.115	120.81
235.349	97.81
235.583	121.81
235.817	141.81
236.051	127.81
236.285	134.81
236.519	109.81
236.753	129.81
236.987	144.81
237.221	181.81
237.455	253.81
237.689	207.81
237.922	153.81
238.156	133.81
238.39	135.81
238.624	141.81
238.858	127.81
239.091	118.81
239.325	124.81
239.559	117.81
239.793	127.81
240.027	139.81
240.26	158.81
240.494	155.81
240.728	156.81
240.961	150.81
241.195	139.81
241.429	127.81
241.662	118.81
241.896	156.81
242.13	137.81
242.363	125.81
242.597	135.81
242.83	141.81
243.064	135.81
243.298	137.81
243.531	135.81
243.765	142.81
243.998	134.81
244.232	132.81
244.465	124.81
244.699	147.81
244.932	147.81
245.166	129.81
245.399	145.81
245.633	150.81
245.866	138.81
246.099	145.81
246.333	155.81
246.566	137.81
246.8	142.81
247.033	163.81
247.266	168.81
247.5	166.81
247.733	157.81
247.966	171.81
248.2	187.81
248.433	163.81
248.666	193.81
248.899	187.81
249.133	198.81
249.366	219.81
249.599	207.81
249.832	196.81
250.066	192.81
250.299	194.81
250.532	180.81
250.765	210.81
250.998	226.81
251.231	235.81
251.465	218.81
251.698	208.81
251.931	197.81
252.164	211.81
252.397	204.81
252.63	216.81
252.863	212.81
253.096	210.81
253.329	235.81
253.562	244.81
253.795	237.81
254.028	222.81
254.261	211.81
254.494	231.81
254.727	268.81
254.96	281.81
255.193	293.81
255.426	257.81
255.659	247.81
255.892	250.81
256.124	235.81
256.357	247.81
256.59	245.81
256.823	224.81
257.056	204.81
257.289	220.81
257.521	209.81
257.754	204.81
257.987	220.81
258.22	208.81
258.452	205.81
258.685	201.81
258.918	222.81
259.151	203.81
259.383	222.81
259.616	229.81
259.849	211.81
260.081	234.81
260.314	258.81
260.547	259.81
260.779	253.81
261.012	259.81
261.244	242.81
261.477	241.81
261.71	235.81
261.942	235.81
262.175	247.81
262.407	227.81
262.64	212.81
262.872	222.81
263.105	225.81
263.337	200.81
263.57	217.81
263.802	214.81
264.035	223.81
264.267	211.81
264.499	213.81
264.732	185.81
264.964	197.81
265.197	222.81
265.429	198.81
265.661	200.81
265.894	219.81
266.126	222.81
266.358	213.81
266.591	209.81
266.823	215.81
267.055	235.81
267.287	214.81
267.52	212.81
267.752	223.81
267.984	221.81
268.216	226.81
268.448	227.81
268.681	235.81
268.913	232.81
269.145	238.81
269.377	277.81
269.609	257.81
269.841	265.81
270.073	266.81
270.306	289.81
270.538	306.81
270.77	300.81
271.002	301.81
271.234	302.81
271.466	296.81
271.698	308.81
271.93	319.81
272.162	311.81
272.394	312.81
272.626	314.81
272.858	297.81
273.09	291.81
273.322	281.81
273.553	269.81
273.785	267.81
274.017	258.81
274.249	250.81
274.481	266.81
274.713	257.81
274.945	264.81
275.176	244.81
275.408	252.81
275.64	257.81
275.872	269.81
276.104	248.81
276.335	262.81
276.567	282.81
276.799	284.81
277.031	313.81
277.262	315.81
277.494	323.81
277.726	291.81
277.957	295.81
278.189	272.81
278.421	282.81
278.652	271.81
278.884	262.81
279.115	265.81
279.347	261.81
279.579	261.81
279.81	271.81
280.042	265.81
280.273	254.81
280.505	251.81
280.736	251.81
280.968	266.81
281.199	250.81
281.431	255.81
281.662	257.81
281.894	255.81
282.125	253.81
282.356	279.81
282.588	280.81
282.819	286.81
283.051	270.81
283.282	245.81
283.513	252.81
283.745	261.81
283.976	276.81
284.207	265.81
284.439	263.81
284.67	262.81
284.901	278.81
285.132	260.81
285.364	261.81
285.595	253.81
285.826	257.81
286.057	248.81
286.288	263.81
286.52	265.81
286.751	265.81
286.982	259.81
287.213	259.81
287.444	282.81
287.675	269.81
287.906	274.81
288.138	278.81
288.369	285.81
288.6	270.81
288.831	273.81
289.062	283.81
289.293	279.81
289.524	279.81
289.755	270.81
289.986	258.81
290.217	266.81
290.448	249.81
290.679	255.81
290.91	261.81
291.141	247.81
291.371	267.81
291.602	267.81
291.833	255.81
292.064	257.81
292.295	265.81
292.526	251.81
292.757	259.81
292.987	262.81
293.218	289.81
293.449	268.81
293.68	271.81
293.91	262.81
294.141	265.81
294.372	257.81
294.603	260.81
294.833	261.81
295.064	282.81
295.295	257.81
295.525	260.81
295.756	276.81
295.987	283.81
296.217	297.81
296.448	324.81
296.679	303.81
296.909	287.81
297.14	269.81
297.37	275.81
297.601	277.81
297.831	263.81
298.062	263.81
298.292	285.81
298.523	252.81
298.753	294.81
298.984	282.81
299.214	278.81
299.445	274.81
299.675	286.81
299.905	298.81
300.136	287.81
300.366	293.81
300.597	280.81
300.827	275.81
301.057	302.81
301.288	292.81
301.518	302.81
301.748	281.81
301.979	296.81
302.209	286.81
302.439	305.81
302.669	331.81
302.9	310.81
303.13	301.81
303.36	301.81
303.59	302.81
303.82	323.81
304.051	315.81
304.281	295.81
304.511	300.81
304.741	275.81
304.971	292.81
305.201	301.81
305.431	306.81
305.661	296.81
305.891	305.81
306.121	297.81
306.352	289.81
306.582	311.81
306.812	308.81
307.042	293.81
307.272	315.81
307.502	295.81
307.731	316.81
307.961	305.81
308.191	308.81
308.421	297.81
308.651	310.81
308.881	301.81
309.111	311.81
309.341	312.81
309.571	335.81
309.8	322.81
310.03	350.81
310.26	373.81
310.49	357.81
310.72	374.81
310.949	403.81
311.179	388.81
311.409	367.81
311.639	360.81
311.868	365.81
312.098	372.81
312.328	350.81
312.557	392.81
312.787	407.81
313.017	381.81
313.246	366.81
313.476	367.81
313.706	356.81
313.935	358.81
314.165	371.81
314.394	387.81
314.624	366.81
314.853	373.81
315.083	361.81
315.312	354.81
315.542	339.81
315.771	344.81
316.001	347.81
316.23	381.81
316.46	352.81
316.689	341.81
316.919	351.81
317.148	381.81
317.377	374.81
317.607	365.81
317.836	379.81
318.065	350.81
318.295	349.81
318.524	343.81
318.753	351.81
318.983	357.81
319.212	354.81
319.441	360.81
319.67	366.81
319.9	355.81
320.129	370.81
320.358	372.81
320.587	363.81
320.816	371.81
321.046	367.81
321.275	372.81
321.504	355.81
321.733	378.81
321.962	394.81
322.191	419.81
322.42	421.81
322.649	419.81
322.878	453.81
323.108	440.81
323.337	505.81
323.566	509.81
323.795	541.81
324.024	628.81
324.253	726.81
324.482	1112.81
324.71	1658.81
324.939	2345.81
325.168	2090.81
325.397	1088.81
325.626	718.81
325.855	590.81
326.084	554.81
326.313	506.81
326.542	526.81
326.77	585.81
326.999	700.81
327.228	955.81
327.457	1437.81
327.686	1811.81
327.914	1225.81
328.143	803.81
328.372	694.81
328.6	647.81
328.829	619.81
329.058	645.81
329.287	631.81
329.515	549.81
329.744	539.81
329.972	492.81
330.201	542.81
330.43	606.81
330.658	635.81
330.887	651.81
331.115	616.81
331.344	541.81
331.572	505.81
331.801	472.81
332.03	485.81
332.258	456.81
332.486	444.81
332.715	423.81
332.943	448.81
333.172	437.81
333.4	429.81
333.629	427.81
333.857	454.81
334.085	443.81
334.314	481.81
334.542	495.81
334.771	535.81
334.999	473.81
335.227	450.81
335.455	440.81
335.684	424.81
335.912	426.81
336.14	400.81
336.369	424.81
336.597	412.81
336.825	424.81
337.053	422.81
337.281	398.81
337.51	413.81
337.738	396.81
337.966	403.81
338.194	417.81
338.422	395.81
338.65	423.81
338.878	398.81
339.106	391.81
339.334	417.81
339.562	389.81
339.79	379.81
340.018	397.81
340.246	395.81
340.474	386.81
340.702	402.81
340.93	405.81
341.158	401.81
341.386	387.81
341.614	399.81
341.842	379.81
342.07	396.81
342.298	395.81
342.526	373.81
342.754	373.81
342.981	366.81
343.209	366.81
343.437	394.81
343.665	373.81
343.893	373.81
344.12	401.81
344.348	403.81
344.576	393.81
344.804	405.81
345.031	393.81
345.259	435.81
345.487	411.81
345.714	407.81
345.942	393.81
346.17	421.81
346.397	410.81
346.625	387.81
346.853	389.81
347.08	374.81
347.308	401.81
347.535	416.81
347.763	444.81
347.99	398.81
348.218	397.81
348.445	413.81
348.673	413.81
348.9	395.81
349.128	395.81
349.355	390.81
349.583	372.81
349.81	373.81
350.037	371.81
350.265	374.81
350.492	364.81
350.72	376.81
350.947	388.81
351.174	405.81
351.402	409.81
351.629	400.81
351.856	394.81
352.083	401.81
352.311	400.81
352.538	419.81
352.765	419.81
352.992	387.81
353.22	394.81
353.447	385.81
353.674	374.81
353.901	365.81
354.128	354.81
354.355	365.81
354.583	357.81
354.81	371.81
355.037	349.81
355.264	355.81
355.491	330.81
355.718	350.81
355.945	347.81
356.172	339.81
356.399	348.81
356.626	335.81
356.853	362.81
357.08	356.81
357.307	353.81
357.534	350.81
357.761	382.81
357.988	356.81
358.215	366.81
358.441	353.81
358.668	350.81
358.895	348.81
359.122	367.81
359.349	381.81
359.576	411.81
359.802	421.81
360.029	444.81
360.256	479.81
360.483	443.81
360.709	401.81
360.936	384.81
361.163	398.81
361.39	402.81
361.616	403.81
361.843	378.81
362.07	383.81
362.296	417.81
362.523	395.81
362.749	394.81
362.976	388.81
363.203	370.81
363.429	367.81
363.656	373.81
363.882	355.81
364.109	374.81
364.335	355.81
364.562	371.81
364.788	372.81
365.015	369.81
365.241	374.81
365.468	371.81
365.694	377.81
365.92	379.81
366.147	386.81
366.373	379.81
366.599	364.81
366.826	349.81
367.052	347.81
367.278	366.81
367.505	374.81
367.731	385.81
367.957	353.81
368.184	364.81
368.41	365.81
368.636	395.81
368.862	385.81
369.089	371.81
369.315	352.81
369.541	364.81
369.767	364.81
369.993	345.81
370.219	355.81
370.445	363.81
370.672	362.81
370.898	369.81
371.124	363.81
371.35	353.81
371.576	357.81
371.802	340.81
372.028	342.81
372.254	375.81
372.48	373.81
372.706	362.81
372.932	343.81
373.158	349.81
373.384	371.81
373.61	347.81
373.835	363.81
374.061	363.81
374.287	354.81
374.513	362.81
374.739	358.81
374.965	350.81
375.191	371.81
375.416	344.81
375.642	362.81
375.868	361.81
376.094	356.81
376.319	364.81
376.545	356.81
376.771	350.81
376.997	371.81
377.222	360.81
377.448	344.81
377.674	346.81
377.899	362.81
378.125	341.81
378.35	340.81
378.576	346.81
378.802	348.81
379.027	347.81
379.253	347.81
379.478	342.81
379.704	335.81
379.929	371.81
380.155	355.81
380.38	369.81
380.606	358.81
380.831	352.81
381.057	371.81
381.282	352.81
381.507	369.81
381.733	365.81
381.958	337.81
382.184	357.81
382.409	346.81
382.634	378.81
382.86	357.81
383.085	359.81
383.31	347.81
383.535	385.81
383.761	366.81
383.986	382.81
384.211	372.81
384.436	361.81
384.662	353.81
384.887	360.81
385.112	372.81
385.337	383.81
385.562	385.81
385.787	373.81
386.013	389.81
386.238	390.81
386.463	396.81
386.688	369.81
386.913	372.81
387.138	363.81
387.363	369.81
387.588	374.81
387.813	366.81
388.038	374.81
388.263	391.81
388.488	377.81
388.713	384.81
388.938	383.81
389.163	357.81
389.387	371.81
389.612	356.81
389.837	367.81
390.062	366.81
390.287	362.81
390.512	361.81
390.736	373.81
390.961	387.81
391.186	369.81
391.411	370.81
391.636	385.81
391.86	359.81
392.085	382.81
392.31	385.81
392.534	380.81
392.759	398.81
392.984	377.81
393.208	373.81
393.433	378.81
393.658	381.81
393.882	374.81
394.107	382.81
394.331	382.81
394.556	381.81
394.78	363.81
395.005	363.81
395.229	385.81
395.454	388.81
395.678	376.81
395.903	379.81
396.127	422.81
396.352	402.81
396.576	393.81
396.801	383.81
397.025	380.81
397.249	386.81
397.474	396.81
397.698	410.81
397.922	398.81
398.147	412.81
398.371	425.81
398.595	418.81
398.82	407.81
399.044	423.81
399.268	431.81
399.492	436.81
399.717	468.81
399.941	465.81
400.165	495.81
400.389	528.81
400.613	478.81
400.837	484.81
401.062	427.81
401.286	410.81
401.51	430.81
401.734	427.81
401.958	435.81
402.182	450.81
402.406	444.81
402.63	443.81
402.854	435.81
403.078	432.81
403.302	437.81
403.526	437.81
403.75	468.81
403.974	446.81
404.198	428.81
404.422	458.81
404.645	462.81
404.869	462.81
405.093	485.81
405.317	521.81
405.541	529.81
405.765	506.81
405.988	487.81
406.212	475.81
406.436	494.81
406.66	517.81
406.883	501.81
407.107	522.81
407.331	535.81
407.555	605.81
407.778	617.81
408.002	554.81
408.226	489.81
408.449	485.81
408.673	504.81
408.896	524.81
409.12	555.81
409.344	531.81
409.567	487.81
409.791	459.81
410.014	449.81
410.238	443.81
410.461	442.81
410.685	473.81
410.908	443.81
411.132	503.81
411.355	527.81
411.578	510.81
411.802	466.81
412.025	456.81
412.249	457.81
412.472	458.81
412.695	523.81
412.919	515.81
413.142	462.81
413.365	445.81
413.589	439.81
413.812	452.81
414.035	419.81
414.258	411.81
414.482	423.81
414.705	415.81
414.928	420.81
415.151	417.81
415.374	417.81
415.597	421.81
415.821	418.81
416.044	423.81
416.267	418.81
416.49	416.81
416.713	403.81
416.936	451.81
417.159	434.81
417.382	423.81
417.605	448.81
417.828	454.81
418.051	445.81
418.274	443.81
418.497	429.81
418.72	435.81
418.943	437.81
419.166	458.81
419.389	451.81
419.611	430.81
419.834	445.81
420.057	437.81
420.28	469.81
420.503	459.81
420.726	461.81
420.948	470.81
421.171	489.81
421.394	545.81
421.617	482.81
421.839	448.81
422.062	469.81
422.285	473.81
422.507	515.81
422.73	583.81
422.953	557.81
423.175	494.81
423.398	457.81
423.621	458.81
423.843	489.81
424.066	488.81
424.288	479.81
424.511	509.81
424.733	584.81
424.956	653.81
425.178	614.81
425.401	628.81
425.623	647.81
425.846	548.81
426.068	504.81
426.291	517.81
426.513	492.81
426.735	507.81
426.958	563.81
427.18	606.81
427.402	760.81
427.625	839.81
427.847	784.81
428.069	662.81
428.292	570.81
428.514	523.81
428.736	479.81
428.958	494.81
429.181	487.81
429.403	457.81
429.625	478.81
429.847	523.81
430.069	563.81
430.292	557.81
430.514	498.81
430.736	478.81
430.958	463.81
431.18	451.81
431.402	441.81
431.624	441.81
431.846	435.81
432.068	431.81
432.29	437.81
432.512	434.81
432.734	463.81
432.956	458.81
433.178	435.81
433.4	433.81
433.622	442.81
433.844	429.81
434.066	410.81
434.287	419.81
434.509	426.81
434.731	426.81
434.953	451.81
435.175	468.81
435.397	487.81
435.618	501.81
435.84	529.81
436.062	645.81
436.284	686.81
436.505	592.81
436.727	535.81
436.949	476.81
437.17	489.81
437.392	472.81
437.614	485.81
437.835	533.81
438.057	610.81
438.278	741.81
438.5	718.81
438.721	770.81
438.943	713.81
439.165	591.81
439.386	558.81
439.608	536.81
439.829	529.81
440.05	550.81
440.272	594.81
440.493	574.81
440.715	519.81
440.936	475.81
441.158	467.81
441.379	471.81
441.6	494.81
441.822	482.81
442.043	557.81
442.264	649.81
442.486	660.81
442.707	566.81
442.928	531.81
443.149	546.81
443.371	565.81
443.592	600.81
443.813	668.81
444.034	731.81
444.255	614.81
444.476	530.81
444.698	507.81
444.919	491.81
445.14	592.81
445.361	568.81
445.582	543.81
445.803	621.81
446.024	744.81
446.245	748.81
446.466	660.81
446.687	566.81
446.908	531.81
447.129	471.81
447.35	484.81
447.571	487.81
447.792	471.81
448.013	488.81
448.234	490.81
448.455	536.81
448.675	658.81
448.896	753.81
449.117	651.81
449.338	604.81
449.559	705.81
449.779	779.81
450	649.81
450.221	530.81
450.442	482.81
450.662	489.81
450.883	481.81
451.104	506.81
451.324	507.81
451.545	469.81
451.766	431.81
451.986	426.81
452.207	404.81
452.428	417.81
452.648	424.81
452.869	431.81
453.089	434.81
453.31	451.81
453.53	450.81
453.751	433.81
453.971	430.81
454.192	456.81
454.412	439.81
454.633	409.81
454.853	426.81
455.073	411.81
455.294	461.81
455.514	520.81
455.734	505.81
455.955	447.81
456.175	411.81
456.395	397.81
456.616	369.81
456.836	389.81
457.056	392.81
457.276	393.81
457.497	380.81
457.717	397.81
457.937	412.81
458.157	400.81
458.377	414.81
458.598	419.81
458.818	503.81
459.038	579.81
459.258	597.81
459.478	521.81
459.698	467.81
459.918	445.81
460.138	430.81
460.358	419.81
460.578	428.81
460.798	444.81
461.018	425.81
461.238	405.81
461.458	438.81
461.678	401.81
461.898	426.81
462.118	423.81
462.338	420.81
462.558	425.81
462.777	436.81
462.997	422.81
463.217	434.81
463.437	411.81
463.657	433.81
463.876	434.81
464.096	451.81
464.316	436.81
464.536	450.81
464.755	445.81
464.975	453.81
465.195	512.81
465.414	636.81
465.634	551.81
465.854	489.81
466.073	445.81
466.293	418.81
466.512	430.81
466.732	409.81
466.951	416.81
467.171	420.81
467.391	423.81
467.61	435.81
467.829	426.81
468.049	445.81
468.268	450.81
468.488	443.81
468.707	431.81
468.927	431.81
469.146	404.81
469.365	405.81
469.585	394.81
469.804	423.81
470.023	429.81
470.243	422.81
470.462	437.81
470.681	467.81
470.901	467.81
471.12	441.81
471.339	420.81
471.558	437.81
471.777	443.81
471.997	417.81
472.216	438.81
472.435	478.81
472.654	474.81
472.873	431.81
473.092	423.81
473.311	417.81
473.53	430.81
473.749	424.81
473.968	466.81
474.187	603.81
474.406	616.81
474.625	509.81
474.844	471.81
475.063	445.81
475.282	434.81
475.501	427.81
475.72	445.81
475.939	446.81
476.158	463.81
476.377	438.81
476.596	444.81
476.814	445.81
477.033	466.81
477.252	442.81
477.471	452.81
477.69	454.81
477.908	453.81
478.127	464.81
478.346	465.81
478.564	468.81
478.783	480.81
479.002	474.81
479.22	491.81
479.439	482.81
479.658	509.81
479.876	517.81
480.095	522.81
480.313	546.81
480.532	516.81
480.751	539.81
480.969	522.81
481.188	622.81
481.406	661.81
481.624	542.81
481.843	528.81
482.061	534.81
482.28	527.81
482.498	531.81
482.717	508.81
482.935	523.81
483.153	510.81
483.372	516.81
483.59	489.81
483.808	513.81
484.027	484.81
484.245	530.81
484.463	515.81
484.681	527.81
484.9	527.81
485.118	539.81
485.336	519.81
485.554	525.81
485.772	535.81
485.99	518.81
486.209	534.81
486.427	521.81
486.645	545.81
486.863	565.81
487.081	574.81
487.299	555.81
487.517	555.81
487.735	573.81
487.953	535.81
488.171	535.81
488.389	551.81
488.607	544.81
488.825	538.81
489.043	541.81
489.261	536.81
489.479	568.81
489.696	587.81
489.914	584.81
490.132	567.81
490.35	577.81
490.568	571.81
490.786	597.81
491.003	594.81
491.221	630.81
491.439	622.81
491.657	655.81
491.874	652.81
492.092	622.81
492.31	647.81
492.527	653.81
492.745	654.81
492.963	650.81
493.18	647.81
493.398	652.81
493.615	655.81
493.833	659.81
494.05	645.81
494.268	665.81
494.485	675.81
494.703	662.81
494.92	673.81
495.138	662.81
495.355	664.81
495.573	669.81
495.79	653.81
496.008	654.81
496.225	677.81
496.442	676.81
496.66	637.81
496.877	667.81
497.094	664.81
497.312	675.81
497.529	683.81
497.746	669.81
497.963	675.81
498.181	710.81
498.398	713.81
498.615	701.81
498.832	723.81
499.049	703.81
499.267	713.81
499.484	730.81
499.701	761.81
499.918	724.81
500.135	772.81
500.352	818.81
500.569	804.81
500.786	816.81
501.003	809.81
501.22	810.81
501.437	797.81
501.654	780.81
501.871	792.81
