Data from 1980.PennyLincolnUp.Lamp.En5.5.200Scan.071819.P1_HRD10591_16-37-55-957.txt Node
Date: Thu Jul 18 16:37:55 EDT 2019
User: cochatt
Spectrometer: HR+D1059
Trigger mode: 1
Integration Time (sec): 1.000000E-1
Scans to average: 1
Electric dark correction enabled: true
Nonlinearity correction enabled: false
Boxcar width: 0
XAxis mode: Wavelengths
Number of Pixels in Spectrum: 2048
>>>>>Begin Spectral Data<<<<<
223.165	-29.31
223.4	-29.31
223.635	-29.31
223.869	-9.31
224.104	-14.31
224.338	-6.31
224.573	-17.31
224.808	-11.31
225.042	-19.31
225.277	5.69
225.511	-2.31
225.746	-2.31
225.98	0.69
226.215	9.69
226.449	16.69
226.683	27.69
226.918	19.69
227.152	31.69
227.387	37.69
227.621	36.69
227.856	31.69
228.09	41.69
228.324	43.69
228.559	49.69
228.793	69.69
229.027	105.69
229.262	101.69
229.496	122.69
229.73	128.69
229.964	167.69
230.199	137.69
230.433	102.69
230.667	109.69
230.901	125.69
231.136	103.69
231.37	117.69
231.604	106.69
231.838	118.69
232.072	113.69
232.306	118.69
232.541	115.69
232.775	103.69
233.009	120.69
233.243	103.69
233.477	117.69
233.711	118.69
233.945	98.69
234.179	119.69
234.413	104.69
234.647	111.69
234.881	119.69
235.115	115.69
235.349	106.69
235.583	114.69
235.817	120.69
236.051	114.69
236.285	119.69
236.519	125.69
236.753	123.69
236.987	147.69
237.221	166.69
237.455	248.69
237.689	186.69
237.922	165.69
238.156	135.69
238.39	134.69
238.624	130.69
238.858	127.69
239.091	133.69
239.325	132.69
239.559	134.69
239.793	122.69
240.027	129.69
240.26	143.69
240.494	171.69
240.728	145.69
240.961	139.69
241.195	126.69
241.429	131.69
241.662	139.69
241.896	116.69
242.13	135.69
242.363	121.69
242.597	125.69
242.83	135.69
243.064	119.69
243.298	128.69
243.531	138.69
243.765	133.69
243.998	144.69
244.232	147.69
244.465	144.69
244.699	133.69
244.932	139.69
245.166	121.69
245.399	129.69
245.633	142.69
245.866	135.69
246.099	137.69
246.333	145.69
246.566	151.69
246.8	138.69
247.033	154.69
247.266	147.69
247.5	161.69
247.733	166.69
247.966	155.69
248.2	174.69
248.433	172.69
248.666	194.69
248.899	181.69
249.133	193.69
249.366	194.69
249.599	213.69
249.832	190.69
250.066	196.69
250.299	181.69
250.532	183.69
250.765	219.69
250.998	226.69
251.231	218.69
251.465	219.69
251.698	217.69
251.931	188.69
252.164	194.69
252.397	209.69
252.63	196.69
252.863	214.69
253.096	224.69
253.329	232.69
253.562	227.69
253.795	221.69
254.028	231.69
254.261	222.69
254.494	253.69
254.727	263.69
254.96	290.69
255.193	283.69
255.426	244.69
255.659	241.69
255.892	247.69
256.124	242.69
256.357	249.69
256.59	251.69
256.823	214.69
257.056	218.69
257.289	209.69
257.521	210.69
257.754	208.69
257.987	222.69
258.22	215.69
258.452	206.69
258.685	205.69
258.918	216.69
259.151	224.69
259.383	227.69
259.616	238.69
259.849	230.69
260.081	227.69
260.314	253.69
260.547	265.69
260.779	253.69
261.012	239.69
261.244	224.69
261.477	225.69
261.71	225.69
261.942	229.69
262.175	243.69
262.407	229.69
262.64	213.69
262.872	217.69
263.105	223.69
263.337	215.69
263.57	204.69
263.802	201.69
264.035	207.69
264.267	205.69
264.499	210.69
264.732	215.69
264.964	220.69
265.197	227.69
265.429	216.69
265.661	198.69
265.894	208.69
266.126	213.69
266.358	216.69
266.591	200.69
266.823	218.69
267.055	220.69
267.287	226.69
267.52	241.69
267.752	207.69
267.984	216.69
268.216	217.69
268.448	221.69
268.681	232.69
268.913	243.69
269.145	251.69
269.377	267.69
269.609	276.69
269.841	291.69
270.073	262.69
270.306	287.69
270.538	317.69
270.77	302.69
271.002	309.69
271.234	300.69
271.466	302.69
271.698	307.69
271.93	305.69
272.162	323.69
272.394	311.69
272.626	294.69
272.858	282.69
273.09	271.69
273.322	281.69
273.553	265.69
273.785	262.69
274.017	240.69
274.249	265.69
274.481	237.69
274.713	258.69
274.945	268.69
275.176	253.69
275.408	245.69
275.64	246.69
275.872	246.69
276.104	258.69
276.335	268.69
276.567	257.69
276.799	282.69
277.031	305.69
277.262	311.69
277.494	316.69
277.726	297.69
277.957	282.69
278.189	273.69
278.421	278.69
278.652	246.69
278.884	261.69
279.115	249.69
279.347	265.69
279.579	264.69
279.81	243.69
280.042	241.69
280.273	252.69
280.505	272.69
280.736	243.69
280.968	249.69
281.199	253.69
281.431	257.69
281.662	255.69
281.894	263.69
282.125	241.69
282.356	262.69
282.588	290.69
282.819	303.69
283.051	267.69
283.282	253.69
283.513	259.69
283.745	246.69
283.976	255.69
284.207	267.69
284.439	277.69
284.67	267.69
284.901	277.69
285.132	262.69
285.364	263.69
285.595	250.69
285.826	229.69
286.057	261.69
286.288	272.69
286.52	247.69
286.751	271.69
286.982	267.69
287.213	260.69
287.444	267.69
287.675	264.69
287.906	277.69
288.138	290.69
288.369	271.69
288.6	273.69
288.831	287.69
289.062	272.69
289.293	270.69
289.524	279.69
289.755	253.69
289.986	264.69
290.217	281.69
290.448	268.69
290.679	275.69
290.91	274.69
291.141	273.69
291.371	266.69
291.602	275.69
291.833	268.69
292.064	265.69
292.295	281.69
292.526	278.69
292.757	238.69
292.987	276.69
293.218	273.69
293.449	271.69
293.68	258.69
293.91	282.69
294.141	270.69
294.372	268.69
294.603	279.69
294.833	284.69
295.064	265.69
295.295	274.69
295.525	265.69
295.756	273.69
295.987	276.69
296.217	304.69
296.448	316.69
296.679	289.69
296.909	267.69
297.14	264.69
297.37	284.69
297.601	263.69
297.831	283.69
298.062	291.69
298.292	269.69
298.523	285.69
298.753	291.69
298.984	281.69
299.214	276.69
299.445	261.69
299.675	278.69
299.905	301.69
300.136	288.69
300.366	269.69
300.597	283.69
300.827	282.69
301.057	285.69
301.288	322.69
301.518	304.69
301.748	305.69
301.979	297.69
302.209	291.69
302.439	307.69
302.669	305.69
302.9	294.69
303.13	299.69
303.36	304.69
303.59	314.69
303.82	312.69
304.051	309.69
304.281	294.69
304.511	284.69
304.741	295.69
304.971	303.69
305.201	276.69
305.431	303.69
305.661	297.69
305.891	304.69
306.121	292.69
306.352	309.69
306.582	305.69
306.812	289.69
307.042	309.69
307.272	295.69
307.502	299.69
307.731	297.69
307.961	314.69
308.191	321.69
308.421	331.69
308.651	299.69
308.881	305.69
309.111	321.69
309.341	328.69
309.571	326.69
309.8	334.69
310.03	340.69
310.26	357.69
310.49	359.69
310.72	372.69
310.949	377.69
311.179	385.69
311.409	380.69
311.639	344.69
311.868	359.69
312.098	356.69
312.328	373.69
312.557	377.69
312.787	425.69
313.017	385.69
313.246	375.69
313.476	348.69
313.706	359.69
313.935	373.69
314.165	361.69
314.394	389.69
314.624	403.69
314.853	375.69
315.083	374.69
315.312	378.69
315.542	333.69
315.771	350.69
316.001	341.69
316.23	336.69
316.46	343.69
316.689	353.69
316.919	346.69
317.148	371.69
317.377	363.69
317.607	371.69
317.836	360.69
318.065	351.69
318.295	345.69
318.524	351.69
318.753	348.69
318.983	369.69
319.212	353.69
319.441	372.69
319.67	353.69
319.9	347.69
320.129	368.69
320.358	345.69
320.587	363.69
320.816	377.69
321.046	391.69
321.275	381.69
321.504	378.69
321.733	381.69
321.962	381.69
322.191	394.69
322.42	436.69
322.649	419.69
322.878	445.69
323.108	472.69
323.337	495.69
323.566	513.69
323.795	557.69
324.024	600.69
324.253	730.69
324.482	1058.69
324.71	1591.69
324.939	2307.69
325.168	2067.69
325.397	1087.69
325.626	695.69
325.855	592.69
326.084	524.69
326.313	498.69
326.542	512.69
326.77	561.69
326.999	696.69
327.228	948.69
327.457	1444.69
327.686	1765.69
327.914	1204.69
328.143	793.69
328.372	665.69
328.6	610.69
328.829	576.69
329.058	587.69
329.287	614.69
329.515	571.69
329.744	515.69
329.972	515.69
330.201	538.69
330.43	601.69
330.658	612.69
330.887	645.69
331.115	624.69
331.344	537.69
331.572	481.69
331.801	461.69
332.03	493.69
332.258	443.69
332.486	451.69
332.715	424.69
332.943	417.69
333.172	452.69
333.4	450.69
333.629	434.69
333.857	453.69
334.085	461.69
334.314	480.69
334.542	527.69
334.771	539.69
334.999	486.69
335.227	435.69
335.455	437.69
335.684	420.69
335.912	415.69
336.14	409.69
336.369	415.69
336.597	415.69
336.825	399.69
337.053	409.69
337.281	417.69
337.51	406.69
337.738	393.69
337.966	410.69
338.194	416.69
338.422	413.69
338.65	408.69
338.878	443.69
339.106	411.69
339.334	388.69
339.562	405.69
339.79	401.69
340.018	396.69
340.246	393.69
340.474	416.69
340.702	418.69
340.93	401.69
341.158	385.69
341.386	381.69
341.614	409.69
341.842	379.69
342.07	392.69
342.298	387.69
342.526	385.69
342.754	399.69
342.981	360.69
343.209	375.69
343.437	394.69
343.665	385.69
343.893	405.69
344.12	399.69
344.348	379.69
344.576	383.69
344.804	421.69
345.031	401.69
345.259	425.69
345.487	411.69
345.714	409.69
345.942	398.69
346.17	393.69
346.397	374.69
346.625	403.69
346.853	386.69
347.08	383.69
347.308	393.69
347.535	400.69
347.763	421.69
347.99	405.69
348.218	395.69
348.445	404.69
348.673	412.69
348.9	381.69
349.128	396.69
349.355	375.69
349.583	356.69
349.81	365.69
350.037	353.69
350.265	391.69
350.492	383.69
350.72	365.69
350.947	396.69
351.174	390.69
351.402	406.69
351.629	398.69
351.856	408.69
352.083	415.69
352.311	401.69
352.538	405.69
352.765	417.69
352.992	416.69
353.22	391.69
353.447	383.69
353.674	394.69
353.901	369.69
354.128	371.69
354.355	376.69
354.583	365.69
354.81	350.69
355.037	353.69
355.264	366.69
355.491	360.69
355.718	339.69
355.945	367.69
356.172	349.69
356.399	360.69
356.626	366.69
356.853	329.69
357.08	353.69
357.307	339.69
357.534	355.69
357.761	360.69
357.988	367.69
358.215	348.69
358.441	365.69
358.668	368.69
358.895	367.69
359.122	349.69
359.349	362.69
359.576	394.69
359.802	425.69
360.029	455.69
360.256	458.69
360.483	431.69
360.709	413.69
360.936	397.69
361.163	385.69
361.39	391.69
361.616	393.69
361.843	389.69
362.07	393.69
362.296	412.69
362.523	406.69
362.749	387.69
362.976	379.69
363.203	375.69
363.429	362.69
363.656	391.69
363.882	382.69
364.109	369.69
364.335	377.69
364.562	373.69
364.788	359.69
365.015	384.69
365.241	385.69
365.468	372.69
365.694	381.69
365.92	390.69
366.147	377.69
366.373	365.69
366.599	367.69
366.826	361.69
367.052	362.69
367.278	355.69
367.505	373.69
367.731	373.69
367.957	357.69
368.184	371.69
368.41	359.69
368.636	365.69
368.862	388.69
369.089	387.69
369.315	374.69
369.541	363.69
369.767	362.69
369.993	370.69
370.219	371.69
370.445	350.69
370.672	372.69
370.898	354.69
371.124	343.69
371.35	386.69
371.576	350.69
371.802	333.69
372.028	362.69
372.254	347.69
372.48	353.69
372.706	360.69
372.932	357.69
373.158	361.69
373.384	371.69
373.61	365.69
373.835	355.69
374.061	367.69
374.287	360.69
374.513	357.69
374.739	365.69
374.965	351.69
375.191	381.69
375.416	370.69
375.642	366.69
375.868	374.69
376.094	347.69
376.319	355.69
376.545	353.69
376.771	341.69
376.997	345.69
377.222	358.69
377.448	344.69
377.674	346.69
377.899	348.69
378.125	365.69
378.35	344.69
378.576	358.69
378.802	341.69
379.027	347.69
379.253	372.69
379.478	352.69
379.704	340.69
379.929	339.69
380.155	348.69
380.38	344.69
380.606	376.69
380.831	353.69
381.057	359.69
381.282	378.69
381.507	350.69
381.733	383.69
381.958	367.69
382.184	342.69
382.409	353.69
382.634	360.69
382.86	358.69
383.085	360.69
383.31	371.69
383.535	362.69
383.761	375.69
383.986	389.69
384.211	362.69
384.436	357.69
384.662	374.69
384.887	374.69
385.112	365.69
385.337	368.69
385.562	375.69
385.787	378.69
386.013	404.69
386.238	398.69
386.463	388.69
386.688	388.69
386.913	383.69
387.138	368.69
387.363	382.69
387.588	386.69
387.813	373.69
388.038	383.69
388.263	393.69
388.488	400.69
388.713	407.69
388.938	389.69
389.163	404.69
389.387	379.69
389.612	387.69
389.837	369.69
390.062	379.69
390.287	378.69
390.512	383.69
390.736	379.69
390.961	355.69
391.186	362.69
391.411	386.69
391.636	399.69
391.86	396.69
392.085	412.69
392.31	387.69
392.534	393.69
392.759	395.69
392.984	387.69
393.208	384.69
393.433	408.69
393.658	377.69
393.882	362.69
394.107	395.69
394.331	365.69
394.556	375.69
394.78	395.69
395.005	401.69
395.229	376.69
395.454	396.69
395.678	389.69
395.903	395.69
396.127	417.69
396.352	411.69
396.576	398.69
396.801	383.69
397.025	396.69
397.249	401.69
397.474	415.69
397.698	401.69
397.922	420.69
398.147	428.69
398.371	436.69
398.595	425.69
398.82	436.69
399.044	427.69
399.268	437.69
399.492	432.69
399.717	482.69
399.941	507.69
400.165	515.69
400.389	539.69
400.613	489.69
400.837	445.69
401.062	449.69
401.286	431.69
401.51	446.69
401.734	428.69
401.958	429.69
402.182	441.69
402.406	446.69
402.63	453.69
402.854	440.69
403.078	441.69
403.302	437.69
403.526	467.69
403.75	460.69
403.974	436.69
404.198	442.69
404.422	452.69
404.645	456.69
404.869	454.69
405.093	493.69
405.317	509.69
405.541	570.69
405.765	499.69
405.988	480.69
406.212	476.69
406.436	529.69
406.66	537.69
406.883	498.69
407.107	511.69
407.331	555.69
407.555	618.69
407.778	622.69
408.002	549.69
408.226	553.69
408.449	515.69
408.673	513.69
408.896	530.69
409.12	571.69
409.344	559.69
409.567	496.69
409.791	468.69
410.014	451.69
410.238	469.69
410.461	447.69
410.685	463.69
410.908	477.69
411.132	499.69
411.355	553.69
411.578	507.69
411.802	450.69
412.025	463.69
412.249	458.69
412.472	485.69
412.695	531.69
412.919	527.69
413.142	480.69
413.365	456.69
413.589	466.69
413.812	448.69
414.035	435.69
414.258	446.69
414.482	424.69
414.705	421.69
414.928	432.69
415.151	431.69
415.374	434.69
415.597	429.69
415.821	431.69
416.044	434.69
416.267	461.69
416.49	435.69
416.713	431.69
416.936	418.69
417.159	424.69
417.382	446.69
417.605	454.69
417.828	437.69
418.051	459.69
418.274	450.69
418.497	413.69
418.72	429.69
418.943	442.69
419.166	449.69
419.389	470.69
419.611	453.69
419.834	459.69
420.057	472.69
420.28	465.69
420.503	453.69
420.726	443.69
420.948	463.69
421.171	485.69
421.394	546.69
421.617	501.69
421.839	470.69
422.062	461.69
422.285	454.69
422.507	545.69
422.73	601.69
422.953	595.69
423.175	503.69
423.398	474.69
423.621	469.69
423.843	493.69
424.066	501.69
424.288	499.69
424.511	523.69
424.733	574.69
424.956	645.69
425.178	641.69
425.401	613.69
425.623	657.69
425.846	541.69
426.068	511.69
426.291	491.69
426.513	531.69
426.735	517.69
426.958	584.69
427.18	663.69
427.402	779.69
427.625	864.69
427.847	771.69
428.069	646.69
428.292	553.69
428.514	518.69
428.736	489.69
428.958	495.69
429.181	488.69
429.403	459.69
429.625	493.69
429.847	511.69
430.069	589.69
430.292	566.69
430.514	505.69
430.736	485.69
430.958	449.69
431.18	414.69
431.402	451.69
431.624	441.69
431.846	442.69
432.068	430.69
432.29	437.69
432.512	430.69
432.734	446.69
432.956	450.69
433.178	439.69
433.4	462.69
433.622	450.69
433.844	445.69
434.066	440.69
434.287	454.69
434.509	449.69
434.731	453.69
434.953	463.69
435.175	471.69
435.397	516.69
435.618	518.69
435.84	571.69
436.062	641.69
436.284	724.69
436.505	593.69
436.727	529.69
436.949	513.69
437.17	476.69
437.392	493.69
437.614	485.69
437.835	525.69
438.057	623.69
438.278	739.69
438.5	727.69
438.721	785.69
438.943	742.69
439.165	599.69
439.386	546.69
439.608	545.69
439.829	553.69
440.05	562.69
440.272	616.69
440.493	569.69
440.715	511.69
440.936	479.69
441.158	472.69
441.379	474.69
441.6	488.69
441.822	507.69
442.043	563.69
442.264	626.69
442.486	677.69
442.707	555.69
442.928	540.69
443.149	559.69
443.371	551.69
443.592	600.69
443.813	677.69
444.034	727.69
444.255	599.69
444.476	538.69
444.698	513.69
444.919	499.69
445.14	593.69
445.361	567.69
445.582	571.69
445.803	631.69
446.024	718.69
446.245	751.69
446.466	677.69
446.687	602.69
446.908	537.69
447.129	501.69
447.35	487.69
447.571	474.69
447.792	489.69
448.013	478.69
448.234	486.69
448.455	565.69
448.675	663.69
448.896	767.69
449.117	640.69
449.338	631.69
449.559	705.69
449.779	825.69
450	646.69
450.221	539.69
450.442	500.69
450.662	477.69
450.883	508.69
451.104	507.69
451.324	512.69
451.545	485.69
451.766	449.69
451.986	437.69
452.207	437.69
452.428	446.69
452.648	440.69
452.869	445.69
453.089	451.69
453.31	459.69
453.53	425.69
453.751	417.69
453.971	458.69
454.192	441.69
454.412	452.69
454.633	445.69
454.853	446.69
455.073	421.69
455.294	477.69
455.514	530.69
455.734	522.69
455.955	441.69
456.175	391.69
456.395	407.69
456.616	396.69
456.836	402.69
457.056	391.69
457.276	385.69
457.497	383.69
457.717	400.69
457.937	401.69
458.157	393.69
458.377	426.69
458.598	452.69
458.818	483.69
459.038	592.69
459.258	629.69
459.478	520.69
459.698	441.69
459.918	430.69
460.138	441.69
460.358	451.69
460.578	450.69
460.798	433.69
461.018	446.69
461.238	432.69
461.458	419.69
461.678	432.69
461.898	438.69
462.118	443.69
462.338	437.69
462.558	427.69
462.777	433.69
462.997	433.69
463.217	457.69
463.437	475.69
463.657	428.69
463.876	445.69
464.096	470.69
464.316	433.69
464.536	463.69
464.755	465.69
464.975	482.69
465.195	538.69
465.414	624.69
465.634	541.69
465.854	493.69
466.073	451.69
466.293	449.69
466.512	417.69
466.732	418.69
466.951	418.69
467.171	423.69
467.391	425.69
467.61	440.69
467.829	455.69
468.049	422.69
468.268	426.69
468.488	415.69
468.707	418.69
468.927	408.69
469.146	416.69
469.365	409.69
469.585	418.69
469.804	421.69
470.023	452.69
470.243	463.69
470.462	446.69
470.681	472.69
470.901	458.69
471.12	418.69
471.339	422.69
471.558	442.69
471.777	444.69
471.997	436.69
472.216	443.69
472.435	496.69
472.654	494.69
472.873	441.69
473.092	429.69
473.311	442.69
473.53	445.69
473.749	451.69
473.968	466.69
474.187	581.69
474.406	637.69
474.625	507.69
474.844	476.69
475.063	429.69
475.282	448.69
475.501	446.69
475.72	443.69
475.939	445.69
476.158	441.69
476.377	462.69
476.596	447.69
476.814	450.69
477.033	455.69
477.252	455.69
477.471	465.69
477.69	459.69
477.908	477.69
478.127	485.69
478.346	481.69
478.564	473.69
478.783	491.69
479.002	482.69
479.22	495.69
479.439	519.69
479.658	533.69
479.876	521.69
480.095	520.69
480.313	527.69
480.532	540.69
480.751	520.69
480.969	544.69
481.188	616.69
481.406	669.69
481.624	579.69
481.843	552.69
482.061	529.69
482.28	511.69
482.498	492.69
482.717	530.69
482.935	543.69
483.153	520.69
483.372	509.69
483.59	522.69
483.808	525.69
484.027	507.69
484.245	525.69
484.463	516.69
484.681	531.69
484.9	529.69
485.118	522.69
485.336	533.69
485.554	532.69
485.772	521.69
485.99	520.69
486.209	540.69
486.427	546.69
486.645	541.69
486.863	579.69
487.081	577.69
487.299	578.69
487.517	582.69
487.735	555.69
487.953	537.69
488.171	567.69
488.389	584.69
488.607	573.69
488.825	565.69
489.043	574.69
489.261	573.69
489.479	574.69
489.696	581.69
489.914	562.69
490.132	559.69
490.35	585.69
490.568	595.69
490.786	611.69
491.003	598.69
491.221	634.69
491.439	647.69
491.657	638.69
491.874	652.69
492.092	644.69
492.31	651.69
492.527	645.69
492.745	652.69
492.963	655.69
493.18	658.69
493.398	653.69
493.615	670.69
493.833	688.69
494.05	673.69
494.268	665.69
494.485	676.69
494.703	685.69
494.92	671.69
495.138	674.69
495.355	710.69
495.573	681.69
495.79	673.69
496.008	682.69
496.225	679.69
496.442	673.69
496.66	674.69
496.877	678.69
497.094	662.69
497.312	697.69
497.529	699.69
497.746	683.69
497.963	690.69
498.181	698.69
498.398	681.69
498.615	701.69
498.832	735.69
499.049	733.69
499.267	741.69
499.484	762.69
499.701	759.69
499.918	780.69
500.135	823.69
500.352	807.69
500.569	822.69
500.786	826.69
501.003	810.69
501.22	818.69
501.437	793.69
501.654	803.69
501.871	820.69
