Data from 1980.PennyLincolnUp.Lamp.En5.5.200Scan.071819.P1_HRD10591_16-37-54-957.txt Node
Date: Thu Jul 18 16:37:54 EDT 2019
User: cochatt
Spectrometer: HR+D1059
Trigger mode: 1
Integration Time (sec): 1.000000E-1
Scans to average: 1
Electric dark correction enabled: true
Nonlinearity correction enabled: false
Boxcar width: 0
XAxis mode: Wavelengths
Number of Pixels in Spectrum: 2048
>>>>>Begin Spectral Data<<<<<
223.165	-15.38
223.4	-15.38
223.635	-15.38
223.869	-15.38
224.104	-10.38
224.338	-26.38
224.573	-14.38
224.808	-0.38
225.042	-7.38
225.277	-3.38
225.511	-3.38
225.746	-7.38
225.98	10.62
226.215	9.62
226.449	12.62
226.683	9.62
226.918	24.62
227.152	36.62
227.387	49.62
227.621	40.62
227.856	54.62
228.09	50.62
228.324	45.62
228.559	52.62
228.793	79.62
229.027	127.62
229.262	104.62
229.496	120.62
229.73	148.62
229.964	156.62
230.199	125.62
230.433	117.62
230.667	115.62
230.901	112.62
231.136	104.62
231.37	116.62
231.604	112.62
231.838	104.62
232.072	118.62
232.306	105.62
232.541	110.62
232.775	112.62
233.009	121.62
233.243	92.62
233.477	108.62
233.711	94.62
233.945	121.62
234.179	118.62
234.413	136.62
234.647	114.62
234.881	120.62
235.115	120.62
235.349	127.62
235.583	118.62
235.817	112.62
236.051	130.62
236.285	131.62
236.519	125.62
236.753	128.62
236.987	159.62
237.221	196.62
237.455	237.62
237.689	188.62
237.922	164.62
238.156	139.62
238.39	148.62
238.624	136.62
238.858	105.62
239.091	122.62
239.325	122.62
239.559	133.62
239.793	135.62
240.027	124.62
240.26	152.62
240.494	164.62
240.728	148.62
240.961	137.62
241.195	153.62
241.429	157.62
241.662	151.62
241.896	134.62
242.13	150.62
242.363	121.62
242.597	136.62
242.83	130.62
243.064	148.62
243.298	138.62
243.531	146.62
243.765	151.62
243.998	141.62
244.232	146.62
244.465	156.62
244.699	148.62
244.932	142.62
245.166	148.62
245.399	147.62
245.633	150.62
245.866	154.62
246.099	145.62
246.333	150.62
246.566	140.62
246.8	145.62
247.033	148.62
247.266	151.62
247.5	167.62
247.733	170.62
247.966	174.62
248.2	173.62
248.433	158.62
248.666	181.62
248.899	186.62
249.133	200.62
249.366	210.62
249.599	193.62
249.832	185.62
250.066	183.62
250.299	167.62
250.532	179.62
250.765	210.62
250.998	230.62
251.231	238.62
251.465	228.62
251.698	195.62
251.931	201.62
252.164	196.62
252.397	197.62
252.63	228.62
252.863	220.62
253.096	227.62
253.329	241.62
253.562	217.62
253.795	228.62
254.028	221.62
254.261	202.62
254.494	235.62
254.727	267.62
254.96	307.62
255.193	293.62
255.426	257.62
255.659	233.62
255.892	244.62
256.124	246.62
256.357	252.62
256.59	219.62
256.823	221.62
257.056	208.62
257.289	210.62
257.521	233.62
257.754	209.62
257.987	201.62
258.22	214.62
258.452	194.62
258.685	213.62
258.918	211.62
259.151	212.62
259.383	224.62
259.616	225.62
259.849	218.62
260.081	261.62
260.314	261.62
260.547	258.62
260.779	252.62
261.012	235.62
261.244	233.62
261.477	226.62
261.71	224.62
261.942	238.62
262.175	247.62
262.407	226.62
262.64	220.62
262.872	221.62
263.105	210.62
263.337	226.62
263.57	219.62
263.802	225.62
264.035	221.62
264.267	197.62
264.499	218.62
264.732	208.62
264.964	233.62
265.197	198.62
265.429	206.62
265.661	196.62
265.894	212.62
266.126	213.62
266.358	209.62
266.591	212.62
266.823	219.62
267.055	216.62
267.287	230.62
267.52	227.62
267.752	221.62
267.984	225.62
268.216	231.62
268.448	235.62
268.681	237.62
268.913	253.62
269.145	267.62
269.377	262.62
269.609	293.62
269.841	257.62
270.073	266.62
270.306	290.62
270.538	310.62
270.77	312.62
271.002	325.62
271.234	311.62
271.466	308.62
271.698	334.62
271.93	313.62
272.162	323.62
272.394	321.62
272.626	315.62
272.858	290.62
273.09	267.62
273.322	284.62
273.553	276.62
273.785	262.62
274.017	267.62
274.249	246.62
274.481	270.62
274.713	264.62
274.945	269.62
275.176	241.62
275.408	250.62
275.64	227.62
275.872	259.62
276.104	247.62
276.335	268.62
276.567	263.62
276.799	294.62
277.031	312.62
277.262	320.62
277.494	331.62
277.726	297.62
277.957	284.62
278.189	280.62
278.421	294.62
278.652	266.62
278.884	274.62
279.115	268.62
279.347	264.62
279.579	246.62
279.81	259.62
280.042	256.62
280.273	262.62
280.505	248.62
280.736	243.62
280.968	248.62
281.199	258.62
281.431	258.62
281.662	255.62
281.894	260.62
282.125	258.62
282.356	279.62
282.588	296.62
282.819	310.62
283.051	274.62
283.282	274.62
283.513	261.62
283.745	267.62
283.976	254.62
284.207	270.62
284.439	290.62
284.67	290.62
284.901	268.62
285.132	251.62
285.364	265.62
285.595	250.62
285.826	256.62
286.057	260.62
286.288	260.62
286.52	253.62
286.751	266.62
286.982	276.62
287.213	272.62
287.444	254.62
287.675	270.62
287.906	290.62
288.138	292.62
288.369	281.62
288.6	288.62
288.831	271.62
289.062	291.62
289.293	284.62
289.524	256.62
289.755	265.62
289.986	280.62
290.217	267.62
290.448	267.62
290.679	289.62
290.91	255.62
291.141	255.62
291.371	283.62
291.602	269.62
291.833	267.62
292.064	268.62
292.295	269.62
292.526	289.62
292.757	264.62
292.987	272.62
293.218	276.62
293.449	271.62
293.68	275.62
293.91	281.62
294.141	292.62
294.372	264.62
294.603	271.62
294.833	270.62
295.064	268.62
295.295	285.62
295.525	250.62
295.756	276.62
295.987	276.62
296.217	309.62
296.448	343.62
296.679	312.62
296.909	274.62
297.14	278.62
297.37	260.62
297.601	282.62
297.831	296.62
298.062	278.62
298.292	281.62
298.523	277.62
298.753	296.62
298.984	279.62
299.214	294.62
299.445	296.62
299.675	258.62
299.905	290.62
300.136	296.62
300.366	280.62
300.597	288.62
300.827	308.62
301.057	306.62
301.288	307.62
301.518	307.62
301.748	290.62
301.979	314.62
302.209	298.62
302.439	294.62
302.669	294.62
302.9	316.62
303.13	287.62
303.36	322.62
303.59	296.62
303.82	322.62
304.051	312.62
304.281	324.62
304.511	302.62
304.741	289.62
304.971	311.62
305.201	301.62
305.431	296.62
305.661	306.62
305.891	297.62
306.121	309.62
306.352	323.62
306.582	317.62
306.812	314.62
307.042	316.62
307.272	304.62
307.502	310.62
307.731	317.62
307.961	321.62
308.191	316.62
308.421	323.62
308.651	318.62
308.881	314.62
309.111	339.62
309.341	323.62
309.571	346.62
309.8	354.62
310.03	344.62
310.26	345.62
310.49	356.62
310.72	377.62
310.949	375.62
311.179	405.62
311.409	376.62
311.639	368.62
311.868	341.62
312.098	366.62
312.328	375.62
312.557	393.62
312.787	414.62
313.017	402.62
313.246	379.62
313.476	361.62
313.706	358.62
313.935	360.62
314.165	375.62
314.394	404.62
314.624	391.62
314.853	389.62
315.083	371.62
315.312	358.62
315.542	357.62
315.771	327.62
316.001	352.62
316.23	337.62
316.46	358.62
316.689	378.62
316.919	367.62
317.148	382.62
317.377	383.62
317.607	361.62
317.836	375.62
318.065	347.62
318.295	365.62
318.524	348.62
318.753	343.62
318.983	356.62
319.212	370.62
319.441	352.62
319.67	387.62
319.9	365.62
320.129	364.62
320.358	373.62
320.587	376.62
320.816	373.62
321.046	372.62
321.275	414.62
321.504	364.62
321.733	369.62
321.962	378.62
322.191	421.62
322.42	432.62
322.649	458.62
322.878	469.62
323.108	458.62
323.337	484.62
323.566	518.62
323.795	575.62
324.024	626.62
324.253	746.62
324.482	1087.62
324.71	1682.62
324.939	2414.62
325.168	2130.62
325.397	1092.62
325.626	728.62
325.855	625.62
326.084	550.62
326.313	524.62
326.542	522.62
326.77	582.62
326.999	696.62
327.228	949.62
327.457	1475.62
327.686	1814.62
327.914	1237.62
328.143	800.62
328.372	698.62
328.6	650.62
328.829	601.62
329.058	632.62
329.287	633.62
329.515	579.62
329.744	530.62
329.972	521.62
330.201	557.62
330.43	581.62
330.658	646.62
330.887	664.62
331.115	620.62
331.344	540.62
331.572	492.62
331.801	476.62
332.03	518.62
332.258	475.62
332.486	447.62
332.715	436.62
332.943	429.62
333.172	449.62
333.4	437.62
333.629	453.62
333.857	462.62
334.085	461.62
334.314	470.62
334.542	520.62
334.771	530.62
334.999	483.62
335.227	461.62
335.455	432.62
335.684	418.62
335.912	401.62
336.14	402.62
336.369	409.62
336.597	420.62
336.825	428.62
337.053	416.62
337.281	426.62
337.51	409.62
337.738	388.62
337.966	398.62
338.194	442.62
338.422	412.62
338.65	420.62
338.878	408.62
339.106	412.62
339.334	392.62
339.562	383.62
339.79	380.62
340.018	417.62
340.246	418.62
340.474	409.62
340.702	409.62
340.93	399.62
341.158	390.62
341.386	410.62
341.614	404.62
341.842	417.62
342.07	408.62
342.298	374.62
342.526	377.62
342.754	370.62
342.981	394.62
343.209	385.62
343.437	390.62
343.665	382.62
343.893	386.62
344.12	393.62
344.348	409.62
344.576	384.62
344.804	386.62
345.031	438.62
345.259	419.62
345.487	414.62
345.714	418.62
345.942	397.62
346.17	397.62
346.397	409.62
346.625	404.62
346.853	402.62
347.08	396.62
347.308	404.62
347.535	434.62
347.763	436.62
347.99	423.62
348.218	436.62
348.445	431.62
348.673	405.62
348.9	405.62
349.128	403.62
349.355	396.62
349.583	376.62
349.81	376.62
350.037	394.62
350.265	387.62
350.492	381.62
350.72	383.62
350.947	411.62
351.174	410.62
351.402	404.62
351.629	406.62
351.856	402.62
352.083	401.62
352.311	405.62
352.538	435.62
352.765	418.62
352.992	389.62
353.22	390.62
353.447	393.62
353.674	391.62
353.901	375.62
354.128	366.62
354.355	370.62
354.583	370.62
354.81	387.62
355.037	353.62
355.264	358.62
355.491	346.62
355.718	355.62
355.945	350.62
356.172	344.62
356.399	364.62
356.626	354.62
356.853	360.62
357.08	358.62
357.307	368.62
357.534	356.62
357.761	350.62
357.988	369.62
358.215	376.62
358.441	364.62
358.668	370.62
358.895	390.62
359.122	380.62
359.349	377.62
359.576	388.62
359.802	427.62
360.029	476.62
360.256	462.62
360.483	451.62
360.709	410.62
360.936	402.62
361.163	413.62
361.39	397.62
361.616	416.62
361.843	410.62
362.07	394.62
362.296	409.62
362.523	383.62
362.749	400.62
362.976	390.62
363.203	395.62
363.429	364.62
363.656	379.62
363.882	354.62
364.109	368.62
364.335	380.62
364.562	370.62
364.788	354.62
365.015	375.62
365.241	359.62
365.468	383.62
365.694	386.62
365.92	379.62
366.147	382.62
366.373	364.62
366.599	364.62
366.826	358.62
367.052	355.62
367.278	369.62
367.505	359.62
367.731	376.62
367.957	359.62
368.184	349.62
368.41	374.62
368.636	373.62
368.862	397.62
369.089	351.62
369.315	380.62
369.541	363.62
369.767	352.62
369.993	368.62
370.219	364.62
370.445	361.62
370.672	353.62
370.898	357.62
371.124	338.62
371.35	342.62
371.576	359.62
371.802	372.62
372.028	364.62
372.254	364.62
372.48	342.62
372.706	346.62
372.932	360.62
373.158	350.62
373.384	357.62
373.61	382.62
373.835	350.62
374.061	346.62
374.287	356.62
374.513	364.62
374.739	375.62
374.965	364.62
375.191	370.62
375.416	365.62
375.642	352.62
375.868	362.62
376.094	376.62
376.319	356.62
376.545	374.62
376.771	363.62
376.997	365.62
377.222	360.62
377.448	368.62
377.674	352.62
377.899	346.62
378.125	342.62
378.35	369.62
378.576	361.62
378.802	363.62
379.027	354.62
379.253	369.62
379.478	352.62
379.704	360.62
379.929	365.62
380.155	363.62
380.38	379.62
380.606	362.62
380.831	358.62
381.057	377.62
381.282	354.62
381.507	356.62
381.733	366.62
381.958	357.62
382.184	358.62
382.409	381.62
382.634	390.62
382.86	360.62
383.085	361.62
383.31	353.62
383.535	380.62
383.761	378.62
383.986	352.62
384.211	380.62
384.436	372.62
384.662	377.62
384.887	377.62
385.112	387.62
385.337	381.62
385.562	384.62
385.787	372.62
386.013	395.62
386.238	397.62
386.463	396.62
386.688	386.62
386.913	391.62
387.138	357.62
387.363	370.62
387.588	388.62
387.813	376.62
388.038	398.62
388.263	381.62
388.488	392.62
388.713	377.62
388.938	379.62
389.163	394.62
389.387	392.62
389.612	361.62
389.837	380.62
390.062	370.62
390.287	384.62
390.512	376.62
390.736	347.62
390.961	392.62
391.186	357.62
391.411	384.62
391.636	386.62
391.86	406.62
392.085	380.62
392.31	378.62
392.534	396.62
392.759	405.62
392.984	378.62
393.208	375.62
393.433	385.62
393.658	387.62
393.882	377.62
394.107	388.62
394.331	374.62
394.556	377.62
394.78	396.62
395.005	394.62
395.229	398.62
395.454	393.62
395.678	392.62
395.903	414.62
396.127	418.62
396.352	424.62
396.576	416.62
396.801	394.62
397.025	416.62
397.249	401.62
397.474	409.62
397.698	425.62
397.922	421.62
398.147	448.62
398.371	445.62
398.595	408.62
398.82	417.62
399.044	428.62
399.268	421.62
399.492	466.62
399.717	479.62
399.941	493.62
400.165	531.62
400.389	533.62
400.613	513.62
400.837	452.62
401.062	445.62
401.286	422.62
401.51	423.62
401.734	411.62
401.958	428.62
402.182	439.62
402.406	432.62
402.63	461.62
402.854	447.62
403.078	449.62
403.302	443.62
403.526	470.62
403.75	455.62
403.974	436.62
404.198	432.62
404.422	477.62
404.645	453.62
404.869	459.62
405.093	490.62
405.317	503.62
405.541	555.62
405.765	517.62
405.988	503.62
406.212	489.62
406.436	516.62
406.66	514.62
406.883	506.62
407.107	545.62
407.331	567.62
407.555	609.62
407.778	608.62
408.002	562.62
408.226	509.62
408.449	512.62
408.673	520.62
408.896	526.62
409.12	589.62
409.344	541.62
409.567	485.62
409.791	469.62
410.014	450.62
410.238	467.62
410.461	456.62
410.685	467.62
410.908	514.62
411.132	494.62
411.355	573.62
411.578	525.62
411.802	464.62
412.025	451.62
412.249	469.62
412.472	499.62
412.695	521.62
412.919	526.62
413.142	464.62
413.365	454.62
413.589	468.62
413.812	436.62
414.035	424.62
414.258	436.62
414.482	415.62
414.705	420.62
414.928	418.62
415.151	432.62
415.374	428.62
415.597	419.62
415.821	437.62
416.044	443.62
416.267	427.62
416.49	437.62
416.713	427.62
416.936	427.62
417.159	449.62
417.382	450.62
417.605	441.62
417.828	461.62
418.051	476.62
418.274	440.62
418.497	435.62
418.72	432.62
418.943	438.62
419.166	456.62
419.389	464.62
419.611	451.62
419.834	470.62
420.057	461.62
420.28	470.62
420.503	471.62
420.726	477.62
420.948	480.62
421.171	506.62
421.394	533.62
421.617	492.62
421.839	478.62
422.062	469.62
422.285	491.62
422.507	546.62
422.73	612.62
422.953	589.62
423.175	488.62
423.398	503.62
423.621	477.62
423.843	516.62
424.066	487.62
424.288	504.62
424.511	514.62
424.733	570.62
424.956	662.62
425.178	628.62
425.401	638.62
425.623	649.62
425.846	573.62
426.068	540.62
426.291	514.62
426.513	518.62
426.735	529.62
426.958	578.62
427.18	650.62
427.402	766.62
427.625	855.62
427.847	766.62
428.069	640.62
428.292	564.62
428.514	534.62
428.736	502.62
428.958	502.62
429.181	482.62
429.403	478.62
429.625	494.62
429.847	530.62
430.069	602.62
430.292	609.62
430.514	499.62
430.736	494.62
430.958	461.62
431.18	439.62
431.402	461.62
431.624	435.62
431.846	435.62
432.068	440.62
432.29	437.62
432.512	435.62
432.734	435.62
432.956	444.62
433.178	444.62
433.4	473.62
433.622	448.62
433.844	450.62
434.066	433.62
434.287	428.62
434.509	436.62
434.731	451.62
434.953	470.62
435.175	474.62
435.397	502.62
435.618	528.62
435.84	571.62
436.062	655.62
436.284	734.62
436.505	562.62
436.727	530.62
436.949	500.62
437.17	476.62
437.392	478.62
437.614	506.62
437.835	544.62
438.057	662.62
438.278	716.62
438.5	731.62
438.721	808.62
438.943	773.62
439.165	619.62
439.386	539.62
439.608	549.62
439.829	552.62
440.05	562.62
440.272	600.62
440.493	581.62
440.715	509.62
440.936	490.62
441.158	485.62
441.379	470.62
441.6	504.62
441.822	529.62
442.043	558.62
442.264	640.62
442.486	706.62
442.707	593.62
442.928	552.62
443.149	540.62
443.371	558.62
443.592	611.62
443.813	681.62
444.034	741.62
444.255	620.62
444.476	531.62
444.698	522.62
444.919	524.62
445.14	594.62
445.361	584.62
445.582	581.62
445.803	621.62
446.024	729.62
446.245	754.62
446.466	700.62
446.687	576.62
446.908	534.62
447.129	485.62
447.35	484.62
447.571	457.62
447.792	479.62
448.013	485.62
448.234	511.62
448.455	572.62
448.675	665.62
448.896	758.62
449.117	665.62
449.338	620.62
449.559	712.62
449.779	781.62
450	666.62
450.221	560.62
450.442	485.62
450.662	496.62
450.883	524.62
451.104	516.62
451.324	491.62
451.545	481.62
451.766	465.62
451.986	438.62
452.207	428.62
452.428	433.62
452.648	443.62
452.869	450.62
453.089	446.62
453.31	437.62
453.53	448.62
453.751	404.62
453.971	434.62
454.192	460.62
454.412	459.62
454.633	436.62
454.853	428.62
455.073	398.62
455.294	444.62
455.514	538.62
455.734	503.62
455.955	446.62
456.175	417.62
456.395	399.62
456.616	403.62
456.836	407.62
457.056	407.62
457.276	384.62
457.497	396.62
457.717	391.62
457.937	409.62
458.157	411.62
458.377	417.62
458.598	437.62
458.818	519.62
459.038	580.62
459.258	615.62
459.478	517.62
459.698	469.62
459.918	440.62
460.138	436.62
460.358	430.62
460.578	415.62
460.798	433.62
461.018	439.62
461.238	436.62
461.458	433.62
461.678	421.62
461.898	432.62
462.118	436.62
462.338	451.62
462.558	433.62
462.777	415.62
462.997	460.62
463.217	461.62
463.437	443.62
463.657	449.62
463.876	448.62
464.096	446.62
464.316	443.62
464.536	450.62
464.755	477.62
464.975	468.62
465.195	526.62
465.414	618.62
465.634	527.62
465.854	488.62
466.073	473.62
466.293	438.62
466.512	421.62
466.732	414.62
466.951	429.62
467.171	428.62
467.391	433.62
467.61	447.62
467.829	453.62
468.049	465.62
468.268	441.62
468.488	431.62
468.707	428.62
468.927	413.62
469.146	422.62
469.365	413.62
469.585	408.62
469.804	428.62
470.023	446.62
470.243	434.62
470.462	459.62
470.681	468.62
470.901	456.62
471.12	440.62
471.339	432.62
471.558	439.62
471.777	461.62
471.997	448.62
472.216	468.62
472.435	481.62
472.654	477.62
472.873	432.62
473.092	443.62
473.311	452.62
473.53	437.62
473.749	434.62
473.968	495.62
474.187	606.62
474.406	668.62
474.625	519.62
474.844	473.62
475.063	456.62
475.282	449.62
475.501	443.62
475.72	453.62
475.939	472.62
476.158	445.62
476.377	443.62
476.596	440.62
476.814	481.62
477.033	480.62
477.252	498.62
477.471	455.62
477.69	476.62
477.908	475.62
478.127	476.62
478.346	454.62
478.564	486.62
478.783	484.62
479.002	469.62
479.22	499.62
479.439	514.62
479.658	530.62
479.876	549.62
480.095	526.62
480.313	538.62
480.532	541.62
480.751	535.62
480.969	552.62
481.188	593.62
481.406	674.62
481.624	593.62
481.843	570.62
482.061	543.62
482.28	535.62
482.498	526.62
482.717	500.62
482.935	510.62
483.153	506.62
483.372	529.62
483.59	506.62
483.808	498.62
484.027	512.62
484.245	531.62
484.463	540.62
484.681	555.62
484.9	526.62
485.118	546.62
485.336	554.62
485.554	546.62
485.772	530.62
485.99	528.62
486.209	532.62
486.427	550.62
486.645	552.62
486.863	565.62
487.081	599.62
487.299	572.62
487.517	553.62
487.735	557.62
487.953	585.62
488.171	547.62
488.389	546.62
488.607	545.62
488.825	572.62
489.043	562.62
489.261	557.62
489.479	585.62
489.696	567.62
489.914	568.62
490.132	586.62
490.35	602.62
490.568	606.62
490.786	610.62
491.003	641.62
491.221	620.62
491.439	636.62
491.657	643.62
491.874	643.62
492.092	667.62
492.31	647.62
492.527	668.62
492.745	642.62
492.963	663.62
493.18	667.62
493.398	673.62
493.615	674.62
493.833	652.62
494.05	670.62
494.268	669.62
494.485	664.62
494.703	685.62
494.92	681.62
495.138	660.62
495.355	662.62
495.573	676.62
495.79	662.62
496.008	696.62
496.225	663.62
496.442	698.62
496.66	691.62
496.877	666.62
497.094	704.62
497.312	682.62
497.529	682.62
497.746	669.62
497.963	684.62
498.181	725.62
498.398	722.62
498.615	724.62
498.832	719.62
499.049	743.62
499.267	737.62
499.484	760.62
499.701	757.62
499.918	766.62
500.135	793.62
500.352	802.62
500.569	801.62
500.786	828.62
501.003	830.62
501.22	817.62
501.437	821.62
501.654	816.62
501.871	808.62
