Data from 1980.PennyLincolnUp.Lamp.En5.5.200Scan.071819.P1_HRD10591_16-39-11-958.txt Node
Date: Thu Jul 18 16:39:11 EDT 2019
User: cochatt
Spectrometer: HR+D1059
Trigger mode: 1
Integration Time (sec): 1.000000E-1
Scans to average: 1
Electric dark correction enabled: true
Nonlinearity correction enabled: false
Boxcar width: 0
XAxis mode: Wavelengths
Number of Pixels in Spectrum: 2048
>>>>>Begin Spectral Data<<<<<
223.165	-17.88
223.4	-17.88
223.635	-17.88
223.869	-20.88
224.104	-32.88
224.338	-24.88
224.573	-22.88
224.808	4.12
225.042	-13.88
225.277	2.12
225.511	-10.88
225.746	3.12
225.98	20.12
226.215	6.12
226.449	30.12
226.683	28.12
226.918	22.12
227.152	28.12
227.387	23.12
227.621	43.12
227.856	48.12
228.09	52.12
228.324	48.12
228.559	51.12
228.793	74.12
229.027	110.12
229.262	114.12
229.496	139.12
229.73	148.12
229.964	170.12
230.199	142.12
230.433	116.12
230.667	117.12
230.901	121.12
231.136	132.12
231.37	122.12
231.604	125.12
231.838	141.12
232.072	115.12
232.306	109.12
232.541	126.12
232.775	120.12
233.009	116.12
233.243	128.12
233.477	107.12
233.711	116.12
233.945	114.12
234.179	111.12
234.413	134.12
234.647	120.12
234.881	125.12
235.115	116.12
235.349	131.12
235.583	134.12
235.817	125.12
236.051	118.12
236.285	133.12
236.519	134.12
236.753	127.12
236.987	154.12
237.221	197.12
237.455	263.12
237.689	215.12
237.922	160.12
238.156	149.12
238.39	138.12
238.624	134.12
238.858	137.12
239.091	144.12
239.325	134.12
239.559	132.12
239.793	129.12
240.027	145.12
240.26	158.12
240.494	166.12
240.728	175.12
240.961	151.12
241.195	150.12
241.429	145.12
241.662	123.12
241.896	136.12
242.13	152.12
242.363	140.12
242.597	145.12
242.83	145.12
243.064	145.12
243.298	126.12
243.531	150.12
243.765	137.12
243.998	140.12
244.232	142.12
244.465	148.12
244.699	150.12
244.932	158.12
245.166	146.12
245.399	162.12
245.633	153.12
245.866	138.12
246.099	144.12
246.333	153.12
246.566	138.12
246.8	164.12
247.033	153.12
247.266	162.12
247.5	170.12
247.733	191.12
247.966	175.12
248.2	197.12
248.433	194.12
248.666	176.12
248.899	182.12
249.133	208.12
249.366	218.12
249.599	208.12
249.832	185.12
250.066	198.12
250.299	195.12
250.532	214.12
250.765	227.12
250.998	233.12
251.231	246.12
251.465	238.12
251.698	222.12
251.931	214.12
252.164	215.12
252.397	216.12
252.63	202.12
252.863	208.12
253.096	245.12
253.329	253.12
253.562	242.12
253.795	239.12
254.028	236.12
254.261	230.12
254.494	244.12
254.727	267.12
254.96	320.12
255.193	309.12
255.426	276.12
255.659	264.12
255.892	236.12
256.124	251.12
256.357	255.12
256.59	255.12
256.823	223.12
257.056	222.12
257.289	220.12
257.521	232.12
257.754	202.12
257.987	205.12
258.22	223.12
258.452	220.12
258.685	236.12
258.918	220.12
259.151	203.12
259.383	225.12
259.616	231.12
259.849	253.12
260.081	252.12
260.314	263.12
260.547	256.12
260.779	270.12
261.012	262.12
261.244	226.12
261.477	230.12
261.71	237.12
261.942	238.12
262.175	264.12
262.407	246.12
262.64	212.12
262.872	220.12
263.105	235.12
263.337	226.12
263.57	215.12
263.802	223.12
264.035	224.12
264.267	220.12
264.499	218.12
264.732	228.12
264.964	227.12
265.197	215.12
265.429	204.12
265.661	224.12
265.894	219.12
266.126	227.12
266.358	207.12
266.591	200.12
266.823	223.12
267.055	230.12
267.287	215.12
267.52	218.12
267.752	244.12
267.984	230.12
268.216	232.12
268.448	232.12
268.681	247.12
268.913	252.12
269.145	264.12
269.377	282.12
269.609	275.12
269.841	287.12
270.073	293.12
270.306	310.12
270.538	341.12
270.77	347.12
271.002	331.12
271.234	325.12
271.466	330.12
271.698	330.12
271.93	343.12
272.162	331.12
272.394	333.12
272.626	335.12
272.858	321.12
273.09	298.12
273.322	287.12
273.553	264.12
273.785	260.12
274.017	257.12
274.249	294.12
274.481	284.12
274.713	287.12
274.945	286.12
275.176	287.12
275.408	263.12
275.64	255.12
275.872	275.12
276.104	278.12
276.335	273.12
276.567	277.12
276.799	288.12
277.031	312.12
277.262	328.12
277.494	345.12
277.726	318.12
277.957	312.12
278.189	295.12
278.421	263.12
278.652	280.12
278.884	268.12
279.115	258.12
279.347	261.12
279.579	277.12
279.81	269.12
280.042	264.12
280.273	266.12
280.505	255.12
280.736	265.12
280.968	264.12
281.199	254.12
281.431	271.12
281.662	248.12
281.894	276.12
282.125	261.12
282.356	287.12
282.588	299.12
282.819	333.12
283.051	276.12
283.282	247.12
283.513	281.12
283.745	278.12
283.976	272.12
284.207	277.12
284.439	276.12
284.67	282.12
284.901	265.12
285.132	279.12
285.364	262.12
285.595	273.12
285.826	247.12
286.057	275.12
286.288	263.12
286.52	266.12
286.751	280.12
286.982	276.12
287.213	301.12
287.444	295.12
287.675	288.12
287.906	286.12
288.138	308.12
288.369	280.12
288.6	296.12
288.831	306.12
289.062	308.12
289.293	293.12
289.524	286.12
289.755	274.12
289.986	276.12
290.217	276.12
290.448	266.12
290.679	275.12
290.91	282.12
291.141	281.12
291.371	282.12
291.602	262.12
291.833	275.12
292.064	281.12
292.295	279.12
292.526	283.12
292.757	285.12
292.987	269.12
293.218	288.12
293.449	262.12
293.68	274.12
293.91	272.12
294.141	263.12
294.372	275.12
294.603	285.12
294.833	291.12
295.064	276.12
295.295	280.12
295.525	282.12
295.756	283.12
295.987	286.12
296.217	315.12
296.448	318.12
296.679	315.12
296.909	306.12
297.14	283.12
297.37	294.12
297.601	275.12
297.831	290.12
298.062	311.12
298.292	273.12
298.523	282.12
298.753	301.12
298.984	294.12
299.214	283.12
299.445	298.12
299.675	301.12
299.905	323.12
300.136	302.12
300.366	294.12
300.597	296.12
300.827	311.12
301.057	299.12
301.288	286.12
301.518	308.12
301.748	322.12
301.979	319.12
302.209	313.12
302.439	327.12
302.669	318.12
302.9	313.12
303.13	308.12
303.36	327.12
303.59	312.12
303.82	324.12
304.051	319.12
304.281	299.12
304.511	305.12
304.741	301.12
304.971	311.12
305.201	310.12
305.431	293.12
305.661	323.12
305.891	320.12
306.121	339.12
306.352	323.12
306.582	286.12
306.812	306.12
307.042	319.12
307.272	328.12
307.502	318.12
307.731	322.12
307.961	330.12
308.191	326.12
308.421	321.12
308.651	322.12
308.881	324.12
309.111	360.12
309.341	336.12
309.571	335.12
309.8	348.12
310.03	373.12
310.26	365.12
310.49	388.12
310.72	384.12
310.949	411.12
311.179	427.12
311.409	378.12
311.639	351.12
311.868	398.12
312.098	390.12
312.328	401.12
312.557	407.12
312.787	419.12
313.017	409.12
313.246	392.12
313.476	374.12
313.706	380.12
313.935	387.12
314.165	389.12
314.394	400.12
314.624	411.12
314.853	378.12
315.083	389.12
315.312	371.12
315.542	384.12
315.771	358.12
316.001	356.12
316.23	364.12
316.46	364.12
316.689	361.12
316.919	363.12
317.148	395.12
317.377	386.12
317.607	387.12
317.836	372.12
318.065	368.12
318.295	370.12
318.524	373.12
318.753	356.12
318.983	374.12
319.212	360.12
319.441	380.12
319.67	394.12
319.9	372.12
320.129	375.12
320.358	365.12
320.587	397.12
320.816	398.12
321.046	405.12
321.275	408.12
321.504	409.12
321.733	404.12
321.962	407.12
322.191	417.12
322.42	439.12
322.649	465.12
322.878	464.12
323.108	515.12
323.337	518.12
323.566	563.12
323.795	590.12
324.024	646.12
324.253	829.12
324.482	1189.12
324.71	1759.12
324.939	2584.12
325.168	2301.12
325.397	1220.12
325.626	785.12
325.855	626.12
326.084	572.12
326.313	567.12
326.542	558.12
326.77	627.12
326.999	740.12
327.228	1023.12
327.457	1598.12
327.686	2013.12
327.914	1352.12
328.143	868.12
328.372	721.12
328.6	677.12
328.829	648.12
329.058	663.12
329.287	678.12
329.515	615.12
329.744	564.12
329.972	567.12
330.201	579.12
330.43	630.12
330.658	654.12
330.887	695.12
331.115	682.12
331.344	571.12
331.572	529.12
331.801	518.12
332.03	518.12
332.258	462.12
332.486	453.12
332.715	447.12
332.943	444.12
333.172	436.12
333.4	442.12
333.629	464.12
333.857	474.12
334.085	493.12
334.314	533.12
334.542	542.12
334.771	588.12
334.999	518.12
335.227	459.12
335.455	440.12
335.684	424.12
335.912	400.12
336.14	427.12
336.369	416.12
336.597	427.12
336.825	468.12
337.053	399.12
337.281	409.12
337.51	425.12
337.738	428.12
337.966	442.12
338.194	454.12
338.422	422.12
338.65	411.12
338.878	417.12
339.106	426.12
339.334	429.12
339.562	388.12
339.79	406.12
340.018	436.12
340.246	421.12
340.474	421.12
340.702	448.12
340.93	417.12
341.158	412.12
341.386	387.12
341.614	415.12
341.842	415.12
342.07	408.12
342.298	422.12
342.526	410.12
342.754	400.12
342.981	396.12
343.209	382.12
343.437	399.12
343.665	399.12
343.893	404.12
344.12	397.12
344.348	392.12
344.576	412.12
344.804	413.12
345.031	439.12
345.259	445.12
345.487	449.12
345.714	423.12
345.942	427.12
346.17	423.12
346.397	426.12
346.625	417.12
346.853	421.12
347.08	394.12
347.308	408.12
347.535	416.12
347.763	429.12
347.99	428.12
348.218	446.12
348.445	428.12
348.673	411.12
348.9	421.12
349.128	418.12
349.355	390.12
349.583	389.12
349.81	397.12
350.037	395.12
350.265	414.12
350.492	389.12
350.72	386.12
350.947	399.12
351.174	422.12
351.402	438.12
351.629	412.12
351.856	415.12
352.083	421.12
352.311	437.12
352.538	423.12
352.765	424.12
352.992	426.12
353.22	431.12
353.447	408.12
353.674	403.12
353.901	387.12
354.128	382.12
354.355	379.12
354.583	382.12
354.81	386.12
355.037	366.12
355.264	370.12
355.491	358.12
355.718	355.12
355.945	356.12
356.172	364.12
356.399	365.12
356.626	370.12
356.853	371.12
357.08	360.12
357.307	365.12
357.534	359.12
357.761	362.12
357.988	371.12
358.215	359.12
358.441	370.12
358.668	363.12
358.895	375.12
359.122	378.12
359.349	386.12
359.576	418.12
359.802	439.12
360.029	479.12
360.256	485.12
360.483	468.12
360.709	405.12
360.936	418.12
361.163	415.12
361.39	434.12
361.616	403.12
361.843	398.12
362.07	392.12
362.296	429.12
362.523	415.12
362.749	402.12
362.976	406.12
363.203	405.12
363.429	397.12
363.656	370.12
363.882	382.12
364.109	395.12
364.335	392.12
364.562	391.12
364.788	351.12
365.015	383.12
365.241	388.12
365.468	386.12
365.694	375.12
365.92	389.12
366.147	379.12
366.373	382.12
366.599	370.12
366.826	368.12
367.052	382.12
367.278	393.12
367.505	375.12
367.731	363.12
367.957	406.12
368.184	372.12
368.41	395.12
368.636	399.12
368.862	397.12
369.089	382.12
369.315	363.12
369.541	380.12
369.767	367.12
369.993	373.12
370.219	362.12
370.445	370.12
370.672	375.12
370.898	358.12
371.124	362.12
371.35	356.12
371.576	355.12
371.802	361.12
372.028	364.12
372.254	355.12
372.48	364.12
372.706	355.12
372.932	368.12
373.158	371.12
373.384	352.12
373.61	355.12
373.835	372.12
374.061	359.12
374.287	365.12
374.513	377.12
374.739	374.12
374.965	374.12
375.191	386.12
375.416	384.12
375.642	354.12
375.868	352.12
376.094	363.12
376.319	360.12
376.545	355.12
376.771	364.12
376.997	373.12
377.222	352.12
377.448	371.12
377.674	358.12
377.899	348.12
378.125	363.12
378.35	361.12
378.576	358.12
378.802	355.12
379.027	351.12
379.253	364.12
379.478	374.12
379.704	371.12
379.929	370.12
380.155	364.12
380.38	372.12
380.606	365.12
380.831	356.12
381.057	380.12
381.282	356.12
381.507	367.12
381.733	365.12
381.958	377.12
382.184	357.12
382.409	358.12
382.634	379.12
382.86	374.12
383.085	381.12
383.31	372.12
383.535	377.12
383.761	382.12
383.986	384.12
384.211	376.12
384.436	403.12
384.662	386.12
384.887	377.12
385.112	390.12
385.337	367.12
385.562	390.12
385.787	384.12
386.013	394.12
386.238	415.12
386.463	397.12
386.688	394.12
386.913	383.12
387.138	408.12
387.363	393.12
387.588	386.12
387.813	385.12
388.038	387.12
388.263	395.12
388.488	382.12
388.713	394.12
388.938	382.12
389.163	387.12
389.387	392.12
389.612	373.12
389.837	388.12
390.062	386.12
390.287	386.12
390.512	367.12
390.736	396.12
390.961	381.12
391.186	363.12
391.411	361.12
391.636	389.12
391.86	381.12
392.085	395.12
392.31	393.12
392.534	394.12
392.759	397.12
392.984	380.12
393.208	395.12
393.433	377.12
393.658	377.12
393.882	382.12
394.107	366.12
394.331	377.12
394.556	390.12
394.78	392.12
395.005	380.12
395.229	389.12
395.454	400.12
395.678	386.12
395.903	410.12
396.127	433.12
396.352	408.12
396.576	425.12
396.801	390.12
397.025	396.12
397.249	391.12
397.474	416.12
397.698	395.12
397.922	407.12
398.147	450.12
398.371	443.12
398.595	426.12
398.82	430.12
399.044	422.12
399.268	448.12
399.492	460.12
399.717	479.12
399.941	515.12
400.165	549.12
400.389	558.12
400.613	489.12
400.837	463.12
401.062	434.12
401.286	427.12
401.51	444.12
401.734	423.12
401.958	436.12
402.182	443.12
402.406	454.12
402.63	442.12
402.854	468.12
403.078	440.12
403.302	462.12
403.526	463.12
403.75	468.12
403.974	447.12
404.198	452.12
404.422	453.12
404.645	482.12
404.869	486.12
405.093	502.12
405.317	535.12
405.541	585.12
405.765	530.12
405.988	484.12
406.212	510.12
406.436	549.12
406.66	541.12
406.883	516.12
407.107	514.12
407.331	568.12
407.555	641.12
407.778	612.12
408.002	575.12
408.226	514.12
408.449	501.12
408.673	510.12
408.896	546.12
409.12	581.12
409.344	544.12
409.567	502.12
409.791	481.12
410.014	485.12
410.238	455.12
410.461	471.12
410.685	462.12
410.908	491.12
411.132	514.12
411.355	556.12
411.578	531.12
411.802	475.12
412.025	466.12
412.249	489.12
412.472	503.12
412.695	544.12
412.919	526.12
413.142	483.12
413.365	468.12
413.589	430.12
413.812	454.12
414.035	434.12
414.258	443.12
414.482	438.12
414.705	452.12
414.928	443.12
415.151	430.12
415.374	420.12
415.597	436.12
415.821	411.12
416.044	441.12
416.267	433.12
416.49	413.12
416.713	426.12
416.936	429.12
417.159	437.12
417.382	461.12
417.605	453.12
417.828	469.12
418.051	458.12
418.274	448.12
418.497	447.12
418.72	465.12
418.943	444.12
419.166	473.12
419.389	479.12
419.611	455.12
419.834	484.12
420.057	475.12
420.28	473.12
420.503	480.12
420.726	490.12
420.948	475.12
421.171	524.12
421.394	556.12
421.617	503.12
421.839	470.12
422.062	476.12
422.285	484.12
422.507	544.12
422.73	615.12
422.953	594.12
423.175	536.12
423.398	506.12
423.621	488.12
423.843	502.12
424.066	510.12
424.288	501.12
424.511	530.12
424.733	599.12
424.956	686.12
425.178	649.12
425.401	650.12
425.623	663.12
425.846	584.12
426.068	536.12
426.291	517.12
426.513	512.12
426.735	541.12
426.958	592.12
427.18	664.12
427.402	782.12
427.625	869.12
427.847	821.12
428.069	714.12
428.292	576.12
428.514	525.12
428.736	510.12
428.958	543.12
429.181	479.12
429.403	487.12
429.625	478.12
429.847	535.12
430.069	589.12
430.292	595.12
430.514	525.12
430.736	490.12
430.958	475.12
431.18	462.12
431.402	461.12
431.624	463.12
431.846	442.12
432.068	445.12
432.29	454.12
432.512	447.12
432.734	442.12
432.956	470.12
433.178	475.12
433.4	469.12
433.622	462.12
433.844	455.12
434.066	455.12
434.287	444.12
434.509	464.12
434.731	461.12
434.953	460.12
435.175	483.12
435.397	503.12
435.618	529.12
435.84	574.12
436.062	669.12
436.284	755.12
436.505	603.12
436.727	560.12
436.949	525.12
437.17	491.12
437.392	487.12
437.614	494.12
437.835	564.12
438.057	675.12
438.278	749.12
438.5	746.12
438.721	784.12
438.943	774.12
439.165	639.12
439.386	567.12
439.608	567.12
439.829	556.12
440.05	588.12
440.272	642.12
440.493	610.12
440.715	548.12
440.936	510.12
441.158	483.12
441.379	493.12
441.6	489.12
441.822	524.12
442.043	585.12
442.264	656.12
442.486	701.12
442.707	596.12
442.928	571.12
443.149	566.12
443.371	584.12
443.592	638.12
443.813	743.12
444.034	762.12
444.255	619.12
444.476	558.12
444.698	518.12
444.919	531.12
445.14	622.12
445.361	566.12
445.582	569.12
445.803	640.12
446.024	772.12
446.245	772.12
446.466	712.12
446.687	591.12
446.908	553.12
447.129	503.12
447.35	515.12
447.571	483.12
447.792	482.12
448.013	503.12
448.234	522.12
448.455	585.12
448.675	686.12
448.896	800.12
449.117	683.12
449.338	644.12
449.559	763.12
449.779	813.12
450	670.12
450.221	558.12
450.442	526.12
450.662	504.12
450.883	501.12
451.104	525.12
451.324	531.12
451.545	466.12
451.766	462.12
451.986	460.12
452.207	421.12
452.428	440.12
452.648	436.12
452.869	455.12
453.089	451.12
453.31	457.12
453.53	455.12
453.751	446.12
453.971	459.12
454.192	470.12
454.412	498.12
454.633	455.12
454.853	448.12
455.073	430.12
455.294	464.12
455.514	546.12
455.734	547.12
455.955	463.12
456.175	427.12
456.395	422.12
456.616	401.12
456.836	393.12
457.056	410.12
457.276	407.12
457.497	400.12
457.717	422.12
457.937	421.12
458.157	420.12
458.377	449.12
458.598	449.12
458.818	541.12
459.038	669.12
459.258	649.12
459.478	521.12
459.698	487.12
459.918	453.12
460.138	440.12
460.358	426.12
460.578	447.12
460.798	436.12
461.018	434.12
461.238	442.12
461.458	427.12
461.678	454.12
461.898	433.12
462.118	427.12
462.338	443.12
462.558	420.12
462.777	440.12
462.997	445.12
463.217	442.12
463.437	454.12
463.657	464.12
463.876	448.12
464.096	453.12
464.316	462.12
464.536	448.12
464.755	462.12
464.975	484.12
465.195	573.12
465.414	640.12
465.634	571.12
465.854	517.12
466.073	468.12
466.293	457.12
466.512	442.12
466.732	451.12
466.951	459.12
467.171	435.12
467.391	439.12
467.61	463.12
467.829	435.12
468.049	448.12
468.268	481.12
468.488	479.12
468.707	416.12
468.927	426.12
469.146	414.12
469.365	428.12
469.585	426.12
469.804	456.12
470.023	453.12
470.243	454.12
470.462	448.12
470.681	467.12
470.901	493.12
471.12	471.12
471.339	451.12
471.558	466.12
471.777	462.12
471.997	438.12
472.216	446.12
472.435	504.12
472.654	499.12
472.873	445.12
473.092	469.12
473.311	442.12
473.53	450.12
473.749	445.12
473.968	506.12
474.187	638.12
474.406	651.12
474.625	537.12
474.844	475.12
475.063	460.12
475.282	459.12
475.501	472.12
475.72	443.12
475.939	447.12
476.158	471.12
476.377	448.12
476.596	447.12
476.814	495.12
477.033	471.12
477.252	500.12
477.471	456.12
477.69	471.12
477.908	457.12
478.127	494.12
478.346	473.12
478.564	491.12
478.783	484.12
479.002	512.12
479.22	515.12
479.439	531.12
479.658	524.12
479.876	547.12
480.095	535.12
480.313	565.12
480.532	546.12
480.751	557.12
480.969	579.12
481.188	640.12
481.406	718.12
481.624	578.12
481.843	566.12
482.061	567.12
482.28	533.12
482.498	536.12
482.717	545.12
482.935	510.12
483.153	541.12
483.372	534.12
483.59	531.12
483.808	521.12
484.027	546.12
484.245	538.12
484.463	540.12
484.681	545.12
484.9	564.12
485.118	545.12
485.336	558.12
485.554	538.12
485.772	523.12
485.99	537.12
486.209	533.12
486.427	573.12
486.645	569.12
486.863	613.12
487.081	576.12
487.299	574.12
487.517	562.12
487.735	547.12
487.953	581.12
488.171	581.12
488.389	571.12
488.607	568.12
488.825	583.12
489.043	581.12
489.261	601.12
489.479	581.12
489.696	598.12
489.914	594.12
490.132	584.12
490.35	596.12
490.568	616.12
490.786	639.12
491.003	634.12
491.221	643.12
491.439	628.12
491.657	666.12
491.874	661.12
492.092	675.12
492.31	683.12
492.527	661.12
492.745	682.12
492.963	668.12
493.18	700.12
493.398	675.12
493.615	702.12
493.833	682.12
494.05	706.12
494.268	716.12
494.485	672.12
494.703	690.12
494.92	680.12
495.138	724.12
495.355	708.12
495.573	667.12
495.79	696.12
496.008	713.12
496.225	682.12
496.442	684.12
496.66	696.12
496.877	704.12
497.094	678.12
497.312	674.12
497.529	693.12
497.746	702.12
497.963	718.12
498.181	730.12
498.398	722.12
498.615	745.12
498.832	729.12
499.049	742.12
499.267	740.12
499.484	761.12
499.701	784.12
499.918	787.12
500.135	816.12
500.352	799.12
500.569	835.12
500.786	838.12
501.003	847.12
501.22	821.12
501.437	791.12
501.654	836.12
501.871	818.12
