Data from 1980.PennyLincolnUp.Lamp.En5.5.200Scan.071819.P1_HRD10591_16-37-40-956.txt Node
Date: Thu Jul 18 16:37:40 EDT 2019
User: cochatt
Spectrometer: HR+D1059
Trigger mode: 1
Integration Time (sec): 1.000000E-1
Scans to average: 1
Electric dark correction enabled: true
Nonlinearity correction enabled: false
Boxcar width: 0
XAxis mode: Wavelengths
Number of Pixels in Spectrum: 2048
>>>>>Begin Spectral Data<<<<<
223.165	-8.38
223.4	-8.38
223.635	-8.38
223.869	-28.38
224.104	-11.38
224.338	2.62
224.573	-31.38
224.808	-23.38
225.042	-4.38
225.277	16.62
225.511	-5.38
225.746	-15.38
225.98	5.62
226.215	8.62
226.449	12.62
226.683	17.62
226.918	30.62
227.152	33.62
227.387	21.62
227.621	46.62
227.856	35.62
228.09	48.62
228.324	51.62
228.559	59.62
228.793	74.62
229.027	93.62
229.262	109.62
229.496	121.62
229.73	163.62
229.964	155.62
230.199	141.62
230.433	123.62
230.667	120.62
230.901	123.62
231.136	120.62
231.37	112.62
231.604	121.62
231.838	130.62
232.072	124.62
232.306	113.62
232.541	113.62
232.775	97.62
233.009	106.62
233.243	98.62
233.477	115.62
233.711	114.62
233.945	103.62
234.179	119.62
234.413	109.62
234.647	109.62
234.881	117.62
235.115	118.62
235.349	121.62
235.583	133.62
235.817	124.62
236.051	132.62
236.285	125.62
236.519	115.62
236.753	126.62
236.987	160.62
237.221	192.62
237.455	234.62
237.689	192.62
237.922	139.62
238.156	140.62
238.39	133.62
238.624	127.62
238.858	118.62
239.091	125.62
239.325	113.62
239.559	129.62
239.793	122.62
240.027	135.62
240.26	150.62
240.494	160.62
240.728	164.62
240.961	153.62
241.195	150.62
241.429	140.62
241.662	133.62
241.896	132.62
242.13	118.62
242.363	134.62
242.597	137.62
242.83	146.62
243.064	129.62
243.298	136.62
243.531	133.62
243.765	154.62
243.998	148.62
244.232	127.62
244.465	156.62
244.699	136.62
244.932	145.62
245.166	142.62
245.399	153.62
245.633	133.62
245.866	147.62
246.099	142.62
246.333	148.62
246.566	143.62
246.8	148.62
247.033	155.62
247.266	168.62
247.5	151.62
247.733	166.62
247.966	179.62
248.2	173.62
248.433	184.62
248.666	182.62
248.899	189.62
249.133	201.62
249.366	204.62
249.599	200.62
249.832	189.62
250.066	185.62
250.299	177.62
250.532	194.62
250.765	201.62
250.998	225.62
251.231	238.62
251.465	222.62
251.698	209.62
251.931	200.62
252.164	188.62
252.397	205.62
252.63	221.62
252.863	214.62
253.096	218.62
253.329	261.62
253.562	236.62
253.795	218.62
254.028	228.62
254.261	224.62
254.494	233.62
254.727	274.62
254.96	290.62
255.193	270.62
255.426	268.62
255.659	241.62
255.892	252.62
256.124	244.62
256.357	232.62
256.59	233.62
256.823	225.62
257.056	202.62
257.289	209.62
257.521	224.62
257.754	208.62
257.987	203.62
258.22	200.62
258.452	193.62
258.685	217.62
258.918	218.62
259.151	213.62
259.383	231.62
259.616	225.62
259.849	224.62
260.081	241.62
260.314	247.62
260.547	248.62
260.779	237.62
261.012	248.62
261.244	231.62
261.477	220.62
261.71	217.62
261.942	229.62
262.175	220.62
262.407	225.62
262.64	230.62
262.872	214.62
263.105	220.62
263.337	203.62
263.57	209.62
263.802	205.62
264.035	220.62
264.267	204.62
264.499	217.62
264.732	191.62
264.964	208.62
265.197	186.62
265.429	205.62
265.661	199.62
265.894	201.62
266.126	199.62
266.358	219.62
266.591	221.62
266.823	226.62
267.055	222.62
267.287	214.62
267.52	221.62
267.752	217.62
267.984	217.62
268.216	220.62
268.448	225.62
268.681	216.62
268.913	239.62
269.145	229.62
269.377	267.62
269.609	273.62
269.841	286.62
270.073	262.62
270.306	289.62
270.538	295.62
270.77	331.62
271.002	323.62
271.234	307.62
271.466	308.62
271.698	315.62
271.93	331.62
272.162	325.62
272.394	321.62
272.626	320.62
272.858	293.62
273.09	298.62
273.322	282.62
273.553	277.62
273.785	265.62
274.017	256.62
274.249	262.62
274.481	248.62
274.713	242.62
274.945	268.62
275.176	265.62
275.408	251.62
275.64	248.62
275.872	245.62
276.104	240.62
276.335	247.62
276.567	256.62
276.799	275.62
277.031	300.62
277.262	314.62
277.494	318.62
277.726	304.62
277.957	293.62
278.189	274.62
278.421	270.62
278.652	258.62
278.884	240.62
279.115	256.62
279.347	237.62
279.579	267.62
279.81	256.62
280.042	258.62
280.273	256.62
280.505	271.62
280.736	257.62
280.968	249.62
281.199	232.62
281.431	250.62
281.662	250.62
281.894	256.62
282.125	240.62
282.356	286.62
282.588	300.62
282.819	309.62
283.051	266.62
283.282	246.62
283.513	239.62
283.745	248.62
283.976	267.62
284.207	267.62
284.439	275.62
284.67	270.62
284.901	252.62
285.132	264.62
285.364	257.62
285.595	245.62
285.826	239.62
286.057	269.62
286.288	267.62
286.52	264.62
286.751	260.62
286.982	262.62
287.213	270.62
287.444	258.62
287.675	255.62
287.906	286.62
288.138	272.62
288.369	284.62
288.6	291.62
288.831	282.62
289.062	278.62
289.293	265.62
289.524	270.62
289.755	285.62
289.986	262.62
290.217	270.62
290.448	265.62
290.679	265.62
290.91	256.62
291.141	271.62
291.371	277.62
291.602	267.62
291.833	250.62
292.064	268.62
292.295	271.62
292.526	248.62
292.757	241.62
292.987	248.62
293.218	261.62
293.449	288.62
293.68	268.62
293.91	262.62
294.141	264.62
294.372	279.62
294.603	256.62
294.833	256.62
295.064	275.62
295.295	274.62
295.525	271.62
295.756	307.62
295.987	274.62
296.217	309.62
296.448	317.62
296.679	283.62
296.909	264.62
297.14	263.62
297.37	268.62
297.601	256.62
297.831	278.62
298.062	268.62
298.292	270.62
298.523	289.62
298.753	274.62
298.984	276.62
299.214	274.62
299.445	304.62
299.675	277.62
299.905	277.62
300.136	291.62
300.366	278.62
300.597	297.62
300.827	284.62
301.057	315.62
301.288	306.62
301.518	305.62
301.748	307.62
301.979	310.62
302.209	297.62
302.439	315.62
302.669	296.62
302.9	288.62
303.13	284.62
303.36	301.62
303.59	304.62
303.82	310.62
304.051	321.62
304.281	322.62
304.511	309.62
304.741	301.62
304.971	309.62
305.201	278.62
305.431	290.62
305.661	302.62
305.891	284.62
306.121	304.62
306.352	308.62
306.582	303.62
306.812	313.62
307.042	291.62
307.272	318.62
307.502	304.62
307.731	311.62
307.961	303.62
308.191	297.62
308.421	321.62
308.651	284.62
308.881	317.62
309.111	297.62
309.341	328.62
309.571	320.62
309.8	357.62
310.03	344.62
310.26	360.62
310.49	348.62
310.72	349.62
310.949	377.62
311.179	378.62
311.409	378.62
311.639	364.62
311.868	360.62
312.098	366.62
312.328	375.62
312.557	371.62
312.787	405.62
313.017	399.62
313.246	367.62
313.476	356.62
313.706	376.62
313.935	371.62
314.165	372.62
314.394	386.62
314.624	377.62
314.853	368.62
315.083	361.62
315.312	364.62
315.542	339.62
315.771	329.62
316.001	325.62
316.23	337.62
316.46	333.62
316.689	356.62
316.919	350.62
317.148	364.62
317.377	394.62
317.607	349.62
317.836	366.62
318.065	368.62
318.295	363.62
318.524	342.62
318.753	353.62
318.983	365.62
319.212	350.62
319.441	380.62
319.67	376.62
319.9	348.62
320.129	369.62
320.358	370.62
320.587	361.62
320.816	389.62
321.046	377.62
321.275	377.62
321.504	399.62
321.733	368.62
321.962	390.62
322.191	429.62
322.42	410.62
322.649	430.62
322.878	448.62
323.108	450.62
323.337	486.62
323.566	519.62
323.795	596.62
324.024	604.62
324.253	768.62
324.482	1062.62
324.71	1648.62
324.939	2333.62
325.168	2116.62
325.397	1084.62
325.626	726.62
325.855	586.62
326.084	526.62
326.313	500.62
326.542	524.62
326.77	585.62
326.999	690.62
327.228	960.62
327.457	1457.62
327.686	1801.62
327.914	1243.62
328.143	804.62
328.372	682.62
328.6	628.62
328.829	592.62
329.058	609.62
329.287	627.62
329.515	568.62
329.744	526.62
329.972	512.62
330.201	528.62
330.43	584.62
330.658	620.62
330.887	645.62
331.115	648.62
331.344	529.62
331.572	476.62
331.801	492.62
332.03	463.62
332.258	460.62
332.486	429.62
332.715	434.62
332.943	418.62
333.172	422.62
333.4	398.62
333.629	443.62
333.857	454.62
334.085	452.62
334.314	488.62
334.542	522.62
334.771	541.62
334.999	462.62
335.227	430.62
335.455	416.62
335.684	424.62
335.912	410.62
336.14	404.62
336.369	406.62
336.597	419.62
336.825	425.62
337.053	408.62
337.281	403.62
337.51	402.62
337.738	406.62
337.966	384.62
338.194	412.62
338.422	402.62
338.65	392.62
338.878	385.62
339.106	398.62
339.334	390.62
339.562	380.62
339.79	405.62
340.018	413.62
340.246	403.62
340.474	393.62
340.702	395.62
340.93	385.62
341.158	393.62
341.386	388.62
341.614	406.62
341.842	402.62
342.07	384.62
342.298	408.62
342.526	365.62
342.754	371.62
342.981	362.62
343.209	374.62
343.437	376.62
343.665	407.62
343.893	380.62
344.12	394.62
344.348	386.62
344.576	410.62
344.804	416.62
345.031	429.62
345.259	403.62
345.487	421.62
345.714	412.62
345.942	398.62
346.17	372.62
346.397	380.62
346.625	385.62
346.853	378.62
347.08	389.62
347.308	384.62
347.535	401.62
347.763	406.62
347.99	409.62
348.218	398.62
348.445	401.62
348.673	396.62
348.9	381.62
349.128	372.62
349.355	340.62
349.583	359.62
349.81	354.62
350.037	375.62
350.265	391.62
350.492	384.62
350.72	376.62
350.947	381.62
351.174	404.62
351.402	402.62
351.629	417.62
351.856	414.62
352.083	410.62
352.311	407.62
352.538	421.62
352.765	411.62
352.992	406.62
353.22	405.62
353.447	394.62
353.674	379.62
353.901	385.62
354.128	353.62
354.355	362.62
354.583	356.62
354.81	364.62
355.037	372.62
355.264	337.62
355.491	354.62
355.718	341.62
355.945	352.62
356.172	360.62
356.399	344.62
356.626	331.62
356.853	344.62
357.08	372.62
357.307	355.62
357.534	354.62
357.761	357.62
357.988	347.62
358.215	348.62
358.441	372.62
358.668	360.62
358.895	370.62
359.122	394.62
359.349	376.62
359.576	387.62
359.802	416.62
360.029	467.62
360.256	454.62
360.483	436.62
360.709	405.62
360.936	392.62
361.163	372.62
361.39	405.62
361.616	379.62
361.843	372.62
362.07	390.62
362.296	394.62
362.523	401.62
362.749	392.62
362.976	384.62
363.203	380.62
363.429	382.62
363.656	376.62
363.882	389.62
364.109	375.62
364.335	368.62
364.562	364.62
364.788	355.62
365.015	353.62
365.241	365.62
365.468	352.62
365.694	362.62
365.92	354.62
366.147	372.62
366.373	360.62
366.599	360.62
366.826	369.62
367.052	356.62
367.278	369.62
367.505	364.62
367.731	357.62
367.957	356.62
368.184	363.62
368.41	389.62
368.636	370.62
368.862	374.62
369.089	353.62
369.315	372.62
369.541	368.62
369.767	355.62
369.993	360.62
370.219	348.62
370.445	361.62
370.672	344.62
370.898	375.62
371.124	359.62
371.35	358.62
371.576	374.62
371.802	358.62
372.028	361.62
372.254	344.62
372.48	353.62
372.706	338.62
372.932	339.62
373.158	349.62
373.384	373.62
373.61	355.62
373.835	375.62
374.061	335.62
374.287	362.62
374.513	350.62
374.739	366.62
374.965	376.62
375.191	344.62
375.416	356.62
375.642	354.62
375.868	349.62
376.094	370.62
376.319	361.62
376.545	360.62
376.771	349.62
376.997	343.62
377.222	351.62
377.448	362.62
377.674	345.62
377.899	355.62
378.125	357.62
378.35	362.62
378.576	336.62
378.802	349.62
379.027	351.62
379.253	351.62
379.478	326.62
379.704	366.62
379.929	324.62
380.155	362.62
380.38	365.62
380.606	358.62
380.831	339.62
381.057	352.62
381.282	325.62
381.507	348.62
381.733	338.62
381.958	366.62
382.184	346.62
382.409	352.62
382.634	360.62
382.86	344.62
383.085	358.62
383.31	352.62
383.535	352.62
383.761	368.62
383.986	376.62
384.211	361.62
384.436	361.62
384.662	373.62
384.887	384.62
385.112	373.62
385.337	364.62
385.562	361.62
385.787	373.62
386.013	379.62
386.238	384.62
386.463	374.62
386.688	372.62
386.913	371.62
387.138	379.62
387.363	394.62
387.588	376.62
387.813	373.62
388.038	374.62
388.263	382.62
388.488	386.62
388.713	389.62
388.938	386.62
389.163	370.62
389.387	375.62
389.612	374.62
389.837	390.62
390.062	367.62
390.287	390.62
390.512	376.62
390.736	372.62
390.961	390.62
391.186	371.62
391.411	377.62
391.636	368.62
391.86	382.62
392.085	373.62
392.31	368.62
392.534	365.62
392.759	368.62
392.984	365.62
393.208	376.62
393.433	368.62
393.658	361.62
393.882	361.62
394.107	378.62
394.331	353.62
394.556	372.62
394.78	362.62
395.005	368.62
395.229	368.62
395.454	376.62
395.678	383.62
395.903	401.62
396.127	426.62
396.352	410.62
396.576	389.62
396.801	374.62
397.025	377.62
397.249	395.62
397.474	392.62
397.698	387.62
397.922	387.62
398.147	406.62
398.371	430.62
398.595	416.62
398.82	408.62
399.044	420.62
399.268	419.62
399.492	439.62
399.717	462.62
399.941	466.62
400.165	518.62
400.389	528.62
400.613	480.62
400.837	446.62
401.062	436.62
401.286	432.62
401.51	438.62
401.734	427.62
401.958	441.62
402.182	433.62
402.406	444.62
402.63	429.62
402.854	438.62
403.078	418.62
403.302	450.62
403.526	442.62
403.75	456.62
403.974	439.62
404.198	461.62
404.422	462.62
404.645	472.62
404.869	465.62
405.093	483.62
405.317	530.62
405.541	557.62
405.765	514.62
405.988	463.62
406.212	492.62
406.436	515.62
406.66	525.62
406.883	499.62
407.107	512.62
407.331	534.62
407.555	613.62
407.778	611.62
408.002	545.62
408.226	505.62
408.449	494.62
408.673	485.62
408.896	527.62
409.12	564.62
409.344	529.62
409.567	457.62
409.791	463.62
410.014	437.62
410.238	429.62
410.461	443.62
410.685	452.62
410.908	468.62
411.132	498.62
411.355	530.62
411.578	517.62
411.802	450.62
412.025	434.62
412.249	474.62
412.472	461.62
412.695	522.62
412.919	513.62
413.142	457.62
413.365	448.62
413.589	436.62
413.812	421.62
414.035	425.62
414.258	414.62
414.482	419.62
414.705	435.62
414.928	407.62
415.151	410.62
415.374	419.62
415.597	410.62
415.821	410.62
416.044	415.62
416.267	434.62
416.49	428.62
416.713	400.62
416.936	396.62
417.159	411.62
417.382	448.62
417.605	434.62
417.828	453.62
418.051	439.62
418.274	459.62
418.497	433.62
418.72	425.62
418.943	423.62
419.166	454.62
419.389	448.62
419.611	459.62
419.834	437.62
420.057	451.62
420.28	443.62
420.503	449.62
420.726	436.62
420.948	462.62
421.171	494.62
421.394	555.62
421.617	490.62
421.839	468.62
422.062	462.62
422.285	480.62
422.507	536.62
422.73	600.62
422.953	561.62
423.175	503.62
423.398	477.62
423.621	455.62
423.843	499.62
424.066	495.62
424.288	483.62
424.511	512.62
424.733	546.62
424.956	642.62
425.178	609.62
425.401	610.62
425.623	633.62
425.846	562.62
426.068	502.62
426.291	503.62
426.513	503.62
426.735	512.62
426.958	554.62
427.18	647.62
427.402	764.62
427.625	850.62
427.847	767.62
428.069	654.62
428.292	562.62
428.514	512.62
428.736	487.62
428.958	484.62
429.181	452.62
429.403	462.62
429.625	466.62
429.847	491.62
430.069	572.62
430.292	570.62
430.514	475.62
430.736	449.62
430.958	482.62
431.18	465.62
431.402	435.62
431.624	428.62
431.846	426.62
432.068	420.62
432.29	416.62
432.512	430.62
432.734	449.62
432.956	441.62
433.178	434.62
433.4	454.62
433.622	445.62
433.844	436.62
434.066	431.62
434.287	418.62
434.509	421.62
434.731	443.62
434.953	454.62
435.175	466.62
435.397	476.62
435.618	511.62
435.84	554.62
436.062	633.62
436.284	709.62
436.505	587.62
436.727	526.62
436.949	482.62
437.17	454.62
437.392	473.62
437.614	470.62
437.835	540.62
438.057	627.62
438.278	712.62
438.5	688.62
438.721	768.62
438.943	746.62
439.165	597.62
439.386	568.62
439.608	534.62
439.829	528.62
440.05	560.62
440.272	605.62
440.493	584.62
440.715	526.62
440.936	492.62
441.158	500.62
441.379	471.62
441.6	499.62
441.822	507.62
442.043	554.62
442.264	612.62
442.486	655.62
442.707	550.62
442.928	544.62
443.149	506.62
443.371	549.62
443.592	600.62
443.813	654.62
444.034	726.62
444.255	600.62
444.476	527.62
444.698	517.62
444.919	491.62
445.14	613.62
445.361	577.62
445.582	550.62
445.803	613.62
446.024	712.62
446.245	741.62
446.466	664.62
446.687	580.62
446.908	536.62
447.129	483.62
447.35	491.62
447.571	462.62
447.792	474.62
448.013	473.62
448.234	510.62
448.455	563.62
448.675	670.62
448.896	754.62
449.117	653.62
449.338	643.62
449.559	717.62
449.779	801.62
450	654.62
450.221	539.62
450.442	509.62
450.662	473.62
450.883	485.62
451.104	500.62
451.324	489.62
451.545	473.62
451.766	450.62
451.986	413.62
452.207	416.62
452.428	406.62
452.648	421.62
452.869	423.62
453.089	436.62
453.31	424.62
453.53	423.62
453.751	422.62
453.971	436.62
454.192	442.62
454.412	428.62
454.633	420.62
454.853	411.62
455.073	392.62
455.294	444.62
455.514	535.62
455.734	504.62
455.955	434.62
456.175	417.62
456.395	392.62
456.616	379.62
456.836	384.62
457.056	384.62
457.276	371.62
457.497	398.62
457.717	380.62
457.937	402.62
458.157	410.62
458.377	398.62
458.598	432.62
458.818	497.62
459.038	607.62
459.258	594.62
459.478	531.62
459.698	436.62
459.918	417.62
460.138	422.62
460.358	407.62
460.578	438.62
460.798	402.62
461.018	404.62
461.238	433.62
461.458	421.62
461.678	412.62
461.898	406.62
462.118	409.62
462.338	420.62
462.558	427.62
462.777	425.62
462.997	429.62
463.217	422.62
463.437	456.62
463.657	431.62
463.876	417.62
464.096	446.62
464.316	440.62
464.536	443.62
464.755	466.62
464.975	455.62
465.195	516.62
465.414	612.62
465.634	555.62
465.854	471.62
466.073	452.62
466.293	435.62
466.512	426.62
466.732	409.62
466.951	404.62
467.171	403.62
467.391	415.62
467.61	446.62
467.829	426.62
468.049	433.62
468.268	442.62
468.488	415.62
468.707	402.62
468.927	427.62
469.146	410.62
469.365	404.62
469.585	408.62
469.804	405.62
470.023	440.62
470.243	442.62
470.462	443.62
470.681	453.62
470.901	451.62
471.12	421.62
471.339	410.62
471.558	427.62
471.777	431.62
471.997	418.62
472.216	420.62
472.435	476.62
472.654	476.62
472.873	429.62
473.092	414.62
473.311	429.62
473.53	428.62
473.749	457.62
473.968	482.62
474.187	587.62
474.406	649.62
474.625	500.62
474.844	449.62
475.063	448.62
475.282	419.62
475.501	434.62
475.72	450.62
475.939	426.62
476.158	443.62
476.377	462.62
476.596	422.62
476.814	450.62
477.033	444.62
477.252	446.62
477.471	447.62
477.69	452.62
477.908	463.62
478.127	485.62
478.346	445.62
478.564	451.62
478.783	473.62
479.002	473.62
479.22	485.62
479.439	508.62
479.658	532.62
479.876	520.62
480.095	520.62
480.313	555.62
480.532	538.62
480.751	522.62
480.969	531.62
481.188	594.62
481.406	631.62
481.624	580.62
481.843	528.62
482.061	465.62
482.28	492.62
482.498	502.62
482.717	517.62
482.935	514.62
483.153	496.62
483.372	522.62
483.59	514.62
483.808	506.62
484.027	513.62
484.245	516.62
484.463	505.62
484.681	519.62
484.9	527.62
485.118	522.62
485.336	511.62
485.554	532.62
485.772	522.62
485.99	523.62
486.209	530.62
486.427	516.62
486.645	522.62
486.863	564.62
487.081	540.62
487.299	545.62
487.517	549.62
487.735	558.62
487.953	552.62
488.171	535.62
488.389	554.62
488.607	545.62
488.825	542.62
489.043	542.62
489.261	557.62
489.479	553.62
489.696	548.62
489.914	554.62
490.132	580.62
490.35	573.62
490.568	581.62
490.786	584.62
491.003	612.62
491.221	613.62
491.439	615.62
491.657	629.62
491.874	664.62
492.092	651.62
492.31	652.62
492.527	634.62
492.745	626.62
492.963	658.62
493.18	650.62
493.398	663.62
493.615	654.62
493.833	686.62
494.05	661.62
494.268	666.62
494.485	660.62
494.703	669.62
494.92	654.62
495.138	663.62
495.355	667.62
495.573	661.62
495.79	649.62
496.008	672.62
496.225	653.62
496.442	665.62
496.66	641.62
496.877	672.62
497.094	636.62
497.312	660.62
497.529	679.62
497.746	646.62
497.963	689.62
498.181	690.62
498.398	683.62
498.615	712.62
498.832	694.62
499.049	700.62
499.267	712.62
499.484	726.62
499.701	744.62
499.918	744.62
500.135	758.62
500.352	792.62
500.569	788.62
500.786	804.62
501.003	796.62
501.22	794.62
501.437	788.62
501.654	780.62
501.871	782.62
502.088	789.62
