Data from 1980.PennyLincolnUp.Lamp.En5.5.200Scan.071819.P1_HRD10591_16-38-46-958.txt Node
Date: Thu Jul 18 16:38:46 EDT 2019
User: cochatt
Spectrometer: HR+D1059
Trigger mode: 1
Integration Time (sec): 1.000000E-1
Scans to average: 1
Electric dark correction enabled: true
Nonlinearity correction enabled: false
Boxcar width: 0
XAxis mode: Wavelengths
Number of Pixels in Spectrum: 2048
>>>>>Begin Spectral Data<<<<<
223.165	3.06
223.4	3.06
223.635	3.06
223.869	-14.94
224.104	-17.94
224.338	-19.94
224.573	-3.94
224.808	-11.94
225.042	-10.94
225.277	-12.94
225.511	1.06
225.746	-0.94
225.98	-13.94
226.215	9.06
226.449	17.06
226.683	19.06
226.918	27.06
227.152	31.06
227.387	29.06
227.621	14.06
227.856	38.06
228.09	34.06
228.324	35.06
228.559	47.06
228.793	65.06
229.027	94.06
229.262	105.06
229.496	123.06
229.73	131.06
229.964	166.06
230.199	137.06
230.433	117.06
230.667	118.06
230.901	122.06
231.136	114.06
231.37	112.06
231.604	110.06
231.838	102.06
232.072	101.06
232.306	110.06
232.541	123.06
232.775	125.06
233.009	103.06
233.243	109.06
233.477	121.06
233.711	123.06
233.945	115.06
234.179	89.06
234.413	111.06
234.647	107.06
234.881	120.06
235.115	119.06
235.349	125.06
235.583	134.06
235.817	129.06
236.051	144.06
236.285	115.06
236.519	120.06
236.753	129.06
236.987	136.06
237.221	181.06
237.455	255.06
237.689	195.06
237.922	144.06
238.156	128.06
238.39	124.06
238.624	119.06
238.858	129.06
239.091	131.06
239.325	126.06
239.559	137.06
239.793	131.06
240.027	137.06
240.26	148.06
240.494	160.06
240.728	153.06
240.961	150.06
241.195	143.06
241.429	166.06
241.662	147.06
241.896	132.06
242.13	133.06
242.363	124.06
242.597	133.06
242.83	144.06
243.064	141.06
243.298	131.06
243.531	127.06
243.765	140.06
243.998	145.06
244.232	133.06
244.465	131.06
244.699	155.06
244.932	148.06
245.166	151.06
245.399	139.06
245.633	135.06
245.866	153.06
246.099	158.06
246.333	144.06
246.566	153.06
246.8	154.06
247.033	165.06
247.266	169.06
247.5	160.06
247.733	163.06
247.966	173.06
248.2	173.06
248.433	174.06
248.666	179.06
248.899	191.06
249.133	210.06
249.366	215.06
249.599	214.06
249.832	190.06
250.066	193.06
250.299	171.06
250.532	195.06
250.765	196.06
250.998	230.06
251.231	242.06
251.465	218.06
251.698	210.06
251.931	195.06
252.164	197.06
252.397	195.06
252.63	196.06
252.863	219.06
253.096	222.06
253.329	244.06
253.562	237.06
253.795	245.06
254.028	230.06
254.261	222.06
254.494	238.06
254.727	279.06
254.96	297.06
255.193	283.06
255.426	258.06
255.659	256.06
255.892	238.06
256.124	245.06
256.357	247.06
256.59	234.06
256.823	216.06
257.056	213.06
257.289	198.06
257.521	214.06
257.754	207.06
257.987	213.06
258.22	220.06
258.452	206.06
258.685	225.06
258.918	212.06
259.151	218.06
259.383	235.06
259.616	210.06
259.849	226.06
260.081	237.06
260.314	253.06
260.547	258.06
260.779	257.06
261.012	266.06
261.244	231.06
261.477	226.06
261.71	221.06
261.942	240.06
262.175	285.06
262.407	253.06
262.64	221.06
262.872	230.06
263.105	219.06
263.337	217.06
263.57	209.06
263.802	216.06
264.035	207.06
264.267	208.06
264.499	205.06
264.732	222.06
264.964	212.06
265.197	201.06
265.429	202.06
265.661	222.06
265.894	205.06
266.126	207.06
266.358	218.06
266.591	209.06
266.823	221.06
267.055	216.06
267.287	221.06
267.52	232.06
267.752	229.06
267.984	203.06
268.216	227.06
268.448	227.06
268.681	242.06
268.913	237.06
269.145	253.06
269.377	286.06
269.609	281.06
269.841	277.06
270.073	280.06
270.306	308.06
270.538	343.06
270.77	326.06
271.002	326.06
271.234	307.06
271.466	323.06
271.698	337.06
271.93	327.06
272.162	335.06
272.394	338.06
272.626	321.06
272.858	297.06
273.09	296.06
273.322	293.06
273.553	272.06
273.785	275.06
274.017	266.06
274.249	257.06
274.481	265.06
274.713	249.06
274.945	265.06
275.176	271.06
275.408	279.06
275.64	266.06
275.872	270.06
276.104	281.06
276.335	289.06
276.567	263.06
276.799	298.06
277.031	302.06
277.262	329.06
277.494	324.06
277.726	309.06
277.957	304.06
278.189	309.06
278.421	276.06
278.652	277.06
278.884	274.06
279.115	263.06
279.347	270.06
279.579	250.06
279.81	271.06
280.042	273.06
280.273	271.06
280.505	248.06
280.736	262.06
280.968	247.06
281.199	260.06
281.431	274.06
281.662	253.06
281.894	248.06
282.125	242.06
282.356	293.06
282.588	304.06
282.819	336.06
283.051	266.06
283.282	268.06
283.513	259.06
283.745	257.06
283.976	275.06
284.207	281.06
284.439	269.06
284.67	268.06
284.901	265.06
285.132	279.06
285.364	255.06
285.595	270.06
285.826	274.06
286.057	265.06
286.288	288.06
286.52	285.06
286.751	266.06
286.982	254.06
287.213	263.06
287.444	269.06
287.675	274.06
287.906	266.06
288.138	299.06
288.369	305.06
288.6	298.06
288.831	290.06
289.062	289.06
289.293	271.06
289.524	289.06
289.755	280.06
289.986	268.06
290.217	271.06
290.448	280.06
290.679	271.06
290.91	281.06
291.141	283.06
291.371	274.06
291.602	259.06
291.833	264.06
292.064	271.06
292.295	282.06
292.526	268.06
292.757	272.06
292.987	275.06
293.218	276.06
293.449	273.06
293.68	266.06
293.91	292.06
294.141	279.06
294.372	268.06
294.603	270.06
294.833	266.06
295.064	299.06
295.295	289.06
295.525	263.06
295.756	294.06
295.987	297.06
296.217	316.06
296.448	324.06
296.679	304.06
296.909	284.06
297.14	285.06
297.37	296.06
297.601	284.06
297.831	273.06
298.062	285.06
298.292	275.06
298.523	269.06
298.753	276.06
298.984	304.06
299.214	292.06
299.445	253.06
299.675	272.06
299.905	297.06
300.136	292.06
300.366	291.06
300.597	283.06
300.827	273.06
301.057	293.06
301.288	316.06
301.518	298.06
301.748	306.06
301.979	304.06
302.209	304.06
302.439	313.06
302.669	306.06
302.9	299.06
303.13	318.06
303.36	311.06
303.59	312.06
303.82	334.06
304.051	330.06
304.281	297.06
304.511	293.06
304.741	318.06
304.971	315.06
305.201	320.06
305.431	314.06
305.661	301.06
305.891	305.06
306.121	305.06
306.352	312.06
306.582	320.06
306.812	316.06
307.042	320.06
307.272	320.06
307.502	321.06
307.731	321.06
307.961	307.06
308.191	307.06
308.421	302.06
308.651	325.06
308.881	335.06
309.111	326.06
309.341	347.06
309.571	333.06
309.8	354.06
310.03	362.06
310.26	361.06
310.49	389.06
310.72	390.06
310.949	411.06
311.179	406.06
311.409	380.06
311.639	378.06
311.868	346.06
312.098	377.06
312.328	391.06
312.557	399.06
312.787	430.06
313.017	405.06
313.246	385.06
313.476	369.06
313.706	361.06
313.935	385.06
314.165	396.06
314.394	384.06
314.624	394.06
314.853	373.06
315.083	375.06
315.312	355.06
315.542	367.06
315.771	343.06
316.001	369.06
316.23	378.06
316.46	345.06
316.689	365.06
316.919	369.06
317.148	376.06
317.377	371.06
317.607	366.06
317.836	367.06
318.065	368.06
318.295	362.06
318.524	385.06
318.753	379.06
318.983	361.06
319.212	359.06
319.441	358.06
319.67	389.06
319.9	375.06
320.129	390.06
320.358	367.06
320.587	376.06
320.816	367.06
321.046	384.06
321.275	411.06
321.504	376.06
321.733	419.06
321.962	411.06
322.191	436.06
322.42	440.06
322.649	461.06
322.878	491.06
323.108	486.06
323.337	506.06
323.566	541.06
323.795	582.06
324.024	647.06
324.253	802.06
324.482	1176.06
324.71	1804.06
324.939	2633.06
325.168	2274.06
325.397	1187.06
325.626	769.06
325.855	616.06
326.084	566.06
326.313	551.06
326.542	553.06
326.77	606.06
326.999	745.06
327.228	1007.06
327.457	1595.06
327.686	1968.06
327.914	1361.06
328.143	856.06
328.372	732.06
328.6	693.06
328.829	650.06
329.058	674.06
329.287	653.06
329.515	595.06
329.744	535.06
329.972	536.06
330.201	578.06
330.43	644.06
330.658	680.06
330.887	667.06
331.115	660.06
331.344	547.06
331.572	513.06
331.801	517.06
332.03	519.06
332.258	465.06
332.486	449.06
332.715	433.06
332.943	455.06
333.172	436.06
333.4	441.06
333.629	458.06
333.857	455.06
334.085	454.06
334.314	493.06
334.542	541.06
334.771	554.06
334.999	511.06
335.227	469.06
335.455	434.06
335.684	449.06
335.912	435.06
336.14	416.06
336.369	397.06
336.597	441.06
336.825	424.06
337.053	415.06
337.281	417.06
337.51	422.06
337.738	415.06
337.966	421.06
338.194	426.06
338.422	426.06
338.65	423.06
338.878	418.06
339.106	406.06
339.334	411.06
339.562	407.06
339.79	399.06
340.018	403.06
340.246	404.06
340.474	412.06
340.702	429.06
340.93	398.06
341.158	411.06
341.386	391.06
341.614	399.06
341.842	409.06
342.07	388.06
342.298	398.06
342.526	411.06
342.754	377.06
342.981	383.06
343.209	393.06
343.437	405.06
343.665	397.06
343.893	383.06
344.12	391.06
344.348	396.06
344.576	406.06
344.804	418.06
345.031	445.06
345.259	435.06
345.487	433.06
345.714	410.06
345.942	406.06
346.17	398.06
346.397	379.06
346.625	405.06
346.853	387.06
347.08	415.06
347.308	410.06
347.535	418.06
347.763	423.06
347.99	413.06
348.218	424.06
348.445	444.06
348.673	421.06
348.9	405.06
349.128	391.06
349.355	386.06
349.583	369.06
349.81	384.06
350.037	376.06
350.265	382.06
350.492	379.06
350.72	393.06
350.947	382.06
351.174	393.06
351.402	424.06
351.629	417.06
351.856	396.06
352.083	421.06
352.311	423.06
352.538	431.06
352.765	427.06
352.992	406.06
353.22	408.06
353.447	403.06
353.674	399.06
353.901	382.06
354.128	369.06
354.355	377.06
354.583	376.06
354.81	355.06
355.037	367.06
355.264	355.06
355.491	349.06
355.718	363.06
355.945	352.06
356.172	352.06
356.399	355.06
356.626	342.06
356.853	375.06
357.08	347.06
357.307	348.06
357.534	370.06
357.761	353.06
357.988	373.06
358.215	373.06
358.441	376.06
358.668	365.06
358.895	368.06
359.122	359.06
359.349	391.06
359.576	403.06
359.802	415.06
360.029	468.06
360.256	473.06
360.483	462.06
360.709	411.06
360.936	393.06
361.163	393.06
361.39	422.06
361.616	415.06
361.843	401.06
362.07	418.06
362.296	414.06
362.523	407.06
362.749	399.06
362.976	381.06
363.203	389.06
363.429	368.06
363.656	377.06
363.882	374.06
364.109	387.06
364.335	365.06
364.562	363.06
364.788	357.06
365.015	362.06
365.241	400.06
365.468	392.06
365.694	398.06
365.92	380.06
366.147	373.06
366.373	371.06
366.599	390.06
366.826	365.06
367.052	369.06
367.278	357.06
367.505	368.06
367.731	381.06
367.957	370.06
368.184	366.06
368.41	373.06
368.636	386.06
368.862	389.06
369.089	375.06
369.315	355.06
369.541	385.06
369.767	381.06
369.993	376.06
370.219	361.06
370.445	358.06
370.672	367.06
370.898	354.06
371.124	360.06
371.35	352.06
371.576	347.06
371.802	365.06
372.028	386.06
372.254	372.06
372.48	357.06
372.706	355.06
372.932	361.06
373.158	334.06
373.384	365.06
373.61	375.06
373.835	364.06
374.061	357.06
374.287	368.06
374.513	374.06
374.739	365.06
374.965	368.06
375.191	382.06
375.416	363.06
375.642	355.06
375.868	367.06
376.094	367.06
376.319	366.06
376.545	361.06
376.771	344.06
376.997	372.06
377.222	355.06
377.448	359.06
377.674	371.06
377.899	339.06
378.125	376.06
378.35	353.06
378.576	358.06
378.802	357.06
379.027	352.06
379.253	362.06
379.478	339.06
379.704	344.06
379.929	354.06
380.155	355.06
380.38	353.06
380.606	355.06
380.831	350.06
381.057	371.06
381.282	372.06
381.507	368.06
381.733	387.06
381.958	345.06
382.184	350.06
382.409	348.06
382.634	367.06
382.86	367.06
383.085	352.06
383.31	371.06
383.535	377.06
383.761	387.06
383.986	376.06
384.211	371.06
384.436	386.06
384.662	380.06
384.887	381.06
385.112	390.06
385.337	359.06
385.562	378.06
385.787	368.06
386.013	380.06
386.238	390.06
386.463	393.06
386.688	376.06
386.913	389.06
387.138	376.06
387.363	371.06
387.588	386.06
387.813	395.06
388.038	375.06
388.263	384.06
388.488	369.06
388.713	386.06
388.938	374.06
389.163	383.06
389.387	403.06
389.612	382.06
389.837	377.06
390.062	373.06
390.287	388.06
390.512	369.06
390.736	369.06
390.961	387.06
391.186	385.06
391.411	372.06
391.636	381.06
391.86	388.06
392.085	384.06
392.31	385.06
392.534	375.06
392.759	388.06
392.984	374.06
393.208	363.06
393.433	369.06
393.658	371.06
393.882	378.06
394.107	382.06
394.331	377.06
394.556	388.06
394.78	377.06
395.005	395.06
395.229	373.06
395.454	389.06
395.678	405.06
395.903	403.06
396.127	429.06
396.352	419.06
396.576	417.06
396.801	386.06
397.025	387.06
397.249	393.06
397.474	395.06
397.698	397.06
397.922	433.06
398.147	411.06
398.371	448.06
398.595	436.06
398.82	420.06
399.044	432.06
399.268	453.06
399.492	450.06
399.717	466.06
399.941	492.06
400.165	501.06
400.389	519.06
400.613	499.06
400.837	466.06
401.062	460.06
401.286	438.06
401.51	431.06
401.734	445.06
401.958	449.06
402.182	435.06
402.406	465.06
402.63	451.06
402.854	424.06
403.078	449.06
403.302	437.06
403.526	459.06
403.75	474.06
403.974	430.06
404.198	412.06
404.422	432.06
404.645	448.06
404.869	474.06
405.093	493.06
405.317	537.06
405.541	561.06
405.765	510.06
405.988	481.06
406.212	491.06
406.436	528.06
406.66	531.06
406.883	518.06
407.107	524.06
407.331	557.06
407.555	640.06
407.778	607.06
408.002	563.06
408.226	518.06
408.449	511.06
408.673	521.06
408.896	518.06
409.12	578.06
409.344	548.06
409.567	495.06
409.791	472.06
410.014	446.06
410.238	454.06
410.461	439.06
410.685	457.06
410.908	473.06
411.132	531.06
411.355	579.06
411.578	539.06
411.802	472.06
412.025	463.06
412.249	467.06
412.472	481.06
412.695	527.06
412.919	519.06
413.142	474.06
413.365	460.06
413.589	465.06
413.812	418.06
414.035	429.06
414.258	403.06
414.482	422.06
414.705	408.06
414.928	437.06
415.151	425.06
415.374	423.06
415.597	426.06
415.821	432.06
416.044	431.06
416.267	441.06
416.49	430.06
416.713	424.06
416.936	427.06
417.159	434.06
417.382	440.06
417.605	450.06
417.828	456.06
418.051	466.06
418.274	450.06
418.497	440.06
418.72	440.06
418.943	425.06
419.166	448.06
419.389	482.06
419.611	455.06
419.834	443.06
420.057	453.06
420.28	453.06
420.503	434.06
420.726	466.06
420.948	470.06
421.171	514.06
421.394	534.06
421.617	507.06
421.839	476.06
422.062	462.06
422.285	497.06
422.507	545.06
422.73	607.06
422.953	601.06
423.175	522.06
423.398	501.06
423.621	505.06
423.843	512.06
424.066	498.06
424.288	501.06
424.511	557.06
424.733	580.06
424.956	695.06
425.178	663.06
425.401	647.06
425.623	661.06
425.846	566.06
426.068	551.06
426.291	538.06
426.513	532.06
426.735	544.06
426.958	615.06
427.18	645.06
427.402	773.06
427.625	871.06
427.847	805.06
428.069	699.06
428.292	606.06
428.514	536.06
428.736	505.06
428.958	515.06
429.181	471.06
429.403	480.06
429.625	477.06
429.847	544.06
430.069	602.06
430.292	606.06
430.514	507.06
430.736	500.06
430.958	460.06
431.18	458.06
431.402	452.06
431.624	439.06
431.846	452.06
432.068	436.06
432.29	440.06
432.512	442.06
432.734	443.06
432.956	438.06
433.178	477.06
433.4	460.06
433.622	463.06
433.844	433.06
434.066	427.06
434.287	435.06
434.509	431.06
434.731	455.06
434.953	467.06
435.175	488.06
435.397	518.06
435.618	542.06
435.84	568.06
436.062	654.06
436.284	723.06
436.505	609.06
436.727	552.06
436.949	529.06
437.17	491.06
437.392	478.06
437.614	481.06
437.835	546.06
438.057	646.06
438.278	773.06
438.5	724.06
438.721	777.06
438.943	751.06
439.165	641.06
439.386	570.06
439.608	557.06
439.829	560.06
440.05	577.06
440.272	637.06
440.493	608.06
440.715	509.06
440.936	494.06
441.158	521.06
441.379	488.06
441.6	500.06
441.822	525.06
442.043	558.06
442.264	661.06
442.486	707.06
442.707	599.06
442.928	557.06
443.149	556.06
443.371	560.06
443.592	623.06
443.813	716.06
444.034	743.06
444.255	629.06
444.476	535.06
444.698	521.06
444.919	515.06
445.14	583.06
445.361	565.06
445.582	583.06
445.803	644.06
446.024	769.06
446.245	741.06
446.466	689.06
446.687	594.06
446.908	558.06
447.129	529.06
447.35	488.06
447.571	495.06
447.792	485.06
448.013	500.06
448.234	513.06
448.455	565.06
448.675	655.06
448.896	783.06
449.117	688.06
449.338	657.06
449.559	735.06
449.779	818.06
450	644.06
450.221	546.06
450.442	494.06
450.662	499.06
450.883	498.06
451.104	510.06
451.324	514.06
451.545	501.06
451.766	474.06
451.986	446.06
452.207	444.06
452.428	430.06
452.648	442.06
452.869	436.06
453.089	438.06
453.31	455.06
453.53	463.06
453.751	434.06
453.971	440.06
454.192	459.06
454.412	474.06
454.633	450.06
454.853	434.06
455.073	422.06
455.294	465.06
455.514	527.06
455.734	529.06
455.955	464.06
456.175	432.06
456.395	396.06
456.616	400.06
456.836	393.06
457.056	406.06
457.276	395.06
457.497	392.06
457.717	389.06
457.937	407.06
458.157	406.06
458.377	438.06
458.598	439.06
458.818	523.06
459.038	632.06
459.258	633.06
459.478	518.06
459.698	455.06
459.918	461.06
460.138	439.06
460.358	434.06
460.578	414.06
460.798	432.06
461.018	431.06
461.238	426.06
461.458	419.06
461.678	429.06
461.898	431.06
462.118	430.06
462.338	443.06
462.558	444.06
462.777	440.06
462.997	430.06
463.217	433.06
463.437	451.06
463.657	446.06
463.876	426.06
464.096	470.06
464.316	455.06
464.536	475.06
464.755	463.06
464.975	469.06
465.195	538.06
465.414	657.06
465.634	588.06
465.854	519.06
466.073	477.06
466.293	463.06
466.512	424.06
466.732	423.06
466.951	456.06
467.171	441.06
467.391	435.06
467.61	441.06
467.829	467.06
468.049	447.06
468.268	435.06
468.488	448.06
468.707	432.06
468.927	437.06
469.146	433.06
469.365	424.06
469.585	423.06
469.804	437.06
470.023	457.06
470.243	462.06
470.462	465.06
470.681	471.06
470.901	456.06
471.12	455.06
471.339	441.06
471.558	458.06
471.777	443.06
471.997	437.06
472.216	446.06
472.435	473.06
472.654	479.06
472.873	448.06
473.092	457.06
473.311	448.06
473.53	451.06
473.749	454.06
473.968	503.06
474.187	602.06
474.406	641.06
474.625	521.06
474.844	459.06
475.063	474.06
475.282	441.06
475.501	462.06
475.72	457.06
475.939	455.06
476.158	465.06
476.377	449.06
476.596	447.06
476.814	451.06
477.033	470.06
477.252	475.06
477.471	476.06
477.69	467.06
477.908	462.06
478.127	473.06
478.346	482.06
478.564	486.06
478.783	479.06
479.002	482.06
479.22	500.06
479.439	519.06
479.658	559.06
479.876	531.06
480.095	552.06
480.313	574.06
480.532	543.06
480.751	531.06
480.969	548.06
481.188	616.06
481.406	707.06
481.624	592.06
481.843	568.06
482.061	537.06
482.28	524.06
482.498	537.06
482.717	517.06
482.935	520.06
483.153	511.06
483.372	533.06
483.59	518.06
483.808	517.06
484.027	518.06
484.245	540.06
484.463	541.06
484.681	539.06
484.9	538.06
485.118	559.06
485.336	528.06
485.554	538.06
485.772	530.06
485.99	543.06
486.209	546.06
486.427	538.06
486.645	554.06
486.863	583.06
487.081	613.06
487.299	579.06
487.517	572.06
487.735	584.06
487.953	581.06
488.171	561.06
488.389	574.06
488.607	582.06
488.825	553.06
489.043	579.06
489.261	573.06
489.479	590.06
489.696	577.06
489.914	595.06
490.132	598.06
490.35	591.06
490.568	610.06
490.786	611.06
491.003	623.06
491.221	631.06
491.439	634.06
491.657	637.06
491.874	668.06
492.092	669.06
492.31	664.06
492.527	663.06
492.745	686.06
492.963	695.06
493.18	675.06
493.398	698.06
493.615	672.06
493.833	674.06
494.05	694.06
494.268	651.06
494.485	700.06
494.703	689.06
494.92	705.06
495.138	679.06
495.355	677.06
495.573	691.06
495.79	690.06
496.008	694.06
496.225	696.06
496.442	702.06
496.66	699.06
496.877	686.06
497.094	693.06
497.312	677.06
497.529	706.06
497.746	715.06
497.963	688.06
498.181	706.06
498.398	722.06
498.615	723.06
498.832	726.06
499.049	727.06
499.267	744.06
499.484	736.06
499.701	769.06
499.918	789.06
500.135	802.06
500.352	795.06
500.569	822.06
500.786	825.06
501.003	797.06
501.22	806.06
501.437	798.06
501.654	815.06
501.871	813.06
