Data from 1980.PennyLincolnUp.Lamp.En5.5.200Scan.071819.P1_HRD10591_16-37-42-957.txt Node
Date: Thu Jul 18 16:37:42 EDT 2019
User: cochatt
Spectrometer: HR+D1059
Trigger mode: 1
Integration Time (sec): 1.000000E-1
Scans to average: 1
Electric dark correction enabled: true
Nonlinearity correction enabled: false
Boxcar width: 0
XAxis mode: Wavelengths
Number of Pixels in Spectrum: 2048
>>>>>Begin Spectral Data<<<<<
223.165	-24.62
223.4	-24.62
223.635	-24.62
223.869	-11.62
224.104	-10.62
224.338	-22.62
224.573	0.38
224.808	-11.62
225.042	-9.62
225.277	-5.62
225.511	1.38
225.746	1.38
225.98	-4.62
226.215	9.38
226.449	13.38
226.683	29.38
226.918	20.38
227.152	25.38
227.387	27.38
227.621	42.38
227.856	43.38
228.09	36.38
228.324	46.38
228.559	66.38
228.793	65.38
229.027	102.38
229.262	119.38
229.496	119.38
229.73	138.38
229.964	160.38
230.199	127.38
230.433	135.38
230.667	127.38
230.901	121.38
231.136	111.38
231.37	122.38
231.604	106.38
231.838	113.38
232.072	109.38
232.306	123.38
232.541	108.38
232.775	123.38
233.009	93.38
233.243	119.38
233.477	110.38
233.711	130.38
233.945	109.38
234.179	106.38
234.413	122.38
234.647	111.38
234.881	122.38
235.115	96.38
235.349	127.38
235.583	129.38
235.817	116.38
236.051	121.38
236.285	129.38
236.519	128.38
236.753	148.38
236.987	137.38
237.221	195.38
237.455	240.38
237.689	184.38
237.922	134.38
238.156	138.38
238.39	129.38
238.624	124.38
238.858	132.38
239.091	121.38
239.325	128.38
239.559	122.38
239.793	122.38
240.027	140.38
240.26	157.38
240.494	155.38
240.728	148.38
240.961	149.38
241.195	136.38
241.429	123.38
241.662	132.38
241.896	137.38
242.13	130.38
242.363	123.38
242.597	140.38
242.83	132.38
243.064	128.38
243.298	126.38
243.531	146.38
243.765	134.38
243.998	133.38
244.232	146.38
244.465	131.38
244.699	149.38
244.932	143.38
245.166	153.38
245.399	142.38
245.633	151.38
245.866	140.38
246.099	146.38
246.333	150.38
246.566	166.38
246.8	156.38
247.033	160.38
247.266	149.38
247.5	150.38
247.733	149.38
247.966	179.38
248.2	173.38
248.433	180.38
248.666	168.38
248.899	174.38
249.133	210.38
249.366	225.38
249.599	208.38
249.832	178.38
250.066	180.38
250.299	194.38
250.532	214.38
250.765	213.38
250.998	231.38
251.231	234.38
251.465	229.38
251.698	223.38
251.931	213.38
252.164	206.38
252.397	206.38
252.63	215.38
252.863	215.38
253.096	229.38
253.329	228.38
253.562	225.38
253.795	229.38
254.028	226.38
254.261	228.38
254.494	224.38
254.727	252.38
254.96	294.38
255.193	286.38
255.426	260.38
255.659	254.38
255.892	233.38
256.124	245.38
256.357	250.38
256.59	228.38
256.823	212.38
257.056	221.38
257.289	220.38
257.521	218.38
257.754	197.38
257.987	209.38
258.22	214.38
258.452	220.38
258.685	213.38
258.918	211.38
259.151	203.38
259.383	204.38
259.616	211.38
259.849	226.38
260.081	229.38
260.314	256.38
260.547	262.38
260.779	253.38
261.012	235.38
261.244	216.38
261.477	232.38
261.71	222.38
261.942	214.38
262.175	248.38
262.407	248.38
262.64	212.38
262.872	223.38
263.105	231.38
263.337	226.38
263.57	202.38
263.802	202.38
264.035	226.38
264.267	206.38
264.499	199.38
264.732	203.38
264.964	202.38
265.197	222.38
265.429	206.38
265.661	197.38
265.894	205.38
266.126	215.38
266.358	200.38
266.591	200.38
266.823	212.38
267.055	216.38
267.287	225.38
267.52	245.38
267.752	234.38
267.984	227.38
268.216	230.38
268.448	234.38
268.681	210.38
268.913	249.38
269.145	256.38
269.377	260.38
269.609	283.38
269.841	268.38
270.073	268.38
270.306	308.38
270.538	321.38
270.77	342.38
271.002	308.38
271.234	289.38
271.466	322.38
271.698	310.38
271.93	307.38
272.162	323.38
272.394	300.38
272.626	314.38
272.858	279.38
273.09	278.38
273.322	275.38
273.553	272.38
273.785	257.38
274.017	257.38
274.249	254.38
274.481	267.38
274.713	252.38
274.945	263.38
275.176	262.38
275.408	258.38
275.64	248.38
275.872	248.38
276.104	264.38
276.335	258.38
276.567	276.38
276.799	280.38
277.031	297.38
277.262	307.38
277.494	314.38
277.726	305.38
277.957	283.38
278.189	277.38
278.421	264.38
278.652	269.38
278.884	251.38
279.115	267.38
279.347	248.38
279.579	256.38
279.81	248.38
280.042	249.38
280.273	258.38
280.505	253.38
280.736	235.38
280.968	253.38
281.199	261.38
281.431	241.38
281.662	258.38
281.894	240.38
282.125	259.38
282.356	283.38
282.588	295.38
282.819	316.38
283.051	271.38
283.282	266.38
283.513	263.38
283.745	268.38
283.976	265.38
284.207	264.38
284.439	279.38
284.67	263.38
284.901	259.38
285.132	268.38
285.364	252.38
285.595	252.38
285.826	254.38
286.057	264.38
286.288	233.38
286.52	245.38
286.751	254.38
286.982	270.38
287.213	250.38
287.444	281.38
287.675	267.38
287.906	276.38
288.138	273.38
288.369	280.38
288.6	300.38
288.831	272.38
289.062	272.38
289.293	269.38
289.524	270.38
289.755	270.38
289.986	263.38
290.217	263.38
290.448	276.38
290.679	261.38
290.91	270.38
291.141	271.38
291.371	276.38
291.602	259.38
291.833	267.38
292.064	267.38
292.295	266.38
292.526	271.38
292.757	260.38
292.987	265.38
293.218	266.38
293.449	266.38
293.68	273.38
293.91	261.38
294.141	243.38
294.372	249.38
294.603	264.38
294.833	260.38
295.064	263.38
295.295	249.38
295.525	263.38
295.756	277.38
295.987	280.38
296.217	298.38
296.448	324.38
296.679	294.38
296.909	278.38
297.14	263.38
297.37	262.38
297.601	276.38
297.831	275.38
298.062	270.38
298.292	263.38
298.523	264.38
298.753	270.38
298.984	264.38
299.214	291.38
299.445	272.38
299.675	288.38
299.905	292.38
300.136	268.38
300.366	298.38
300.597	282.38
300.827	264.38
301.057	283.38
301.288	299.38
301.518	297.38
301.748	283.38
301.979	293.38
302.209	295.38
302.439	296.38
302.669	286.38
302.9	296.38
303.13	293.38
303.36	299.38
303.59	297.38
303.82	295.38
304.051	305.38
304.281	288.38
304.511	278.38
304.741	295.38
304.971	292.38
305.201	297.38
305.431	275.38
305.661	280.38
305.891	275.38
306.121	284.38
306.352	315.38
306.582	310.38
306.812	282.38
307.042	301.38
307.272	296.38
307.502	302.38
307.731	310.38
307.961	302.38
308.191	303.38
308.421	290.38
308.651	316.38
308.881	325.38
309.111	315.38
309.341	332.38
309.571	329.38
309.8	320.38
310.03	336.38
310.26	361.38
310.49	362.38
310.72	372.38
310.949	372.38
311.179	385.38
311.409	355.38
311.639	373.38
311.868	358.38
312.098	348.38
312.328	358.38
312.557	367.38
312.787	398.38
313.017	378.38
313.246	373.38
313.476	354.38
313.706	364.38
313.935	360.38
314.165	371.38
314.394	361.38
314.624	366.38
314.853	377.38
315.083	347.38
315.312	340.38
315.542	344.38
315.771	351.38
316.001	336.38
316.23	337.38
316.46	355.38
316.689	341.38
316.919	360.38
317.148	356.38
317.377	361.38
317.607	387.38
317.836	372.38
318.065	350.38
318.295	341.38
318.524	343.38
318.753	332.38
318.983	353.38
319.212	354.38
319.441	360.38
319.67	368.38
319.9	366.38
320.129	351.38
320.358	357.38
320.587	362.38
320.816	376.38
321.046	374.38
321.275	400.38
321.504	380.38
321.733	366.38
321.962	378.38
322.191	404.38
322.42	409.38
322.649	435.38
322.878	433.38
323.108	474.38
323.337	474.38
323.566	521.38
323.795	554.38
324.024	603.38
324.253	758.38
324.482	1024.38
324.71	1610.38
324.939	2364.38
325.168	2110.38
325.397	1103.38
325.626	748.38
325.855	591.38
326.084	523.38
326.313	512.38
326.542	524.38
326.77	567.38
326.999	668.38
327.228	934.38
327.457	1472.38
327.686	1739.38
327.914	1222.38
328.143	798.38
328.372	678.38
328.6	620.38
328.829	586.38
329.058	604.38
329.287	610.38
329.515	566.38
329.744	538.38
329.972	520.38
330.201	534.38
330.43	578.38
330.658	598.38
330.887	628.38
331.115	603.38
331.344	521.38
331.572	512.38
331.801	481.38
332.03	462.38
332.258	473.38
332.486	437.38
332.715	416.38
332.943	414.38
333.172	409.38
333.4	420.38
333.629	442.38
333.857	464.38
334.085	430.38
334.314	448.38
334.542	482.38
334.771	537.38
334.999	467.38
335.227	428.38
335.455	425.38
335.684	419.38
335.912	396.38
336.14	387.38
336.369	412.38
336.597	427.38
336.825	407.38
337.053	403.38
337.281	388.38
337.51	401.38
337.738	408.38
337.966	402.38
338.194	397.38
338.422	403.38
338.65	398.38
338.878	383.38
339.106	383.38
339.334	409.38
339.562	381.38
339.79	379.38
340.018	366.38
340.246	386.38
340.474	412.38
340.702	383.38
340.93	413.38
341.158	386.38
341.386	382.38
341.614	394.38
341.842	379.38
342.07	380.38
342.298	373.38
342.526	376.38
342.754	371.38
342.981	375.38
343.209	391.38
343.437	388.38
343.665	372.38
343.893	393.38
344.12	369.38
344.348	382.38
344.576	386.38
344.804	397.38
345.031	422.38
345.259	418.38
345.487	420.38
345.714	387.38
345.942	387.38
346.17	389.38
346.397	370.38
346.625	395.38
346.853	382.38
347.08	384.38
347.308	392.38
347.535	414.38
347.763	388.38
347.99	402.38
348.218	401.38
348.445	402.38
348.673	395.38
348.9	391.38
349.128	385.38
349.355	399.38
349.583	380.38
349.81	368.38
350.037	380.38
350.265	374.38
350.492	369.38
350.72	365.38
350.947	376.38
351.174	400.38
351.402	404.38
351.629	394.38
351.856	401.38
352.083	402.38
352.311	415.38
352.538	421.38
352.765	413.38
352.992	404.38
353.22	386.38
353.447	391.38
353.674	382.38
353.901	369.38
354.128	378.38
354.355	362.38
354.583	361.38
354.81	348.38
355.037	336.38
355.264	341.38
355.491	338.38
355.718	357.38
355.945	345.38
356.172	358.38
356.399	348.38
356.626	348.38
356.853	338.38
357.08	342.38
357.307	342.38
357.534	337.38
357.761	354.38
357.988	371.38
358.215	345.38
358.441	349.38
358.668	344.38
358.895	369.38
359.122	356.38
359.349	354.38
359.576	386.38
359.802	416.38
360.029	451.38
360.256	469.38
360.483	437.38
360.709	393.38
360.936	378.38
361.163	407.38
361.39	400.38
361.616	391.38
361.843	381.38
362.07	390.38
362.296	397.38
362.523	373.38
362.749	364.38
362.976	379.38
363.203	388.38
363.429	351.38
363.656	366.38
363.882	371.38
364.109	358.38
364.335	348.38
364.562	342.38
364.788	356.38
365.015	334.38
365.241	380.38
365.468	362.38
365.694	365.38
365.92	378.38
366.147	363.38
366.373	348.38
366.599	359.38
366.826	369.38
367.052	363.38
367.278	351.38
367.505	359.38
367.731	359.38
367.957	369.38
368.184	361.38
368.41	360.38
368.636	393.38
368.862	381.38
369.089	378.38
369.315	364.38
369.541	360.38
369.767	358.38
369.993	368.38
370.219	345.38
370.445	358.38
370.672	359.38
370.898	356.38
371.124	347.38
371.35	344.38
371.576	347.38
371.802	344.38
372.028	357.38
372.254	342.38
372.48	336.38
372.706	338.38
372.932	354.38
373.158	344.38
373.384	366.38
373.61	375.38
373.835	336.38
374.061	350.38
374.287	357.38
374.513	372.38
374.739	368.38
374.965	349.38
375.191	356.38
375.416	358.38
375.642	366.38
375.868	394.38
376.094	355.38
376.319	336.38
376.545	352.38
376.771	358.38
376.997	345.38
377.222	337.38
377.448	334.38
377.674	350.38
377.899	344.38
378.125	342.38
378.35	346.38
378.576	348.38
378.802	350.38
379.027	340.38
379.253	342.38
379.478	335.38
379.704	359.38
379.929	357.38
380.155	350.38
380.38	362.38
380.606	344.38
380.831	353.38
381.057	359.38
381.282	359.38
381.507	344.38
381.733	362.38
381.958	343.38
382.184	346.38
382.409	352.38
382.634	374.38
382.86	368.38
383.085	363.38
383.31	333.38
383.535	381.38
383.761	353.38
383.986	361.38
384.211	349.38
384.436	354.38
384.662	370.38
384.887	375.38
385.112	360.38
385.337	368.38
385.562	360.38
385.787	357.38
386.013	388.38
386.238	352.38
386.463	378.38
386.688	386.38
386.913	364.38
387.138	363.38
387.363	376.38
387.588	373.38
387.813	359.38
388.038	351.38
388.263	371.38
388.488	373.38
388.713	360.38
388.938	379.38
389.163	384.38
389.387	375.38
389.612	352.38
389.837	363.38
390.062	357.38
390.287	362.38
390.512	362.38
390.736	370.38
390.961	354.38
391.186	369.38
391.411	370.38
391.636	352.38
391.86	362.38
392.085	386.38
392.31	355.38
392.534	372.38
392.759	365.38
392.984	363.38
393.208	386.38
393.433	391.38
393.658	368.38
393.882	358.38
394.107	364.38
394.331	354.38
394.556	379.38
394.78	360.38
395.005	380.38
395.229	374.38
395.454	380.38
395.678	382.38
395.903	393.38
396.127	404.38
396.352	398.38
396.576	401.38
396.801	396.38
397.025	390.38
397.249	397.38
397.474	392.38
397.698	382.38
397.922	422.38
398.147	415.38
398.371	412.38
398.595	404.38
398.82	403.38
399.044	395.38
399.268	417.38
399.492	424.38
399.717	458.38
399.941	495.38
400.165	520.38
400.389	537.38
400.613	496.38
400.837	418.38
401.062	458.38
401.286	419.38
401.51	418.38
401.734	409.38
401.958	434.38
402.182	431.38
402.406	439.38
402.63	428.38
402.854	412.38
403.078	438.38
403.302	436.38
403.526	425.38
403.75	421.38
403.974	454.38
404.198	409.38
404.422	429.38
404.645	448.38
404.869	456.38
405.093	459.38
405.317	520.38
405.541	547.38
405.765	501.38
405.988	478.38
406.212	472.38
406.436	514.38
406.66	510.38
406.883	496.38
407.107	490.38
407.331	512.38
407.555	589.38
407.778	599.38
408.002	551.38
408.226	501.38
408.449	475.38
408.673	480.38
408.896	505.38
409.12	562.38
409.344	517.38
409.567	484.38
409.791	470.38
410.014	467.38
410.238	453.38
410.461	459.38
410.685	435.38
410.908	481.38
411.132	498.38
411.355	524.38
411.578	524.38
411.802	467.38
412.025	444.38
412.249	474.38
412.472	479.38
412.695	516.38
412.919	510.38
413.142	444.38
413.365	456.38
413.589	422.38
413.812	432.38
414.035	398.38
414.258	433.38
414.482	417.38
414.705	414.38
414.928	406.38
415.151	421.38
415.374	414.38
415.597	412.38
415.821	413.38
416.044	424.38
416.267	406.38
416.49	404.38
416.713	406.38
416.936	422.38
417.159	421.38
417.382	423.38
417.605	432.38
417.828	425.38
418.051	465.38
418.274	450.38
418.497	408.38
418.72	424.38
418.943	408.38
419.166	428.38
419.389	433.38
419.611	464.38
419.834	447.38
420.057	444.38
420.28	453.38
420.503	433.38
420.726	437.38
420.948	473.38
421.171	490.38
421.394	517.38
421.617	456.38
421.839	469.38
422.062	463.38
422.285	475.38
422.507	526.38
422.73	579.38
422.953	558.38
423.175	506.38
423.398	466.38
423.621	452.38
423.843	516.38
424.066	488.38
424.288	496.38
424.511	492.38
424.733	597.38
424.956	677.38
425.178	618.38
425.401	627.38
425.623	654.38
425.846	534.38
426.068	492.38
426.291	486.38
426.513	493.38
426.735	503.38
426.958	568.38
427.18	634.38
427.402	742.38
427.625	834.38
427.847	739.38
428.069	638.38
428.292	566.38
428.514	526.38
428.736	506.38
428.958	478.38
429.181	471.38
429.403	480.38
429.625	483.38
429.847	503.38
430.069	568.38
430.292	588.38
430.514	492.38
430.736	466.38
430.958	459.38
431.18	431.38
431.402	449.38
431.624	425.38
431.846	436.38
432.068	423.38
432.29	425.38
432.512	424.38
432.734	429.38
432.956	440.38
433.178	449.38
433.4	466.38
433.622	453.38
433.844	436.38
434.066	430.38
434.287	411.38
434.509	417.38
434.731	445.38
434.953	450.38
435.175	468.38
435.397	480.38
435.618	504.38
435.84	533.38
436.062	632.38
436.284	669.38
436.505	580.38
436.727	516.38
436.949	475.38
437.17	462.38
437.392	467.38
437.614	470.38
437.835	553.38
438.057	633.38
438.278	720.38
438.5	698.38
438.721	764.38
438.943	726.38
439.165	588.38
439.386	552.38
439.608	547.38
439.829	539.38
440.05	539.38
440.272	585.38
440.493	581.38
440.715	508.38
440.936	491.38
441.158	472.38
441.379	475.38
441.6	465.38
441.822	498.38
442.043	551.38
442.264	620.38
442.486	662.38
442.707	568.38
442.928	528.38
443.149	544.38
443.371	544.38
443.592	588.38
443.813	686.38
444.034	742.38
444.255	575.38
444.476	534.38
444.698	505.38
444.919	498.38
445.14	616.38
445.361	560.38
445.582	547.38
445.803	609.38
446.024	703.38
446.245	726.38
446.466	662.38
446.687	573.38
446.908	541.38
447.129	475.38
447.35	462.38
447.571	480.38
447.792	469.38
448.013	468.38
448.234	502.38
448.455	554.38
448.675	634.38
448.896	746.38
449.117	645.38
449.338	630.38
449.559	696.38
449.779	802.38
450	634.38
450.221	550.38
450.442	496.38
450.662	485.38
450.883	487.38
451.104	492.38
451.324	481.38
451.545	446.38
451.766	472.38
451.986	415.38
452.207	432.38
452.428	416.38
452.648	422.38
452.869	440.38
453.089	433.38
453.31	454.38
453.53	424.38
453.751	426.38
453.971	426.38
454.192	452.38
454.412	443.38
454.633	412.38
454.853	425.38
455.073	416.38
455.294	451.38
455.514	530.38
455.734	510.38
455.955	401.38
456.175	396.38
456.395	382.38
456.616	391.38
456.836	376.38
457.056	390.38
457.276	384.38
457.497	375.38
457.717	379.38
457.937	404.38
458.157	407.38
458.377	401.38
458.598	426.38
458.818	492.38
459.038	602.38
459.258	598.38
459.478	512.38
459.698	443.38
459.918	423.38
460.138	428.38
460.358	426.38
460.578	410.38
460.798	415.38
461.018	431.38
461.238	420.38
461.458	419.38
461.678	404.38
461.898	424.38
462.118	420.38
462.338	417.38
462.558	439.38
462.777	432.38
462.997	411.38
463.217	455.38
463.437	458.38
463.657	442.38
463.876	425.38
464.096	454.38
464.316	420.38
464.536	453.38
464.755	456.38
464.975	459.38
465.195	537.38
465.414	604.38
465.634	526.38
465.854	488.38
466.073	440.38
466.293	422.38
466.512	422.38
466.732	407.38
466.951	396.38
467.171	420.38
467.391	415.38
467.61	427.38
467.829	443.38
468.049	434.38
468.268	420.38
468.488	421.38
468.707	436.38
468.927	417.38
469.146	404.38
469.365	413.38
469.585	424.38
469.804	408.38
470.023	433.38
470.243	421.38
470.462	436.38
470.681	470.38
470.901	451.38
471.12	412.38
471.339	420.38
471.558	445.38
471.777	428.38
471.997	405.38
472.216	427.38
472.435	484.38
472.654	461.38
472.873	428.38
473.092	424.38
473.311	402.38
473.53	420.38
473.749	449.38
473.968	455.38
474.187	604.38
474.406	576.38
474.625	495.38
474.844	457.38
475.063	440.38
475.282	425.38
475.501	446.38
475.72	436.38
475.939	435.38
476.158	439.38
476.377	453.38
476.596	447.38
476.814	461.38
477.033	467.38
477.252	460.38
477.471	448.38
477.69	461.38
477.908	443.38
478.127	436.38
478.346	458.38
478.564	459.38
478.783	480.38
479.002	462.38
479.22	470.38
479.439	494.38
479.658	519.38
479.876	538.38
480.095	512.38
480.313	549.38
480.532	532.38
480.751	504.38
480.969	531.38
481.188	596.38
481.406	648.38
481.624	560.38
481.843	554.38
482.061	536.38
482.28	520.38
482.498	511.38
482.717	510.38
482.935	524.38
483.153	514.38
483.372	500.38
483.59	522.38
483.808	505.38
484.027	513.38
484.245	489.38
484.463	526.38
484.681	509.38
484.9	514.38
485.118	517.38
485.336	532.38
485.554	526.38
485.772	522.38
485.99	538.38
486.209	516.38
486.427	496.38
486.645	552.38
486.863	550.38
487.081	553.38
487.299	546.38
487.517	551.38
487.735	557.38
487.953	547.38
488.171	551.38
488.389	541.38
488.607	533.38
488.825	534.38
489.043	543.38
489.261	558.38
489.479	538.38
489.696	560.38
489.914	542.38
490.132	579.38
490.35	584.38
490.568	583.38
490.786	588.38
491.003	615.38
491.221	615.38
491.439	614.38
491.657	629.38
491.874	621.38
492.092	612.38
492.31	634.38
492.527	637.38
492.745	640.38
492.963	627.38
493.18	647.38
493.398	657.38
493.615	660.38
493.833	667.38
494.05	639.38
494.268	687.38
494.485	663.38
494.703	649.38
494.92	654.38
495.138	639.38
495.355	664.38
495.573	682.38
495.79	649.38
496.008	674.38
496.225	632.38
496.442	660.38
496.66	653.38
496.877	646.38
497.094	649.38
497.312	661.38
497.529	692.38
497.746	672.38
497.963	674.38
498.181	677.38
498.398	680.38
498.615	704.38
498.832	710.38
499.049	710.38
499.267	702.38
499.484	701.38
499.701	740.38
499.918	752.38
500.135	772.38
500.352	773.38
500.569	801.38
500.786	796.38
501.003	821.38
501.22	786.38
501.437	808.38
501.654	791.38
501.871	795.38
