Data from 1980.PennyLincolnUp.Lamp.En5.5.200Scan.071819.P1_HRD10591_16-37-28-957.txt Node
Date: Thu Jul 18 16:37:28 EDT 2019
User: cochatt
Spectrometer: HR+D1059
Trigger mode: 1
Integration Time (sec): 1.000000E-1
Scans to average: 1
Electric dark correction enabled: true
Nonlinearity correction enabled: false
Boxcar width: 0
XAxis mode: Wavelengths
Number of Pixels in Spectrum: 2048
>>>>>Begin Spectral Data<<<<<
223.165	-22.75
223.4	-22.75
223.635	-22.75
223.869	0.25
224.104	-23.75
224.338	-12.75
224.573	-23.75
224.808	-8.75
225.042	-1.75
225.277	-0.75
225.511	-13.75
225.746	6.25
225.98	0.25
226.215	3.25
226.449	18.25
226.683	14.25
226.918	31.25
227.152	34.25
227.387	30.25
227.621	38.25
227.856	41.25
228.09	45.25
228.324	41.25
228.559	37.25
228.793	55.25
229.027	97.25
229.262	97.25
229.496	113.25
229.73	145.25
229.964	165.25
230.199	135.25
230.433	131.25
230.667	113.25
230.901	119.25
231.136	109.25
231.37	128.25
231.604	113.25
231.838	115.25
232.072	114.25
232.306	119.25
232.541	127.25
232.775	126.25
233.009	102.25
233.243	128.25
233.477	111.25
233.711	119.25
233.945	108.25
234.179	115.25
234.413	110.25
234.647	105.25
234.881	112.25
235.115	115.25
235.349	112.25
235.583	120.25
235.817	122.25
236.051	117.25
236.285	120.25
236.519	113.25
236.753	129.25
236.987	150.25
237.221	186.25
237.455	271.25
237.689	197.25
237.922	153.25
238.156	142.25
238.39	117.25
238.624	126.25
238.858	127.25
239.091	116.25
239.325	126.25
239.559	119.25
239.793	142.25
240.027	146.25
240.26	146.25
240.494	166.25
240.728	159.25
240.961	144.25
241.195	165.25
241.429	140.25
241.662	138.25
241.896	145.25
242.13	131.25
242.363	131.25
242.597	137.25
242.83	139.25
243.064	139.25
243.298	134.25
243.531	136.25
243.765	146.25
243.998	135.25
244.232	141.25
244.465	149.25
244.699	142.25
244.932	144.25
245.166	134.25
245.399	119.25
245.633	134.25
245.866	159.25
246.099	147.25
246.333	131.25
246.566	152.25
246.8	157.25
247.033	157.25
247.266	161.25
247.5	157.25
247.733	154.25
247.966	168.25
248.2	172.25
248.433	168.25
248.666	177.25
248.899	185.25
249.133	199.25
249.366	244.25
249.599	213.25
249.832	191.25
250.066	182.25
250.299	181.25
250.532	195.25
250.765	218.25
250.998	233.25
251.231	251.25
251.465	225.25
251.698	218.25
251.931	209.25
252.164	202.25
252.397	208.25
252.63	209.25
252.863	222.25
253.096	226.25
253.329	237.25
253.562	236.25
253.795	228.25
254.028	226.25
254.261	223.25
254.494	229.25
254.727	260.25
254.96	303.25
255.193	312.25
255.426	278.25
255.659	262.25
255.892	232.25
256.124	229.25
256.357	234.25
256.59	257.25
256.823	233.25
257.056	220.25
257.289	229.25
257.521	228.25
257.754	225.25
257.987	237.25
258.22	225.25
258.452	222.25
258.685	207.25
258.918	213.25
259.151	201.25
259.383	226.25
259.616	234.25
259.849	227.25
260.081	229.25
260.314	265.25
260.547	275.25
260.779	268.25
261.012	248.25
261.244	228.25
261.477	238.25
261.71	231.25
261.942	244.25
262.175	260.25
262.407	243.25
262.64	227.25
262.872	223.25
263.105	214.25
263.337	220.25
263.57	229.25
263.802	224.25
264.035	212.25
264.267	183.25
264.499	203.25
264.732	206.25
264.964	219.25
265.197	213.25
265.429	228.25
265.661	215.25
265.894	220.25
266.126	211.25
266.358	208.25
266.591	218.25
266.823	209.25
267.055	226.25
267.287	223.25
267.52	228.25
267.752	233.25
267.984	222.25
268.216	227.25
268.448	228.25
268.681	241.25
268.913	232.25
269.145	254.25
269.377	287.25
269.609	274.25
269.841	281.25
270.073	275.25
270.306	291.25
270.538	348.25
270.77	324.25
271.002	313.25
271.234	323.25
271.466	297.25
271.698	306.25
271.93	313.25
272.162	332.25
272.394	329.25
272.626	303.25
272.858	306.25
273.09	288.25
273.322	282.25
273.553	267.25
273.785	278.25
274.017	269.25
274.249	274.25
274.481	264.25
274.713	269.25
274.945	282.25
275.176	285.25
275.408	262.25
275.64	260.25
275.872	269.25
276.104	262.25
276.335	281.25
276.567	275.25
276.799	289.25
277.031	306.25
277.262	317.25
277.494	339.25
277.726	309.25
277.957	310.25
278.189	290.25
278.421	289.25
278.652	279.25
278.884	269.25
279.115	275.25
279.347	255.25
279.579	248.25
279.81	255.25
280.042	256.25
280.273	257.25
280.505	268.25
280.736	263.25
280.968	248.25
281.199	252.25
281.431	235.25
281.662	253.25
281.894	267.25
282.125	266.25
282.356	280.25
282.588	314.25
282.819	330.25
283.051	279.25
283.282	272.25
283.513	260.25
283.745	282.25
283.976	282.25
284.207	272.25
284.439	271.25
284.67	269.25
284.901	276.25
285.132	261.25
285.364	265.25
285.595	258.25
285.826	261.25
286.057	273.25
286.288	272.25
286.52	263.25
286.751	277.25
286.982	258.25
287.213	267.25
287.444	282.25
287.675	280.25
287.906	287.25
288.138	288.25
288.369	292.25
288.6	295.25
288.831	291.25
289.062	288.25
289.293	280.25
289.524	283.25
289.755	263.25
289.986	266.25
290.217	289.25
290.448	277.25
290.679	277.25
290.91	257.25
291.141	275.25
291.371	281.25
291.602	253.25
291.833	281.25
292.064	266.25
292.295	259.25
292.526	278.25
292.757	296.25
292.987	292.25
293.218	280.25
293.449	262.25
293.68	274.25
293.91	293.25
294.141	274.25
294.372	273.25
294.603	288.25
294.833	262.25
295.064	266.25
295.295	277.25
295.525	260.25
295.756	291.25
295.987	291.25
296.217	311.25
296.448	330.25
296.679	310.25
296.909	288.25
297.14	274.25
297.37	289.25
297.601	281.25
297.831	275.25
298.062	279.25
298.292	290.25
298.523	289.25
298.753	304.25
298.984	283.25
299.214	292.25
299.445	287.25
299.675	303.25
299.905	302.25
300.136	298.25
300.366	304.25
300.597	296.25
300.827	323.25
301.057	296.25
301.288	298.25
301.518	316.25
301.748	317.25
301.979	312.25
302.209	317.25
302.439	297.25
302.669	304.25
302.9	307.25
303.13	295.25
303.36	297.25
303.59	311.25
303.82	328.25
304.051	303.25
304.281	302.25
304.511	326.25
304.741	290.25
304.971	279.25
305.201	326.25
305.431	288.25
305.661	312.25
305.891	311.25
306.121	318.25
306.352	314.25
306.582	310.25
306.812	307.25
307.042	326.25
307.272	305.25
307.502	309.25
307.731	316.25
307.961	314.25
308.191	319.25
308.421	313.25
308.651	341.25
308.881	309.25
309.111	326.25
309.341	325.25
309.571	343.25
309.8	349.25
310.03	361.25
310.26	371.25
310.49	357.25
310.72	381.25
310.949	405.25
311.179	376.25
311.409	366.25
311.639	359.25
311.868	372.25
312.098	372.25
312.328	365.25
312.557	395.25
312.787	409.25
313.017	426.25
313.246	399.25
313.476	377.25
313.706	370.25
313.935	386.25
314.165	405.25
314.394	393.25
314.624	376.25
314.853	387.25
315.083	401.25
315.312	389.25
315.542	361.25
315.771	349.25
316.001	346.25
316.23	352.25
316.46	358.25
316.689	360.25
316.919	372.25
317.148	377.25
317.377	370.25
317.607	371.25
317.836	356.25
318.065	367.25
318.295	351.25
318.524	358.25
318.753	356.25
318.983	360.25
319.212	357.25
319.441	375.25
319.67	385.25
319.9	399.25
320.129	377.25
320.358	370.25
320.587	358.25
320.816	394.25
321.046	389.25
321.275	405.25
321.504	389.25
321.733	415.25
321.962	412.25
322.191	434.25
322.42	423.25
322.649	441.25
322.878	460.25
323.108	495.25
323.337	480.25
323.566	533.25
323.795	581.25
324.024	627.25
324.253	763.25
324.482	1124.25
324.71	1731.25
324.939	2465.25
325.168	2194.25
325.397	1149.25
325.626	736.25
325.855	587.25
326.084	582.25
326.313	529.25
326.542	537.25
326.77	579.25
326.999	713.25
327.228	1007.25
327.457	1506.25
327.686	1903.25
327.914	1271.25
328.143	824.25
328.372	691.25
328.6	681.25
328.829	627.25
329.058	620.25
329.287	613.25
329.515	583.25
329.744	552.25
329.972	531.25
330.201	554.25
330.43	609.25
330.658	652.25
330.887	659.25
331.115	659.25
331.344	552.25
331.572	535.25
331.801	490.25
332.03	489.25
332.258	459.25
332.486	473.25
332.715	453.25
332.943	435.25
333.172	446.25
333.4	454.25
333.629	464.25
333.857	451.25
334.085	481.25
334.314	483.25
334.542	525.25
334.771	525.25
334.999	483.25
335.227	469.25
335.455	439.25
335.684	414.25
335.912	443.25
336.14	424.25
336.369	412.25
336.597	441.25
336.825	449.25
337.053	424.25
337.281	408.25
337.51	424.25
337.738	423.25
337.966	407.25
338.194	425.25
338.422	403.25
338.65	422.25
338.878	411.25
339.106	430.25
339.334	433.25
339.562	399.25
339.79	395.25
340.018	398.25
340.246	409.25
340.474	404.25
340.702	425.25
340.93	412.25
341.158	398.25
341.386	435.25
341.614	411.25
341.842	414.25
342.07	422.25
342.298	404.25
342.526	401.25
342.754	400.25
342.981	383.25
343.209	381.25
343.437	399.25
343.665	376.25
343.893	387.25
344.12	414.25
344.348	415.25
344.576	405.25
344.804	419.25
345.031	418.25
345.259	446.25
345.487	427.25
345.714	414.25
345.942	395.25
346.17	413.25
346.397	398.25
346.625	405.25
346.853	381.25
347.08	405.25
347.308	406.25
347.535	392.25
347.763	417.25
347.99	403.25
348.218	421.25
348.445	430.25
348.673	407.25
348.9	403.25
349.128	395.25
349.355	375.25
349.583	396.25
349.81	392.25
350.037	394.25
350.265	398.25
350.492	379.25
350.72	384.25
350.947	410.25
351.174	407.25
351.402	414.25
351.629	402.25
351.856	417.25
352.083	423.25
352.311	421.25
352.538	424.25
352.765	443.25
352.992	440.25
353.22	386.25
353.447	396.25
353.674	401.25
353.901	387.25
354.128	406.25
354.355	369.25
354.583	362.25
354.81	362.25
355.037	368.25
355.264	353.25
355.491	375.25
355.718	349.25
355.945	371.25
356.172	365.25
356.399	382.25
356.626	368.25
356.853	378.25
357.08	363.25
357.307	366.25
357.534	373.25
357.761	361.25
357.988	369.25
358.215	363.25
358.441	355.25
358.668	370.25
358.895	373.25
359.122	387.25
359.349	386.25
359.576	389.25
359.802	419.25
360.029	483.25
360.256	463.25
360.483	437.25
360.709	393.25
360.936	403.25
361.163	405.25
361.39	395.25
361.616	392.25
361.843	432.25
362.07	393.25
362.296	414.25
362.523	404.25
362.749	409.25
362.976	395.25
363.203	380.25
363.429	382.25
363.656	385.25
363.882	374.25
364.109	377.25
364.335	381.25
364.562	385.25
364.788	386.25
365.015	402.25
365.241	377.25
365.468	407.25
365.694	391.25
365.92	390.25
366.147	389.25
366.373	387.25
366.599	367.25
366.826	387.25
367.052	379.25
367.278	371.25
367.505	405.25
367.731	379.25
367.957	374.25
368.184	381.25
368.41	370.25
368.636	392.25
368.862	379.25
369.089	385.25
369.315	353.25
369.541	369.25
369.767	375.25
369.993	349.25
370.219	365.25
370.445	373.25
370.672	368.25
370.898	365.25
371.124	359.25
371.35	373.25
371.576	367.25
371.802	355.25
372.028	361.25
372.254	345.25
372.48	350.25
372.706	367.25
372.932	369.25
373.158	361.25
373.384	346.25
373.61	368.25
373.835	358.25
374.061	371.25
374.287	375.25
374.513	377.25
374.739	355.25
374.965	375.25
375.191	365.25
375.416	362.25
375.642	363.25
375.868	386.25
376.094	373.25
376.319	385.25
376.545	368.25
376.771	361.25
376.997	352.25
377.222	361.25
377.448	361.25
377.674	369.25
377.899	354.25
378.125	367.25
378.35	356.25
378.576	364.25
378.802	381.25
379.027	356.25
379.253	363.25
379.478	362.25
379.704	353.25
379.929	363.25
380.155	362.25
380.38	376.25
380.606	360.25
380.831	367.25
381.057	365.25
381.282	363.25
381.507	373.25
381.733	349.25
381.958	351.25
382.184	360.25
382.409	361.25
382.634	362.25
382.86	359.25
383.085	369.25
383.31	371.25
383.535	372.25
383.761	370.25
383.986	374.25
384.211	378.25
384.436	376.25
384.662	377.25
384.887	378.25
385.112	372.25
385.337	383.25
385.562	397.25
385.787	397.25
386.013	386.25
386.238	400.25
386.463	394.25
386.688	392.25
386.913	379.25
387.138	391.25
387.363	392.25
387.588	396.25
387.813	385.25
388.038	391.25
388.263	386.25
388.488	379.25
388.713	396.25
388.938	391.25
389.163	396.25
389.387	376.25
389.612	387.25
389.837	384.25
390.062	393.25
390.287	401.25
390.512	407.25
390.736	378.25
390.961	382.25
391.186	392.25
391.411	381.25
391.636	390.25
391.86	395.25
392.085	398.25
392.31	403.25
392.534	406.25
392.759	396.25
392.984	395.25
393.208	379.25
393.433	384.25
393.658	399.25
393.882	391.25
394.107	378.25
394.331	393.25
394.556	379.25
394.78	384.25
395.005	390.25
395.229	393.25
395.454	415.25
395.678	390.25
395.903	412.25
396.127	407.25
396.352	435.25
396.576	433.25
396.801	435.25
397.025	396.25
397.249	413.25
397.474	408.25
397.698	400.25
397.922	433.25
398.147	458.25
398.371	436.25
398.595	446.25
398.82	431.25
399.044	453.25
399.268	449.25
399.492	474.25
399.717	485.25
399.941	508.25
400.165	546.25
400.389	551.25
400.613	497.25
400.837	471.25
401.062	465.25
401.286	443.25
401.51	439.25
401.734	440.25
401.958	454.25
402.182	452.25
402.406	469.25
402.63	466.25
402.854	443.25
403.078	447.25
403.302	450.25
403.526	462.25
403.75	468.25
403.974	455.25
404.198	462.25
404.422	459.25
404.645	470.25
404.869	474.25
405.093	517.25
405.317	546.25
405.541	583.25
405.765	528.25
405.988	522.25
406.212	493.25
406.436	535.25
406.66	553.25
406.883	509.25
407.107	527.25
407.331	586.25
407.555	638.25
407.778	639.25
408.002	563.25
408.226	490.25
408.449	507.25
408.673	492.25
408.896	536.25
409.12	555.25
409.344	581.25
409.567	506.25
409.791	493.25
410.014	477.25
410.238	447.25
410.461	456.25
410.685	465.25
410.908	507.25
411.132	533.25
411.355	567.25
411.578	535.25
411.802	506.25
412.025	481.25
412.249	476.25
412.472	478.25
412.695	521.25
412.919	522.25
413.142	479.25
413.365	442.25
413.589	433.25
413.812	450.25
414.035	448.25
414.258	447.25
414.482	435.25
414.705	445.25
414.928	400.25
415.151	433.25
415.374	423.25
415.597	439.25
415.821	424.25
416.044	429.25
416.267	451.25
416.49	445.25
416.713	448.25
416.936	447.25
417.159	433.25
417.382	440.25
417.605	443.25
417.828	464.25
418.051	456.25
418.274	463.25
418.497	446.25
418.72	448.25
418.943	448.25
419.166	433.25
419.389	475.25
419.611	466.25
419.834	460.25
420.057	452.25
420.28	480.25
420.503	479.25
420.726	487.25
420.948	478.25
421.171	523.25
421.394	558.25
421.617	493.25
421.839	484.25
422.062	465.25
422.285	490.25
422.507	570.25
422.73	626.25
422.953	598.25
423.175	555.25
423.398	502.25
423.621	501.25
423.843	516.25
424.066	502.25
424.288	519.25
424.511	534.25
424.733	598.25
424.956	705.25
425.178	646.25
425.401	667.25
425.623	686.25
425.846	575.25
426.068	537.25
426.291	527.25
426.513	522.25
426.735	525.25
426.958	581.25
427.18	655.25
427.402	806.25
427.625	863.25
427.847	782.25
428.069	659.25
428.292	600.25
428.514	549.25
428.736	496.25
428.958	514.25
429.181	479.25
429.403	463.25
429.625	489.25
429.847	523.25
430.069	594.25
430.292	615.25
430.514	509.25
430.736	483.25
430.958	474.25
431.18	477.25
431.402	453.25
431.624	452.25
431.846	439.25
432.068	451.25
432.29	448.25
432.512	467.25
432.734	458.25
432.956	453.25
433.178	461.25
433.4	473.25
433.622	462.25
433.844	447.25
434.066	443.25
434.287	459.25
434.509	451.25
434.731	462.25
434.953	449.25
435.175	473.25
435.397	524.25
435.618	533.25
435.84	557.25
436.062	663.25
436.284	723.25
436.505	623.25
436.727	532.25
436.949	497.25
437.17	498.25
437.392	489.25
437.614	508.25
437.835	559.25
438.057	638.25
438.278	755.25
438.5	734.25
438.721	797.25
438.943	783.25
439.165	626.25
439.386	563.25
439.608	569.25
439.829	559.25
440.05	579.25
440.272	623.25
440.493	608.25
440.715	556.25
440.936	511.25
441.158	497.25
441.379	479.25
441.6	505.25
441.822	561.25
442.043	560.25
442.264	671.25
442.486	734.25
442.707	600.25
442.928	538.25
443.149	572.25
443.371	564.25
443.592	629.25
443.813	695.25
444.034	779.25
444.255	634.25
444.476	559.25
444.698	521.25
444.919	529.25
445.14	662.25
445.361	608.25
445.582	583.25
445.803	633.25
446.024	766.25
446.245	765.25
446.466	717.25
446.687	595.25
446.908	538.25
447.129	498.25
447.35	495.25
447.571	483.25
447.792	466.25
448.013	499.25
448.234	523.25
448.455	562.25
448.675	715.25
448.896	809.25
449.117	665.25
449.338	666.25
449.559	757.25
449.779	839.25
450	694.25
450.221	557.25
450.442	512.25
450.662	473.25
450.883	509.25
451.104	535.25
451.324	521.25
451.545	480.25
451.766	480.25
451.986	438.25
452.207	435.25
452.428	437.25
452.648	466.25
452.869	449.25
453.089	453.25
453.31	481.25
453.53	466.25
453.751	448.25
453.971	456.25
454.192	463.25
454.412	458.25
454.633	439.25
454.853	417.25
455.073	452.25
455.294	457.25
455.514	536.25
455.734	568.25
455.955	459.25
456.175	411.25
456.395	416.25
456.616	407.25
456.836	409.25
457.056	401.25
457.276	402.25
457.497	407.25
457.717	405.25
457.937	413.25
458.157	423.25
458.377	426.25
458.598	450.25
458.818	530.25
459.038	592.25
459.258	600.25
459.478	517.25
459.698	465.25
459.918	452.25
460.138	436.25
460.358	443.25
460.578	441.25
460.798	445.25
461.018	434.25
461.238	433.25
461.458	444.25
461.678	429.25
461.898	435.25
462.118	425.25
462.338	419.25
462.558	439.25
462.777	441.25
462.997	459.25
463.217	459.25
463.437	476.25
463.657	469.25
463.876	476.25
464.096	472.25
464.316	478.25
464.536	489.25
464.755	461.25
464.975	471.25
465.195	535.25
465.414	645.25
465.634	557.25
465.854	497.25
466.073	460.25
466.293	447.25
466.512	463.25
466.732	432.25
466.951	436.25
467.171	419.25
467.391	441.25
467.61	447.25
467.829	464.25
468.049	455.25
468.268	447.25
468.488	426.25
468.707	421.25
468.927	430.25
469.146	421.25
469.365	424.25
469.585	423.25
469.804	448.25
470.023	446.25
470.243	466.25
470.462	434.25
470.681	473.25
470.901	468.25
471.12	448.25
471.339	448.25
471.558	438.25
471.777	448.25
471.997	462.25
472.216	466.25
472.435	514.25
472.654	481.25
472.873	457.25
473.092	447.25
473.311	469.25
473.53	459.25
473.749	452.25
473.968	491.25
474.187	628.25
474.406	661.25
474.625	537.25
474.844	464.25
475.063	449.25
475.282	447.25
475.501	479.25
475.72	450.25
475.939	466.25
476.158	451.25
476.377	464.25
476.596	460.25
476.814	472.25
477.033	461.25
477.252	472.25
477.471	474.25
477.69	471.25
477.908	485.25
478.127	469.25
478.346	470.25
478.564	482.25
478.783	480.25
479.002	515.25
479.22	517.25
479.439	525.25
479.658	551.25
479.876	544.25
480.095	572.25
480.313	566.25
480.532	563.25
480.751	541.25
480.969	556.25
481.188	630.25
481.406	707.25
481.624	594.25
481.843	570.25
482.061	560.25
482.28	554.25
482.498	529.25
482.717	525.25
482.935	540.25
483.153	514.25
483.372	536.25
483.59	533.25
483.808	531.25
484.027	522.25
484.245	529.25
484.463	541.25
484.681	561.25
484.9	551.25
485.118	522.25
485.336	551.25
485.554	534.25
485.772	564.25
485.99	555.25
486.209	541.25
486.427	569.25
486.645	591.25
486.863	599.25
487.081	599.25
487.299	584.25
487.517	574.25
487.735	569.25
487.953	585.25
488.171	581.25
488.389	588.25
488.607	587.25
488.825	597.25
489.043	574.25
489.261	595.25
489.479	593.25
489.696	576.25
489.914	581.25
490.132	605.25
490.35	600.25
490.568	592.25
490.786	626.25
491.003	639.25
491.221	658.25
491.439	662.25
491.657	664.25
491.874	659.25
492.092	663.25
492.31	667.25
492.527	683.25
492.745	690.25
492.963	689.25
493.18	687.25
493.398	679.25
493.615	667.25
493.833	711.25
494.05	720.25
494.268	689.25
494.485	703.25
494.703	706.25
494.92	680.25
495.138	678.25
495.355	698.25
495.573	704.25
495.79	701.25
496.008	696.25
496.225	703.25
496.442	693.25
496.66	711.25
496.877	678.25
497.094	688.25
497.312	727.25
497.529	707.25
497.746	707.25
497.963	723.25
498.181	741.25
498.398	733.25
498.615	742.25
498.832	772.25
499.049	749.25
499.267	742.25
499.484	766.25
499.701	784.25
499.918	781.25
500.135	832.25
500.352	831.25
500.569	847.25
500.786	831.25
501.003	846.25
501.22	842.25
501.437	817.25
501.654	832.25
501.871	804.25
