Data from 1980.PennyLincolnUp.Lamp.En5.5.200Scan.071819.P1_HRD10591_16-36-29-957.txt Node
Date: Thu Jul 18 16:36:29 EDT 2019
User: cochatt
Spectrometer: HR+D1059
Trigger mode: 1
Integration Time (sec): 1.000000E-1
Scans to average: 1
Electric dark correction enabled: true
Nonlinearity correction enabled: false
Boxcar width: 0
XAxis mode: Wavelengths
Number of Pixels in Spectrum: 2048
>>>>>Begin Spectral Data<<<<<
223.165	-9.81
223.4	-9.81
223.635	-9.81
223.869	-5.81
224.104	-18.81
224.338	3.19
224.573	-10.81
224.808	-8.81
225.042	-19.81
225.277	-4.81
225.511	-6.81
225.746	-7.81
225.98	13.19
226.215	-0.81
226.449	9.19
226.683	17.19
226.918	21.19
227.152	30.19
227.387	42.19
227.621	26.19
227.856	39.19
228.09	43.19
228.324	51.19
228.559	56.19
228.793	70.19
229.027	91.19
229.262	111.19
229.496	120.19
229.73	128.19
229.964	137.19
230.199	123.19
230.433	112.19
230.667	122.19
230.901	112.19
231.136	112.19
231.37	121.19
231.604	102.19
231.838	95.19
232.072	96.19
232.306	120.19
232.541	121.19
232.775	112.19
233.009	106.19
233.243	96.19
233.477	94.19
233.711	120.19
233.945	109.19
234.179	110.19
234.413	122.19
234.647	111.19
234.881	123.19
235.115	116.19
235.349	106.19
235.583	114.19
235.817	128.19
236.051	126.19
236.285	127.19
236.519	111.19
236.753	126.19
236.987	154.19
237.221	163.19
237.455	214.19
237.689	169.19
237.922	130.19
238.156	107.19
238.39	121.19
238.624	128.19
238.858	110.19
239.091	118.19
239.325	107.19
239.559	115.19
239.793	124.19
240.027	130.19
240.26	133.19
240.494	148.19
240.728	151.19
240.961	144.19
241.195	138.19
241.429	145.19
241.662	124.19
241.896	123.19
242.13	124.19
242.363	132.19
242.597	127.19
242.83	132.19
243.064	121.19
243.298	117.19
243.531	134.19
243.765	126.19
243.998	136.19
244.232	138.19
244.465	140.19
244.699	139.19
244.932	134.19
245.166	150.19
245.399	145.19
245.633	138.19
245.866	138.19
246.099	142.19
246.333	133.19
246.566	133.19
246.8	142.19
247.033	127.19
247.266	151.19
247.5	155.19
247.733	172.19
247.966	172.19
248.2	167.19
248.433	171.19
248.666	162.19
248.899	172.19
249.133	194.19
249.366	188.19
249.599	192.19
249.832	173.19
250.066	159.19
250.299	189.19
250.532	167.19
250.765	203.19
250.998	204.19
251.231	235.19
251.465	214.19
251.698	194.19
251.931	167.19
252.164	188.19
252.397	180.19
252.63	182.19
252.863	185.19
253.096	200.19
253.329	207.19
253.562	214.19
253.795	213.19
254.028	213.19
254.261	222.19
254.494	216.19
254.727	244.19
254.96	257.19
255.193	256.19
255.426	235.19
255.659	203.19
255.892	221.19
256.124	218.19
256.357	205.19
256.59	212.19
256.823	204.19
257.056	199.19
257.289	197.19
257.521	193.19
257.754	166.19
257.987	169.19
258.22	204.19
258.452	182.19
258.685	196.19
258.918	207.19
259.151	193.19
259.383	203.19
259.616	204.19
259.849	191.19
260.081	204.19
260.314	226.19
260.547	220.19
260.779	221.19
261.012	205.19
261.244	197.19
261.477	186.19
261.71	211.19
261.942	215.19
262.175	219.19
262.407	204.19
262.64	190.19
262.872	202.19
263.105	188.19
263.337	208.19
263.57	189.19
263.802	181.19
264.035	195.19
264.267	175.19
264.499	186.19
264.732	208.19
264.964	198.19
265.197	184.19
265.429	194.19
265.661	179.19
265.894	195.19
266.126	188.19
266.358	205.19
266.591	199.19
266.823	202.19
267.055	207.19
267.287	217.19
267.52	195.19
267.752	204.19
267.984	181.19
268.216	202.19
268.448	201.19
268.681	204.19
268.913	203.19
269.145	235.19
269.377	250.19
269.609	251.19
269.841	242.19
270.073	244.19
270.306	263.19
270.538	259.19
270.77	283.19
271.002	250.19
271.234	257.19
271.466	253.19
271.698	275.19
271.93	278.19
272.162	304.19
272.394	280.19
272.626	264.19
272.858	251.19
273.09	238.19
273.322	235.19
273.553	227.19
273.785	242.19
274.017	224.19
274.249	232.19
274.481	219.19
274.713	219.19
274.945	236.19
275.176	234.19
275.408	249.19
275.64	233.19
275.872	222.19
276.104	232.19
276.335	252.19
276.567	234.19
276.799	249.19
277.031	278.19
277.262	278.19
277.494	273.19
277.726	252.19
277.957	251.19
278.189	240.19
278.421	253.19
278.652	236.19
278.884	230.19
279.115	228.19
279.347	230.19
279.579	232.19
279.81	236.19
280.042	227.19
280.273	239.19
280.505	211.19
280.736	225.19
280.968	236.19
281.199	231.19
281.431	246.19
281.662	245.19
281.894	208.19
282.125	239.19
282.356	258.19
282.588	262.19
282.819	261.19
283.051	237.19
283.282	240.19
283.513	226.19
283.745	219.19
283.976	220.19
284.207	250.19
284.439	253.19
284.67	220.19
284.901	224.19
285.132	235.19
285.364	233.19
285.595	223.19
285.826	233.19
286.057	231.19
286.288	229.19
286.52	231.19
286.751	235.19
286.982	246.19
287.213	224.19
287.444	240.19
287.675	214.19
287.906	245.19
288.138	254.19
288.369	258.19
288.6	239.19
288.831	252.19
289.062	240.19
289.293	239.19
289.524	225.19
289.755	242.19
289.986	223.19
290.217	235.19
290.448	223.19
290.679	246.19
290.91	229.19
291.141	224.19
291.371	236.19
291.602	224.19
291.833	224.19
292.064	223.19
292.295	232.19
292.526	247.19
292.757	237.19
292.987	244.19
293.218	230.19
293.449	246.19
293.68	240.19
293.91	224.19
294.141	235.19
294.372	248.19
294.603	237.19
294.833	228.19
295.064	219.19
295.295	263.19
295.525	229.19
295.756	233.19
295.987	249.19
296.217	286.19
296.448	272.19
296.679	266.19
296.909	255.19
297.14	254.19
297.37	255.19
297.601	260.19
297.831	256.19
298.062	252.19
298.292	252.19
298.523	249.19
298.753	232.19
298.984	244.19
299.214	247.19
299.445	235.19
299.675	255.19
299.905	246.19
300.136	256.19
300.366	242.19
300.597	254.19
300.827	264.19
301.057	256.19
301.288	265.19
301.518	272.19
301.748	245.19
301.979	260.19
302.209	262.19
302.439	265.19
302.669	258.19
302.9	255.19
303.13	253.19
303.36	268.19
303.59	244.19
303.82	262.19
304.051	263.19
304.281	258.19
304.511	282.19
304.741	274.19
304.971	228.19
305.201	246.19
305.431	267.19
305.661	266.19
305.891	251.19
306.121	247.19
306.352	271.19
306.582	279.19
306.812	254.19
307.042	255.19
307.272	285.19
307.502	278.19
307.731	295.19
307.961	276.19
308.191	265.19
308.421	260.19
308.651	261.19
308.881	270.19
309.111	271.19
309.341	277.19
309.571	286.19
309.8	307.19
310.03	308.19
310.26	294.19
310.49	310.19
310.72	302.19
310.949	318.19
311.179	336.19
311.409	332.19
311.639	318.19
311.868	306.19
312.098	297.19
312.328	332.19
312.557	330.19
312.787	348.19
313.017	331.19
313.246	325.19
313.476	312.19
313.706	308.19
313.935	312.19
314.165	330.19
314.394	350.19
314.624	330.19
314.853	331.19
315.083	328.19
315.312	293.19
315.542	302.19
315.771	317.19
316.001	302.19
316.23	292.19
316.46	297.19
316.689	293.19
316.919	275.19
317.148	314.19
317.377	327.19
317.607	327.19
317.836	317.19
318.065	292.19
318.295	292.19
318.524	312.19
318.753	295.19
318.983	296.19
319.212	311.19
319.441	302.19
319.67	326.19
319.9	314.19
320.129	322.19
320.358	312.19
320.587	326.19
320.816	326.19
321.046	331.19
321.275	349.19
321.504	318.19
321.733	309.19
321.962	336.19
322.191	351.19
322.42	365.19
322.649	381.19
322.878	379.19
323.108	366.19
323.337	415.19
323.566	428.19
323.795	459.19
324.024	504.19
324.253	608.19
324.482	847.19
324.71	1337.19
324.939	1839.19
325.168	1579.19
325.397	856.19
325.626	573.19
325.855	474.19
326.084	418.19
326.313	428.19
326.542	452.19
326.77	469.19
326.999	554.19
327.228	762.19
327.457	1139.19
327.686	1402.19
327.914	950.19
328.143	635.19
328.372	574.19
328.6	528.19
328.829	477.19
329.058	467.19
329.287	486.19
329.515	467.19
329.744	435.19
329.972	427.19
330.201	438.19
330.43	478.19
330.658	510.19
330.887	530.19
331.115	542.19
331.344	451.19
331.572	410.19
331.801	414.19
332.03	411.19
332.258	372.19
332.486	354.19
332.715	353.19
332.943	354.19
333.172	362.19
333.4	380.19
333.629	363.19
333.857	360.19
334.085	390.19
334.314	395.19
334.542	432.19
334.771	421.19
334.999	400.19
335.227	354.19
335.455	352.19
335.684	345.19
335.912	348.19
336.14	342.19
336.369	338.19
336.597	376.19
336.825	368.19
337.053	352.19
337.281	353.19
337.51	352.19
337.738	359.19
337.966	349.19
338.194	341.19
338.422	355.19
338.65	355.19
338.878	347.19
339.106	331.19
339.334	350.19
339.562	327.19
339.79	343.19
340.018	338.19
340.246	331.19
340.474	358.19
340.702	358.19
340.93	324.19
341.158	336.19
341.386	354.19
341.614	355.19
341.842	360.19
342.07	330.19
342.298	332.19
342.526	331.19
342.754	336.19
342.981	333.19
343.209	334.19
343.437	329.19
343.665	320.19
343.893	336.19
344.12	335.19
344.348	328.19
344.576	332.19
344.804	364.19
345.031	352.19
345.259	361.19
345.487	369.19
345.714	354.19
345.942	338.19
346.17	334.19
346.397	336.19
346.625	356.19
346.853	335.19
347.08	323.19
347.308	359.19
347.535	337.19
347.763	337.19
347.99	346.19
348.218	353.19
348.445	347.19
348.673	377.19
348.9	322.19
349.128	332.19
349.355	339.19
349.583	335.19
349.81	333.19
350.037	330.19
350.265	328.19
350.492	328.19
350.72	336.19
350.947	326.19
351.174	353.19
351.402	351.19
351.629	357.19
351.856	354.19
352.083	349.19
352.311	352.19
352.538	364.19
352.765	370.19
352.992	345.19
353.22	342.19
353.447	331.19
353.674	318.19
353.901	324.19
354.128	326.19
354.355	312.19
354.583	307.19
354.81	328.19
355.037	331.19
355.264	310.19
355.491	308.19
355.718	309.19
355.945	312.19
356.172	297.19
356.399	304.19
356.626	331.19
356.853	317.19
357.08	340.19
357.307	300.19
357.534	304.19
357.761	316.19
357.988	320.19
358.215	319.19
358.441	305.19
358.668	313.19
358.895	321.19
359.122	328.19
359.349	338.19
359.576	337.19
359.802	362.19
360.029	382.19
360.256	406.19
360.483	372.19
360.709	365.19
360.936	350.19
361.163	335.19
361.39	333.19
361.616	349.19
361.843	343.19
362.07	333.19
362.296	343.19
362.523	349.19
362.749	360.19
362.976	355.19
363.203	330.19
363.429	328.19
363.656	324.19
363.882	320.19
364.109	333.19
364.335	326.19
364.562	322.19
364.788	340.19
365.015	330.19
365.241	351.19
365.468	325.19
365.694	326.19
365.92	363.19
366.147	334.19
366.373	313.19
366.599	314.19
366.826	325.19
367.052	326.19
367.278	326.19
367.505	322.19
367.731	330.19
367.957	329.19
368.184	336.19
368.41	337.19
368.636	336.19
368.862	344.19
369.089	331.19
369.315	312.19
369.541	328.19
369.767	327.19
369.993	326.19
370.219	325.19
370.445	324.19
370.672	318.19
370.898	306.19
371.124	308.19
371.35	327.19
371.576	311.19
371.802	307.19
372.028	306.19
372.254	322.19
372.48	315.19
372.706	320.19
372.932	324.19
373.158	308.19
373.384	312.19
373.61	324.19
373.835	330.19
374.061	313.19
374.287	327.19
374.513	306.19
374.739	335.19
374.965	336.19
375.191	333.19
375.416	336.19
375.642	313.19
375.868	316.19
376.094	331.19
376.319	319.19
376.545	339.19
376.771	314.19
376.997	322.19
377.222	324.19
377.448	316.19
377.674	318.19
377.899	313.19
378.125	301.19
378.35	302.19
378.576	311.19
378.802	322.19
379.027	335.19
379.253	332.19
379.478	317.19
379.704	327.19
379.929	322.19
380.155	322.19
380.38	316.19
380.606	325.19
380.831	308.19
381.057	323.19
381.282	338.19
381.507	330.19
381.733	330.19
381.958	319.19
382.184	343.19
382.409	333.19
382.634	303.19
382.86	334.19
383.085	324.19
383.31	330.19
383.535	347.19
383.761	324.19
383.986	330.19
384.211	346.19
384.436	319.19
384.662	316.19
384.887	338.19
385.112	321.19
385.337	326.19
385.562	344.19
385.787	342.19
386.013	358.19
386.238	360.19
386.463	349.19
386.688	356.19
386.913	334.19
387.138	328.19
387.363	316.19
387.588	329.19
387.813	335.19
388.038	329.19
388.263	333.19
388.488	345.19
388.713	339.19
388.938	334.19
389.163	346.19
389.387	361.19
389.612	344.19
389.837	360.19
390.062	344.19
390.287	333.19
390.512	326.19
390.736	350.19
390.961	342.19
391.186	330.19
391.411	344.19
391.636	333.19
391.86	345.19
392.085	338.19
392.31	355.19
392.534	346.19
392.759	355.19
392.984	331.19
393.208	351.19
393.433	340.19
393.658	360.19
393.882	347.19
394.107	333.19
394.331	347.19
394.556	358.19
394.78	342.19
395.005	353.19
395.229	347.19
395.454	360.19
395.678	346.19
395.903	373.19
396.127	363.19
396.352	378.19
396.576	378.19
396.801	361.19
397.025	360.19
397.249	363.19
397.474	353.19
397.698	363.19
397.922	374.19
398.147	374.19
398.371	390.19
398.595	392.19
398.82	375.19
399.044	407.19
399.268	395.19
399.492	408.19
399.717	417.19
399.941	432.19
400.165	445.19
400.389	466.19
400.613	442.19
400.837	394.19
401.062	378.19
401.286	405.19
401.51	386.19
401.734	378.19
401.958	378.19
402.182	386.19
402.406	402.19
402.63	395.19
402.854	390.19
403.078	395.19
403.302	392.19
403.526	394.19
403.75	396.19
403.974	392.19
404.198	400.19
404.422	411.19
404.645	390.19
404.869	416.19
405.093	415.19
405.317	460.19
405.541	476.19
405.765	461.19
405.988	420.19
406.212	426.19
406.436	444.19
406.66	446.19
406.883	441.19
407.107	477.19
407.331	486.19
407.555	528.19
407.778	532.19
408.002	486.19
408.226	475.19
408.449	456.19
408.673	450.19
408.896	464.19
409.12	485.19
409.344	476.19
409.567	437.19
409.791	422.19
410.014	411.19
410.238	399.19
410.461	414.19
410.685	407.19
410.908	407.19
411.132	419.19
411.355	478.19
411.578	470.19
411.802	416.19
412.025	404.19
412.249	399.19
412.472	435.19
412.695	443.19
412.919	457.19
413.142	411.19
413.365	414.19
413.589	392.19
413.812	388.19
414.035	385.19
414.258	383.19
414.482	388.19
414.705	380.19
414.928	388.19
415.151	378.19
415.374	368.19
415.597	368.19
415.821	356.19
416.044	394.19
416.267	385.19
416.49	382.19
416.713	388.19
416.936	366.19
417.159	378.19
417.382	378.19
417.605	381.19
417.828	380.19
418.051	372.19
418.274	407.19
418.497	384.19
418.72	373.19
418.943	364.19
419.166	392.19
419.389	408.19
419.611	418.19
419.834	407.19
420.057	419.19
420.28	407.19
420.503	413.19
420.726	406.19
420.948	406.19
421.171	450.19
421.394	462.19
421.617	436.19
421.839	403.19
422.062	390.19
422.285	440.19
422.507	469.19
422.73	543.19
422.953	538.19
423.175	474.19
423.398	436.19
423.621	429.19
423.843	434.19
424.066	445.19
424.288	431.19
424.511	453.19
424.733	482.19
424.956	572.19
425.178	553.19
425.401	548.19
425.623	546.19
425.846	467.19
426.068	472.19
426.291	435.19
426.513	455.19
426.735	440.19
426.958	502.19
427.18	539.19
427.402	652.19
427.625	724.19
427.847	652.19
428.069	570.19
428.292	490.19
428.514	448.19
428.736	459.19
428.958	431.19
429.181	416.19
429.403	424.19
429.625	422.19
429.847	422.19
430.069	523.19
430.292	525.19
430.514	438.19
430.736	416.19
430.958	406.19
431.18	403.19
431.402	414.19
431.624	388.19
431.846	383.19
432.068	379.19
432.29	392.19
432.512	384.19
432.734	404.19
432.956	387.19
433.178	407.19
433.4	408.19
433.622	416.19
433.844	376.19
434.066	386.19
434.287	386.19
434.509	377.19
434.731	374.19
434.953	413.19
435.175	405.19
435.397	428.19
435.618	446.19
435.84	478.19
436.062	573.19
436.284	646.19
436.505	516.19
436.727	485.19
436.949	447.19
437.17	411.19
437.392	437.19
437.614	422.19
437.835	462.19
438.057	534.19
438.278	638.19
438.5	643.19
438.721	671.19
438.943	636.19
439.165	512.19
439.386	474.19
439.608	467.19
439.829	458.19
440.05	485.19
440.272	526.19
440.493	506.19
440.715	452.19
440.936	446.19
441.158	420.19
441.379	423.19
441.6	444.19
441.822	448.19
442.043	479.19
442.264	555.19
442.486	601.19
442.707	509.19
442.928	482.19
443.149	479.19
443.371	490.19
443.592	520.19
443.813	588.19
444.034	658.19
444.255	518.19
444.476	474.19
444.698	432.19
444.919	427.19
445.14	546.19
445.361	495.19
445.582	487.19
445.803	531.19
446.024	635.19
446.245	620.19
446.466	577.19
446.687	516.19
446.908	469.19
447.129	438.19
447.35	419.19
447.571	426.19
447.792	421.19
448.013	415.19
448.234	459.19
448.455	479.19
448.675	565.19
448.896	640.19
449.117	575.19
449.338	549.19
449.559	632.19
449.779	686.19
450	592.19
450.221	482.19
450.442	441.19
450.662	435.19
450.883	422.19
451.104	426.19
451.324	429.19
451.545	409.19
451.766	404.19
451.986	390.19
452.207	365.19
452.428	381.19
452.648	370.19
452.869	369.19
453.089	383.19
453.31	396.19
453.53	383.19
453.751	379.19
453.971	405.19
454.192	392.19
454.412	374.19
454.633	370.19
454.853	383.19
455.073	377.19
455.294	391.19
455.514	439.19
455.734	440.19
455.955	382.19
456.175	372.19
456.395	364.19
456.616	353.19
456.836	351.19
457.056	370.19
457.276	342.19
457.497	346.19
457.717	348.19
457.937	359.19
458.157	352.19
458.377	380.19
458.598	392.19
458.818	422.19
459.038	491.19
459.258	516.19
459.478	442.19
459.698	391.19
459.918	373.19
460.138	396.19
460.358	378.19
460.578	380.19
460.798	375.19
461.018	408.19
461.238	373.19
461.458	413.19
461.678	366.19
461.898	363.19
462.118	382.19
462.338	406.19
462.558	387.19
462.777	395.19
462.997	397.19
463.217	416.19
463.437	390.19
463.657	388.19
463.876	410.19
464.096	394.19
464.316	406.19
464.536	396.19
464.755	412.19
464.975	408.19
465.195	467.19
465.414	501.19
465.634	468.19
465.854	449.19
466.073	394.19
466.293	399.19
466.512	396.19
466.732	378.19
466.951	400.19
467.171	365.19
467.391	370.19
467.61	376.19
467.829	406.19
468.049	374.19
468.268	376.19
468.488	364.19
468.707	381.19
468.927	355.19
469.146	348.19
469.365	356.19
469.585	367.19
469.804	376.19
470.023	386.19
470.243	390.19
470.462	383.19
470.681	413.19
470.901	405.19
471.12	383.19
471.339	408.19
471.558	382.19
471.777	391.19
471.997	373.19
472.216	375.19
472.435	408.19
472.654	398.19
472.873	399.19
473.092	383.19
473.311	386.19
473.53	389.19
473.749	398.19
473.968	427.19
474.187	515.19
474.406	545.19
474.625	447.19
474.844	398.19
475.063	395.19
475.282	389.19
475.501	398.19
475.72	384.19
475.939	394.19
476.158	388.19
476.377	386.19
476.596	395.19
476.814	400.19
477.033	421.19
477.252	422.19
477.471	390.19
477.69	420.19
477.908	410.19
478.127	419.19
478.346	410.19
478.564	431.19
478.783	429.19
479.002	418.19
479.22	433.19
479.439	440.19
479.658	452.19
479.876	451.19
480.095	459.19
480.313	489.19
480.532	477.19
480.751	456.19
480.969	486.19
481.188	510.19
481.406	516.19
481.624	504.19
481.843	463.19
482.061	436.19
482.28	445.19
482.498	449.19
482.717	442.19
482.935	458.19
483.153	461.19
483.372	453.19
483.59	460.19
483.808	436.19
484.027	447.19
484.245	446.19
484.463	456.19
484.681	476.19
484.9	455.19
485.118	484.19
485.336	463.19
485.554	489.19
485.772	460.19
485.99	480.19
486.209	492.19
486.427	474.19
486.645	478.19
486.863	492.19
487.081	511.19
487.299	483.19
487.517	475.19
487.735	505.19
487.953	488.19
488.171	473.19
488.389	518.19
488.607	479.19
488.825	491.19
489.043	518.19
489.261	505.19
489.479	482.19
489.696	491.19
489.914	512.19
490.132	494.19
490.35	514.19
490.568	506.19
490.786	518.19
491.003	520.19
491.221	549.19
491.439	563.19
491.657	545.19
491.874	584.19
492.092	552.19
492.31	569.19
492.527	564.19
492.745	584.19
492.963	553.19
493.18	577.19
493.398	582.19
493.615	567.19
493.833	574.19
494.05	584.19
494.268	575.19
494.485	557.19
494.703	585.19
494.92	599.19
495.138	588.19
495.355	600.19
495.573	597.19
495.79	573.19
496.008	586.19
496.225	576.19
496.442	583.19
496.66	599.19
496.877	568.19
497.094	593.19
497.312	598.19
497.529	619.19
497.746	588.19
497.963	609.19
498.181	637.19
498.398	609.19
498.615	614.19
498.832	638.19
499.049	652.19
499.267	646.19
499.484	647.19
499.701	664.19
499.918	672.19
500.135	679.19
500.352	710.19
500.569	722.19
500.786	728.19
501.003	721.19
501.22	676.19
501.437	701.19
501.654	698.19
501.871	700.19
502.088	684.19
