Data from 1980.PennyLincolnUp.Lamp.En5.5.200Scan.071819.P1_HRD10591_16-36-39-957.txt Node
Date: Thu Jul 18 16:36:39 EDT 2019
User: cochatt
Spectrometer: HR+D1059
Trigger mode: 1
Integration Time (sec): 1.000000E-1
Scans to average: 1
Electric dark correction enabled: true
Nonlinearity correction enabled: false
Boxcar width: 0
XAxis mode: Wavelengths
Number of Pixels in Spectrum: 2048
>>>>>Begin Spectral Data<<<<<
223.165	-7.69
223.4	-7.69
223.635	-7.69
223.869	-13.69
224.104	-22.69
224.338	-35.69
224.573	-14.69
224.808	-8.69
225.042	-14.69
225.277	-11.69
225.511	5.31
225.746	1.31
225.98	-0.69
226.215	9.31
226.449	22.31
226.683	31.31
226.918	23.31
227.152	37.31
227.387	38.31
227.621	50.31
227.856	54.31
228.09	42.31
228.324	44.31
228.559	59.31
228.793	57.31
229.027	86.31
229.262	105.31
229.496	125.31
229.73	150.31
229.964	169.31
230.199	147.31
230.433	106.31
230.667	109.31
230.901	107.31
231.136	106.31
231.37	105.31
231.604	101.31
231.838	97.31
232.072	107.31
232.306	110.31
232.541	113.31
232.775	115.31
233.009	124.31
233.243	117.31
233.477	112.31
233.711	117.31
233.945	125.31
234.179	110.31
234.413	115.31
234.647	125.31
234.881	120.31
235.115	118.31
235.349	117.31
235.583	102.31
235.817	113.31
236.051	125.31
236.285	133.31
236.519	116.31
236.753	125.31
236.987	142.31
237.221	180.31
237.455	220.31
237.689	194.31
237.922	136.31
238.156	133.31
238.39	119.31
238.624	124.31
238.858	110.31
239.091	119.31
239.325	124.31
239.559	126.31
239.793	115.31
240.027	134.31
240.26	127.31
240.494	163.31
240.728	153.31
240.961	142.31
241.195	153.31
241.429	134.31
241.662	128.31
241.896	141.31
242.13	142.31
242.363	133.31
242.597	129.31
242.83	125.31
243.064	135.31
243.298	132.31
243.531	138.31
243.765	127.31
243.998	135.31
244.232	137.31
244.465	140.31
244.699	131.31
244.932	137.31
245.166	140.31
245.399	138.31
245.633	137.31
245.866	141.31
246.099	135.31
246.333	139.31
246.566	143.31
246.8	136.31
247.033	158.31
247.266	153.31
247.5	163.31
247.733	171.31
247.966	170.31
248.2	163.31
248.433	174.31
248.666	177.31
248.899	188.31
249.133	191.31
249.366	214.31
249.599	197.31
249.832	177.31
250.066	179.31
250.299	172.31
250.532	185.31
250.765	205.31
250.998	199.31
251.231	222.31
251.465	211.31
251.698	209.31
251.931	181.31
252.164	206.31
252.397	194.31
252.63	202.31
252.863	205.31
253.096	210.31
253.329	242.31
253.562	238.31
253.795	211.31
254.028	227.31
254.261	215.31
254.494	218.31
254.727	242.31
254.96	276.31
255.193	267.31
255.426	252.31
255.659	232.31
255.892	219.31
256.124	212.31
256.357	222.31
256.59	222.31
256.823	207.31
257.056	200.31
257.289	210.31
257.521	219.31
257.754	200.31
257.987	212.31
258.22	200.31
258.452	213.31
258.685	196.31
258.918	206.31
259.151	200.31
259.383	189.31
259.616	211.31
259.849	235.31
260.081	252.31
260.314	225.31
260.547	249.31
260.779	223.31
261.012	233.31
261.244	238.31
261.477	219.31
261.71	200.31
261.942	215.31
262.175	239.31
262.407	213.31
262.64	218.31
262.872	194.31
263.105	192.31
263.337	214.31
263.57	215.31
263.802	204.31
264.035	195.31
264.267	190.31
264.499	201.31
264.732	205.31
264.964	208.31
265.197	197.31
265.429	181.31
265.661	201.31
265.894	200.31
266.126	198.31
266.358	196.31
266.591	213.31
266.823	210.31
267.055	211.31
267.287	223.31
267.52	219.31
267.752	215.31
267.984	210.31
268.216	219.31
268.448	221.31
268.681	223.31
268.913	238.31
269.145	245.31
269.377	281.31
269.609	279.31
269.841	262.31
270.073	278.31
270.306	274.31
270.538	301.31
270.77	293.31
271.002	295.31
271.234	281.31
271.466	284.31
271.698	292.31
271.93	322.31
272.162	303.31
272.394	300.31
272.626	291.31
272.858	285.31
273.09	271.31
273.322	265.31
273.553	245.31
273.785	265.31
274.017	243.31
274.249	258.31
274.481	247.31
274.713	251.31
274.945	257.31
275.176	253.31
275.408	258.31
275.64	253.31
275.872	244.31
276.104	274.31
276.335	218.31
276.567	257.31
276.799	257.31
277.031	284.31
277.262	312.31
277.494	317.31
277.726	282.31
277.957	275.31
278.189	275.31
278.421	259.31
278.652	254.31
278.884	242.31
279.115	236.31
279.347	255.31
279.579	245.31
279.81	246.31
280.042	241.31
280.273	236.31
280.505	275.31
280.736	239.31
280.968	226.31
281.199	233.31
281.431	246.31
281.662	229.31
281.894	243.31
282.125	240.31
282.356	261.31
282.588	283.31
282.819	302.31
283.051	240.31
283.282	261.31
283.513	235.31
283.745	241.31
283.976	257.31
284.207	249.31
284.439	243.31
284.67	241.31
284.901	278.31
285.132	269.31
285.364	261.31
285.595	266.31
285.826	243.31
286.057	278.31
286.288	243.31
286.52	245.31
286.751	235.31
286.982	232.31
287.213	232.31
287.444	263.31
287.675	246.31
287.906	269.31
288.138	277.31
288.369	256.31
288.6	292.31
288.831	268.31
289.062	278.31
289.293	267.31
289.524	243.31
289.755	266.31
289.986	248.31
290.217	254.31
290.448	250.31
290.679	258.31
290.91	261.31
291.141	241.31
291.371	269.31
291.602	256.31
291.833	266.31
292.064	249.31
292.295	238.31
292.526	257.31
292.757	261.31
292.987	251.31
293.218	271.31
293.449	266.31
293.68	245.31
293.91	253.31
294.141	237.31
294.372	255.31
294.603	234.31
294.833	265.31
295.064	247.31
295.295	266.31
295.525	265.31
295.756	254.31
295.987	290.31
296.217	297.31
296.448	280.31
296.679	262.31
296.909	263.31
297.14	254.31
297.37	266.31
297.601	255.31
297.831	262.31
298.062	274.31
298.292	271.31
298.523	267.31
298.753	264.31
298.984	261.31
299.214	271.31
299.445	273.31
299.675	254.31
299.905	273.31
300.136	276.31
300.366	250.31
300.597	289.31
300.827	287.31
301.057	291.31
301.288	300.31
301.518	302.31
301.748	277.31
301.979	277.31
302.209	292.31
302.439	297.31
302.669	302.31
302.9	286.31
303.13	287.31
303.36	294.31
303.59	284.31
303.82	299.31
304.051	299.31
304.281	300.31
304.511	275.31
304.741	277.31
304.971	287.31
305.201	294.31
305.431	277.31
305.661	302.31
305.891	294.31
306.121	290.31
306.352	290.31
306.582	296.31
306.812	287.31
307.042	309.31
307.272	287.31
307.502	297.31
307.731	300.31
307.961	302.31
308.191	301.31
308.421	320.31
308.651	293.31
308.881	301.31
309.111	317.31
309.341	310.31
309.571	328.31
309.8	340.31
310.03	344.31
310.26	323.31
310.49	317.31
310.72	332.31
310.949	359.31
311.179	366.31
311.409	341.31
311.639	340.31
311.868	342.31
312.098	325.31
312.328	348.31
312.557	349.31
312.787	364.31
313.017	378.31
313.246	347.31
313.476	338.31
313.706	332.31
313.935	353.31
314.165	351.31
314.394	371.31
314.624	357.31
314.853	355.31
315.083	349.31
315.312	348.31
315.542	338.31
315.771	323.31
316.001	326.31
316.23	325.31
316.46	346.31
316.689	333.31
316.919	343.31
317.148	339.31
317.377	330.31
317.607	350.31
317.836	354.31
318.065	347.31
318.295	359.31
318.524	341.31
318.753	331.31
318.983	343.31
319.212	317.31
319.441	330.31
319.67	353.31
319.9	359.31
320.129	337.31
320.358	350.31
320.587	353.31
320.816	349.31
321.046	375.31
321.275	356.31
321.504	360.31
321.733	346.31
321.962	378.31
322.191	379.31
322.42	406.31
322.649	407.31
322.878	424.31
323.108	423.31
323.337	453.31
323.566	457.31
323.795	515.31
324.024	551.31
324.253	663.31
324.482	946.31
324.71	1477.31
324.939	2115.31
325.168	1836.31
325.397	960.31
325.626	659.31
325.855	521.31
326.084	492.31
326.313	451.31
326.542	483.31
326.77	520.31
326.999	628.31
327.228	859.31
327.457	1285.31
327.686	1604.31
327.914	1102.31
328.143	712.31
328.372	594.31
328.6	573.31
328.829	530.31
329.058	571.31
329.287	565.31
329.515	498.31
329.744	477.31
329.972	461.31
330.201	497.31
330.43	522.31
330.658	546.31
330.887	601.31
331.115	573.31
331.344	493.31
331.572	455.31
331.801	433.31
332.03	421.31
332.258	438.31
332.486	385.31
332.715	413.31
332.943	397.31
333.172	414.31
333.4	386.31
333.629	407.31
333.857	421.31
334.085	423.31
334.314	422.31
334.542	452.31
334.771	484.31
334.999	439.31
335.227	421.31
335.455	390.31
335.684	409.31
335.912	397.31
336.14	377.31
336.369	398.31
336.597	403.31
336.825	410.31
337.053	380.31
337.281	377.31
337.51	373.31
337.738	384.31
337.966	381.31
338.194	396.31
338.422	398.31
338.65	399.31
338.878	397.31
339.106	379.31
339.334	369.31
339.562	363.31
339.79	365.31
340.018	394.31
340.246	383.31
340.474	377.31
340.702	398.31
340.93	361.31
341.158	381.31
341.386	381.31
341.614	383.31
341.842	372.31
342.07	394.31
342.298	371.31
342.526	373.31
342.754	361.31
342.981	352.31
343.209	379.31
343.437	363.31
343.665	372.31
343.893	373.31
344.12	374.31
344.348	370.31
344.576	371.31
344.804	364.31
345.031	381.31
345.259	397.31
345.487	390.31
345.714	397.31
345.942	373.31
346.17	365.31
346.397	350.31
346.625	376.31
346.853	377.31
347.08	371.31
347.308	347.31
347.535	371.31
347.763	388.31
347.99	377.31
348.218	364.31
348.445	373.31
348.673	369.31
348.9	378.31
349.128	378.31
349.355	370.31
349.583	356.31
349.81	372.31
350.037	353.31
350.265	347.31
350.492	354.31
350.72	354.31
350.947	390.31
351.174	379.31
351.402	377.31
351.629	390.31
351.856	361.31
352.083	383.31
352.311	383.31
352.538	395.31
352.765	400.31
352.992	391.31
353.22	369.31
353.447	369.31
353.674	343.31
353.901	358.31
354.128	347.31
354.355	353.31
354.583	335.31
354.81	356.31
355.037	346.31
355.264	353.31
355.491	342.31
355.718	361.31
355.945	349.31
356.172	343.31
356.399	347.31
356.626	333.31
356.853	341.31
357.08	328.31
357.307	343.31
357.534	343.31
357.761	341.31
357.988	345.31
358.215	346.31
358.441	336.31
358.668	333.31
358.895	346.31
359.122	343.31
359.349	369.31
359.576	379.31
359.802	397.31
360.029	445.31
360.256	421.31
360.483	426.31
360.709	387.31
360.936	371.31
361.163	377.31
361.39	376.31
361.616	395.31
361.843	376.31
362.07	374.31
362.296	378.31
362.523	370.31
362.749	364.31
362.976	373.31
363.203	357.31
363.429	348.31
363.656	349.31
363.882	359.31
364.109	364.31
364.335	354.31
364.562	347.31
364.788	346.31
365.015	355.31
365.241	339.31
365.468	358.31
365.694	375.31
365.92	365.31
366.147	344.31
366.373	359.31
366.599	352.31
366.826	347.31
367.052	343.31
367.278	355.31
367.505	365.31
367.731	355.31
367.957	357.31
368.184	359.31
368.41	348.31
368.636	364.31
368.862	371.31
369.089	371.31
369.315	365.31
369.541	347.31
369.767	359.31
369.993	351.31
370.219	356.31
370.445	361.31
370.672	352.31
370.898	339.31
371.124	343.31
371.35	343.31
371.576	365.31
371.802	356.31
372.028	354.31
372.254	330.31
372.48	336.31
372.706	353.31
372.932	335.31
373.158	373.31
373.384	343.31
373.61	350.31
373.835	356.31
374.061	351.31
374.287	350.31
374.513	353.31
374.739	343.31
374.965	346.31
375.191	341.31
375.416	353.31
375.642	340.31
375.868	358.31
376.094	362.31
376.319	339.31
376.545	340.31
376.771	338.31
376.997	344.31
377.222	348.31
377.448	356.31
377.674	352.31
377.899	319.31
378.125	347.31
378.35	351.31
378.576	336.31
378.802	340.31
379.027	350.31
379.253	343.31
379.478	373.31
379.704	349.31
379.929	362.31
380.155	349.31
380.38	346.31
380.606	357.31
380.831	366.31
381.057	379.31
381.282	356.31
381.507	354.31
381.733	351.31
381.958	377.31
382.184	352.31
382.409	351.31
382.634	349.31
382.86	336.31
383.085	362.31
383.31	356.31
383.535	347.31
383.761	350.31
383.986	361.31
384.211	353.31
384.436	333.31
384.662	348.31
384.887	361.31
385.112	357.31
385.337	354.31
385.562	364.31
385.787	361.31
386.013	390.31
386.238	381.31
386.463	375.31
386.688	380.31
386.913	378.31
387.138	364.31
387.363	381.31
387.588	359.31
387.813	378.31
388.038	359.31
388.263	375.31
388.488	379.31
388.713	370.31
388.938	367.31
389.163	383.31
389.387	372.31
389.612	350.31
389.837	353.31
390.062	354.31
390.287	369.31
390.512	349.31
390.736	357.31
390.961	373.31
391.186	377.31
391.411	355.31
391.636	367.31
391.86	385.31
392.085	375.31
392.31	372.31
392.534	366.31
392.759	379.31
392.984	386.31
393.208	382.31
393.433	383.31
393.658	392.31
393.882	365.31
394.107	381.31
394.331	361.31
394.556	356.31
394.78	393.31
395.005	361.31
395.229	369.31
395.454	389.31
395.678	389.31
395.903	374.31
396.127	410.31
396.352	431.31
396.576	387.31
396.801	386.31
397.025	391.31
397.249	381.31
397.474	399.31
397.698	392.31
397.922	378.31
398.147	436.31
398.371	430.31
398.595	408.31
398.82	426.31
399.044	405.31
399.268	426.31
399.492	451.31
399.717	439.31
399.941	480.31
400.165	497.31
400.389	516.31
400.613	462.31
400.837	448.31
401.062	433.31
401.286	426.31
401.51	439.31
401.734	411.31
401.958	411.31
402.182	431.31
402.406	430.31
402.63	443.31
402.854	440.31
403.078	432.31
403.302	427.31
403.526	452.31
403.75	434.31
403.974	440.31
404.198	446.31
404.422	443.31
404.645	450.31
404.869	437.31
405.093	458.31
405.317	492.31
405.541	537.31
405.765	476.31
405.988	461.31
406.212	476.31
406.436	493.31
406.66	510.31
406.883	479.31
407.107	471.31
407.331	552.31
407.555	575.31
407.778	598.31
408.002	541.31
408.226	491.31
408.449	485.31
408.673	477.31
408.896	504.31
409.12	542.31
409.344	515.31
409.567	465.31
409.791	431.31
410.014	451.31
410.238	457.31
410.461	434.31
410.685	471.31
410.908	454.31
411.132	492.31
411.355	528.31
411.578	491.31
411.802	435.31
412.025	451.31
412.249	462.31
412.472	490.31
412.695	487.31
412.919	485.31
413.142	467.31
413.365	443.31
413.589	435.31
413.812	426.31
414.035	423.31
414.258	419.31
414.482	418.31
414.705	394.31
414.928	398.31
415.151	389.31
415.374	393.31
415.597	411.31
415.821	398.31
416.044	423.31
416.267	428.31
416.49	436.31
416.713	402.31
416.936	419.31
417.159	412.31
417.382	396.31
417.605	428.31
417.828	435.31
418.051	421.31
418.274	434.31
418.497	415.31
418.72	427.31
418.943	403.31
419.166	436.31
419.389	430.31
419.611	457.31
419.834	454.31
420.057	457.31
420.28	433.31
420.503	439.31
420.726	445.31
420.948	446.31
421.171	488.31
421.394	528.31
421.617	474.31
421.839	463.31
422.062	451.31
422.285	460.31
422.507	509.31
422.73	581.31
422.953	556.31
423.175	469.31
423.398	494.31
423.621	455.31
423.843	487.31
424.066	479.31
424.288	465.31
424.511	485.31
424.733	553.31
424.956	633.31
425.178	614.31
425.401	603.31
425.623	635.31
425.846	552.31
426.068	511.31
426.291	483.31
426.513	501.31
426.735	501.31
426.958	535.31
427.18	617.31
427.402	731.31
427.625	806.31
427.847	714.31
428.069	633.31
428.292	569.31
428.514	517.31
428.736	479.31
428.958	465.31
429.181	468.31
429.403	470.31
429.625	455.31
429.847	477.31
430.069	555.31
430.292	541.31
430.514	477.31
430.736	477.31
430.958	439.31
431.18	449.31
431.402	441.31
431.624	415.31
431.846	411.31
432.068	421.31
432.29	450.31
432.512	429.31
432.734	423.31
432.956	440.31
433.178	447.31
433.4	460.31
433.622	450.31
433.844	423.31
434.066	406.31
434.287	428.31
434.509	436.31
434.731	453.31
434.953	454.31
435.175	456.31
435.397	460.31
435.618	500.31
435.84	537.31
436.062	600.31
436.284	691.31
436.505	555.31
436.727	521.31
436.949	486.31
437.17	478.31
437.392	442.31
437.614	458.31
437.835	516.31
438.057	629.31
438.278	686.31
438.5	693.31
438.721	747.31
438.943	701.31
439.165	567.31
439.386	537.31
439.608	511.31
439.829	521.31
440.05	552.31
440.272	579.31
440.493	526.31
440.715	499.31
440.936	464.31
441.158	462.31
441.379	436.31
441.6	469.31
441.822	494.31
442.043	533.31
442.264	605.31
442.486	654.31
442.707	549.31
442.928	519.31
443.149	508.31
443.371	546.31
443.592	573.31
443.813	669.31
444.034	706.31
444.255	612.31
444.476	527.31
444.698	484.31
444.919	494.31
445.14	569.31
445.361	516.31
445.582	539.31
445.803	589.31
446.024	686.31
446.245	705.31
446.466	636.31
446.687	554.31
446.908	483.31
447.129	480.31
447.35	455.31
447.571	467.31
447.792	449.31
448.013	455.31
448.234	478.31
448.455	543.31
448.675	640.31
448.896	716.31
449.117	634.31
449.338	606.31
449.559	661.31
449.779	785.31
450	607.31
450.221	499.31
450.442	471.31
450.662	437.31
450.883	471.31
451.104	491.31
451.324	492.31
451.545	439.31
451.766	422.31
451.986	417.31
452.207	415.31
452.428	403.31
452.648	416.31
452.869	431.31
453.089	411.31
453.31	430.31
453.53	428.31
453.751	408.31
453.971	397.31
454.192	425.31
454.412	429.31
454.633	411.31
454.853	406.31
455.073	420.31
455.294	435.31
455.514	495.31
455.734	478.31
455.955	409.31
456.175	398.31
456.395	400.31
456.616	386.31
456.836	381.31
457.056	379.31
457.276	375.31
457.497	391.31
457.717	399.31
457.937	381.31
458.157	378.31
458.377	417.31
458.598	418.31
458.818	488.31
459.038	558.31
459.258	592.31
459.478	478.31
459.698	431.31
459.918	422.31
460.138	396.31
460.358	403.31
460.578	397.31
460.798	422.31
461.018	422.31
461.238	434.31
461.458	417.31
461.678	406.31
461.898	418.31
462.118	403.31
462.338	421.31
462.558	412.31
462.777	425.31
462.997	441.31
463.217	450.31
463.437	447.31
463.657	425.31
463.876	436.31
464.096	449.31
464.316	464.31
464.536	467.31
464.755	450.31
464.975	455.31
465.195	510.31
465.414	577.31
465.634	515.31
465.854	462.31
466.073	452.31
466.293	428.31
466.512	447.31
466.732	411.31
466.951	403.31
467.171	390.31
467.391	418.31
467.61	435.31
467.829	422.31
468.049	427.31
468.268	427.31
468.488	412.31
468.707	410.31
468.927	429.31
469.146	390.31
469.365	401.31
469.585	392.31
469.804	410.31
470.023	421.31
470.243	414.31
470.462	436.31
470.681	435.31
470.901	446.31
471.12	415.31
471.339	418.31
471.558	415.31
471.777	423.31
471.997	417.31
472.216	430.31
472.435	433.31
472.654	419.31
472.873	402.31
473.092	411.31
473.311	399.31
473.53	422.31
473.749	429.31
473.968	481.31
474.187	552.31
474.406	607.31
474.625	507.31
474.844	443.31
475.063	423.31
475.282	431.31
475.501	417.31
475.72	435.31
475.939	428.31
476.158	435.31
476.377	433.31
476.596	457.31
476.814	453.31
477.033	449.31
477.252	441.31
477.471	441.31
477.69	436.31
477.908	464.31
478.127	445.31
478.346	453.31
478.564	455.31
478.783	462.31
479.002	474.31
479.22	467.31
479.439	487.31
479.658	504.31
479.876	505.31
480.095	501.31
480.313	530.31
480.532	514.31
480.751	504.31
480.969	523.31
481.188	558.31
481.406	600.31
481.624	534.31
481.843	491.31
482.061	494.31
482.28	500.31
482.498	483.31
482.717	491.31
482.935	489.31
483.153	484.31
483.372	507.31
483.59	495.31
483.808	501.31
484.027	485.31
484.245	490.31
484.463	510.31
484.681	492.31
484.9	511.31
485.118	492.31
485.336	515.31
485.554	503.31
485.772	522.31
485.99	522.31
486.209	529.31
486.427	523.31
486.645	538.31
486.863	559.31
487.081	547.31
487.299	550.31
487.517	537.31
487.735	525.31
487.953	535.31
488.171	539.31
488.389	531.31
488.607	534.31
488.825	514.31
489.043	542.31
489.261	541.31
489.479	527.31
489.696	553.31
489.914	543.31
490.132	563.31
490.35	571.31
490.568	559.31
490.786	579.31
491.003	596.31
491.221	595.31
491.439	609.31
491.657	613.31
491.874	584.31
492.092	627.31
492.31	639.31
492.527	641.31
492.745	629.31
492.963	625.31
493.18	621.31
493.398	603.31
493.615	646.31
493.833	627.31
494.05	658.31
494.268	635.31
494.485	636.31
494.703	628.31
494.92	647.31
495.138	646.31
495.355	633.31
495.573	654.31
495.79	645.31
496.008	646.31
496.225	655.31
496.442	650.31
496.66	671.31
496.877	656.31
497.094	637.31
497.312	664.31
497.529	636.31
497.746	674.31
497.963	684.31
498.181	696.31
498.398	681.31
498.615	689.31
498.832	693.31
499.049	696.31
499.267	709.31
499.484	703.31
499.701	717.31
499.918	750.31
500.135	772.31
500.352	787.31
500.569	811.31
500.786	786.31
501.003	805.31
501.22	778.31
501.437	761.31
501.654	760.31
501.871	767.31
502.088	776.31
