Data from 1980.PennyLincolnUp.Lamp.En5.5.200Scan.071819.P1_HRD10591_16-39-10-957.txt Node
Date: Thu Jul 18 16:39:10 EDT 2019
User: cochatt
Spectrometer: HR+D1059
Trigger mode: 1
Integration Time (sec): 1.000000E-1
Scans to average: 1
Electric dark correction enabled: true
Nonlinearity correction enabled: false
Boxcar width: 0
XAxis mode: Wavelengths
Number of Pixels in Spectrum: 2048
>>>>>Begin Spectral Data<<<<<
223.165	-26.06
223.4	-26.06
223.635	-26.06
223.869	-11.06
224.104	-27.06
224.338	-14.06
224.573	-3.06
224.808	0.94
225.042	8.94
225.277	-10.06
225.511	-1.06
225.746	-13.06
225.98	-0.06
226.215	8.94
226.449	15.94
226.683	22.94
226.918	20.94
227.152	26.94
227.387	27.94
227.621	29.94
227.856	41.94
228.09	45.94
228.324	43.94
228.559	63.94
228.793	72.94
229.027	97.94
229.262	108.94
229.496	136.94
229.73	142.94
229.964	154.94
230.199	132.94
230.433	119.94
230.667	118.94
230.901	121.94
231.136	116.94
231.37	117.94
231.604	91.94
231.838	124.94
232.072	112.94
232.306	110.94
232.541	101.94
232.775	119.94
233.009	116.94
233.243	107.94
233.477	109.94
233.711	109.94
233.945	119.94
234.179	116.94
234.413	100.94
234.647	101.94
234.881	109.94
235.115	120.94
235.349	126.94
235.583	104.94
235.817	112.94
236.051	104.94
236.285	131.94
236.519	127.94
236.753	133.94
236.987	163.94
237.221	206.94
237.455	246.94
237.689	209.94
237.922	153.94
238.156	126.94
238.39	139.94
238.624	116.94
238.858	112.94
239.091	117.94
239.325	127.94
239.559	124.94
239.793	142.94
240.027	137.94
240.26	140.94
240.494	166.94
240.728	148.94
240.961	173.94
241.195	159.94
241.429	146.94
241.662	126.94
241.896	132.94
242.13	122.94
242.363	139.94
242.597	119.94
242.83	134.94
243.064	133.94
243.298	131.94
243.531	140.94
243.765	137.94
243.998	140.94
244.232	139.94
244.465	143.94
244.699	140.94
244.932	153.94
245.166	138.94
245.399	135.94
245.633	135.94
245.866	149.94
246.099	142.94
246.333	138.94
246.566	164.94
246.8	149.94
247.033	152.94
247.266	157.94
247.5	152.94
247.733	177.94
247.966	174.94
248.2	178.94
248.433	180.94
248.666	181.94
248.899	181.94
249.133	215.94
249.366	201.94
249.599	221.94
249.832	175.94
250.066	184.94
250.299	183.94
250.532	190.94
250.765	212.94
250.998	232.94
251.231	261.94
251.465	236.94
251.698	217.94
251.931	203.94
252.164	194.94
252.397	215.94
252.63	193.94
252.863	207.94
253.096	226.94
253.329	234.94
253.562	247.94
253.795	216.94
254.028	231.94
254.261	221.94
254.494	239.94
254.727	267.94
254.96	284.94
255.193	297.94
255.426	253.94
255.659	250.94
255.892	226.94
256.124	245.94
256.357	243.94
256.59	249.94
256.823	243.94
257.056	238.94
257.289	216.94
257.521	231.94
257.754	212.94
257.987	214.94
258.22	202.94
258.452	213.94
258.685	199.94
258.918	194.94
259.151	202.94
259.383	231.94
259.616	223.94
259.849	241.94
260.081	242.94
260.314	260.94
260.547	285.94
260.779	268.94
261.012	235.94
261.244	240.94
261.477	213.94
261.71	233.94
261.942	232.94
262.175	253.94
262.407	236.94
262.64	230.94
262.872	222.94
263.105	206.94
263.337	205.94
263.57	218.94
263.802	209.94
264.035	206.94
264.267	197.94
264.499	223.94
264.732	211.94
264.964	212.94
265.197	208.94
265.429	218.94
265.661	207.94
265.894	208.94
266.126	209.94
266.358	213.94
266.591	190.94
266.823	231.94
267.055	220.94
267.287	223.94
267.52	229.94
267.752	221.94
267.984	229.94
268.216	225.94
268.448	232.94
268.681	229.94
268.913	228.94
269.145	248.94
269.377	293.94
269.609	286.94
269.841	271.94
270.073	280.94
270.306	282.94
270.538	320.94
270.77	340.94
271.002	314.94
271.234	294.94
271.466	316.94
271.698	321.94
271.93	333.94
272.162	319.94
272.394	324.94
272.626	332.94
272.858	294.94
273.09	287.94
273.322	293.94
273.553	276.94
273.785	265.94
274.017	256.94
274.249	261.94
274.481	257.94
274.713	275.94
274.945	272.94
275.176	272.94
275.408	262.94
275.64	262.94
275.872	262.94
276.104	276.94
276.335	259.94
276.567	258.94
276.799	256.94
277.031	309.94
277.262	335.94
277.494	330.94
277.726	302.94
277.957	294.94
278.189	294.94
278.421	280.94
278.652	264.94
278.884	249.94
279.115	263.94
279.347	260.94
279.579	265.94
279.81	248.94
280.042	246.94
280.273	257.94
280.505	274.94
280.736	268.94
280.968	241.94
281.199	246.94
281.431	239.94
281.662	260.94
281.894	255.94
282.125	260.94
282.356	281.94
282.588	293.94
282.819	295.94
283.051	267.94
283.282	265.94
283.513	257.94
283.745	270.94
283.976	276.94
284.207	267.94
284.439	274.94
284.67	280.94
284.901	268.94
285.132	259.94
285.364	244.94
285.595	260.94
285.826	271.94
286.057	260.94
286.288	260.94
286.52	262.94
286.751	246.94
286.982	244.94
287.213	265.94
287.444	264.94
287.675	264.94
287.906	288.94
288.138	293.94
288.369	308.94
288.6	278.94
288.831	269.94
289.062	282.94
289.293	273.94
289.524	279.94
289.755	285.94
289.986	261.94
290.217	276.94
290.448	274.94
290.679	267.94
290.91	255.94
291.141	274.94
291.371	284.94
291.602	270.94
291.833	280.94
292.064	268.94
292.295	280.94
292.526	275.94
292.757	269.94
292.987	269.94
293.218	259.94
293.449	263.94
293.68	278.94
293.91	283.94
294.141	285.94
294.372	277.94
294.603	266.94
294.833	271.94
295.064	269.94
295.295	291.94
295.525	268.94
295.756	283.94
295.987	287.94
296.217	315.94
296.448	318.94
296.679	289.94
296.909	289.94
297.14	276.94
297.37	259.94
297.601	283.94
297.831	302.94
298.062	284.94
298.292	280.94
298.523	282.94
298.753	273.94
298.984	283.94
299.214	283.94
299.445	277.94
299.675	277.94
299.905	291.94
300.136	298.94
300.366	280.94
300.597	300.94
300.827	304.94
301.057	295.94
301.288	318.94
301.518	302.94
301.748	300.94
301.979	302.94
302.209	301.94
302.439	309.94
302.669	304.94
302.9	295.94
303.13	308.94
303.36	304.94
303.59	321.94
303.82	316.94
304.051	308.94
304.281	300.94
304.511	289.94
304.741	296.94
304.971	312.94
305.201	298.94
305.431	300.94
305.661	319.94
305.891	286.94
306.121	296.94
306.352	290.94
306.582	322.94
306.812	309.94
307.042	320.94
307.272	316.94
307.502	307.94
307.731	322.94
307.961	318.94
308.191	301.94
308.421	302.94
308.651	301.94
308.881	324.94
309.111	341.94
309.341	333.94
309.571	355.94
309.8	345.94
310.03	375.94
310.26	386.94
310.49	367.94
310.72	371.94
310.949	397.94
311.179	380.94
311.409	378.94
311.639	369.94
311.868	366.94
312.098	361.94
312.328	372.94
312.557	394.94
312.787	409.94
313.017	410.94
313.246	392.94
313.476	375.94
313.706	371.94
313.935	389.94
314.165	389.94
314.394	389.94
314.624	396.94
314.853	382.94
315.083	372.94
315.312	351.94
315.542	362.94
315.771	358.94
316.001	345.94
316.23	358.94
316.46	366.94
316.689	364.94
316.919	366.94
317.148	372.94
317.377	370.94
317.607	365.94
317.836	382.94
318.065	353.94
318.295	351.94
318.524	352.94
318.753	330.94
318.983	370.94
319.212	360.94
319.441	387.94
319.67	378.94
319.9	343.94
320.129	362.94
320.358	355.94
320.587	372.94
320.816	382.94
321.046	386.94
321.275	384.94
321.504	368.94
321.733	405.94
321.962	402.94
322.191	417.94
322.42	436.94
322.649	442.94
322.878	454.94
323.108	484.94
323.337	508.94
323.566	567.94
323.795	568.94
324.024	630.94
324.253	804.94
324.482	1111.94
324.71	1780.94
324.939	2532.94
325.168	2217.94
325.397	1178.94
325.626	788.94
325.855	615.94
326.084	570.94
326.313	545.94
326.542	566.94
326.77	607.94
326.999	706.94
327.228	990.94
327.457	1521.94
327.686	1935.94
327.914	1312.94
328.143	872.94
328.372	733.94
328.6	652.94
328.829	635.94
329.058	654.94
329.287	640.94
329.515	606.94
329.744	546.94
329.972	549.94
330.201	539.94
330.43	623.94
330.658	641.94
330.887	685.94
331.115	658.94
331.344	554.94
331.572	495.94
331.801	500.94
332.03	523.94
332.258	479.94
332.486	462.94
332.715	448.94
332.943	423.94
333.172	420.94
333.4	435.94
333.629	444.94
333.857	454.94
334.085	474.94
334.314	503.94
334.542	512.94
334.771	564.94
334.999	500.94
335.227	457.94
335.455	419.94
335.684	423.94
335.912	426.94
336.14	424.94
336.369	402.94
336.597	423.94
336.825	404.94
337.053	419.94
337.281	410.94
337.51	417.94
337.738	422.94
337.966	418.94
338.194	429.94
338.422	416.94
338.65	387.94
338.878	423.94
339.106	377.94
339.334	392.94
339.562	390.94
339.79	388.94
340.018	397.94
340.246	408.94
340.474	411.94
340.702	409.94
340.93	405.94
341.158	416.94
341.386	432.94
341.614	400.94
341.842	395.94
342.07	398.94
342.298	405.94
342.526	388.94
342.754	389.94
342.981	383.94
343.209	380.94
343.437	381.94
343.665	392.94
343.893	398.94
344.12	388.94
344.348	383.94
344.576	394.94
344.804	390.94
345.031	409.94
345.259	412.94
345.487	420.94
345.714	423.94
345.942	398.94
346.17	388.94
346.397	387.94
346.625	406.94
346.853	388.94
347.08	399.94
347.308	398.94
347.535	400.94
347.763	413.94
347.99	440.94
348.218	425.94
348.445	444.94
348.673	397.94
348.9	426.94
349.128	409.94
349.355	378.94
349.583	385.94
349.81	385.94
350.037	388.94
350.265	380.94
350.492	384.94
350.72	392.94
350.947	386.94
351.174	410.94
351.402	404.94
351.629	416.94
351.856	394.94
352.083	423.94
352.311	406.94
352.538	422.94
352.765	415.94
352.992	422.94
353.22	374.94
353.447	396.94
353.674	386.94
353.901	389.94
354.128	383.94
354.355	366.94
354.583	357.94
354.81	351.94
355.037	364.94
355.264	348.94
355.491	356.94
355.718	352.94
355.945	353.94
356.172	351.94
356.399	340.94
356.626	352.94
356.853	378.94
357.08	347.94
357.307	356.94
357.534	369.94
357.761	372.94
357.988	340.94
358.215	365.94
358.441	369.94
358.668	371.94
358.895	359.94
359.122	365.94
359.349	344.94
359.576	391.94
359.802	433.94
360.029	464.94
360.256	495.94
360.483	446.94
360.709	392.94
360.936	376.94
361.163	392.94
361.39	405.94
361.616	400.94
361.843	398.94
362.07	385.94
362.296	400.94
362.523	391.94
362.749	392.94
362.976	375.94
363.203	360.94
363.429	372.94
363.656	382.94
363.882	363.94
364.109	382.94
364.335	356.94
364.562	376.94
364.788	360.94
365.015	369.94
365.241	366.94
365.468	377.94
365.694	393.94
365.92	389.94
366.147	373.94
366.373	375.94
366.599	361.94
366.826	360.94
367.052	374.94
367.278	372.94
367.505	344.94
367.731	350.94
367.957	357.94
368.184	378.94
368.41	384.94
368.636	385.94
368.862	389.94
369.089	376.94
369.315	367.94
369.541	364.94
369.767	359.94
369.993	356.94
370.219	350.94
370.445	370.94
370.672	345.94
370.898	345.94
371.124	343.94
371.35	349.94
371.576	363.94
371.802	357.94
372.028	366.94
372.254	374.94
372.48	350.94
372.706	350.94
372.932	368.94
373.158	359.94
373.384	367.94
373.61	373.94
373.835	349.94
374.061	343.94
374.287	364.94
374.513	368.94
374.739	371.94
374.965	362.94
375.191	349.94
375.416	365.94
375.642	352.94
375.868	349.94
376.094	353.94
376.319	359.94
376.545	352.94
376.771	352.94
376.997	359.94
377.222	356.94
377.448	334.94
377.674	357.94
377.899	345.94
378.125	370.94
378.35	345.94
378.576	337.94
378.802	353.94
379.027	353.94
379.253	345.94
379.478	347.94
379.704	357.94
379.929	352.94
380.155	373.94
380.38	357.94
380.606	356.94
380.831	368.94
381.057	362.94
381.282	360.94
381.507	355.94
381.733	357.94
381.958	354.94
382.184	366.94
382.409	356.94
382.634	362.94
382.86	352.94
383.085	376.94
383.31	377.94
383.535	378.94
383.761	364.94
383.986	374.94
384.211	390.94
384.436	361.94
384.662	378.94
384.887	370.94
385.112	375.94
385.337	379.94
385.562	372.94
385.787	384.94
386.013	389.94
386.238	401.94
386.463	382.94
386.688	374.94
386.913	385.94
387.138	385.94
387.363	393.94
387.588	390.94
387.813	381.94
388.038	380.94
388.263	373.94
388.488	391.94
388.713	392.94
388.938	379.94
389.163	368.94
389.387	383.94
389.612	381.94
389.837	387.94
390.062	368.94
390.287	373.94
390.512	392.94
390.736	368.94
390.961	366.94
391.186	360.94
391.411	384.94
391.636	377.94
391.86	376.94
392.085	376.94
392.31	381.94
392.534	392.94
392.759	382.94
392.984	380.94
393.208	386.94
393.433	388.94
393.658	373.94
393.882	389.94
394.107	340.94
394.331	376.94
394.556	353.94
394.78	361.94
395.005	378.94
395.229	371.94
395.454	373.94
395.678	384.94
395.903	406.94
396.127	403.94
396.352	436.94
396.576	412.94
396.801	397.94
397.025	388.94
397.249	392.94
397.474	418.94
397.698	380.94
397.922	405.94
398.147	428.94
398.371	442.94
398.595	412.94
398.82	428.94
399.044	421.94
399.268	432.94
399.492	448.94
399.717	463.94
399.941	472.94
400.165	524.94
400.389	530.94
400.613	478.94
400.837	447.94
401.062	447.94
401.286	439.94
401.51	421.94
401.734	425.94
401.958	429.94
402.182	433.94
402.406	456.94
402.63	435.94
402.854	429.94
403.078	430.94
403.302	442.94
403.526	448.94
403.75	453.94
403.974	451.94
404.198	421.94
404.422	430.94
404.645	474.94
404.869	456.94
405.093	482.94
405.317	519.94
405.541	542.94
405.765	512.94
405.988	500.94
406.212	483.94
406.436	521.94
406.66	530.94
406.883	512.94
407.107	506.94
407.331	564.94
407.555	608.94
407.778	591.94
408.002	572.94
408.226	531.94
408.449	503.94
408.673	488.94
408.896	530.94
409.12	582.94
409.344	546.94
409.567	501.94
409.791	473.94
410.014	457.94
410.238	461.94
410.461	457.94
410.685	458.94
410.908	481.94
411.132	514.94
411.355	549.94
411.578	529.94
411.802	487.94
412.025	441.94
412.249	472.94
412.472	496.94
412.695	527.94
412.919	516.94
413.142	465.94
413.365	444.94
413.589	436.94
413.812	435.94
414.035	416.94
414.258	431.94
414.482	437.94
414.705	436.94
414.928	411.94
415.151	418.94
415.374	433.94
415.597	414.94
415.821	430.94
416.044	444.94
416.267	431.94
416.49	424.94
416.713	434.94
416.936	423.94
417.159	434.94
417.382	419.94
417.605	459.94
417.828	467.94
418.051	472.94
418.274	441.94
418.497	436.94
418.72	434.94
418.943	420.94
419.166	433.94
419.389	470.94
419.611	456.94
419.834	469.94
420.057	461.94
420.28	463.94
420.503	446.94
420.726	450.94
420.948	460.94
421.171	535.94
421.394	543.94
421.617	470.94
421.839	482.94
422.062	464.94
422.285	466.94
422.507	541.94
422.73	583.94
422.953	564.94
423.175	526.94
423.398	508.94
423.621	490.94
423.843	507.94
424.066	506.94
424.288	493.94
424.511	517.94
424.733	580.94
424.956	690.94
425.178	653.94
425.401	624.94
425.623	658.94
425.846	556.94
426.068	517.94
426.291	498.94
426.513	541.94
426.735	530.94
426.958	557.94
427.18	673.94
427.402	756.94
427.625	854.94
427.847	812.94
428.069	671.94
428.292	570.94
428.514	528.94
428.736	501.94
428.958	489.94
429.181	450.94
429.403	495.94
429.625	493.94
429.847	522.94
430.069	581.94
430.292	595.94
430.514	525.94
430.736	482.94
430.958	464.94
431.18	454.94
431.402	441.94
431.624	436.94
431.846	436.94
432.068	433.94
432.29	425.94
432.512	438.94
432.734	458.94
432.956	444.94
433.178	473.94
433.4	458.94
433.622	449.94
433.844	447.94
434.066	433.94
434.287	428.94
434.509	444.94
434.731	430.94
434.953	451.94
435.175	462.94
435.397	521.94
435.618	524.94
435.84	594.94
436.062	644.94
436.284	711.94
436.505	615.94
436.727	537.94
436.949	485.94
437.17	502.94
437.392	483.94
437.614	480.94
437.835	528.94
438.057	666.94
438.278	734.94
438.5	717.94
438.721	788.94
438.943	769.94
439.165	621.94
439.386	563.94
439.608	544.94
439.829	538.94
440.05	604.94
440.272	600.94
440.493	562.94
440.715	535.94
440.936	503.94
441.158	486.94
441.379	477.94
441.6	501.94
441.822	489.94
442.043	578.94
442.264	644.94
442.486	712.94
442.707	590.94
442.928	538.94
443.149	557.94
443.371	574.94
443.592	628.94
443.813	715.94
444.034	729.94
444.255	585.94
444.476	552.94
444.698	522.94
444.919	500.94
445.14	588.94
445.361	550.94
445.582	558.94
445.803	645.94
446.024	735.94
446.245	737.94
446.466	681.94
446.687	572.94
446.908	522.94
447.129	495.94
447.35	499.94
447.571	477.94
447.792	494.94
448.013	507.94
448.234	493.94
448.455	560.94
448.675	675.94
448.896	799.94
449.117	653.94
449.338	625.94
449.559	719.94
449.779	829.94
450	651.94
450.221	568.94
450.442	504.94
450.662	506.94
450.883	502.94
451.104	507.94
451.324	513.94
451.545	467.94
451.766	440.94
451.986	461.94
452.207	438.94
452.428	429.94
452.648	437.94
452.869	442.94
453.089	444.94
453.31	473.94
453.53	452.94
453.751	447.94
453.971	433.94
454.192	480.94
454.412	462.94
454.633	445.94
454.853	463.94
455.073	449.94
455.294	457.94
455.514	546.94
455.734	536.94
455.955	464.94
456.175	420.94
456.395	422.94
456.616	409.94
456.836	417.94
457.056	393.94
457.276	380.94
457.497	417.94
457.717	394.94
457.937	389.94
458.157	409.94
458.377	410.94
458.598	441.94
458.818	523.94
459.038	604.94
459.258	646.94
459.478	514.94
459.698	451.94
459.918	457.94
460.138	424.94
460.358	433.94
460.578	430.94
460.798	436.94
461.018	432.94
461.238	422.94
461.458	408.94
461.678	419.94
461.898	424.94
462.118	434.94
462.338	447.94
462.558	445.94
462.777	428.94
462.997	450.94
463.217	447.94
463.437	455.94
463.657	456.94
463.876	464.94
464.096	440.94
464.316	456.94
464.536	459.94
464.755	481.94
464.975	485.94
465.195	526.94
465.414	636.94
465.634	556.94
465.854	490.94
466.073	468.94
466.293	449.94
466.512	408.94
466.732	430.94
466.951	415.94
467.171	433.94
467.391	414.94
467.61	453.94
467.829	463.94
468.049	434.94
468.268	442.94
468.488	444.94
468.707	425.94
468.927	416.94
469.146	412.94
469.365	425.94
469.585	410.94
469.804	419.94
470.023	456.94
470.243	446.94
470.462	432.94
470.681	481.94
470.901	453.94
471.12	446.94
471.339	458.94
471.558	439.94
471.777	435.94
471.997	430.94
472.216	440.94
472.435	497.94
472.654	484.94
472.873	439.94
473.092	435.94
473.311	436.94
473.53	441.94
473.749	450.94
473.968	487.94
474.187	601.94
474.406	638.94
474.625	529.94
474.844	478.94
475.063	446.94
475.282	452.94
475.501	438.94
475.72	457.94
475.939	475.94
476.158	457.94
476.377	453.94
476.596	447.94
476.814	448.94
477.033	477.94
477.252	478.94
477.471	470.94
477.69	466.94
477.908	469.94
478.127	480.94
478.346	462.94
478.564	485.94
478.783	469.94
479.002	489.94
479.22	484.94
479.439	506.94
479.658	535.94
479.876	528.94
480.095	513.94
480.313	577.94
480.532	564.94
480.751	558.94
480.969	537.94
481.188	631.94
481.406	686.94
481.624	586.94
481.843	544.94
482.061	537.94
482.28	527.94
482.498	526.94
482.717	528.94
482.935	507.94
483.153	515.94
483.372	500.94
483.59	546.94
483.808	511.94
484.027	498.94
484.245	534.94
484.463	522.94
484.681	506.94
484.9	541.94
485.118	548.94
485.336	529.94
485.554	538.94
485.772	535.94
485.99	530.94
486.209	553.94
486.427	553.94
486.645	546.94
486.863	573.94
487.081	565.94
487.299	547.94
487.517	562.94
487.735	561.94
487.953	580.94
488.171	572.94
488.389	574.94
488.607	571.94
488.825	584.94
489.043	573.94
489.261	583.94
489.479	595.94
489.696	574.94
489.914	588.94
490.132	599.94
490.35	596.94
490.568	584.94
490.786	617.94
491.003	610.94
491.221	625.94
491.439	637.94
491.657	653.94
491.874	636.94
492.092	640.94
492.31	674.94
492.527	679.94
492.745	663.94
492.963	664.94
493.18	674.94
493.398	685.94
493.615	678.94
493.833	666.94
494.05	655.94
494.268	674.94
494.485	669.94
494.703	690.94
494.92	668.94
495.138	691.94
495.355	670.94
495.573	696.94
495.79	692.94
496.008	697.94
496.225	681.94
496.442	661.94
496.66	671.94
496.877	672.94
497.094	694.94
497.312	674.94
497.529	684.94
497.746	707.94
497.963	701.94
498.181	706.94
498.398	715.94
498.615	730.94
498.832	744.94
499.049	709.94
499.267	714.94
499.484	746.94
499.701	768.94
499.918	772.94
500.135	799.94
500.352	786.94
500.569	815.94
500.786	826.94
501.003	800.94
501.22	789.94
501.437	812.94
501.654	790.94
501.871	806.94
