Data from 1980.PennyLincolnUp.Lamp.En5.5.200Scan.071819.P1_HRD10591_16-38-01-957.txt Node
Date: Thu Jul 18 16:38:01 EDT 2019
User: cochatt
Spectrometer: HR+D1059
Trigger mode: 1
Integration Time (sec): 1.000000E-1
Scans to average: 1
Electric dark correction enabled: true
Nonlinearity correction enabled: false
Boxcar width: 0
XAxis mode: Wavelengths
Number of Pixels in Spectrum: 2048
>>>>>Begin Spectral Data<<<<<
223.165	-15.62
223.4	-15.62
223.635	-15.62
223.869	-6.62
224.104	-25.62
224.338	-17.62
224.573	-10.62
224.808	4.38
225.042	1.38
225.277	-7.62
225.511	-21.62
225.746	6.38
225.98	-6.62
226.215	10.38
226.449	4.38
226.683	29.38
226.918	33.38
227.152	22.38
227.387	46.38
227.621	45.38
227.856	47.38
228.09	31.38
228.324	45.38
228.559	56.38
228.793	77.38
229.027	101.38
229.262	117.38
229.496	115.38
229.73	135.38
229.964	170.38
230.199	135.38
230.433	119.38
230.667	127.38
230.901	118.38
231.136	116.38
231.37	115.38
231.604	132.38
231.838	118.38
232.072	118.38
232.306	110.38
232.541	107.38
232.775	115.38
233.009	101.38
233.243	107.38
233.477	112.38
233.711	119.38
233.945	126.38
234.179	123.38
234.413	117.38
234.647	114.38
234.881	115.38
235.115	117.38
235.349	120.38
235.583	97.38
235.817	118.38
236.051	130.38
236.285	131.38
236.519	123.38
236.753	126.38
236.987	151.38
237.221	196.38
237.455	244.38
237.689	202.38
237.922	151.38
238.156	141.38
238.39	134.38
238.624	130.38
238.858	133.38
239.091	141.38
239.325	136.38
239.559	139.38
239.793	132.38
240.027	139.38
240.26	137.38
240.494	155.38
240.728	165.38
240.961	155.38
241.195	155.38
241.429	138.38
241.662	126.38
241.896	130.38
242.13	122.38
242.363	131.38
242.597	129.38
242.83	136.38
243.064	133.38
243.298	119.38
243.531	134.38
243.765	166.38
243.998	128.38
244.232	150.38
244.465	154.38
244.699	150.38
244.932	138.38
245.166	133.38
245.399	151.38
245.633	145.38
245.866	154.38
246.099	139.38
246.333	137.38
246.566	155.38
246.8	163.38
247.033	155.38
247.266	147.38
247.5	170.38
247.733	170.38
247.966	181.38
248.2	162.38
248.433	170.38
248.666	176.38
248.899	202.38
249.133	205.38
249.366	229.38
249.599	220.38
249.832	182.38
250.066	192.38
250.299	200.38
250.532	206.38
250.765	212.38
250.998	228.38
251.231	230.38
251.465	224.38
251.698	220.38
251.931	206.38
252.164	204.38
252.397	215.38
252.63	200.38
252.863	210.38
253.096	213.38
253.329	240.38
253.562	240.38
253.795	244.38
254.028	224.38
254.261	237.38
254.494	231.38
254.727	286.38
254.96	298.38
255.193	278.38
255.426	261.38
255.659	231.38
255.892	253.38
256.124	255.38
256.357	243.38
256.59	249.38
256.823	238.38
257.056	207.38
257.289	207.38
257.521	206.38
257.754	203.38
257.987	214.38
258.22	201.38
258.452	215.38
258.685	217.38
258.918	229.38
259.151	225.38
259.383	219.38
259.616	238.38
259.849	228.38
260.081	261.38
260.314	244.38
260.547	284.38
260.779	255.38
261.012	233.38
261.244	232.38
261.477	217.38
261.71	234.38
261.942	243.38
262.175	244.38
262.407	235.38
262.64	223.38
262.872	220.38
263.105	216.38
263.337	208.38
263.57	214.38
263.802	216.38
264.035	199.38
264.267	215.38
264.499	204.38
264.732	204.38
264.964	219.38
265.197	223.38
265.429	228.38
265.661	220.38
265.894	208.38
266.126	211.38
266.358	203.38
266.591	205.38
266.823	229.38
267.055	223.38
267.287	225.38
267.52	212.38
267.752	230.38
267.984	220.38
268.216	217.38
268.448	236.38
268.681	246.38
268.913	254.38
269.145	250.38
269.377	282.38
269.609	280.38
269.841	270.38
270.073	270.38
270.306	294.38
270.538	325.38
270.77	324.38
271.002	320.38
271.234	279.38
271.466	303.38
271.698	315.38
271.93	324.38
272.162	317.38
272.394	310.38
272.626	306.38
272.858	296.38
273.09	298.38
273.322	296.38
273.553	258.38
273.785	260.38
274.017	271.38
274.249	270.38
274.481	267.38
274.713	253.38
274.945	263.38
275.176	274.38
275.408	272.38
275.64	256.38
275.872	253.38
276.104	271.38
276.335	277.38
276.567	258.38
276.799	282.38
277.031	312.38
277.262	317.38
277.494	314.38
277.726	301.38
277.957	285.38
278.189	273.38
278.421	282.38
278.652	263.38
278.884	262.38
279.115	251.38
279.347	239.38
279.579	255.38
279.81	251.38
280.042	272.38
280.273	246.38
280.505	251.38
280.736	264.38
280.968	242.38
281.199	237.38
281.431	250.38
281.662	258.38
281.894	257.38
282.125	268.38
282.356	272.38
282.588	284.38
282.819	292.38
283.051	255.38
283.282	255.38
283.513	265.38
283.745	233.38
283.976	258.38
284.207	259.38
284.439	276.38
284.67	278.38
284.901	254.38
285.132	264.38
285.364	256.38
285.595	238.38
285.826	270.38
286.057	260.38
286.288	250.38
286.52	256.38
286.751	261.38
286.982	262.38
287.213	259.38
287.444	264.38
287.675	276.38
287.906	291.38
288.138	290.38
288.369	292.38
288.6	271.38
288.831	289.38
289.062	276.38
289.293	269.38
289.524	279.38
289.755	270.38
289.986	267.38
290.217	237.38
290.448	268.38
290.679	264.38
290.91	268.38
291.141	258.38
291.371	282.38
291.602	257.38
291.833	270.38
292.064	265.38
292.295	268.38
292.526	248.38
292.757	262.38
292.987	262.38
293.218	268.38
293.449	267.38
293.68	272.38
293.91	253.38
294.141	279.38
294.372	251.38
294.603	271.38
294.833	275.38
295.064	278.38
295.295	272.38
295.525	261.38
295.756	290.38
295.987	310.38
296.217	313.38
296.448	312.38
296.679	286.38
296.909	270.38
297.14	271.38
297.37	271.38
297.601	300.38
297.831	292.38
298.062	278.38
298.292	298.38
298.523	289.38
298.753	287.38
298.984	261.38
299.214	274.38
299.445	287.38
299.675	286.38
299.905	295.38
300.136	293.38
300.366	291.38
300.597	283.38
300.827	289.38
301.057	303.38
301.288	305.38
301.518	307.38
301.748	291.38
301.979	290.38
302.209	327.38
302.439	299.38
302.669	298.38
302.9	297.38
303.13	290.38
303.36	293.38
303.59	308.38
303.82	310.38
304.051	282.38
304.281	301.38
304.511	289.38
304.741	285.38
304.971	287.38
305.201	291.38
305.431	290.38
305.661	297.38
305.891	283.38
306.121	300.38
306.352	318.38
306.582	300.38
306.812	310.38
307.042	301.38
307.272	303.38
307.502	310.38
307.731	296.38
307.961	308.38
308.191	285.38
308.421	308.38
308.651	317.38
308.881	320.38
309.111	317.38
309.341	317.38
309.571	343.38
309.8	347.38
310.03	346.38
310.26	342.38
310.49	347.38
310.72	363.38
310.949	384.38
311.179	399.38
311.409	373.38
311.639	368.38
311.868	349.38
312.098	359.38
312.328	381.38
312.557	393.38
312.787	399.38
313.017	394.38
313.246	380.38
313.476	359.38
313.706	345.38
313.935	372.38
314.165	346.38
314.394	383.38
314.624	380.38
314.853	373.38
315.083	372.38
315.312	355.38
315.542	349.38
315.771	346.38
316.001	335.38
316.23	337.38
316.46	348.38
316.689	350.38
316.919	337.38
317.148	367.38
317.377	352.38
317.607	352.38
317.836	361.38
318.065	353.38
318.295	351.38
318.524	352.38
318.753	349.38
318.983	335.38
319.212	350.38
319.441	342.38
319.67	381.38
319.9	365.38
320.129	367.38
320.358	362.38
320.587	364.38
320.816	373.38
321.046	386.38
321.275	383.38
321.504	374.38
321.733	380.38
321.962	384.38
322.191	394.38
322.42	424.38
322.649	432.38
322.878	451.38
323.108	457.38
323.337	493.38
323.566	518.38
323.795	568.38
324.024	619.38
324.253	757.38
324.482	1076.38
324.71	1667.38
324.939	2367.38
325.168	2119.38
325.397	1125.38
325.626	727.38
325.855	594.38
326.084	544.38
326.313	495.38
326.542	522.38
326.77	570.38
326.999	671.38
327.228	958.38
327.457	1458.38
327.686	1839.38
327.914	1239.38
328.143	800.38
328.372	698.38
328.6	648.38
328.829	573.38
329.058	621.38
329.287	631.38
329.515	572.38
329.744	521.38
329.972	495.38
330.201	547.38
330.43	592.38
330.658	613.38
330.887	660.38
331.115	600.38
331.344	532.38
331.572	510.38
331.801	493.38
332.03	463.38
332.258	453.38
332.486	438.38
332.715	422.38
332.943	430.38
333.172	441.38
333.4	418.38
333.629	422.38
333.857	442.38
334.085	465.38
334.314	496.38
334.542	528.38
334.771	534.38
334.999	476.38
335.227	429.38
335.455	439.38
335.684	405.38
335.912	404.38
336.14	420.38
336.369	394.38
336.597	414.38
336.825	435.38
337.053	408.38
337.281	404.38
337.51	406.38
337.738	400.38
337.966	415.38
338.194	400.38
338.422	420.38
338.65	401.38
338.878	412.38
339.106	397.38
339.334	408.38
339.562	386.38
339.79	377.38
340.018	401.38
340.246	387.38
340.474	415.38
340.702	402.38
340.93	387.38
341.158	386.38
341.386	400.38
341.614	406.38
341.842	391.38
342.07	384.38
342.298	404.38
342.526	387.38
342.754	387.38
342.981	394.38
343.209	387.38
343.437	387.38
343.665	375.38
343.893	389.38
344.12	395.38
344.348	390.38
344.576	375.38
344.804	408.38
345.031	409.38
345.259	422.38
345.487	396.38
345.714	400.38
345.942	390.38
346.17	388.38
346.397	382.38
346.625	384.38
346.853	379.38
347.08	380.38
347.308	401.38
347.535	411.38
347.763	405.38
347.99	390.38
348.218	407.38
348.445	404.38
348.673	410.38
348.9	393.38
349.128	383.38
349.355	387.38
349.583	368.38
349.81	374.38
350.037	370.38
350.265	368.38
350.492	376.38
350.72	366.38
350.947	392.38
351.174	382.38
351.402	392.38
351.629	388.38
351.856	404.38
352.083	429.38
352.311	429.38
352.538	422.38
352.765	414.38
352.992	413.38
353.22	397.38
353.447	388.38
353.674	373.38
353.901	380.38
354.128	368.38
354.355	365.38
354.583	365.38
354.81	375.38
355.037	360.38
355.264	378.38
355.491	336.38
355.718	366.38
355.945	329.38
356.172	346.38
356.399	343.38
356.626	331.38
356.853	344.38
357.08	344.38
357.307	355.38
357.534	345.38
357.761	331.38
357.988	356.38
358.215	333.38
358.441	325.38
358.668	368.38
358.895	350.38
359.122	357.38
359.349	388.38
359.576	382.38
359.802	422.38
360.029	453.38
360.256	459.38
360.483	434.38
360.709	409.38
360.936	401.38
361.163	395.38
361.39	386.38
361.616	400.38
361.843	379.38
362.07	397.38
362.296	414.38
362.523	376.38
362.749	377.38
362.976	392.38
363.203	364.38
363.429	363.38
363.656	375.38
363.882	352.38
364.109	372.38
364.335	367.38
364.562	365.38
364.788	366.38
365.015	350.38
365.241	358.38
365.468	378.38
365.694	375.38
365.92	358.38
366.147	359.38
366.373	382.38
366.599	364.38
366.826	343.38
367.052	356.38
367.278	353.38
367.505	362.38
367.731	359.38
367.957	370.38
368.184	347.38
368.41	346.38
368.636	356.38
368.862	390.38
369.089	360.38
369.315	362.38
369.541	358.38
369.767	362.38
369.993	364.38
370.219	381.38
370.445	376.38
370.672	363.38
370.898	372.38
371.124	342.38
371.35	342.38
371.576	352.38
371.802	335.38
372.028	348.38
372.254	365.38
372.48	339.38
372.706	343.38
372.932	356.38
373.158	364.38
373.384	360.38
373.61	334.38
373.835	344.38
374.061	356.38
374.287	372.38
374.513	367.38
374.739	382.38
374.965	353.38
375.191	354.38
375.416	349.38
375.642	362.38
375.868	360.38
376.094	352.38
376.319	334.38
376.545	327.38
376.771	349.38
376.997	374.38
377.222	338.38
377.448	342.38
377.674	332.38
377.899	359.38
378.125	340.38
378.35	342.38
378.576	336.38
378.802	332.38
379.027	325.38
379.253	357.38
379.478	374.38
379.704	340.38
379.929	366.38
380.155	344.38
380.38	358.38
380.606	357.38
380.831	343.38
381.057	362.38
381.282	351.38
381.507	337.38
381.733	338.38
381.958	349.38
382.184	355.38
382.409	341.38
382.634	364.38
382.86	355.38
383.085	347.38
383.31	356.38
383.535	371.38
383.761	358.38
383.986	368.38
384.211	359.38
384.436	339.38
384.662	361.38
384.887	351.38
385.112	357.38
385.337	356.38
385.562	363.38
385.787	377.38
386.013	384.38
386.238	388.38
386.463	366.38
386.688	363.38
386.913	361.38
387.138	382.38
387.363	357.38
387.588	355.38
387.813	358.38
388.038	372.38
388.263	374.38
388.488	362.38
388.713	376.38
388.938	378.38
389.163	376.38
389.387	376.38
389.612	371.38
389.837	378.38
390.062	363.38
390.287	384.38
390.512	350.38
390.736	362.38
390.961	355.38
391.186	364.38
391.411	375.38
391.636	347.38
391.86	367.38
392.085	376.38
392.31	376.38
392.534	394.38
392.759	372.38
392.984	378.38
393.208	360.38
393.433	363.38
393.658	373.38
393.882	370.38
394.107	360.38
394.331	360.38
394.556	376.38
394.78	362.38
395.005	378.38
395.229	372.38
395.454	376.38
395.678	354.38
395.903	374.38
396.127	412.38
396.352	425.38
396.576	391.38
396.801	396.38
397.025	378.38
397.249	391.38
397.474	380.38
397.698	403.38
397.922	418.38
398.147	422.38
398.371	398.38
398.595	400.38
398.82	402.38
399.044	414.38
399.268	408.38
399.492	436.38
399.717	452.38
399.941	472.38
400.165	527.38
400.389	504.38
400.613	474.38
400.837	447.38
401.062	414.38
401.286	416.38
401.51	420.38
401.734	421.38
401.958	427.38
402.182	424.38
402.406	442.38
402.63	437.38
402.854	430.38
403.078	413.38
403.302	436.38
403.526	427.38
403.75	422.38
403.974	436.38
404.198	426.38
404.422	423.38
404.645	427.38
404.869	437.38
405.093	453.38
405.317	483.38
405.541	534.38
405.765	483.38
405.988	481.38
406.212	492.38
406.436	518.38
406.66	517.38
406.883	510.38
407.107	499.38
407.331	535.38
407.555	612.38
407.778	597.38
408.002	549.38
408.226	494.38
408.449	495.38
408.673	494.38
408.896	510.38
409.12	546.38
409.344	521.38
409.567	470.38
409.791	450.38
410.014	453.38
410.238	455.38
410.461	442.38
410.685	447.38
410.908	434.38
411.132	479.38
411.355	552.38
411.578	492.38
411.802	483.38
412.025	458.38
412.249	451.38
412.472	469.38
412.695	503.38
412.919	495.38
413.142	453.38
413.365	451.38
413.589	408.38
413.812	405.38
414.035	418.38
414.258	434.38
414.482	415.38
414.705	424.38
414.928	399.38
415.151	414.38
415.374	411.38
415.597	418.38
415.821	422.38
416.044	412.38
416.267	408.38
416.49	403.38
416.713	399.38
416.936	390.38
417.159	399.38
417.382	423.38
417.605	432.38
417.828	433.38
418.051	452.38
418.274	448.38
418.497	427.38
418.72	405.38
418.943	419.38
419.166	435.38
419.389	436.38
419.611	453.38
419.834	447.38
420.057	442.38
420.28	450.38
420.503	450.38
420.726	451.38
420.948	460.38
421.171	523.38
421.394	524.38
421.617	490.38
421.839	453.38
422.062	464.38
422.285	450.38
422.507	539.38
422.73	600.38
422.953	567.38
423.175	520.38
423.398	476.38
423.621	476.38
423.843	507.38
424.066	504.38
424.288	478.38
424.511	519.38
424.733	583.38
424.956	656.38
425.178	610.38
425.401	628.38
425.623	621.38
425.846	568.38
426.068	514.38
426.291	496.38
426.513	495.38
426.735	515.38
426.958	545.38
427.18	619.38
427.402	751.38
427.625	867.38
427.847	758.38
428.069	660.38
428.292	580.38
428.514	503.38
428.736	489.38
428.958	470.38
429.181	460.38
429.403	486.38
429.625	473.38
429.847	522.38
430.069	566.38
430.292	576.38
430.514	487.38
430.736	466.38
430.958	443.38
431.18	445.38
431.402	434.38
431.624	430.38
431.846	439.38
432.068	427.38
432.29	418.38
432.512	451.38
432.734	422.38
432.956	437.38
433.178	453.38
433.4	467.38
433.622	438.38
433.844	419.38
434.066	426.38
434.287	428.38
434.509	417.38
434.731	431.38
434.953	439.38
435.175	457.38
435.397	498.38
435.618	509.38
435.84	551.38
436.062	631.38
436.284	692.38
436.505	583.38
436.727	518.38
436.949	490.38
437.17	468.38
437.392	467.38
437.614	506.38
437.835	501.38
438.057	638.38
438.278	726.38
438.5	714.38
438.721	756.38
438.943	719.38
439.165	599.38
439.386	539.38
439.608	535.38
439.829	557.38
440.05	555.38
440.272	600.38
440.493	571.38
440.715	522.38
440.936	474.38
441.158	455.38
441.379	476.38
441.6	458.38
441.822	516.38
442.043	546.38
442.264	632.38
442.486	646.38
442.707	573.38
442.928	548.38
443.149	530.38
443.371	554.38
443.592	567.38
443.813	652.38
444.034	750.38
444.255	608.38
444.476	523.38
444.698	495.38
444.919	486.38
445.14	583.38
445.361	573.38
445.582	575.38
445.803	643.38
446.024	721.38
446.245	705.38
446.466	647.38
446.687	560.38
446.908	515.38
447.129	496.38
447.35	490.38
447.571	461.38
447.792	457.38
448.013	498.38
448.234	506.38
448.455	543.38
448.675	659.38
448.896	768.38
449.117	669.38
449.338	612.38
449.559	695.38
449.779	770.38
450	631.38
450.221	540.38
450.442	504.38
450.662	495.38
450.883	488.38
451.104	507.38
451.324	488.38
451.545	463.38
451.766	442.38
451.986	440.38
452.207	427.38
452.428	418.38
452.648	410.38
452.869	439.38
453.089	440.38
453.31	450.38
453.53	430.38
453.751	420.38
453.971	430.38
454.192	443.38
454.412	455.38
454.633	444.38
454.853	415.38
455.073	416.38
455.294	460.38
455.514	535.38
455.734	499.38
455.955	427.38
456.175	397.38
456.395	391.38
456.616	384.38
456.836	393.38
457.056	398.38
457.276	401.38
457.497	388.38
457.717	380.38
457.937	401.38
458.157	403.38
458.377	398.38
458.598	419.38
458.818	487.38
459.038	607.38
459.258	587.38
459.478	493.38
459.698	458.38
459.918	453.38
460.138	409.38
460.358	426.38
460.578	389.38
460.798	419.38
461.018	406.38
461.238	422.38
461.458	428.38
461.678	412.38
461.898	417.38
462.118	423.38
462.338	419.38
462.558	406.38
462.777	419.38
462.997	423.38
463.217	434.38
463.437	436.38
463.657	423.38
463.876	451.38
464.096	453.38
464.316	434.38
464.536	436.38
464.755	450.38
464.975	456.38
465.195	531.38
465.414	631.38
465.634	529.38
465.854	474.38
466.073	458.38
466.293	426.38
466.512	431.38
466.732	442.38
466.951	431.38
467.171	415.38
467.391	418.38
467.61	426.38
467.829	451.38
468.049	450.38
468.268	427.38
468.488	417.38
468.707	416.38
468.927	395.38
469.146	416.38
469.365	416.38
469.585	414.38
469.804	437.38
470.023	459.38
470.243	443.38
470.462	442.38
470.681	468.38
470.901	443.38
471.12	430.38
471.339	412.38
471.558	422.38
471.777	447.38
471.997	426.38
472.216	437.38
472.435	472.38
472.654	463.38
472.873	435.38
473.092	428.38
473.311	404.38
473.53	420.38
473.749	433.38
473.968	484.38
474.187	600.38
474.406	642.38
474.625	500.38
474.844	443.38
475.063	440.38
475.282	424.38
475.501	444.38
475.72	431.38
475.939	442.38
476.158	440.38
476.377	444.38
476.596	443.38
476.814	445.38
477.033	463.38
477.252	440.38
477.471	460.38
477.69	445.38
477.908	464.38
478.127	451.38
478.346	470.38
478.564	476.38
478.783	455.38
479.002	488.38
479.22	482.38
479.439	491.38
479.658	512.38
479.876	494.38
480.095	531.38
480.313	542.38
480.532	529.38
480.751	523.38
480.969	536.38
481.188	612.38
481.406	640.38
481.624	576.38
481.843	548.38
482.061	521.38
482.28	489.38
482.498	506.38
482.717	512.38
482.935	507.38
483.153	496.38
483.372	504.38
483.59	517.38
483.808	521.38
484.027	505.38
484.245	489.38
484.463	516.38
484.681	522.38
484.9	523.38
485.118	534.38
485.336	513.38
485.554	531.38
485.772	528.38
485.99	520.38
486.209	514.38
486.427	542.38
486.645	538.38
486.863	566.38
487.081	559.38
487.299	571.38
487.517	560.38
487.735	539.38
487.953	536.38
488.171	557.38
488.389	534.38
488.607	558.38
488.825	563.38
489.043	526.38
489.261	560.38
489.479	560.38
489.696	563.38
489.914	555.38
490.132	591.38
490.35	560.38
490.568	600.38
490.786	617.38
491.003	582.38
491.221	618.38
491.439	631.38
491.657	634.38
491.874	618.38
492.092	660.38
492.31	634.38
492.527	650.38
492.745	655.38
492.963	625.38
493.18	662.38
493.398	655.38
493.615	662.38
493.833	677.38
494.05	676.38
494.268	672.38
494.485	656.38
494.703	638.38
494.92	667.38
495.138	660.38
495.355	639.38
495.573	666.38
495.79	688.38
496.008	652.38
496.225	662.38
496.442	664.38
496.66	670.38
496.877	648.38
497.094	681.38
497.312	651.38
497.529	665.38
497.746	678.38
497.963	662.38
498.181	676.38
498.398	684.38
498.615	676.38
498.832	694.38
499.049	694.38
499.267	713.38
499.484	706.38
499.701	716.38
499.918	752.38
500.135	774.38
500.352	788.38
500.569	773.38
500.786	810.38
501.003	797.38
501.22	777.38
501.437	770.38
501.654	748.38
501.871	764.38
