Data from 1980.PennyLincolnUp.Lamp.En5.5.200Scan.071819.P1_HRD10591_16-36-25-956.txt Node
Date: Thu Jul 18 16:36:25 EDT 2019
User: cochatt
Spectrometer: HR+D1059
Trigger mode: 1
Integration Time (sec): 1.000000E-1
Scans to average: 1
Electric dark correction enabled: true
Nonlinearity correction enabled: false
Boxcar width: 0
XAxis mode: Wavelengths
Number of Pixels in Spectrum: 2048
>>>>>Begin Spectral Data<<<<<
223.165	-15.69
223.4	-15.69
223.635	-15.69
223.869	-24.69
224.104	-5.69
224.338	-20.69
224.573	-10.69
224.808	-5.69
225.042	-4.69
225.277	-18.69
225.511	7.31
225.746	17.31
225.98	-0.69
226.215	8.31
226.449	5.31
226.683	22.31
226.918	16.31
227.152	30.31
227.387	44.31
227.621	35.31
227.856	48.31
228.09	50.31
228.324	68.31
228.559	54.31
228.793	60.31
229.027	73.31
229.262	106.31
229.496	121.31
229.73	139.31
229.964	147.31
230.199	114.31
230.433	117.31
230.667	119.31
230.901	117.31
231.136	107.31
231.37	126.31
231.604	109.31
231.838	94.31
232.072	111.31
232.306	123.31
232.541	94.31
232.775	93.31
233.009	128.31
233.243	113.31
233.477	110.31
233.711	113.31
233.945	97.31
234.179	95.31
234.413	113.31
234.647	119.31
234.881	112.31
235.115	115.31
235.349	115.31
235.583	104.31
235.817	118.31
236.051	123.31
236.285	126.31
236.519	126.31
236.753	129.31
236.987	130.31
237.221	178.31
237.455	208.31
237.689	170.31
237.922	125.31
238.156	135.31
238.39	106.31
238.624	139.31
238.858	133.31
239.091	125.31
239.325	121.31
239.559	109.31
239.793	133.31
240.027	106.31
240.26	146.31
240.494	151.31
240.728	137.31
240.961	142.31
241.195	141.31
241.429	135.31
241.662	131.31
241.896	139.31
242.13	128.31
242.363	135.31
242.597	123.31
242.83	126.31
243.064	133.31
243.298	120.31
243.531	139.31
243.765	147.31
243.998	110.31
244.232	139.31
244.465	129.31
244.699	147.31
244.932	145.31
245.166	136.31
245.399	142.31
245.633	130.31
245.866	139.31
246.099	139.31
246.333	152.31
246.566	147.31
246.8	135.31
247.033	135.31
247.266	139.31
247.5	130.31
247.733	159.31
247.966	145.31
248.2	161.31
248.433	145.31
248.666	155.31
248.899	177.31
249.133	185.31
249.366	171.31
249.599	183.31
249.832	177.31
250.066	181.31
250.299	153.31
250.532	184.31
250.765	174.31
250.998	195.31
251.231	200.31
251.465	201.31
251.698	190.31
251.931	185.31
252.164	186.31
252.397	183.31
252.63	192.31
252.863	202.31
253.096	199.31
253.329	199.31
253.562	209.31
253.795	205.31
254.028	192.31
254.261	190.31
254.494	217.31
254.727	225.31
254.96	239.31
255.193	238.31
255.426	229.31
255.659	218.31
255.892	206.31
256.124	216.31
256.357	198.31
256.59	205.31
256.823	197.31
257.056	171.31
257.289	187.31
257.521	187.31
257.754	205.31
257.987	190.31
258.22	198.31
258.452	178.31
258.685	195.31
258.918	183.31
259.151	200.31
259.383	200.31
259.616	189.31
259.849	195.31
260.081	210.31
260.314	221.31
260.547	213.31
260.779	218.31
261.012	217.31
261.244	189.31
261.477	207.31
261.71	206.31
261.942	187.31
262.175	207.31
262.407	207.31
262.64	196.31
262.872	206.31
263.105	189.31
263.337	187.31
263.57	186.31
263.802	202.31
264.035	199.31
264.267	205.31
264.499	187.31
264.732	191.31
264.964	205.31
265.197	191.31
265.429	187.31
265.661	206.31
265.894	199.31
266.126	194.31
266.358	207.31
266.591	189.31
266.823	205.31
267.055	193.31
267.287	203.31
267.52	173.31
267.752	200.31
267.984	195.31
268.216	205.31
268.448	203.31
268.681	219.31
268.913	208.31
269.145	210.31
269.377	228.31
269.609	243.31
269.841	239.31
270.073	230.31
270.306	241.31
270.538	267.31
270.77	275.31
271.002	253.31
271.234	251.31
271.466	257.31
271.698	274.31
271.93	267.31
272.162	259.31
272.394	270.31
272.626	257.31
272.858	235.31
273.09	250.31
273.322	249.31
273.553	225.31
273.785	237.31
274.017	232.31
274.249	226.31
274.481	225.31
274.713	240.31
274.945	222.31
275.176	223.31
275.408	233.31
275.64	236.31
275.872	253.31
276.104	213.31
276.335	225.31
276.567	228.31
276.799	223.31
277.031	247.31
277.262	262.31
277.494	260.31
277.726	267.31
277.957	254.31
278.189	233.31
278.421	215.31
278.652	242.31
278.884	229.31
279.115	216.31
279.347	212.31
279.579	209.31
279.81	204.31
280.042	213.31
280.273	230.31
280.505	223.31
280.736	219.31
280.968	219.31
281.199	208.31
281.431	223.31
281.662	224.31
281.894	219.31
282.125	204.31
282.356	234.31
282.588	257.31
282.819	270.31
283.051	251.31
283.282	231.31
283.513	226.31
283.745	234.31
283.976	227.31
284.207	245.31
284.439	222.31
284.67	227.31
284.901	224.31
285.132	227.31
285.364	232.31
285.595	231.31
285.826	227.31
286.057	230.31
286.288	232.31
286.52	218.31
286.751	231.31
286.982	233.31
287.213	231.31
287.444	233.31
287.675	240.31
287.906	251.31
288.138	245.31
288.369	264.31
288.6	248.31
288.831	236.31
289.062	234.31
289.293	225.31
289.524	250.31
289.755	235.31
289.986	232.31
290.217	241.31
290.448	226.31
290.679	235.31
290.91	244.31
291.141	232.31
291.371	240.31
291.602	222.31
291.833	225.31
292.064	230.31
292.295	235.31
292.526	233.31
292.757	238.31
292.987	232.31
293.218	251.31
293.449	231.31
293.68	239.31
293.91	231.31
294.141	228.31
294.372	237.31
294.603	223.31
294.833	238.31
295.064	233.31
295.295	229.31
295.525	228.31
295.756	253.31
295.987	247.31
296.217	274.31
296.448	275.31
296.679	244.31
296.909	227.31
297.14	237.31
297.37	242.31
297.601	217.31
297.831	231.31
298.062	243.31
298.292	246.31
298.523	241.31
298.753	238.31
298.984	237.31
299.214	230.31
299.445	253.31
299.675	249.31
299.905	247.31
300.136	261.31
300.366	233.31
300.597	245.31
300.827	258.31
301.057	253.31
301.288	267.31
301.518	282.31
301.748	266.31
301.979	269.31
302.209	263.31
302.439	253.31
302.669	260.31
302.9	253.31
303.13	266.31
303.36	249.31
303.59	269.31
303.82	271.31
304.051	298.31
304.281	255.31
304.511	251.31
304.741	264.31
304.971	248.31
305.201	283.31
305.431	258.31
305.661	247.31
305.891	268.31
306.121	272.31
306.352	273.31
306.582	275.31
306.812	257.31
307.042	264.31
307.272	273.31
307.502	269.31
307.731	256.31
307.961	249.31
308.191	272.31
308.421	273.31
308.651	268.31
308.881	261.31
309.111	261.31
309.341	282.31
309.571	255.31
309.8	282.31
310.03	291.31
310.26	312.31
310.49	296.31
310.72	306.31
310.949	313.31
311.179	336.31
311.409	326.31
311.639	303.31
311.868	320.31
312.098	281.31
312.328	320.31
312.557	323.31
312.787	326.31
313.017	323.31
313.246	319.31
313.476	307.31
313.706	287.31
313.935	312.31
314.165	334.31
314.394	320.31
314.624	328.31
314.853	312.31
315.083	309.31
315.312	292.31
315.542	319.31
315.771	287.31
316.001	291.31
316.23	325.31
316.46	289.31
316.689	291.31
316.919	307.31
317.148	328.31
317.377	319.31
317.607	311.31
317.836	296.31
318.065	309.31
318.295	292.31
318.524	303.31
318.753	293.31
318.983	297.31
319.212	303.31
319.441	306.31
319.67	323.31
319.9	319.31
320.129	314.31
320.358	308.31
320.587	310.31
320.816	310.31
321.046	321.31
321.275	319.31
321.504	313.31
321.733	329.31
321.962	315.31
322.191	340.31
322.42	350.31
322.649	356.31
322.878	368.31
323.108	390.31
323.337	399.31
323.566	417.31
323.795	440.31
324.024	468.31
324.253	564.31
324.482	806.31
324.71	1206.31
324.939	1747.31
325.168	1599.31
325.397	827.31
325.626	552.31
325.855	467.31
326.084	413.31
326.313	397.31
326.542	425.31
326.77	447.31
326.999	530.31
327.228	701.31
327.457	1090.31
327.686	1327.31
327.914	913.31
328.143	599.31
328.372	508.31
328.6	481.31
328.829	474.31
329.058	477.31
329.287	499.31
329.515	453.31
329.744	424.31
329.972	404.31
330.201	437.31
330.43	457.31
330.658	471.31
330.887	513.31
331.115	478.31
331.344	437.31
331.572	406.31
331.801	422.31
332.03	389.31
332.258	361.31
332.486	368.31
332.715	360.31
332.943	341.31
333.172	349.31
333.4	352.31
333.629	379.31
333.857	371.31
334.085	378.31
334.314	390.31
334.542	379.31
334.771	411.31
334.999	389.31
335.227	364.31
335.455	362.31
335.684	337.31
335.912	336.31
336.14	335.31
336.369	344.31
336.597	365.31
336.825	336.31
337.053	333.31
337.281	362.31
337.51	353.31
337.738	349.31
337.966	351.31
338.194	359.31
338.422	374.31
338.65	365.31
338.878	321.31
339.106	330.31
339.334	333.31
339.562	333.31
339.79	352.31
340.018	325.31
340.246	331.31
340.474	332.31
340.702	336.31
340.93	338.31
341.158	326.31
341.386	339.31
341.614	346.31
341.842	353.31
342.07	335.31
342.298	344.31
342.526	329.31
342.754	325.31
342.981	346.31
343.209	333.31
343.437	324.31
343.665	339.31
343.893	348.31
344.12	339.31
344.348	341.31
344.576	355.31
344.804	354.31
345.031	377.31
345.259	381.31
345.487	362.31
345.714	335.31
345.942	333.31
346.17	351.31
346.397	333.31
346.625	330.31
346.853	352.31
347.08	327.31
347.308	331.31
347.535	355.31
347.763	338.31
347.99	312.31
348.218	339.31
348.445	360.31
348.673	357.31
348.9	345.31
349.128	334.31
349.355	314.31
349.583	314.31
349.81	318.31
350.037	321.31
350.265	329.31
350.492	347.31
350.72	330.31
350.947	329.31
351.174	336.31
351.402	325.31
351.629	350.31
351.856	337.31
352.083	333.31
352.311	329.31
352.538	346.31
352.765	339.31
352.992	363.31
353.22	356.31
353.447	326.31
353.674	299.31
353.901	325.31
354.128	321.31
354.355	328.31
354.583	310.31
354.81	295.31
355.037	298.31
355.264	307.31
355.491	303.31
355.718	299.31
355.945	306.31
356.172	314.31
356.399	290.31
356.626	311.31
356.853	326.31
357.08	327.31
357.307	319.31
357.534	321.31
357.761	317.31
357.988	328.31
358.215	302.31
358.441	317.31
358.668	326.31
358.895	312.31
359.122	307.31
359.349	339.31
359.576	338.31
359.802	346.31
360.029	373.31
360.256	389.31
360.483	393.31
360.709	342.31
360.936	320.31
361.163	330.31
361.39	330.31
361.616	344.31
361.843	340.31
362.07	334.31
362.296	337.31
362.523	332.31
362.749	329.31
362.976	330.31
363.203	321.31
363.429	317.31
363.656	314.31
363.882	322.31
364.109	318.31
364.335	324.31
364.562	330.31
364.788	309.31
365.015	301.31
365.241	305.31
365.468	306.31
365.694	309.31
365.92	319.31
366.147	307.31
366.373	318.31
366.599	285.31
366.826	330.31
367.052	306.31
367.278	315.31
367.505	319.31
367.731	318.31
367.957	309.31
368.184	316.31
368.41	327.31
368.636	334.31
368.862	325.31
369.089	338.31
369.315	310.31
369.541	305.31
369.767	317.31
369.993	324.31
370.219	314.31
370.445	339.31
370.672	329.31
370.898	306.31
371.124	306.31
371.35	323.31
371.576	330.31
371.802	335.31
372.028	302.31
372.254	304.31
372.48	311.31
372.706	307.31
372.932	318.31
373.158	328.31
373.384	324.31
373.61	312.31
373.835	315.31
374.061	317.31
374.287	334.31
374.513	321.31
374.739	352.31
374.965	333.31
375.191	331.31
375.416	331.31
375.642	320.31
375.868	308.31
376.094	323.31
376.319	314.31
376.545	306.31
376.771	309.31
376.997	303.31
377.222	328.31
377.448	329.31
377.674	304.31
377.899	323.31
378.125	317.31
378.35	319.31
378.576	319.31
378.802	329.31
379.027	322.31
379.253	309.31
379.478	314.31
379.704	313.31
379.929	324.31
380.155	332.31
380.38	335.31
380.606	315.31
380.831	318.31
381.057	329.31
381.282	325.31
381.507	332.31
381.733	329.31
381.958	318.31
382.184	319.31
382.409	331.31
382.634	319.31
382.86	339.31
383.085	315.31
383.31	313.31
383.535	328.31
383.761	320.31
383.986	335.31
384.211	335.31
384.436	333.31
384.662	342.31
384.887	331.31
385.112	349.31
385.337	351.31
385.562	338.31
385.787	343.31
386.013	349.31
386.238	334.31
386.463	335.31
386.688	340.31
386.913	339.31
387.138	334.31
387.363	334.31
387.588	341.31
387.813	339.31
388.038	327.31
388.263	353.31
388.488	328.31
388.713	336.31
388.938	336.31
389.163	334.31
389.387	347.31
389.612	317.31
389.837	342.31
390.062	332.31
390.287	333.31
390.512	332.31
390.736	345.31
390.961	339.31
391.186	323.31
391.411	339.31
391.636	315.31
391.86	350.31
392.085	361.31
392.31	345.31
392.534	353.31
392.759	342.31
392.984	344.31
393.208	352.31
393.433	347.31
393.658	332.31
393.882	332.31
394.107	359.31
394.331	328.31
394.556	345.31
394.78	333.31
395.005	344.31
395.229	342.31
395.454	346.31
395.678	337.31
395.903	338.31
396.127	359.31
396.352	381.31
396.576	372.31
396.801	369.31
397.025	352.31
397.249	358.31
397.474	365.31
397.698	378.31
397.922	383.31
398.147	368.31
398.371	395.31
398.595	397.31
398.82	358.31
399.044	383.31
399.268	388.31
399.492	402.31
399.717	403.31
399.941	437.31
400.165	456.31
400.389	470.31
400.613	426.31
400.837	387.31
401.062	401.31
401.286	387.31
401.51	369.31
401.734	377.31
401.958	395.31
402.182	390.31
402.406	394.31
402.63	382.31
402.854	396.31
403.078	386.31
403.302	389.31
403.526	385.31
403.75	395.31
403.974	378.31
404.198	384.31
404.422	385.31
404.645	385.31
404.869	404.31
405.093	397.31
405.317	458.31
405.541	477.31
405.765	443.31
405.988	421.31
406.212	413.31
406.436	441.31
406.66	458.31
406.883	439.31
407.107	459.31
407.331	501.31
407.555	533.31
407.778	510.31
408.002	467.31
408.226	443.31
408.449	453.31
408.673	434.31
408.896	449.31
409.12	491.31
409.344	473.31
409.567	425.31
409.791	395.31
410.014	400.31
410.238	387.31
410.461	381.31
410.685	407.31
410.908	406.31
411.132	451.31
411.355	488.31
411.578	467.31
411.802	415.31
412.025	397.31
412.249	405.31
412.472	428.31
412.695	455.31
412.919	433.31
413.142	405.31
413.365	387.31
413.589	380.31
413.812	378.31
414.035	369.31
414.258	381.31
414.482	368.31
414.705	373.31
414.928	375.31
415.151	382.31
415.374	373.31
415.597	378.31
415.821	375.31
416.044	387.31
416.267	380.31
416.49	385.31
416.713	386.31
416.936	381.31
417.159	381.31
417.382	395.31
417.605	389.31
417.828	384.31
418.051	390.31
418.274	375.31
418.497	407.31
418.72	377.31
418.943	378.31
419.166	383.31
419.389	389.31
419.611	410.31
419.834	392.31
420.057	404.31
420.28	389.31
420.503	390.31
420.726	391.31
420.948	415.31
421.171	460.31
421.394	453.31
421.617	418.31
421.839	411.31
422.062	411.31
422.285	398.31
422.507	466.31
422.73	514.31
422.953	507.31
423.175	449.31
423.398	425.31
423.621	414.31
423.843	433.31
424.066	444.31
424.288	430.31
424.511	456.31
424.733	500.31
424.956	567.31
425.178	567.31
425.401	523.31
425.623	568.31
425.846	456.31
426.068	442.31
426.291	434.31
426.513	430.31
426.735	435.31
426.958	496.31
427.18	560.31
427.402	642.31
427.625	723.31
427.847	628.31
428.069	533.31
428.292	467.31
428.514	455.31
428.736	441.31
428.958	421.31
429.181	416.31
429.403	423.31
429.625	418.31
429.847	443.31
430.069	499.31
430.292	493.31
430.514	433.31
430.736	409.31
430.958	395.31
431.18	390.31
431.402	387.31
431.624	385.31
431.846	384.31
432.068	397.31
432.29	394.31
432.512	391.31
432.734	390.31
432.956	386.31
433.178	379.31
433.4	415.31
433.622	409.31
433.844	384.31
434.066	377.31
434.287	386.31
434.509	387.31
434.731	401.31
434.953	396.31
435.175	397.31
435.397	426.31
435.618	423.31
435.84	480.31
436.062	565.31
436.284	606.31
436.505	508.31
436.727	468.31
436.949	421.31
437.17	449.31
437.392	428.31
437.614	428.31
437.835	452.31
438.057	527.31
438.278	598.31
438.5	600.31
438.721	677.31
438.943	649.31
439.165	503.31
439.386	472.31
439.608	463.31
439.829	475.31
440.05	471.31
440.272	524.31
440.493	489.31
440.715	437.31
440.936	406.31
441.158	424.31
441.379	422.31
441.6	430.31
441.822	441.31
442.043	467.31
442.264	536.31
442.486	579.31
442.707	505.31
442.928	458.31
443.149	465.31
443.371	497.31
443.592	523.31
443.813	581.31
444.034	622.31
444.255	531.31
444.476	443.31
444.698	441.31
444.919	419.31
445.14	522.31
445.361	505.31
445.582	483.31
445.803	519.31
446.024	614.31
446.245	636.31
446.466	567.31
446.687	488.31
446.908	440.31
447.129	415.31
447.35	419.31
447.571	410.31
447.792	419.31
448.013	406.31
448.234	411.31
448.455	470.31
448.675	572.31
448.896	652.31
449.117	579.31
449.338	535.31
449.559	623.31
449.779	695.31
450	551.31
450.221	463.31
450.442	428.31
450.662	409.31
450.883	407.31
451.104	441.31
451.324	409.31
451.545	408.31
451.766	409.31
451.986	376.31
452.207	376.31
452.428	368.31
452.648	385.31
452.869	379.31
453.089	398.31
453.31	382.31
453.53	387.31
453.751	406.31
453.971	390.31
454.192	396.31
454.412	389.31
454.633	365.31
454.853	385.31
455.073	353.31
455.294	404.31
455.514	465.31
455.734	450.31
455.955	373.31
456.175	354.31
456.395	359.31
456.616	340.31
456.836	347.31
457.056	352.31
457.276	339.31
457.497	350.31
457.717	363.31
457.937	355.31
458.157	359.31
458.377	385.31
458.598	361.31
458.818	445.31
459.038	484.31
459.258	491.31
459.478	415.31
459.698	400.31
459.918	374.31
460.138	342.31
460.358	381.31
460.578	391.31
460.798	376.31
461.018	360.31
461.238	367.31
461.458	362.31
461.678	359.31
461.898	381.31
462.118	383.31
462.338	387.31
462.558	377.31
462.777	392.31
462.997	381.31
463.217	400.31
463.437	403.31
463.657	390.31
463.876	391.31
464.096	393.31
464.316	382.31
464.536	391.31
464.755	426.31
464.975	400.31
465.195	449.31
465.414	517.31
465.634	472.31
465.854	421.31
466.073	395.31
466.293	370.31
466.512	361.31
466.732	380.31
466.951	400.31
467.171	345.31
467.391	366.31
467.61	375.31
467.829	375.31
468.049	388.31
468.268	389.31
468.488	381.31
468.707	370.31
468.927	370.31
469.146	370.31
469.365	380.31
469.585	350.31
469.804	356.31
470.023	379.31
470.243	378.31
470.462	382.31
470.681	423.31
470.901	398.31
471.12	392.31
471.339	379.31
471.558	387.31
471.777	388.31
471.997	381.31
472.216	361.31
472.435	407.31
472.654	405.31
472.873	391.31
473.092	383.31
473.311	391.31
473.53	369.31
473.749	393.31
473.968	419.31
474.187	504.31
474.406	495.31
474.625	451.31
474.844	404.31
475.063	380.31
475.282	378.31
475.501	383.31
475.72	385.31
475.939	404.31
476.158	403.31
476.377	382.31
476.596	392.31
476.814	407.31
477.033	415.31
477.252	393.31
477.471	410.31
477.69	414.31
477.908	392.31
478.127	411.31
478.346	404.31
478.564	423.31
478.783	405.31
479.002	438.31
479.22	425.31
479.439	452.31
479.658	460.31
479.876	462.31
480.095	447.31
480.313	494.31
480.532	455.31
480.751	457.31
480.969	460.31
481.188	494.31
481.406	522.31
481.624	474.31
481.843	461.31
482.061	447.31
482.28	445.31
482.498	459.31
482.717	444.31
482.935	441.31
483.153	448.31
483.372	447.31
483.59	431.31
483.808	447.31
484.027	449.31
484.245	455.31
484.463	468.31
484.681	455.31
484.9	441.31
485.118	434.31
485.336	457.31
485.554	456.31
485.772	440.31
485.99	451.31
486.209	444.31
486.427	470.31
486.645	485.31
486.863	493.31
487.081	477.31
487.299	486.31
487.517	481.31
487.735	471.31
487.953	477.31
488.171	492.31
488.389	489.31
488.607	492.31
488.825	487.31
489.043	479.31
489.261	498.31
489.479	497.31
489.696	496.31
489.914	485.31
490.132	509.31
490.35	502.31
490.568	508.31
490.786	514.31
491.003	518.31
491.221	526.31
491.439	538.31
491.657	554.31
491.874	545.31
492.092	560.31
492.31	568.31
492.527	579.31
492.745	553.31
492.963	562.31
493.18	539.31
493.398	567.31
493.615	590.31
493.833	565.31
494.05	548.31
494.268	563.31
494.485	553.31
494.703	550.31
494.92	585.31
495.138	583.31
495.355	581.31
495.573	548.31
495.79	589.31
496.008	597.31
496.225	573.31
496.442	608.31
496.66	566.31
496.877	582.31
497.094	582.31
497.312	605.31
497.529	582.31
497.746	587.31
497.963	594.31
498.181	593.31
498.398	592.31
498.615	624.31
498.832	621.31
499.049	613.31
499.267	639.31
499.484	613.31
499.701	669.31
499.918	640.31
500.135	687.31
500.352	704.31
500.569	711.31
500.786	725.31
501.003	711.31
501.22	708.31
501.437	693.31
501.654	680.31
501.871	687.31
502.088	688.31
