Data from 1980.PennyLincolnUp.Lamp.En5.5.200Scan.071819.P1_HRD10591_16-36-13-956.txt Node
Date: Thu Jul 18 16:36:13 EDT 2019
User: cochatt
Spectrometer: HR+D1059
Trigger mode: 1
Integration Time (sec): 1.000000E-1
Scans to average: 1
Electric dark correction enabled: true
Nonlinearity correction enabled: false
Boxcar width: 0
XAxis mode: Wavelengths
Number of Pixels in Spectrum: 2048
>>>>>Begin Spectral Data<<<<<
223.165	-7.62
223.4	-7.62
223.635	-7.62
223.869	-15.62
224.104	-15.62
224.338	-11.62
224.573	1.38
224.808	-6.62
225.042	-4.62
225.277	-0.62
225.511	-15.62
225.746	-4.62
225.98	3.38
226.215	13.38
226.449	4.38
226.683	15.38
226.918	9.38
227.152	35.38
227.387	38.38
227.621	34.38
227.856	41.38
228.09	42.38
228.324	55.38
228.559	55.38
228.793	59.38
229.027	78.38
229.262	97.38
229.496	105.38
229.73	118.38
229.964	134.38
230.199	101.38
230.433	117.38
230.667	101.38
230.901	97.38
231.136	104.38
231.37	104.38
231.604	95.38
231.838	108.38
232.072	100.38
232.306	105.38
232.541	106.38
232.775	99.38
233.009	110.38
233.243	98.38
233.477	116.38
233.711	91.38
233.945	111.38
234.179	106.38
234.413	109.38
234.647	102.38
234.881	104.38
235.115	97.38
235.349	102.38
235.583	101.38
235.817	108.38
236.051	116.38
236.285	132.38
236.519	92.38
236.753	116.38
236.987	142.38
237.221	151.38
237.455	188.38
237.689	150.38
237.922	118.38
238.156	120.38
238.39	131.38
238.624	116.38
238.858	117.38
239.091	119.38
239.325	134.38
239.559	114.38
239.793	115.38
240.027	112.38
240.26	128.38
240.494	139.38
240.728	149.38
240.961	133.38
241.195	124.38
241.429	130.38
241.662	129.38
241.896	115.38
242.13	120.38
242.363	111.38
242.597	131.38
242.83	123.38
243.064	120.38
243.298	125.38
243.531	122.38
243.765	128.38
243.998	124.38
244.232	127.38
244.465	127.38
244.699	138.38
244.932	125.38
245.166	137.38
245.399	140.38
245.633	133.38
245.866	128.38
246.099	136.38
246.333	125.38
246.566	130.38
246.8	129.38
247.033	131.38
247.266	131.38
247.5	164.38
247.733	146.38
247.966	153.38
248.2	162.38
248.433	152.38
248.666	147.38
248.899	138.38
249.133	173.38
249.366	179.38
249.599	155.38
249.832	169.38
250.066	163.38
250.299	146.38
250.532	173.38
250.765	170.38
250.998	188.38
251.231	199.38
251.465	184.38
251.698	187.38
251.931	171.38
252.164	182.38
252.397	179.38
252.63	173.38
252.863	170.38
253.096	174.38
253.329	188.38
253.562	193.38
253.795	200.38
254.028	183.38
254.261	176.38
254.494	192.38
254.727	203.38
254.96	230.38
255.193	214.38
255.426	199.38
255.659	191.38
255.892	188.38
256.124	201.38
256.357	169.38
256.59	198.38
256.823	184.38
257.056	173.38
257.289	164.38
257.521	171.38
257.754	167.38
257.987	186.38
258.22	178.38
258.452	173.38
258.685	174.38
258.918	186.38
259.151	185.38
259.383	195.38
259.616	199.38
259.849	175.38
260.081	204.38
260.314	203.38
260.547	218.38
260.779	197.38
261.012	206.38
261.244	193.38
261.477	187.38
261.71	179.38
261.942	195.38
262.175	215.38
262.407	189.38
262.64	185.38
262.872	163.38
263.105	193.38
263.337	182.38
263.57	181.38
263.802	168.38
264.035	183.38
264.267	175.38
264.499	168.38
264.732	183.38
264.964	172.38
265.197	183.38
265.429	168.38
265.661	177.38
265.894	189.38
266.126	171.38
266.358	189.38
266.591	167.38
266.823	173.38
267.055	179.38
267.287	190.38
267.52	187.38
267.752	175.38
267.984	182.38
268.216	190.38
268.448	182.38
268.681	189.38
268.913	183.38
269.145	211.38
269.377	218.38
269.609	222.38
269.841	222.38
270.073	209.38
270.306	229.38
270.538	237.38
270.77	240.38
271.002	243.38
271.234	235.38
271.466	231.38
271.698	242.38
271.93	228.38
272.162	248.38
272.394	258.38
272.626	234.38
272.858	227.38
273.09	224.38
273.322	213.38
273.553	215.38
273.785	210.38
274.017	213.38
274.249	203.38
274.481	221.38
274.713	219.38
274.945	205.38
275.176	213.38
275.408	205.38
275.64	214.38
275.872	216.38
276.104	209.38
276.335	191.38
276.567	206.38
276.799	231.38
277.031	247.38
277.262	230.38
277.494	235.38
277.726	253.38
277.957	221.38
278.189	205.38
278.421	216.38
278.652	193.38
278.884	197.38
279.115	217.38
279.347	201.38
279.579	209.38
279.81	208.38
280.042	203.38
280.273	217.38
280.505	206.38
280.736	209.38
280.968	200.38
281.199	209.38
281.431	219.38
281.662	190.38
281.894	183.38
282.125	221.38
282.356	225.38
282.588	249.38
282.819	228.38
283.051	205.38
283.282	205.38
283.513	200.38
283.745	206.38
283.976	216.38
284.207	227.38
284.439	208.38
284.67	244.38
284.901	223.38
285.132	207.38
285.364	217.38
285.595	203.38
285.826	205.38
286.057	228.38
286.288	215.38
286.52	211.38
286.751	211.38
286.982	213.38
287.213	218.38
287.444	216.38
287.675	209.38
287.906	231.38
288.138	231.38
288.369	227.38
288.6	198.38
288.831	221.38
289.062	224.38
289.293	207.38
289.524	215.38
289.755	218.38
289.986	229.38
290.217	203.38
290.448	214.38
290.679	215.38
290.91	217.38
291.141	215.38
291.371	221.38
291.602	225.38
291.833	220.38
292.064	210.38
292.295	211.38
292.526	208.38
292.757	222.38
292.987	188.38
293.218	203.38
293.449	215.38
293.68	224.38
293.91	224.38
294.141	223.38
294.372	220.38
294.603	211.38
294.833	207.38
295.064	222.38
295.295	227.38
295.525	226.38
295.756	221.38
295.987	230.38
296.217	224.38
296.448	259.38
296.679	240.38
296.909	220.38
297.14	228.38
297.37	226.38
297.601	220.38
297.831	215.38
298.062	220.38
298.292	230.38
298.523	224.38
298.753	237.38
298.984	221.38
299.214	222.38
299.445	238.38
299.675	232.38
299.905	245.38
300.136	244.38
300.366	236.38
300.597	222.38
300.827	227.38
301.057	236.38
301.288	248.38
301.518	235.38
301.748	236.38
301.979	225.38
302.209	227.38
302.439	240.38
302.669	245.38
302.9	231.38
303.13	241.38
303.36	218.38
303.59	229.38
303.82	252.38
304.051	255.38
304.281	260.38
304.511	240.38
304.741	241.38
304.971	215.38
305.201	224.38
305.431	232.38
305.661	233.38
305.891	228.38
306.121	244.38
306.352	243.38
306.582	251.38
306.812	233.38
307.042	259.38
307.272	255.38
307.502	244.38
307.731	254.38
307.961	234.38
308.191	223.38
308.421	249.38
308.651	232.38
308.881	248.38
309.111	243.38
309.341	235.38
309.571	255.38
309.8	256.38
310.03	265.38
310.26	292.38
310.49	270.38
310.72	277.38
310.949	302.38
311.179	295.38
311.409	272.38
311.639	261.38
311.868	259.38
312.098	297.38
312.328	280.38
312.557	307.38
312.787	299.38
313.017	298.38
313.246	265.38
313.476	267.38
313.706	269.38
313.935	269.38
314.165	288.38
314.394	279.38
314.624	298.38
314.853	287.38
315.083	278.38
315.312	271.38
315.542	273.38
315.771	270.38
316.001	253.38
316.23	264.38
316.46	280.38
316.689	270.38
316.919	275.38
317.148	274.38
317.377	291.38
317.607	288.38
317.836	286.38
318.065	281.38
318.295	267.38
318.524	270.38
318.753	263.38
318.983	279.38
319.212	270.38
319.441	278.38
319.67	285.38
319.9	261.38
320.129	274.38
320.358	269.38
320.587	279.38
320.816	276.38
321.046	275.38
321.275	296.38
321.504	289.38
321.733	299.38
321.962	307.38
322.191	313.38
322.42	313.38
322.649	322.38
322.878	328.38
323.108	331.38
323.337	339.38
323.566	367.38
323.795	383.38
324.024	393.38
324.253	489.38
324.482	685.38
324.71	1035.38
324.939	1509.38
325.168	1352.38
325.397	707.38
325.626	449.38
325.855	391.38
326.084	383.38
326.313	367.38
326.542	350.38
326.77	401.38
326.999	463.38
327.228	601.38
327.457	929.38
327.686	1103.38
327.914	783.38
328.143	504.38
328.372	439.38
328.6	418.38
328.829	399.38
329.058	393.38
329.287	416.38
329.515	379.38
329.744	365.38
329.972	355.38
330.201	362.38
330.43	373.38
330.658	399.38
330.887	429.38
331.115	408.38
331.344	360.38
331.572	366.38
331.801	348.38
332.03	342.38
332.258	334.38
332.486	321.38
332.715	324.38
332.943	304.38
333.172	307.38
333.4	337.38
333.629	323.38
333.857	336.38
334.085	321.38
334.314	348.38
334.542	352.38
334.771	349.38
334.999	336.38
335.227	316.38
335.455	334.38
335.684	326.38
335.912	335.38
336.14	305.38
336.369	325.38
336.597	327.38
336.825	315.38
337.053	320.38
337.281	336.38
337.51	300.38
337.738	326.38
337.966	317.38
338.194	307.38
338.422	306.38
338.65	289.38
338.878	301.38
339.106	310.38
339.334	309.38
339.562	300.38
339.79	307.38
340.018	315.38
340.246	324.38
340.474	327.38
340.702	323.38
340.93	300.38
341.158	331.38
341.386	319.38
341.614	303.38
341.842	326.38
342.07	294.38
342.298	307.38
342.526	303.38
342.754	301.38
342.981	311.38
343.209	300.38
343.437	297.38
343.665	298.38
343.893	318.38
344.12	304.38
344.348	301.38
344.576	300.38
344.804	296.38
345.031	311.38
345.259	326.38
345.487	326.38
345.714	305.38
345.942	307.38
346.17	295.38
346.397	313.38
346.625	311.38
346.853	294.38
347.08	283.38
347.308	298.38
347.535	313.38
347.763	313.38
347.99	299.38
348.218	323.38
348.445	318.38
348.673	314.38
348.9	311.38
349.128	295.38
349.355	284.38
349.583	302.38
349.81	299.38
350.037	298.38
350.265	291.38
350.492	307.38
350.72	302.38
350.947	284.38
351.174	324.38
351.402	309.38
351.629	293.38
351.856	286.38
352.083	311.38
352.311	317.38
352.538	314.38
352.765	299.38
352.992	292.38
353.22	318.38
353.447	297.38
353.674	296.38
353.901	280.38
354.128	296.38
354.355	292.38
354.583	284.38
354.81	284.38
355.037	271.38
355.264	280.38
355.491	292.38
355.718	303.38
355.945	307.38
356.172	288.38
356.399	297.38
356.626	280.38
356.853	282.38
357.08	283.38
357.307	287.38
357.534	294.38
357.761	279.38
357.988	297.38
358.215	285.38
358.441	279.38
358.668	289.38
358.895	290.38
359.122	292.38
359.349	294.38
359.576	301.38
359.802	316.38
360.029	332.38
360.256	339.38
360.483	327.38
360.709	304.38
360.936	307.38
361.163	313.38
361.39	313.38
361.616	305.38
361.843	309.38
362.07	330.38
362.296	319.38
362.523	311.38
362.749	312.38
362.976	286.38
363.203	300.38
363.429	313.38
363.656	308.38
363.882	303.38
364.109	290.38
364.335	296.38
364.562	294.38
364.788	290.38
365.015	303.38
365.241	289.38
365.468	297.38
365.694	314.38
365.92	315.38
366.147	291.38
366.373	297.38
366.599	308.38
366.826	289.38
367.052	297.38
367.278	277.38
367.505	288.38
367.731	286.38
367.957	293.38
368.184	275.38
368.41	280.38
368.636	295.38
368.862	315.38
369.089	299.38
369.315	305.38
369.541	299.38
369.767	289.38
369.993	309.38
370.219	284.38
370.445	293.38
370.672	297.38
370.898	304.38
371.124	295.38
371.35	295.38
371.576	295.38
371.802	273.38
372.028	303.38
372.254	297.38
372.48	294.38
372.706	334.38
372.932	309.38
373.158	291.38
373.384	311.38
373.61	311.38
373.835	303.38
374.061	291.38
374.287	305.38
374.513	291.38
374.739	303.38
374.965	293.38
375.191	309.38
375.416	291.38
375.642	305.38
375.868	297.38
376.094	293.38
376.319	297.38
376.545	296.38
376.771	289.38
376.997	308.38
377.222	305.38
377.448	300.38
377.674	297.38
377.899	291.38
378.125	287.38
378.35	307.38
378.576	279.38
378.802	311.38
379.027	309.38
379.253	292.38
379.478	304.38
379.704	292.38
379.929	302.38
380.155	311.38
380.38	294.38
380.606	301.38
380.831	296.38
381.057	308.38
381.282	281.38
381.507	298.38
381.733	306.38
381.958	304.38
382.184	298.38
382.409	281.38
382.634	285.38
382.86	301.38
383.085	285.38
383.31	300.38
383.535	331.38
383.761	311.38
383.986	309.38
384.211	288.38
384.436	317.38
384.662	308.38
384.887	299.38
385.112	301.38
385.337	312.38
385.562	315.38
385.787	318.38
386.013	323.38
386.238	314.38
386.463	311.38
386.688	321.38
386.913	316.38
387.138	319.38
387.363	323.38
387.588	310.38
387.813	320.38
388.038	319.38
388.263	309.38
388.488	320.38
388.713	325.38
388.938	311.38
389.163	318.38
389.387	311.38
389.612	316.38
389.837	327.38
390.062	317.38
390.287	322.38
390.512	311.38
390.736	325.38
390.961	321.38
391.186	330.38
391.411	309.38
391.636	311.38
391.86	307.38
392.085	313.38
392.31	307.38
392.534	320.38
392.759	328.38
392.984	323.38
393.208	321.38
393.433	324.38
393.658	335.38
393.882	314.38
394.107	335.38
394.331	337.38
394.556	312.38
394.78	335.38
395.005	311.38
395.229	311.38
395.454	305.38
395.678	313.38
395.903	348.38
396.127	347.38
396.352	372.38
396.576	329.38
396.801	327.38
397.025	342.38
397.249	344.38
397.474	339.38
397.698	331.38
397.922	335.38
398.147	350.38
398.371	352.38
398.595	325.38
398.82	346.38
399.044	349.38
399.268	364.38
399.492	383.38
399.717	402.38
399.941	404.38
400.165	405.38
400.389	430.38
400.613	375.38
400.837	378.38
401.062	349.38
401.286	357.38
401.51	344.38
401.734	336.38
401.958	341.38
402.182	340.38
402.406	366.38
402.63	370.38
402.854	344.38
403.078	354.38
403.302	371.38
403.526	376.38
403.75	375.38
403.974	365.38
404.198	362.38
404.422	357.38
404.645	376.38
404.869	389.38
405.093	376.38
405.317	408.38
405.541	446.38
405.765	416.38
405.988	380.38
406.212	389.38
406.436	391.38
406.66	407.38
406.883	395.38
407.107	395.38
407.331	441.38
407.555	478.38
407.778	491.38
408.002	443.38
408.226	422.38
408.449	398.38
408.673	420.38
408.896	425.38
409.12	451.38
409.344	451.38
409.567	379.38
409.791	381.38
410.014	360.38
410.238	373.38
410.461	381.38
410.685	365.38
410.908	359.38
411.132	411.38
411.355	441.38
411.578	408.38
411.802	373.38
412.025	377.38
412.249	368.38
412.472	379.38
412.695	399.38
412.919	398.38
413.142	389.38
413.365	361.38
413.589	351.38
413.812	364.38
414.035	363.38
414.258	329.38
414.482	352.38
414.705	343.38
414.928	344.38
415.151	343.38
415.374	360.38
415.597	349.38
415.821	352.38
416.044	335.38
416.267	347.38
416.49	355.38
416.713	368.38
416.936	331.38
417.159	345.38
417.382	351.38
417.605	364.38
417.828	385.38
418.051	363.38
418.274	336.38
418.497	341.38
418.72	355.38
418.943	353.38
419.166	378.38
419.389	367.38
419.611	377.38
419.834	375.38
420.057	371.38
420.28	362.38
420.503	355.38
420.726	352.38
420.948	364.38
421.171	418.38
421.394	439.38
421.617	398.38
421.839	367.38
422.062	363.38
422.285	381.38
422.507	417.38
422.73	468.38
422.953	462.38
423.175	423.38
423.398	377.38
423.621	378.38
423.843	403.38
424.066	405.38
424.288	390.38
424.511	413.38
424.733	446.38
424.956	516.38
425.178	505.38
425.401	493.38
425.623	543.38
425.846	464.38
426.068	382.38
426.291	393.38
426.513	388.38
426.735	430.38
426.958	427.38
427.18	500.38
427.402	597.38
427.625	657.38
427.847	584.38
428.069	506.38
428.292	431.38
428.514	388.38
428.736	389.38
428.958	388.38
429.181	382.38
429.403	380.38
429.625	399.38
429.847	406.38
430.069	448.38
430.292	445.38
430.514	400.38
430.736	366.38
430.958	379.38
431.18	349.38
431.402	350.38
431.624	349.38
431.846	359.38
432.068	358.38
432.29	339.38
432.512	343.38
432.734	362.38
432.956	349.38
433.178	363.38
433.4	370.38
433.622	358.38
433.844	357.38
434.066	332.38
434.287	365.38
434.509	359.38
434.731	359.38
434.953	350.38
435.175	384.38
435.397	405.38
435.618	413.38
435.84	445.38
436.062	489.38
436.284	567.38
436.505	473.38
436.727	429.38
436.949	401.38
437.17	382.38
437.392	382.38
437.614	388.38
437.835	413.38
438.057	469.38
438.278	568.38
438.5	582.38
438.721	611.38
438.943	576.38
439.165	464.38
439.386	420.38
439.608	435.38
439.829	421.38
440.05	459.38
440.272	478.38
440.493	432.38
440.715	401.38
440.936	387.38
441.158	393.38
441.379	389.38
441.6	384.38
441.822	398.38
442.043	420.38
442.264	520.38
442.486	545.38
442.707	448.38
442.928	431.38
443.149	417.38
443.371	449.38
443.592	468.38
443.813	524.38
444.034	573.38
444.255	475.38
444.476	447.38
444.698	418.38
444.919	401.38
445.14	485.38
445.361	438.38
445.582	447.38
445.803	478.38
446.024	538.38
446.245	549.38
446.466	503.38
446.687	457.38
446.908	420.38
447.129	394.38
447.35	384.38
447.571	383.38
447.792	359.38
448.013	391.38
448.234	401.38
448.455	426.38
448.675	528.38
448.896	594.38
449.117	545.38
449.338	479.38
449.559	576.38
449.779	626.38
450	520.38
450.221	437.38
450.442	394.38
450.662	393.38
450.883	405.38
451.104	388.38
451.324	382.38
451.545	351.38
451.766	349.38
451.986	334.38
452.207	344.38
452.428	333.38
452.648	336.38
452.869	344.38
453.089	349.38
453.31	360.38
453.53	344.38
453.751	345.38
453.971	350.38
454.192	349.38
454.412	367.38
454.633	350.38
454.853	339.38
455.073	332.38
455.294	360.38
455.514	384.38
455.734	406.38
455.955	351.38
456.175	326.38
456.395	343.38
456.616	315.38
456.836	311.38
457.056	304.38
457.276	334.38
457.497	321.38
457.717	312.38
457.937	335.38
458.157	323.38
458.377	332.38
458.598	335.38
458.818	367.38
459.038	411.38
459.258	438.38
459.478	393.38
459.698	360.38
459.918	348.38
460.138	343.38
460.358	349.38
460.578	341.38
460.798	356.38
461.018	343.38
461.238	363.38
461.458	352.38
461.678	347.38
461.898	357.38
462.118	366.38
462.338	352.38
462.558	368.38
462.777	360.38
462.997	377.38
463.217	375.38
463.437	369.38
463.657	373.38
463.876	368.38
464.096	367.38
464.316	359.38
464.536	361.38
464.755	363.38
464.975	388.38
465.195	400.38
465.414	471.38
465.634	409.38
465.854	387.38
466.073	366.38
466.293	357.38
466.512	343.38
466.732	352.38
466.951	325.38
467.171	337.38
467.391	321.38
467.61	339.38
467.829	371.38
468.049	345.38
468.268	350.38
468.488	349.38
468.707	334.38
468.927	348.38
469.146	343.38
469.365	326.38
469.585	336.38
469.804	347.38
470.023	342.38
470.243	358.38
470.462	374.38
470.681	368.38
470.901	369.38
471.12	347.38
471.339	342.38
471.558	349.38
471.777	338.38
471.997	342.38
472.216	343.38
472.435	349.38
472.654	355.38
472.873	362.38
473.092	345.38
473.311	359.38
473.53	365.38
473.749	352.38
473.968	374.38
474.187	469.38
474.406	480.38
474.625	405.38
474.844	357.38
475.063	343.38
475.282	360.38
475.501	340.38
475.72	360.38
475.939	364.38
476.158	351.38
476.377	365.38
476.596	361.38
476.814	372.38
477.033	369.38
477.252	372.38
477.471	371.38
477.69	371.38
477.908	382.38
478.127	383.38
478.346	363.38
478.564	389.38
478.783	398.38
479.002	397.38
479.22	411.38
479.439	401.38
479.658	408.38
479.876	421.38
480.095	422.38
480.313	426.38
480.532	434.38
480.751	427.38
480.969	432.38
481.188	453.38
481.406	452.38
481.624	436.38
481.843	417.38
482.061	425.38
482.28	398.38
482.498	415.38
482.717	416.38
482.935	412.38
483.153	400.38
483.372	418.38
483.59	409.38
483.808	407.38
484.027	427.38
484.245	407.38
484.463	398.38
484.681	417.38
484.9	400.38
485.118	408.38
485.336	403.38
485.554	399.38
485.772	410.38
485.99	419.38
486.209	430.38
486.427	446.38
486.645	433.38
486.863	448.38
487.081	446.38
487.299	442.38
487.517	423.38
487.735	451.38
487.953	441.38
488.171	449.38
488.389	435.38
488.607	445.38
488.825	445.38
489.043	427.38
489.261	442.38
489.479	449.38
489.696	457.38
489.914	477.38
490.132	461.38
490.35	465.38
490.568	464.38
490.786	461.38
491.003	470.38
491.221	486.38
491.439	502.38
491.657	484.38
491.874	499.38
492.092	494.38
492.31	518.38
492.527	497.38
492.745	513.38
492.963	518.38
493.18	529.38
493.398	488.38
493.615	511.38
493.833	503.38
494.05	534.38
494.268	521.38
494.485	535.38
494.703	533.38
494.92	552.38
495.138	530.38
495.355	525.38
495.573	523.38
495.79	507.38
496.008	509.38
496.225	521.38
496.442	526.38
496.66	536.38
496.877	509.38
497.094	521.38
497.312	524.38
497.529	530.38
497.746	552.38
497.963	552.38
498.181	557.38
498.398	575.38
498.615	559.38
498.832	572.38
499.049	563.38
499.267	581.38
499.484	608.38
499.701	613.38
499.918	616.38
500.135	639.38
500.352	646.38
500.569	669.38
500.786	669.38
501.003	645.38
501.22	637.38
501.437	637.38
501.654	631.38
501.871	643.38
502.088	645.38
