Data from 1980.PennyLincolnUp.Lamp.En5.5.200Scan.071819.P1_HRD10591_16-38-32-957.txt Node
Date: Thu Jul 18 16:38:32 EDT 2019
User: cochatt
Spectrometer: HR+D1059
Trigger mode: 1
Integration Time (sec): 1.000000E-1
Scans to average: 1
Electric dark correction enabled: true
Nonlinearity correction enabled: false
Boxcar width: 0
XAxis mode: Wavelengths
Number of Pixels in Spectrum: 2048
>>>>>Begin Spectral Data<<<<<
223.165	-5.88
223.4	-5.88
223.635	-5.88
223.869	-4.88
224.104	-21.88
224.338	-23.88
224.573	-24.88
224.808	-3.88
225.042	3.12
225.277	-14.88
225.511	7.12
225.746	-14.88
225.98	2.12
226.215	16.12
226.449	6.12
226.683	31.12
226.918	28.12
227.152	21.12
227.387	27.12
227.621	43.12
227.856	31.12
228.09	48.12
228.324	41.12
228.559	44.12
228.793	87.12
229.027	93.12
229.262	115.12
229.496	133.12
229.73	153.12
229.964	164.12
230.199	139.12
230.433	122.12
230.667	113.12
230.901	121.12
231.136	121.12
231.37	114.12
231.604	120.12
231.838	117.12
232.072	125.12
232.306	103.12
232.541	121.12
232.775	130.12
233.009	102.12
233.243	122.12
233.477	114.12
233.711	114.12
233.945	105.12
234.179	115.12
234.413	111.12
234.647	101.12
234.881	111.12
235.115	148.12
235.349	115.12
235.583	115.12
235.817	130.12
236.051	129.12
236.285	124.12
236.519	136.12
236.753	130.12
236.987	151.12
237.221	196.12
237.455	270.12
237.689	191.12
237.922	154.12
238.156	138.12
238.39	124.12
238.624	131.12
238.858	136.12
239.091	131.12
239.325	129.12
239.559	129.12
239.793	139.12
240.027	156.12
240.26	147.12
240.494	148.12
240.728	151.12
240.961	167.12
241.195	150.12
241.429	150.12
241.662	146.12
241.896	147.12
242.13	128.12
242.363	117.12
242.597	131.12
242.83	139.12
243.064	136.12
243.298	139.12
243.531	131.12
243.765	133.12
243.998	137.12
244.232	134.12
244.465	121.12
244.699	141.12
244.932	131.12
245.166	137.12
245.399	153.12
245.633	149.12
245.866	147.12
246.099	148.12
246.333	142.12
246.566	143.12
246.8	142.12
247.033	148.12
247.266	160.12
247.5	170.12
247.733	165.12
247.966	181.12
248.2	161.12
248.433	179.12
248.666	183.12
248.899	198.12
249.133	211.12
249.366	213.12
249.599	192.12
249.832	199.12
250.066	181.12
250.299	201.12
250.532	205.12
250.765	200.12
250.998	235.12
251.231	233.12
251.465	227.12
251.698	209.12
251.931	212.12
252.164	212.12
252.397	212.12
252.63	206.12
252.863	210.12
253.096	210.12
253.329	233.12
253.562	239.12
253.795	229.12
254.028	241.12
254.261	234.12
254.494	238.12
254.727	259.12
254.96	291.12
255.193	303.12
255.426	263.12
255.659	236.12
255.892	232.12
256.124	256.12
256.357	233.12
256.59	257.12
256.823	241.12
257.056	216.12
257.289	215.12
257.521	212.12
257.754	212.12
257.987	214.12
258.22	222.12
258.452	218.12
258.685	215.12
258.918	192.12
259.151	211.12
259.383	205.12
259.616	219.12
259.849	208.12
260.081	227.12
260.314	249.12
260.547	258.12
260.779	272.12
261.012	246.12
261.244	222.12
261.477	234.12
261.71	237.12
261.942	235.12
262.175	254.12
262.407	242.12
262.64	223.12
262.872	211.12
263.105	227.12
263.337	205.12
263.57	206.12
263.802	222.12
264.035	211.12
264.267	198.12
264.499	227.12
264.732	216.12
264.964	204.12
265.197	214.12
265.429	208.12
265.661	193.12
265.894	218.12
266.126	213.12
266.358	209.12
266.591	193.12
266.823	215.12
267.055	223.12
267.287	222.12
267.52	227.12
267.752	228.12
267.984	203.12
268.216	226.12
268.448	210.12
268.681	224.12
268.913	224.12
269.145	245.12
269.377	271.12
269.609	275.12
269.841	270.12
270.073	274.12
270.306	288.12
270.538	324.12
270.77	315.12
271.002	311.12
271.234	314.12
271.466	303.12
271.698	319.12
271.93	322.12
272.162	326.12
272.394	325.12
272.626	309.12
272.858	283.12
273.09	278.12
273.322	271.12
273.553	265.12
273.785	260.12
274.017	275.12
274.249	270.12
274.481	250.12
274.713	261.12
274.945	256.12
275.176	255.12
275.408	266.12
275.64	251.12
275.872	251.12
276.104	260.12
276.335	272.12
276.567	255.12
276.799	309.12
277.031	300.12
277.262	317.12
277.494	311.12
277.726	305.12
277.957	308.12
278.189	281.12
278.421	248.12
278.652	265.12
278.884	249.12
279.115	261.12
279.347	260.12
279.579	260.12
279.81	249.12
280.042	262.12
280.273	261.12
280.505	251.12
280.736	263.12
280.968	258.12
281.199	260.12
281.431	256.12
281.662	248.12
281.894	229.12
282.125	258.12
282.356	280.12
282.588	291.12
282.819	305.12
283.051	289.12
283.282	262.12
283.513	262.12
283.745	263.12
283.976	263.12
284.207	255.12
284.439	260.12
284.67	261.12
284.901	279.12
285.132	271.12
285.364	252.12
285.595	255.12
285.826	249.12
286.057	261.12
286.288	269.12
286.52	277.12
286.751	264.12
286.982	262.12
287.213	252.12
287.444	269.12
287.675	263.12
287.906	275.12
288.138	295.12
288.369	285.12
288.6	298.12
288.831	286.12
289.062	268.12
289.293	271.12
289.524	265.12
289.755	296.12
289.986	272.12
290.217	267.12
290.448	255.12
290.679	286.12
290.91	260.12
291.141	259.12
291.371	265.12
291.602	269.12
291.833	259.12
292.064	278.12
292.295	267.12
292.526	271.12
292.757	278.12
292.987	265.12
293.218	263.12
293.449	267.12
293.68	242.12
293.91	255.12
294.141	259.12
294.372	268.12
294.603	261.12
294.833	273.12
295.064	267.12
295.295	250.12
295.525	257.12
295.756	275.12
295.987	283.12
296.217	308.12
296.448	297.12
296.679	281.12
296.909	267.12
297.14	276.12
297.37	279.12
297.601	267.12
297.831	287.12
298.062	271.12
298.292	284.12
298.523	284.12
298.753	283.12
298.984	281.12
299.214	272.12
299.445	283.12
299.675	292.12
299.905	275.12
300.136	271.12
300.366	290.12
300.597	293.12
300.827	297.12
301.057	293.12
301.288	293.12
301.518	318.12
301.748	295.12
301.979	295.12
302.209	299.12
302.439	297.12
302.669	291.12
302.9	291.12
303.13	311.12
303.36	321.12
303.59	296.12
303.82	317.12
304.051	299.12
304.281	290.12
304.511	309.12
304.741	297.12
304.971	281.12
305.201	287.12
305.431	290.12
305.661	303.12
305.891	301.12
306.121	293.12
306.352	292.12
306.582	290.12
306.812	308.12
307.042	313.12
307.272	325.12
307.502	308.12
307.731	310.12
307.961	295.12
308.191	286.12
308.421	299.12
308.651	317.12
308.881	313.12
309.111	315.12
309.341	340.12
309.571	352.12
309.8	351.12
310.03	353.12
310.26	364.12
310.49	356.12
310.72	376.12
310.949	383.12
311.179	396.12
311.409	358.12
311.639	364.12
311.868	358.12
312.098	356.12
312.328	383.12
312.557	393.12
312.787	398.12
313.017	395.12
313.246	387.12
313.476	351.12
313.706	367.12
313.935	354.12
314.165	387.12
314.394	401.12
314.624	375.12
314.853	380.12
315.083	362.12
315.312	361.12
315.542	344.12
315.771	331.12
316.001	359.12
316.23	354.12
316.46	340.12
316.689	360.12
316.919	375.12
317.148	367.12
317.377	385.12
317.607	363.12
317.836	365.12
318.065	359.12
318.295	361.12
318.524	344.12
318.753	330.12
318.983	361.12
319.212	349.12
319.441	347.12
319.67	375.12
319.9	350.12
320.129	361.12
320.358	363.12
320.587	372.12
320.816	387.12
321.046	399.12
321.275	381.12
321.504	398.12
321.733	400.12
321.962	389.12
322.191	429.12
322.42	419.12
322.649	425.12
322.878	447.12
323.108	461.12
323.337	485.12
323.566	521.12
323.795	555.12
324.024	610.12
324.253	761.12
324.482	1101.12
324.71	1691.12
324.939	2447.12
325.168	2149.12
325.397	1147.12
325.626	733.12
325.855	613.12
326.084	553.12
326.313	536.12
326.542	523.12
326.77	602.12
326.999	699.12
327.228	981.12
327.457	1499.12
327.686	1895.12
327.914	1301.12
328.143	824.12
328.372	695.12
328.6	644.12
328.829	609.12
329.058	631.12
329.287	623.12
329.515	584.12
329.744	524.12
329.972	540.12
330.201	555.12
330.43	589.12
330.658	634.12
330.887	669.12
331.115	639.12
331.344	539.12
331.572	497.12
331.801	485.12
332.03	483.12
332.258	468.12
332.486	441.12
332.715	425.12
332.943	427.12
333.172	441.12
333.4	435.12
333.629	439.12
333.857	432.12
334.085	470.12
334.314	493.12
334.542	497.12
334.771	525.12
334.999	476.12
335.227	446.12
335.455	423.12
335.684	439.12
335.912	434.12
336.14	414.12
336.369	390.12
336.597	421.12
336.825	415.12
337.053	395.12
337.281	415.12
337.51	396.12
337.738	420.12
337.966	386.12
338.194	400.12
338.422	407.12
338.65	404.12
338.878	415.12
339.106	387.12
339.334	396.12
339.562	393.12
339.79	411.12
340.018	391.12
340.246	398.12
340.474	389.12
340.702	412.12
340.93	382.12
341.158	403.12
341.386	395.12
341.614	418.12
341.842	391.12
342.07	405.12
342.298	384.12
342.526	390.12
342.754	381.12
342.981	373.12
343.209	367.12
343.437	387.12
343.665	365.12
343.893	383.12
344.12	405.12
344.348	396.12
344.576	370.12
344.804	393.12
345.031	421.12
345.259	404.12
345.487	416.12
345.714	396.12
345.942	405.12
346.17	395.12
346.397	374.12
346.625	379.12
346.853	389.12
347.08	394.12
347.308	399.12
347.535	414.12
347.763	395.12
347.99	409.12
348.218	417.12
348.445	412.12
348.673	387.12
348.9	377.12
349.128	369.12
349.355	370.12
349.583	353.12
349.81	382.12
350.037	385.12
350.265	369.12
350.492	380.12
350.72	353.12
350.947	372.12
351.174	407.12
351.402	399.12
351.629	405.12
351.856	396.12
352.083	411.12
352.311	405.12
352.538	421.12
352.765	421.12
352.992	409.12
353.22	392.12
353.447	384.12
353.674	396.12
353.901	376.12
354.128	359.12
354.355	371.12
354.583	378.12
354.81	342.12
355.037	353.12
355.264	351.12
355.491	340.12
355.718	348.12
355.945	352.12
356.172	345.12
356.399	357.12
356.626	343.12
356.853	342.12
357.08	341.12
357.307	341.12
357.534	361.12
357.761	357.12
357.988	342.12
358.215	341.12
358.441	348.12
358.668	358.12
358.895	373.12
359.122	379.12
359.349	368.12
359.576	403.12
359.802	429.12
360.029	437.12
360.256	450.12
360.483	433.12
360.709	409.12
360.936	391.12
361.163	375.12
361.39	402.12
361.616	404.12
361.843	407.12
362.07	399.12
362.296	393.12
362.523	389.12
362.749	388.12
362.976	371.12
363.203	379.12
363.429	357.12
363.656	374.12
363.882	353.12
364.109	376.12
364.335	370.12
364.562	344.12
364.788	360.12
365.015	356.12
365.241	369.12
365.468	349.12
365.694	381.12
365.92	371.12
366.147	360.12
366.373	376.12
366.599	373.12
366.826	350.12
367.052	363.12
367.278	362.12
367.505	357.12
367.731	377.12
367.957	357.12
368.184	347.12
368.41	360.12
368.636	375.12
368.862	363.12
369.089	349.12
369.315	359.12
369.541	363.12
369.767	372.12
369.993	348.12
370.219	347.12
370.445	352.12
370.672	349.12
370.898	356.12
371.124	333.12
371.35	361.12
371.576	357.12
371.802	340.12
372.028	360.12
372.254	354.12
372.48	359.12
372.706	350.12
372.932	339.12
373.158	336.12
373.384	345.12
373.61	348.12
373.835	348.12
374.061	353.12
374.287	350.12
374.513	334.12
374.739	364.12
374.965	357.12
375.191	357.12
375.416	351.12
375.642	351.12
375.868	355.12
376.094	364.12
376.319	347.12
376.545	340.12
376.771	348.12
376.997	334.12
377.222	353.12
377.448	348.12
377.674	354.12
377.899	352.12
378.125	331.12
378.35	354.12
378.576	338.12
378.802	348.12
379.027	350.12
379.253	348.12
379.478	334.12
379.704	366.12
379.929	343.12
380.155	347.12
380.38	351.12
380.606	355.12
380.831	351.12
381.057	363.12
381.282	356.12
381.507	379.12
381.733	359.12
381.958	358.12
382.184	340.12
382.409	350.12
382.634	360.12
382.86	364.12
383.085	353.12
383.31	359.12
383.535	377.12
383.761	346.12
383.986	360.12
384.211	360.12
384.436	360.12
384.662	352.12
384.887	356.12
385.112	358.12
385.337	384.12
385.562	393.12
385.787	367.12
386.013	371.12
386.238	383.12
386.463	407.12
386.688	392.12
386.913	357.12
387.138	364.12
387.363	373.12
387.588	368.12
387.813	363.12
388.038	383.12
388.263	371.12
388.488	385.12
388.713	377.12
388.938	379.12
389.163	395.12
389.387	380.12
389.612	373.12
389.837	371.12
390.062	364.12
390.287	378.12
390.512	355.12
390.736	377.12
390.961	381.12
391.186	377.12
391.411	361.12
391.636	371.12
391.86	391.12
392.085	369.12
392.31	372.12
392.534	352.12
392.759	361.12
392.984	397.12
393.208	369.12
393.433	369.12
393.658	363.12
393.882	372.12
394.107	367.12
394.331	377.12
394.556	364.12
394.78	365.12
395.005	361.12
395.229	378.12
395.454	363.12
395.678	366.12
395.903	383.12
396.127	409.12
396.352	418.12
396.576	390.12
396.801	383.12
397.025	392.12
397.249	387.12
397.474	381.12
397.698	376.12
397.922	413.12
398.147	415.12
398.371	406.12
398.595	409.12
398.82	380.12
399.044	413.12
399.268	421.12
399.492	441.12
399.717	456.12
399.941	462.12
400.165	472.12
400.389	522.12
400.613	498.12
400.837	446.12
401.062	437.12
401.286	436.12
401.51	409.12
401.734	419.12
401.958	425.12
402.182	435.12
402.406	453.12
402.63	445.12
402.854	451.12
403.078	441.12
403.302	450.12
403.526	461.12
403.75	460.12
403.974	448.12
404.198	444.12
404.422	437.12
404.645	447.12
404.869	450.12
405.093	481.12
405.317	548.12
405.541	553.12
405.765	481.12
405.988	477.12
406.212	497.12
406.436	501.12
406.66	509.12
406.883	502.12
407.107	530.12
407.331	529.12
407.555	608.12
407.778	596.12
408.002	548.12
408.226	525.12
408.449	499.12
408.673	503.12
408.896	522.12
409.12	556.12
409.344	543.12
409.567	482.12
409.791	449.12
410.014	462.12
410.238	458.12
410.461	457.12
410.685	447.12
410.908	443.12
411.132	489.12
411.355	513.12
411.578	516.12
411.802	468.12
412.025	441.12
412.249	467.12
412.472	463.12
412.695	517.12
412.919	522.12
413.142	457.12
413.365	437.12
413.589	444.12
413.812	420.12
414.035	439.12
414.258	427.12
414.482	407.12
414.705	424.12
414.928	439.12
415.151	411.12
415.374	421.12
415.597	401.12
415.821	427.12
416.044	413.12
416.267	416.12
416.49	431.12
416.713	424.12
416.936	407.12
417.159	406.12
417.382	426.12
417.605	432.12
417.828	465.12
418.051	444.12
418.274	455.12
418.497	422.12
418.72	436.12
418.943	443.12
419.166	434.12
419.389	445.12
419.611	452.12
419.834	453.12
420.057	445.12
420.28	457.12
420.503	459.12
420.726	456.12
420.948	460.12
421.171	522.12
421.394	541.12
421.617	485.12
421.839	463.12
422.062	454.12
422.285	475.12
422.507	533.12
422.73	608.12
422.953	586.12
423.175	495.12
423.398	487.12
423.621	457.12
423.843	492.12
424.066	515.12
424.288	490.12
424.511	524.12
424.733	584.12
424.956	643.12
425.178	640.12
425.401	616.12
425.623	629.12
425.846	559.12
426.068	519.12
426.291	498.12
426.513	507.12
426.735	506.12
426.958	549.12
427.18	641.12
427.402	737.12
427.625	837.12
427.847	776.12
428.069	679.12
428.292	599.12
428.514	529.12
428.736	481.12
428.958	497.12
429.181	450.12
429.403	469.12
429.625	476.12
429.847	520.12
430.069	566.12
430.292	600.12
430.514	504.12
430.736	467.12
430.958	453.12
431.18	460.12
431.402	432.12
431.624	420.12
431.846	415.12
432.068	424.12
432.29	436.12
432.512	439.12
432.734	441.12
432.956	459.12
433.178	429.12
433.4	444.12
433.622	424.12
433.844	431.12
434.066	419.12
434.287	433.12
434.509	420.12
434.731	437.12
434.953	449.12
435.175	483.12
435.397	473.12
435.618	537.12
435.84	547.12
436.062	633.12
436.284	712.12
436.505	583.12
436.727	529.12
436.949	484.12
437.17	467.12
437.392	452.12
437.614	483.12
437.835	523.12
438.057	637.12
438.278	698.12
438.5	712.12
438.721	784.12
438.943	737.12
439.165	627.12
439.386	548.12
439.608	546.12
439.829	533.12
440.05	570.12
440.272	609.12
440.493	579.12
440.715	527.12
440.936	479.12
441.158	476.12
441.379	461.12
441.6	490.12
441.822	509.12
442.043	563.12
442.264	622.12
442.486	671.12
442.707	603.12
442.928	517.12
443.149	535.12
443.371	541.12
443.592	601.12
443.813	700.12
444.034	719.12
444.255	612.12
444.476	533.12
444.698	516.12
444.919	516.12
445.14	560.12
445.361	560.12
445.582	548.12
445.803	626.12
446.024	717.12
446.245	744.12
446.466	689.12
446.687	586.12
446.908	521.12
447.129	504.12
447.35	489.12
447.571	475.12
447.792	484.12
448.013	496.12
448.234	484.12
448.455	550.12
448.675	659.12
448.896	747.12
449.117	643.12
449.338	611.12
449.559	678.12
449.779	784.12
450	647.12
450.221	550.12
450.442	498.12
450.662	474.12
450.883	495.12
451.104	511.12
451.324	484.12
451.545	473.12
451.766	452.12
451.986	419.12
452.207	420.12
452.428	425.12
452.648	420.12
452.869	431.12
453.089	440.12
453.31	453.12
453.53	464.12
453.751	420.12
453.971	413.12
454.192	455.12
454.412	470.12
454.633	439.12
454.853	421.12
455.073	417.12
455.294	468.12
455.514	542.12
455.734	503.12
455.955	441.12
456.175	401.12
456.395	404.12
456.616	402.12
456.836	395.12
457.056	397.12
457.276	386.12
457.497	372.12
457.717	399.12
457.937	411.12
458.157	400.12
458.377	395.12
458.598	445.12
458.818	491.12
459.038	609.12
459.258	611.12
459.478	526.12
459.698	451.12
459.918	407.12
460.138	439.12
460.358	428.12
460.578	423.12
460.798	422.12
461.018	442.12
461.238	433.12
461.458	417.12
461.678	415.12
461.898	433.12
462.118	412.12
462.338	419.12
462.558	428.12
462.777	432.12
462.997	427.12
463.217	431.12
463.437	450.12
463.657	426.12
463.876	434.12
464.096	430.12
464.316	443.12
464.536	443.12
464.755	451.12
464.975	444.12
465.195	523.12
465.414	633.12
465.634	533.12
465.854	473.12
466.073	452.12
466.293	437.12
466.512	449.12
466.732	433.12
466.951	431.12
467.171	408.12
467.391	417.12
467.61	436.12
467.829	439.12
468.049	443.12
468.268	420.12
468.488	431.12
468.707	409.12
468.927	411.12
469.146	420.12
469.365	413.12
469.585	416.12
469.804	419.12
470.023	421.12
470.243	420.12
470.462	443.12
470.681	457.12
470.901	452.12
471.12	442.12
471.339	419.12
471.558	429.12
471.777	446.12
471.997	428.12
472.216	452.12
472.435	487.12
472.654	441.12
472.873	442.12
473.092	428.12
473.311	440.12
473.53	434.12
473.749	436.12
473.968	487.12
474.187	599.12
474.406	636.12
474.625	504.12
474.844	443.12
475.063	451.12
475.282	447.12
475.501	414.12
475.72	437.12
475.939	440.12
476.158	439.12
476.377	449.12
476.596	452.12
476.814	443.12
477.033	479.12
477.252	464.12
477.471	448.12
477.69	452.12
477.908	447.12
478.127	453.12
478.346	484.12
478.564	482.12
478.783	469.12
479.002	475.12
479.22	498.12
479.439	497.12
479.658	533.12
479.876	541.12
480.095	532.12
480.313	552.12
480.532	545.12
480.751	535.12
480.969	557.12
481.188	631.12
481.406	673.12
481.624	587.12
481.843	528.12
482.061	538.12
482.28	519.12
482.498	513.12
482.717	504.12
482.935	513.12
483.153	511.12
483.372	532.12
483.59	531.12
483.808	508.12
484.027	529.12
484.245	536.12
484.463	523.12
484.681	500.12
484.9	504.12
485.118	521.12
485.336	543.12
485.554	513.12
485.772	532.12
485.99	518.12
486.209	528.12
486.427	525.12
486.645	546.12
486.863	557.12
487.081	571.12
487.299	549.12
487.517	571.12
487.735	553.12
487.953	533.12
488.171	556.12
488.389	552.12
488.607	553.12
488.825	561.12
489.043	571.12
489.261	577.12
489.479	571.12
489.696	564.12
489.914	564.12
490.132	592.12
490.35	585.12
490.568	593.12
490.786	575.12
491.003	610.12
491.221	605.12
491.439	625.12
491.657	629.12
491.874	623.12
492.092	642.12
492.31	645.12
492.527	664.12
492.745	652.12
492.963	647.12
493.18	664.12
493.398	655.12
493.615	672.12
493.833	674.12
494.05	675.12
494.268	682.12
494.485	660.12
494.703	665.12
494.92	659.12
495.138	673.12
495.355	675.12
495.573	661.12
495.79	652.12
496.008	668.12
496.225	659.12
496.442	663.12
496.66	659.12
496.877	633.12
497.094	684.12
497.312	680.12
497.529	689.12
497.746	665.12
497.963	669.12
498.181	708.12
498.398	730.12
498.615	705.12
498.832	720.12
499.049	692.12
499.267	707.12
499.484	732.12
499.701	729.12
499.918	742.12
500.135	788.12
500.352	787.12
500.569	763.12
500.786	803.12
501.003	800.12
501.22	796.12
501.437	773.12
501.654	767.12
501.871	780.12
