Data from 1980.PennyLincolnUp.Lamp.En5.5.200Scan.071819.P1_HRD10591_16-37-31-957.txt Node
Date: Thu Jul 18 16:37:31 EDT 2019
User: cochatt
Spectrometer: HR+D1059
Trigger mode: 1
Integration Time (sec): 1.000000E-1
Scans to average: 1
Electric dark correction enabled: true
Nonlinearity correction enabled: false
Boxcar width: 0
XAxis mode: Wavelengths
Number of Pixels in Spectrum: 2048
>>>>>Begin Spectral Data<<<<<
223.165	-8.25
223.4	-8.25
223.635	-8.25
223.869	-19.25
224.104	-15.25
224.338	4.75
224.573	-12.25
224.808	-7.25
225.042	-6.25
225.277	-13.25
225.511	1.75
225.746	-6.25
225.98	7.75
226.215	15.75
226.449	17.75
226.683	-2.25
226.918	15.75
227.152	26.75
227.387	25.75
227.621	32.75
227.856	47.75
228.09	53.75
228.324	47.75
228.559	47.75
228.793	72.75
229.027	95.75
229.262	112.75
229.496	94.75
229.73	135.75
229.964	159.75
230.199	134.75
230.433	136.75
230.667	111.75
230.901	121.75
231.136	98.75
231.37	114.75
231.604	118.75
231.838	123.75
232.072	119.75
232.306	104.75
232.541	106.75
232.775	106.75
233.009	111.75
233.243	113.75
233.477	113.75
233.711	104.75
233.945	122.75
234.179	101.75
234.413	120.75
234.647	121.75
234.881	107.75
235.115	117.75
235.349	130.75
235.583	117.75
235.817	119.75
236.051	121.75
236.285	117.75
236.519	140.75
236.753	136.75
236.987	160.75
237.221	195.75
237.455	250.75
237.689	185.75
237.922	135.75
238.156	139.75
238.39	128.75
238.624	125.75
238.858	123.75
239.091	135.75
239.325	132.75
239.559	125.75
239.793	132.75
240.027	143.75
240.26	130.75
240.494	161.75
240.728	155.75
240.961	150.75
241.195	148.75
241.429	140.75
241.662	142.75
241.896	131.75
242.13	133.75
242.363	136.75
242.597	144.75
242.83	141.75
243.064	147.75
243.298	142.75
243.531	130.75
243.765	147.75
243.998	146.75
244.232	149.75
244.465	138.75
244.699	127.75
244.932	147.75
245.166	135.75
245.399	153.75
245.633	152.75
245.866	158.75
246.099	156.75
246.333	164.75
246.566	155.75
246.8	157.75
247.033	163.75
247.266	171.75
247.5	155.75
247.733	166.75
247.966	155.75
248.2	168.75
248.433	171.75
248.666	181.75
248.899	174.75
249.133	182.75
249.366	205.75
249.599	203.75
249.832	193.75
250.066	196.75
250.299	183.75
250.532	202.75
250.765	195.75
250.998	208.75
251.231	220.75
251.465	228.75
251.698	197.75
251.931	199.75
252.164	197.75
252.397	193.75
252.63	201.75
252.863	207.75
253.096	233.75
253.329	229.75
253.562	232.75
253.795	218.75
254.028	220.75
254.261	219.75
254.494	215.75
254.727	251.75
254.96	291.75
255.193	276.75
255.426	265.75
255.659	248.75
255.892	242.75
256.124	240.75
256.357	241.75
256.59	219.75
256.823	209.75
257.056	206.75
257.289	217.75
257.521	216.75
257.754	226.75
257.987	220.75
258.22	206.75
258.452	217.75
258.685	217.75
258.918	211.75
259.151	218.75
259.383	242.75
259.616	225.75
259.849	229.75
260.081	229.75
260.314	270.75
260.547	267.75
260.779	264.75
261.012	234.75
261.244	240.75
261.477	239.75
261.71	216.75
261.942	223.75
262.175	256.75
262.407	227.75
262.64	224.75
262.872	219.75
263.105	221.75
263.337	214.75
263.57	203.75
263.802	208.75
264.035	204.75
264.267	197.75
264.499	209.75
264.732	216.75
264.964	207.75
265.197	212.75
265.429	204.75
265.661	211.75
265.894	211.75
266.126	227.75
266.358	217.75
266.591	215.75
266.823	212.75
267.055	226.75
267.287	232.75
267.52	216.75
267.752	210.75
267.984	226.75
268.216	215.75
268.448	217.75
268.681	221.75
268.913	230.75
269.145	236.75
269.377	284.75
269.609	279.75
269.841	261.75
270.073	272.75
270.306	296.75
270.538	335.75
270.77	313.75
271.002	308.75
271.234	292.75
271.466	298.75
271.698	309.75
271.93	309.75
272.162	313.75
272.394	301.75
272.626	312.75
272.858	298.75
273.09	268.75
273.322	273.75
273.553	268.75
273.785	263.75
274.017	249.75
274.249	261.75
274.481	255.75
274.713	253.75
274.945	258.75
275.176	257.75
275.408	264.75
275.64	266.75
275.872	263.75
276.104	254.75
276.335	270.75
276.567	262.75
276.799	265.75
277.031	288.75
277.262	317.75
277.494	315.75
277.726	300.75
277.957	298.75
278.189	276.75
278.421	272.75
278.652	274.75
278.884	267.75
279.115	239.75
279.347	253.75
279.579	276.75
279.81	251.75
280.042	280.75
280.273	256.75
280.505	264.75
280.736	254.75
280.968	232.75
281.199	247.75
281.431	235.75
281.662	253.75
281.894	267.75
282.125	260.75
282.356	267.75
282.588	301.75
282.819	307.75
283.051	257.75
283.282	246.75
283.513	263.75
283.745	259.75
283.976	282.75
284.207	259.75
284.439	270.75
284.67	255.75
284.901	264.75
285.132	254.75
285.364	269.75
285.595	271.75
285.826	267.75
286.057	259.75
286.288	260.75
286.52	263.75
286.751	269.75
286.982	264.75
287.213	262.75
287.444	252.75
287.675	255.75
287.906	274.75
288.138	278.75
288.369	276.75
288.6	285.75
288.831	272.75
289.062	275.75
289.293	267.75
289.524	263.75
289.755	253.75
289.986	274.75
290.217	267.75
290.448	287.75
290.679	275.75
290.91	264.75
291.141	257.75
291.371	270.75
291.602	278.75
291.833	264.75
292.064	268.75
292.295	275.75
292.526	277.75
292.757	278.75
292.987	260.75
293.218	273.75
293.449	283.75
293.68	279.75
293.91	276.75
294.141	270.75
294.372	245.75
294.603	281.75
294.833	273.75
295.064	284.75
295.295	245.75
295.525	263.75
295.756	278.75
295.987	308.75
296.217	319.75
296.448	329.75
296.679	285.75
296.909	283.75
297.14	271.75
297.37	265.75
297.601	252.75
297.831	268.75
298.062	264.75
298.292	303.75
298.523	276.75
298.753	291.75
298.984	299.75
299.214	283.75
299.445	285.75
299.675	267.75
299.905	275.75
300.136	284.75
300.366	285.75
300.597	283.75
300.827	285.75
301.057	298.75
301.288	323.75
301.518	304.75
301.748	285.75
301.979	297.75
302.209	301.75
302.439	325.75
302.669	308.75
302.9	273.75
303.13	282.75
303.36	304.75
303.59	304.75
303.82	330.75
304.051	307.75
304.281	299.75
304.511	291.75
304.741	298.75
304.971	308.75
305.201	299.75
305.431	300.75
305.661	293.75
305.891	289.75
306.121	284.75
306.352	307.75
306.582	316.75
306.812	285.75
307.042	310.75
307.272	321.75
307.502	305.75
307.731	300.75
307.961	297.75
308.191	315.75
308.421	315.75
308.651	298.75
308.881	319.75
309.111	319.75
309.341	317.75
309.571	312.75
309.8	355.75
310.03	355.75
310.26	353.75
310.49	359.75
310.72	378.75
310.949	360.75
311.179	388.75
311.409	371.75
311.639	355.75
311.868	343.75
312.098	355.75
312.328	381.75
312.557	377.75
312.787	403.75
313.017	377.75
313.246	376.75
313.476	355.75
313.706	359.75
313.935	361.75
314.165	402.75
314.394	381.75
314.624	382.75
314.853	364.75
315.083	372.75
315.312	335.75
315.542	358.75
315.771	343.75
316.001	353.75
316.23	353.75
316.46	347.75
316.689	347.75
316.919	351.75
317.148	378.75
317.377	369.75
317.607	372.75
317.836	344.75
318.065	354.75
318.295	340.75
318.524	357.75
318.753	357.75
318.983	348.75
319.212	356.75
319.441	355.75
319.67	382.75
319.9	371.75
320.129	367.75
320.358	357.75
320.587	361.75
320.816	361.75
321.046	376.75
321.275	393.75
321.504	378.75
321.733	407.75
321.962	398.75
322.191	401.75
322.42	430.75
322.649	436.75
322.878	453.75
323.108	454.75
323.337	487.75
323.566	526.75
323.795	548.75
324.024	594.75
324.253	767.75
324.482	1051.75
324.71	1603.75
324.939	2351.75
325.168	2036.75
325.397	1095.75
325.626	718.75
325.855	585.75
326.084	523.75
326.313	512.75
326.542	531.75
326.77	578.75
326.999	677.75
327.228	949.75
327.457	1411.75
327.686	1787.75
327.914	1223.75
328.143	810.75
328.372	657.75
328.6	599.75
328.829	601.75
329.058	623.75
329.287	592.75
329.515	563.75
329.744	530.75
329.972	532.75
330.201	539.75
330.43	567.75
330.658	623.75
330.887	676.75
331.115	628.75
331.344	529.75
331.572	507.75
331.801	483.75
332.03	495.75
332.258	453.75
332.486	420.75
332.715	436.75
332.943	440.75
333.172	441.75
333.4	411.75
333.629	441.75
333.857	451.75
334.085	452.75
334.314	471.75
334.542	489.75
334.771	538.75
334.999	486.75
335.227	445.75
335.455	419.75
335.684	417.75
335.912	422.75
336.14	405.75
336.369	401.75
336.597	417.75
336.825	420.75
337.053	413.75
337.281	389.75
337.51	390.75
337.738	392.75
337.966	417.75
338.194	403.75
338.422	392.75
338.65	403.75
338.878	406.75
339.106	385.75
339.334	413.75
339.562	409.75
339.79	372.75
340.018	409.75
340.246	393.75
340.474	415.75
340.702	409.75
340.93	378.75
341.158	374.75
341.386	381.75
341.614	389.75
341.842	373.75
342.07	386.75
342.298	371.75
342.526	386.75
342.754	381.75
342.981	380.75
343.209	391.75
343.437	379.75
343.665	380.75
343.893	395.75
344.12	399.75
344.348	383.75
344.576	378.75
344.804	391.75
345.031	417.75
345.259	415.75
345.487	412.75
345.714	400.75
345.942	394.75
346.17	387.75
346.397	381.75
346.625	384.75
346.853	381.75
347.08	395.75
347.308	399.75
347.535	408.75
347.763	420.75
347.99	388.75
348.218	400.75
348.445	417.75
348.673	425.75
348.9	386.75
349.128	400.75
349.355	379.75
349.583	359.75
349.81	393.75
350.037	383.75
350.265	383.75
350.492	379.75
350.72	368.75
350.947	376.75
351.174	400.75
351.402	404.75
351.629	394.75
351.856	404.75
352.083	407.75
352.311	406.75
352.538	425.75
352.765	413.75
352.992	386.75
353.22	406.75
353.447	399.75
353.674	368.75
353.901	381.75
354.128	359.75
354.355	355.75
354.583	354.75
354.81	361.75
355.037	375.75
355.264	345.75
355.491	347.75
355.718	364.75
355.945	343.75
356.172	343.75
356.399	345.75
356.626	347.75
356.853	359.75
357.08	345.75
357.307	347.75
357.534	359.75
357.761	348.75
357.988	360.75
358.215	357.75
358.441	353.75
358.668	351.75
358.895	377.75
359.122	362.75
359.349	381.75
359.576	363.75
359.802	390.75
360.029	471.75
360.256	467.75
360.483	440.75
360.709	414.75
360.936	400.75
361.163	380.75
361.39	400.75
361.616	413.75
361.843	385.75
362.07	397.75
362.296	393.75
362.523	403.75
362.749	379.75
362.976	385.75
363.203	372.75
363.429	378.75
363.656	378.75
363.882	371.75
364.109	360.75
364.335	359.75
364.562	358.75
364.788	349.75
365.015	369.75
365.241	363.75
365.468	377.75
365.694	394.75
365.92	382.75
366.147	357.75
366.373	375.75
366.599	360.75
366.826	342.75
367.052	344.75
367.278	356.75
367.505	367.75
367.731	373.75
367.957	387.75
368.184	355.75
368.41	365.75
368.636	376.75
368.862	393.75
369.089	383.75
369.315	346.75
369.541	361.75
369.767	363.75
369.993	379.75
370.219	352.75
370.445	348.75
370.672	344.75
370.898	348.75
371.124	344.75
371.35	360.75
371.576	370.75
371.802	361.75
372.028	352.75
372.254	357.75
372.48	354.75
372.706	338.75
372.932	359.75
373.158	353.75
373.384	354.75
373.61	361.75
373.835	363.75
374.061	370.75
374.287	355.75
374.513	343.75
374.739	367.75
374.965	361.75
375.191	333.75
375.416	359.75
375.642	339.75
375.868	348.75
376.094	376.75
376.319	372.75
376.545	357.75
376.771	357.75
376.997	361.75
377.222	357.75
377.448	381.75
377.674	359.75
377.899	339.75
378.125	343.75
378.35	346.75
378.576	343.75
378.802	341.75
379.027	355.75
379.253	354.75
379.478	337.75
379.704	351.75
379.929	353.75
380.155	367.75
380.38	359.75
380.606	355.75
380.831	360.75
381.057	354.75
381.282	353.75
381.507	354.75
381.733	359.75
381.958	352.75
382.184	358.75
382.409	363.75
382.634	339.75
382.86	349.75
383.085	362.75
383.31	379.75
383.535	354.75
383.761	365.75
383.986	356.75
384.211	362.75
384.436	364.75
384.662	383.75
384.887	371.75
385.112	371.75
385.337	367.75
385.562	376.75
385.787	385.75
386.013	396.75
386.238	389.75
386.463	375.75
386.688	374.75
386.913	366.75
387.138	376.75
387.363	380.75
387.588	376.75
387.813	378.75
388.038	360.75
388.263	349.75
388.488	378.75
388.713	359.75
388.938	375.75
389.163	371.75
389.387	377.75
389.612	394.75
389.837	376.75
390.062	380.75
390.287	369.75
390.512	381.75
390.736	353.75
390.961	391.75
391.186	380.75
391.411	387.75
391.636	392.75
391.86	378.75
392.085	388.75
392.31	380.75
392.534	392.75
392.759	394.75
392.984	378.75
393.208	378.75
393.433	386.75
393.658	380.75
393.882	377.75
394.107	367.75
394.331	390.75
394.556	358.75
394.78	380.75
395.005	381.75
395.229	385.75
395.454	365.75
395.678	414.75
395.903	389.75
396.127	413.75
396.352	425.75
396.576	400.75
396.801	392.75
397.025	397.75
397.249	396.75
397.474	383.75
397.698	413.75
397.922	397.75
398.147	412.75
398.371	415.75
398.595	411.75
398.82	416.75
399.044	433.75
399.268	432.75
399.492	450.75
399.717	481.75
399.941	484.75
400.165	515.75
400.389	519.75
400.613	480.75
400.837	452.75
401.062	466.75
401.286	439.75
401.51	439.75
401.734	430.75
401.958	419.75
402.182	452.75
402.406	421.75
402.63	465.75
402.854	442.75
403.078	459.75
403.302	455.75
403.526	450.75
403.75	444.75
403.974	450.75
404.198	442.75
404.422	433.75
404.645	447.75
404.869	467.75
405.093	500.75
405.317	540.75
405.541	555.75
405.765	496.75
405.988	470.75
406.212	477.75
406.436	512.75
406.66	537.75
406.883	496.75
407.107	517.75
407.331	561.75
407.555	606.75
407.778	607.75
408.002	555.75
408.226	514.75
408.449	501.75
408.673	486.75
408.896	528.75
409.12	568.75
409.344	530.75
409.567	484.75
409.791	452.75
410.014	463.75
410.238	458.75
410.461	435.75
410.685	480.75
410.908	484.75
411.132	496.75
411.355	524.75
411.578	521.75
411.802	482.75
412.025	448.75
412.249	453.75
412.472	477.75
412.695	515.75
412.919	503.75
413.142	458.75
413.365	451.75
413.589	439.75
413.812	445.75
414.035	410.75
414.258	414.75
414.482	403.75
414.705	416.75
414.928	413.75
415.151	436.75
415.374	410.75
415.597	419.75
415.821	421.75
416.044	417.75
416.267	438.75
416.49	433.75
416.713	433.75
416.936	425.75
417.159	425.75
417.382	439.75
417.605	434.75
417.828	444.75
418.051	452.75
418.274	448.75
418.497	418.75
418.72	426.75
418.943	419.75
419.166	433.75
419.389	463.75
419.611	458.75
419.834	451.75
420.057	456.75
420.28	472.75
420.503	464.75
420.726	461.75
420.948	465.75
421.171	498.75
421.394	540.75
421.617	491.75
421.839	460.75
422.062	455.75
422.285	462.75
422.507	525.75
422.73	612.75
422.953	591.75
423.175	491.75
423.398	476.75
423.621	479.75
423.843	467.75
424.066	513.75
424.288	496.75
424.511	527.75
424.733	567.75
424.956	644.75
425.178	625.75
425.401	630.75
425.623	652.75
425.846	573.75
426.068	507.75
426.291	515.75
426.513	506.75
426.735	506.75
426.958	554.75
427.18	644.75
427.402	750.75
427.625	835.75
427.847	785.75
428.069	641.75
428.292	592.75
428.514	524.75
428.736	492.75
428.958	483.75
429.181	504.75
429.403	444.75
429.625	508.75
429.847	511.75
430.069	577.75
430.292	584.75
430.514	503.75
430.736	465.75
430.958	468.75
431.18	451.75
431.402	449.75
431.624	437.75
431.846	428.75
432.068	421.75
432.29	432.75
432.512	457.75
432.734	441.75
432.956	472.75
433.178	452.75
433.4	482.75
433.622	445.75
433.844	425.75
434.066	423.75
434.287	428.75
434.509	420.75
434.731	453.75
434.953	462.75
435.175	472.75
435.397	499.75
435.618	519.75
435.84	569.75
436.062	642.75
436.284	723.75
436.505	574.75
436.727	529.75
436.949	492.75
437.17	480.75
437.392	466.75
437.614	503.75
437.835	531.75
438.057	610.75
438.278	691.75
438.5	715.75
438.721	775.75
438.943	741.75
439.165	605.75
439.386	561.75
439.608	549.75
439.829	551.75
440.05	563.75
440.272	609.75
440.493	582.75
440.715	509.75
440.936	487.75
441.158	492.75
441.379	475.75
441.6	492.75
441.822	518.75
442.043	558.75
442.264	647.75
442.486	666.75
442.707	573.75
442.928	544.75
443.149	535.75
443.371	523.75
443.592	615.75
443.813	671.75
444.034	753.75
444.255	626.75
444.476	544.75
444.698	513.75
444.919	525.75
445.14	651.75
445.361	586.75
445.582	531.75
445.803	611.75
446.024	721.75
446.245	731.75
446.466	644.75
446.687	576.75
446.908	528.75
447.129	483.75
447.35	465.75
447.571	472.75
447.792	467.75
448.013	488.75
448.234	487.75
448.455	549.75
448.675	637.75
448.896	765.75
449.117	680.75
449.338	631.75
449.559	733.75
449.779	803.75
450	667.75
450.221	552.75
450.442	499.75
450.662	496.75
450.883	456.75
451.104	507.75
451.324	485.75
451.545	467.75
451.766	461.75
451.986	404.75
452.207	415.75
452.428	423.75
452.648	431.75
452.869	421.75
453.089	431.75
453.31	451.75
453.53	439.75
453.751	412.75
453.971	431.75
454.192	459.75
454.412	432.75
454.633	428.75
454.853	443.75
455.073	421.75
455.294	424.75
455.514	509.75
455.734	507.75
455.955	462.75
456.175	411.75
456.395	397.75
456.616	384.75
456.836	394.75
457.056	375.75
457.276	400.75
457.497	393.75
457.717	380.75
457.937	425.75
458.157	417.75
458.377	417.75
458.598	424.75
458.818	503.75
459.038	597.75
459.258	585.75
459.478	498.75
459.698	438.75
459.918	427.75
460.138	440.75
460.358	436.75
460.578	435.75
460.798	424.75
461.018	444.75
461.238	448.75
461.458	426.75
461.678	438.75
461.898	429.75
462.118	442.75
462.338	440.75
462.558	419.75
462.777	413.75
462.997	443.75
463.217	432.75
463.437	453.75
463.657	443.75
463.876	441.75
464.096	439.75
464.316	447.75
464.536	467.75
464.755	434.75
464.975	465.75
465.195	538.75
465.414	632.75
465.634	532.75
465.854	477.75
466.073	455.75
466.293	451.75
466.512	452.75
466.732	413.75
466.951	409.75
467.171	421.75
467.391	440.75
467.61	445.75
467.829	433.75
468.049	434.75
468.268	427.75
468.488	428.75
468.707	414.75
468.927	421.75
469.146	420.75
469.365	409.75
469.585	400.75
469.804	434.75
470.023	423.75
470.243	437.75
470.462	437.75
470.681	442.75
470.901	457.75
471.12	428.75
471.339	436.75
471.558	424.75
471.777	441.75
471.997	446.75
472.216	423.75
472.435	489.75
472.654	468.75
472.873	456.75
473.092	433.75
473.311	433.75
473.53	424.75
473.749	473.75
473.968	513.75
474.187	580.75
474.406	618.75
474.625	500.75
474.844	467.75
475.063	452.75
475.282	443.75
475.501	440.75
475.72	452.75
475.939	435.75
476.158	464.75
476.377	454.75
476.596	446.75
476.814	461.75
477.033	472.75
477.252	473.75
477.471	453.75
477.69	462.75
477.908	451.75
478.127	475.75
478.346	467.75
478.564	474.75
478.783	479.75
479.002	488.75
479.22	485.75
479.439	506.75
479.658	513.75
479.876	535.75
480.095	519.75
480.313	546.75
480.532	514.75
480.751	542.75
480.969	548.75
481.188	612.75
481.406	647.75
481.624	587.75
481.843	546.75
482.061	528.75
482.28	535.75
482.498	504.75
482.717	502.75
482.935	515.75
483.153	511.75
483.372	518.75
483.59	519.75
483.808	541.75
484.027	513.75
484.245	497.75
484.463	506.75
484.681	532.75
484.9	523.75
485.118	536.75
485.336	535.75
485.554	514.75
485.772	531.75
485.99	491.75
486.209	517.75
486.427	518.75
486.645	562.75
486.863	586.75
487.081	566.75
487.299	560.75
487.517	554.75
487.735	564.75
487.953	542.75
488.171	560.75
488.389	530.75
488.607	571.75
488.825	570.75
489.043	562.75
489.261	536.75
489.479	553.75
489.696	562.75
489.914	590.75
490.132	570.75
490.35	574.75
490.568	597.75
490.786	608.75
491.003	598.75
491.221	636.75
491.439	633.75
491.657	635.75
491.874	635.75
492.092	672.75
492.31	653.75
492.527	635.75
492.745	645.75
492.963	628.75
493.18	656.75
493.398	664.75
493.615	669.75
493.833	629.75
494.05	659.75
494.268	662.75
494.485	671.75
494.703	676.75
494.92	668.75
495.138	659.75
495.355	647.75
495.573	675.75
495.79	653.75
496.008	657.75
496.225	679.75
496.442	683.75
496.66	665.75
496.877	665.75
497.094	660.75
497.312	664.75
497.529	700.75
497.746	688.75
497.963	699.75
498.181	703.75
498.398	707.75
498.615	741.75
498.832	719.75
499.049	710.75
499.267	727.75
499.484	737.75
499.701	745.75
499.918	760.75
500.135	790.75
500.352	822.75
500.569	819.75
500.786	797.75
501.003	815.75
501.22	822.75
501.437	824.75
501.654	799.75
501.871	812.75
502.088	771.75
