Data from 1980.PennyLincolnUp.Lamp.En5.5.200Scan.071819.P1_HRD10591_16-37-06-957.txt Node
Date: Thu Jul 18 16:37:06 EDT 2019
User: cochatt
Spectrometer: HR+D1059
Trigger mode: 1
Integration Time (sec): 1.000000E-1
Scans to average: 1
Electric dark correction enabled: true
Nonlinearity correction enabled: false
Boxcar width: 0
XAxis mode: Wavelengths
Number of Pixels in Spectrum: 2048
>>>>>Begin Spectral Data<<<<<
223.165	-17.38
223.4	-17.38
223.635	-17.38
223.869	-29.38
224.104	-14.38
224.338	-16.38
224.573	-17.38
224.808	-10.38
225.042	-8.38
225.277	-11.38
225.511	-3.38
225.746	1.62
225.98	7.62
226.215	14.62
226.449	12.62
226.683	14.62
226.918	37.62
227.152	39.62
227.387	28.62
227.621	39.62
227.856	41.62
228.09	50.62
228.324	55.62
228.559	58.62
228.793	75.62
229.027	120.62
229.262	117.62
229.496	123.62
229.73	145.62
229.964	157.62
230.199	137.62
230.433	118.62
230.667	111.62
230.901	109.62
231.136	112.62
231.37	103.62
231.604	111.62
231.838	118.62
232.072	110.62
232.306	133.62
232.541	120.62
232.775	118.62
233.009	131.62
233.243	119.62
233.477	117.62
233.711	126.62
233.945	119.62
234.179	125.62
234.413	129.62
234.647	109.62
234.881	103.62
235.115	121.62
235.349	106.62
235.583	115.62
235.817	127.62
236.051	129.62
236.285	132.62
236.519	123.62
236.753	127.62
236.987	153.62
237.221	188.62
237.455	248.62
237.689	195.62
237.922	149.62
238.156	142.62
238.39	131.62
238.624	123.62
238.858	134.62
239.091	129.62
239.325	126.62
239.559	116.62
239.793	134.62
240.027	122.62
240.26	127.62
240.494	158.62
240.728	143.62
240.961	145.62
241.195	165.62
241.429	123.62
241.662	149.62
241.896	133.62
242.13	149.62
242.363	134.62
242.597	135.62
242.83	129.62
243.064	150.62
243.298	129.62
243.531	126.62
243.765	131.62
243.998	141.62
244.232	141.62
244.465	138.62
244.699	131.62
244.932	152.62
245.166	146.62
245.399	155.62
245.633	151.62
245.866	142.62
246.099	141.62
246.333	150.62
246.566	144.62
246.8	139.62
247.033	140.62
247.266	164.62
247.5	166.62
247.733	188.62
247.966	168.62
248.2	181.62
248.433	157.62
248.666	198.62
248.899	193.62
249.133	223.62
249.366	207.62
249.599	196.62
249.832	195.62
250.066	195.62
250.299	187.62
250.532	196.62
250.765	202.62
250.998	223.62
251.231	217.62
251.465	197.62
251.698	197.62
251.931	210.62
252.164	193.62
252.397	211.62
252.63	202.62
252.863	195.62
253.096	216.62
253.329	229.62
253.562	228.62
253.795	235.62
254.028	218.62
254.261	234.62
254.494	236.62
254.727	252.62
254.96	293.62
255.193	267.62
255.426	266.62
255.659	256.62
255.892	227.62
256.124	230.62
256.357	249.62
256.59	237.62
256.823	215.62
257.056	235.62
257.289	220.62
257.521	212.62
257.754	231.62
257.987	213.62
258.22	195.62
258.452	202.62
258.685	213.62
258.918	207.62
259.151	213.62
259.383	219.62
259.616	224.62
259.849	232.62
260.081	237.62
260.314	263.62
260.547	271.62
260.779	232.62
261.012	238.62
261.244	219.62
261.477	232.62
261.71	217.62
261.942	246.62
262.175	237.62
262.407	236.62
262.64	226.62
262.872	205.62
263.105	209.62
263.337	195.62
263.57	206.62
263.802	207.62
264.035	202.62
264.267	189.62
264.499	208.62
264.732	217.62
264.964	219.62
265.197	218.62
265.429	193.62
265.661	201.62
265.894	207.62
266.126	231.62
266.358	216.62
266.591	217.62
266.823	210.62
267.055	223.62
267.287	218.62
267.52	222.62
267.752	207.62
267.984	209.62
268.216	215.62
268.448	220.62
268.681	245.62
268.913	238.62
269.145	259.62
269.377	275.62
269.609	279.62
269.841	273.62
270.073	275.62
270.306	292.62
270.538	322.62
270.77	305.62
271.002	316.62
271.234	319.62
271.466	291.62
271.698	307.62
271.93	311.62
272.162	313.62
272.394	311.62
272.626	296.62
272.858	293.62
273.09	275.62
273.322	274.62
273.553	264.62
273.785	281.62
274.017	283.62
274.249	274.62
274.481	267.62
274.713	261.62
274.945	265.62
275.176	247.62
275.408	261.62
275.64	257.62
275.872	263.62
276.104	257.62
276.335	273.62
276.567	258.62
276.799	271.62
277.031	285.62
277.262	315.62
277.494	314.62
277.726	288.62
277.957	291.62
278.189	290.62
278.421	265.62
278.652	269.62
278.884	243.62
279.115	257.62
279.347	238.62
279.579	241.62
279.81	238.62
280.042	228.62
280.273	236.62
280.505	268.62
280.736	257.62
280.968	248.62
281.199	251.62
281.431	246.62
281.662	262.62
281.894	231.62
282.125	260.62
282.356	261.62
282.588	293.62
282.819	290.62
283.051	281.62
283.282	267.62
283.513	247.62
283.745	261.62
283.976	253.62
284.207	251.62
284.439	253.62
284.67	266.62
284.901	269.62
285.132	262.62
285.364	243.62
285.595	265.62
285.826	245.62
286.057	267.62
286.288	285.62
286.52	277.62
286.751	262.62
286.982	251.62
287.213	249.62
287.444	262.62
287.675	279.62
287.906	274.62
288.138	271.62
288.369	277.62
288.6	268.62
288.831	273.62
289.062	265.62
289.293	266.62
289.524	271.62
289.755	265.62
289.986	257.62
290.217	270.62
290.448	268.62
290.679	262.62
290.91	253.62
291.141	266.62
291.371	243.62
291.602	263.62
291.833	264.62
292.064	254.62
292.295	275.62
292.526	273.62
292.757	270.62
292.987	253.62
293.218	251.62
293.449	274.62
293.68	261.62
293.91	262.62
294.141	257.62
294.372	257.62
294.603	255.62
294.833	263.62
295.064	264.62
295.295	259.62
295.525	271.62
295.756	269.62
295.987	301.62
296.217	300.62
296.448	316.62
296.679	294.62
296.909	289.62
297.14	263.62
297.37	253.62
297.601	263.62
297.831	285.62
298.062	260.62
298.292	271.62
298.523	263.62
298.753	281.62
298.984	259.62
299.214	286.62
299.445	280.62
299.675	284.62
299.905	265.62
300.136	272.62
300.366	271.62
300.597	278.62
300.827	286.62
301.057	297.62
301.288	297.62
301.518	291.62
301.748	290.62
301.979	278.62
302.209	283.62
302.439	287.62
302.669	309.62
302.9	288.62
303.13	282.62
303.36	298.62
303.59	295.62
303.82	317.62
304.051	301.62
304.281	312.62
304.511	306.62
304.741	295.62
304.971	286.62
305.201	285.62
305.431	281.62
305.661	301.62
305.891	299.62
306.121	307.62
306.352	306.62
306.582	304.62
306.812	298.62
307.042	299.62
307.272	291.62
307.502	308.62
307.731	296.62
307.961	305.62
308.191	301.62
308.421	301.62
308.651	310.62
308.881	319.62
309.111	299.62
309.341	313.62
309.571	315.62
309.8	340.62
310.03	337.62
310.26	349.62
310.49	344.62
310.72	371.62
310.949	383.62
311.179	389.62
311.409	365.62
311.639	373.62
311.868	372.62
312.098	349.62
312.328	362.62
312.557	387.62
312.787	395.62
313.017	382.62
313.246	390.62
313.476	354.62
313.706	350.62
313.935	355.62
314.165	385.62
314.394	387.62
314.624	371.62
314.853	347.62
315.083	360.62
315.312	333.62
315.542	334.62
315.771	344.62
316.001	342.62
316.23	339.62
316.46	350.62
316.689	350.62
316.919	347.62
317.148	363.62
317.377	345.62
317.607	369.62
317.836	351.62
318.065	362.62
318.295	339.62
318.524	366.62
318.753	333.62
318.983	351.62
319.212	353.62
319.441	347.62
319.67	367.62
319.9	354.62
320.129	366.62
320.358	369.62
320.587	361.62
320.816	365.62
321.046	373.62
321.275	373.62
321.504	367.62
321.733	379.62
321.962	397.62
322.191	411.62
322.42	414.62
322.649	421.62
322.878	428.62
323.108	457.62
323.337	481.62
323.566	499.62
323.795	555.62
324.024	594.62
324.253	724.62
324.482	993.62
324.71	1592.62
324.939	2285.62
325.168	2051.62
325.397	1055.62
325.626	702.62
325.855	569.62
326.084	522.62
326.313	491.62
326.542	516.62
326.77	555.62
326.999	661.62
327.228	890.62
327.457	1396.62
327.686	1748.62
327.914	1159.62
328.143	767.62
328.372	666.62
328.6	612.62
328.829	595.62
329.058	609.62
329.287	618.62
329.515	555.62
329.744	524.62
329.972	491.62
330.201	508.62
330.43	571.62
330.658	616.62
330.887	627.62
331.115	617.62
331.344	510.62
331.572	493.62
331.801	485.62
332.03	479.62
332.258	449.62
332.486	412.62
332.715	420.62
332.943	417.62
333.172	431.62
333.4	402.62
333.629	426.62
333.857	434.62
334.085	458.62
334.314	457.62
334.542	482.62
334.771	509.62
334.999	471.62
335.227	435.62
335.455	433.62
335.684	429.62
335.912	406.62
336.14	393.62
336.369	403.62
336.597	404.62
336.825	410.62
337.053	406.62
337.281	409.62
337.51	385.62
337.738	388.62
337.966	390.62
338.194	396.62
338.422	420.62
338.65	396.62
338.878	385.62
339.106	386.62
339.334	374.62
339.562	382.62
339.79	394.62
340.018	388.62
340.246	407.62
340.474	385.62
340.702	378.62
340.93	403.62
341.158	389.62
341.386	397.62
341.614	398.62
341.842	388.62
342.07	387.62
342.298	378.62
342.526	366.62
342.754	365.62
342.981	359.62
343.209	374.62
343.437	389.62
343.665	366.62
343.893	371.62
344.12	371.62
344.348	398.62
344.576	381.62
344.804	383.62
345.031	414.62
345.259	407.62
345.487	416.62
345.714	398.62
345.942	394.62
346.17	405.62
346.397	399.62
346.625	383.62
346.853	379.62
347.08	374.62
347.308	373.62
347.535	393.62
347.763	403.62
347.99	388.62
348.218	413.62
348.445	402.62
348.673	413.62
348.9	394.62
349.128	379.62
349.355	350.62
349.583	354.62
349.81	356.62
350.037	350.62
350.265	354.62
350.492	362.62
350.72	373.62
350.947	377.62
351.174	386.62
351.402	399.62
351.629	403.62
351.856	395.62
352.083	415.62
352.311	389.62
352.538	398.62
352.765	413.62
352.992	387.62
353.22	413.62
353.447	389.62
353.674	378.62
353.901	377.62
354.128	366.62
354.355	355.62
354.583	377.62
354.81	355.62
355.037	357.62
355.264	369.62
355.491	362.62
355.718	356.62
355.945	343.62
356.172	357.62
356.399	343.62
356.626	356.62
356.853	331.62
357.08	349.62
357.307	378.62
357.534	357.62
357.761	339.62
357.988	353.62
358.215	349.62
358.441	348.62
358.668	356.62
358.895	345.62
359.122	362.62
359.349	373.62
359.576	382.62
359.802	410.62
360.029	456.62
360.256	454.62
360.483	435.62
360.709	380.62
360.936	389.62
361.163	384.62
361.39	396.62
361.616	407.62
361.843	379.62
362.07	375.62
362.296	393.62
362.523	394.62
362.749	391.62
362.976	376.62
363.203	373.62
363.429	353.62
363.656	377.62
363.882	389.62
364.109	370.62
364.335	373.62
364.562	349.62
364.788	360.62
365.015	344.62
365.241	350.62
365.468	371.62
365.694	375.62
365.92	360.62
366.147	369.62
366.373	352.62
366.599	358.62
366.826	346.62
367.052	353.62
367.278	369.62
367.505	360.62
367.731	349.62
367.957	345.62
368.184	351.62
368.41	370.62
368.636	380.62
368.862	373.62
369.089	387.62
369.315	356.62
369.541	335.62
369.767	372.62
369.993	369.62
370.219	332.62
370.445	341.62
370.672	349.62
370.898	339.62
371.124	346.62
371.35	356.62
371.576	329.62
371.802	343.62
372.028	356.62
372.254	360.62
372.48	343.62
372.706	373.62
372.932	364.62
373.158	361.62
373.384	367.62
373.61	357.62
373.835	377.62
374.061	356.62
374.287	334.62
374.513	364.62
374.739	347.62
374.965	350.62
375.191	343.62
375.416	356.62
375.642	364.62
375.868	360.62
376.094	357.62
376.319	352.62
376.545	348.62
376.771	345.62
376.997	350.62
377.222	339.62
377.448	337.62
377.674	325.62
377.899	341.62
378.125	343.62
378.35	341.62
378.576	350.62
378.802	344.62
379.027	345.62
379.253	351.62
379.478	350.62
379.704	357.62
379.929	346.62
380.155	363.62
380.38	351.62
380.606	350.62
380.831	365.62
381.057	353.62
381.282	358.62
381.507	345.62
381.733	375.62
381.958	355.62
382.184	371.62
382.409	383.62
382.634	357.62
382.86	348.62
383.085	361.62
383.31	348.62
383.535	362.62
383.761	362.62
383.986	373.62
384.211	369.62
384.436	381.62
384.662	367.62
384.887	370.62
385.112	360.62
385.337	359.62
385.562	379.62
385.787	360.62
386.013	385.62
386.238	389.62
386.463	381.62
386.688	374.62
386.913	373.62
387.138	374.62
387.363	361.62
387.588	365.62
387.813	380.62
388.038	371.62
388.263	375.62
388.488	390.62
388.713	393.62
388.938	387.62
389.163	374.62
389.387	404.62
389.612	365.62
389.837	368.62
390.062	375.62
390.287	375.62
390.512	377.62
390.736	375.62
390.961	354.62
391.186	353.62
391.411	376.62
391.636	379.62
391.86	369.62
392.085	381.62
392.31	388.62
392.534	367.62
392.759	379.62
392.984	392.62
393.208	364.62
393.433	394.62
393.658	385.62
393.882	371.62
394.107	387.62
394.331	381.62
394.556	381.62
394.78	376.62
395.005	381.62
395.229	376.62
395.454	373.62
395.678	385.62
395.903	412.62
396.127	413.62
396.352	406.62
396.576	393.62
396.801	391.62
397.025	381.62
397.249	396.62
397.474	407.62
397.698	380.62
397.922	410.62
398.147	427.62
398.371	433.62
398.595	426.62
398.82	412.62
399.044	418.62
399.268	414.62
399.492	422.62
399.717	484.62
399.941	482.62
400.165	511.62
400.389	548.62
400.613	465.62
400.837	446.62
401.062	440.62
401.286	430.62
401.51	416.62
401.734	427.62
401.958	421.62
402.182	437.62
402.406	447.62
402.63	438.62
402.854	479.62
403.078	439.62
403.302	447.62
403.526	457.62
403.75	444.62
403.974	423.62
404.198	416.62
404.422	466.62
404.645	453.62
404.869	453.62
405.093	454.62
405.317	510.62
405.541	552.62
405.765	501.62
405.988	475.62
406.212	465.62
406.436	503.62
406.66	508.62
406.883	473.62
407.107	504.62
407.331	551.62
407.555	611.62
407.778	597.62
408.002	511.62
408.226	498.62
408.449	489.62
408.673	504.62
408.896	523.62
409.12	565.62
409.344	525.62
409.567	475.62
409.791	462.62
410.014	433.62
410.238	447.62
410.461	451.62
410.685	430.62
410.908	459.62
411.132	523.62
411.355	549.62
411.578	531.62
411.802	457.62
412.025	462.62
412.249	456.62
412.472	479.62
412.695	503.62
412.919	518.62
413.142	457.62
413.365	433.62
413.589	415.62
413.812	418.62
414.035	422.62
414.258	408.62
414.482	411.62
414.705	416.62
414.928	412.62
415.151	399.62
415.374	418.62
415.597	415.62
415.821	377.62
416.044	419.62
416.267	423.62
416.49	404.62
416.713	413.62
416.936	397.62
417.159	433.62
417.382	419.62
417.605	418.62
417.828	447.62
418.051	458.62
418.274	422.62
418.497	442.62
418.72	433.62
418.943	420.62
419.166	437.62
419.389	457.62
419.611	447.62
419.834	453.62
420.057	468.62
420.28	465.62
420.503	460.62
420.726	441.62
420.948	465.62
421.171	505.62
421.394	547.62
421.617	489.62
421.839	454.62
422.062	469.62
422.285	463.62
422.507	544.62
422.73	583.62
422.953	576.62
423.175	515.62
423.398	496.62
423.621	484.62
423.843	482.62
424.066	490.62
424.288	478.62
424.511	511.62
424.733	568.62
424.956	645.62
425.178	605.62
425.401	605.62
425.623	626.62
425.846	567.62
426.068	527.62
426.291	514.62
426.513	510.62
426.735	512.62
426.958	553.62
427.18	637.62
427.402	757.62
427.625	841.62
427.847	733.62
428.069	655.62
428.292	567.62
428.514	515.62
428.736	507.62
428.958	493.62
429.181	473.62
429.403	456.62
429.625	496.62
429.847	524.62
430.069	586.62
430.292	587.62
430.514	490.62
430.736	471.62
430.958	462.62
431.18	429.62
431.402	455.62
431.624	420.62
431.846	426.62
432.068	410.62
432.29	443.62
432.512	421.62
432.734	421.62
432.956	456.62
433.178	461.62
433.4	471.62
433.622	425.62
433.844	427.62
434.066	429.62
434.287	431.62
434.509	452.62
434.731	434.62
434.953	445.62
435.175	452.62
435.397	486.62
435.618	518.62
435.84	550.62
436.062	629.62
436.284	712.62
436.505	616.62
436.727	543.62
436.949	501.62
437.17	477.62
437.392	481.62
437.614	503.62
437.835	543.62
438.057	610.62
438.278	716.62
438.5	707.62
438.721	771.62
438.943	745.62
439.165	588.62
439.386	538.62
439.608	534.62
439.829	529.62
440.05	572.62
440.272	584.62
440.493	547.62
440.715	512.62
440.936	480.62
441.158	494.62
441.379	481.62
441.6	501.62
441.822	505.62
442.043	522.62
442.264	638.62
442.486	660.62
442.707	558.62
442.928	500.62
443.149	519.62
443.371	543.62
443.592	591.62
443.813	668.62
444.034	738.62
444.255	625.62
444.476	525.62
444.698	518.62
444.919	491.62
445.14	604.62
445.361	554.62
445.582	562.62
445.803	613.62
446.024	718.62
446.245	728.62
446.466	655.62
446.687	561.62
446.908	500.62
447.129	469.62
447.35	479.62
447.571	477.62
447.792	467.62
448.013	473.62
448.234	492.62
448.455	561.62
448.675	639.62
448.896	743.62
449.117	661.62
449.338	637.62
449.559	706.62
449.779	773.62
450	635.62
450.221	565.62
450.442	490.62
450.662	483.62
450.883	490.62
451.104	500.62
451.324	477.62
451.545	459.62
451.766	431.62
451.986	427.62
452.207	405.62
452.428	425.62
452.648	433.62
452.869	414.62
453.089	464.62
453.31	458.62
453.53	441.62
453.751	405.62
453.971	425.62
454.192	456.62
454.412	445.62
454.633	414.62
454.853	426.62
455.073	419.62
455.294	443.62
455.514	527.62
455.734	490.62
455.955	461.62
456.175	406.62
456.395	425.62
456.616	394.62
456.836	407.62
457.056	377.62
457.276	371.62
457.497	379.62
457.717	376.62
457.937	405.62
458.157	397.62
458.377	398.62
458.598	417.62
458.818	478.62
459.038	585.62
459.258	599.62
459.478	504.62
459.698	461.62
459.918	411.62
460.138	403.62
460.358	441.62
460.578	437.62
460.798	424.62
461.018	419.62
461.238	443.62
461.458	415.62
461.678	405.62
461.898	426.62
462.118	425.62
462.338	428.62
462.558	440.62
462.777	447.62
462.997	450.62
463.217	428.62
463.437	436.62
463.657	438.62
463.876	422.62
464.096	444.62
464.316	447.62
464.536	451.62
464.755	473.62
464.975	469.62
465.195	496.62
465.414	590.62
465.634	535.62
465.854	492.62
466.073	449.62
466.293	420.62
466.512	421.62
466.732	402.62
466.951	415.62
467.171	409.62
467.391	425.62
467.61	452.62
467.829	443.62
468.049	434.62
468.268	407.62
468.488	412.62
468.707	409.62
468.927	420.62
469.146	402.62
469.365	415.62
469.585	403.62
469.804	413.62
470.023	436.62
470.243	415.62
470.462	441.62
470.681	462.62
470.901	446.62
471.12	436.62
471.339	419.62
471.558	426.62
471.777	429.62
471.997	431.62
472.216	433.62
472.435	477.62
472.654	467.62
472.873	439.62
473.092	440.62
473.311	433.62
473.53	440.62
473.749	436.62
473.968	501.62
474.187	575.62
474.406	604.62
474.625	500.62
474.844	456.62
475.063	441.62
475.282	419.62
475.501	427.62
475.72	430.62
475.939	454.62
476.158	461.62
476.377	440.62
476.596	451.62
476.814	450.62
477.033	456.62
477.252	462.62
477.471	449.62
477.69	466.62
477.908	462.62
478.127	468.62
478.346	473.62
478.564	473.62
478.783	462.62
479.002	462.62
479.22	487.62
479.439	493.62
479.658	517.62
479.876	524.62
480.095	535.62
480.313	523.62
480.532	517.62
480.751	535.62
480.969	523.62
481.188	608.62
481.406	634.62
481.624	554.62
481.843	525.62
482.061	511.62
482.28	512.62
482.498	524.62
482.717	512.62
482.935	486.62
483.153	500.62
483.372	495.62
483.59	493.62
483.808	481.62
484.027	499.62
484.245	515.62
484.463	504.62
484.681	493.62
484.9	514.62
485.118	526.62
485.336	514.62
485.554	517.62
485.772	525.62
485.99	516.62
486.209	532.62
486.427	525.62
486.645	517.62
486.863	574.62
487.081	571.62
487.299	541.62
487.517	555.62
487.735	557.62
487.953	577.62
488.171	567.62
488.389	540.62
488.607	548.62
488.825	546.62
489.043	554.62
489.261	556.62
489.479	569.62
489.696	548.62
489.914	563.62
490.132	549.62
490.35	583.62
490.568	591.62
490.786	606.62
491.003	613.62
491.221	603.62
491.439	610.62
491.657	611.62
491.874	642.62
492.092	652.62
492.31	659.62
492.527	655.62
492.745	632.62
492.963	639.62
493.18	653.62
493.398	663.62
493.615	655.62
493.833	641.62
494.05	677.62
494.268	641.62
494.485	644.62
494.703	673.62
494.92	647.62
495.138	633.62
495.355	664.62
495.573	679.62
495.79	651.62
496.008	667.62
496.225	649.62
496.442	653.62
496.66	662.62
496.877	668.62
497.094	663.62
497.312	673.62
497.529	663.62
497.746	657.62
497.963	675.62
498.181	713.62
498.398	703.62
498.615	717.62
498.832	734.62
499.049	715.62
499.267	721.62
499.484	723.62
499.701	742.62
499.918	759.62
500.135	780.62
500.352	805.62
500.569	805.62
500.786	807.62
501.003	799.62
501.22	796.62
501.437	791.62
501.654	766.62
501.871	799.62
