Data from 1980.PennyLincolnUp.Lamp.En5.5.200Scan.071819.P1_HRD10591_16-38-45-957.txt Node
Date: Thu Jul 18 16:38:45 EDT 2019
User: cochatt
Spectrometer: HR+D1059
Trigger mode: 1
Integration Time (sec): 1.000000E-1
Scans to average: 1
Electric dark correction enabled: true
Nonlinearity correction enabled: false
Boxcar width: 0
XAxis mode: Wavelengths
Number of Pixels in Spectrum: 2048
>>>>>Begin Spectral Data<<<<<
223.165	-24.12
223.4	-24.12
223.635	-24.12
223.869	-12.12
224.104	-28.12
224.338	-10.12
224.573	-18.12
224.808	-12.12
225.042	2.88
225.277	-0.12
225.511	1.88
225.746	9.88
225.98	6.88
226.215	-0.12
226.449	15.88
226.683	12.88
226.918	28.88
227.152	25.88
227.387	32.88
227.621	36.88
227.856	50.88
228.09	47.88
228.324	51.88
228.559	47.88
228.793	54.88
229.027	100.88
229.262	95.88
229.496	127.88
229.73	129.88
229.964	156.88
230.199	155.88
230.433	132.88
230.667	118.88
230.901	131.88
231.136	118.88
231.37	114.88
231.604	113.88
231.838	112.88
232.072	106.88
232.306	123.88
232.541	120.88
232.775	114.88
233.009	110.88
233.243	115.88
233.477	99.88
233.711	109.88
233.945	111.88
234.179	111.88
234.413	118.88
234.647	119.88
234.881	113.88
235.115	120.88
235.349	118.88
235.583	111.88
235.817	112.88
236.051	133.88
236.285	123.88
236.519	132.88
236.753	142.88
236.987	149.88
237.221	186.88
237.455	260.88
237.689	202.88
237.922	157.88
238.156	130.88
238.39	126.88
238.624	139.88
238.858	131.88
239.091	119.88
239.325	115.88
239.559	129.88
239.793	134.88
240.027	134.88
240.26	157.88
240.494	172.88
240.728	147.88
240.961	155.88
241.195	143.88
241.429	142.88
241.662	126.88
241.896	139.88
242.13	148.88
242.363	131.88
242.597	133.88
242.83	140.88
243.064	136.88
243.298	139.88
243.531	141.88
243.765	137.88
243.998	144.88
244.232	152.88
244.465	160.88
244.699	137.88
244.932	129.88
245.166	132.88
245.399	152.88
245.633	134.88
245.866	146.88
246.099	153.88
246.333	157.88
246.566	148.88
246.8	150.88
247.033	154.88
247.266	155.88
247.5	176.88
247.733	177.88
247.966	190.88
248.2	173.88
248.433	165.88
248.666	167.88
248.899	183.88
249.133	203.88
249.366	220.88
249.599	224.88
249.832	217.88
250.066	183.88
250.299	181.88
250.532	216.88
250.765	213.88
250.998	236.88
251.231	243.88
251.465	232.88
251.698	231.88
251.931	201.88
252.164	197.88
252.397	216.88
252.63	203.88
252.863	210.88
253.096	235.88
253.329	258.88
253.562	233.88
253.795	232.88
254.028	237.88
254.261	214.88
254.494	224.88
254.727	266.88
254.96	310.88
255.193	287.88
255.426	284.88
255.659	254.88
255.892	263.88
256.124	236.88
256.357	251.88
256.59	235.88
256.823	228.88
257.056	219.88
257.289	219.88
257.521	217.88
257.754	230.88
257.987	225.88
258.22	218.88
258.452	216.88
258.685	206.88
258.918	217.88
259.151	211.88
259.383	223.88
259.616	230.88
259.849	214.88
260.081	247.88
260.314	243.88
260.547	265.88
260.779	260.88
261.012	234.88
261.244	231.88
261.477	246.88
261.71	221.88
261.942	245.88
262.175	238.88
262.407	248.88
262.64	225.88
262.872	215.88
263.105	213.88
263.337	217.88
263.57	217.88
263.802	234.88
264.035	197.88
264.267	210.88
264.499	228.88
264.732	234.88
264.964	207.88
265.197	195.88
265.429	207.88
265.661	224.88
265.894	229.88
266.126	230.88
266.358	214.88
266.591	216.88
266.823	209.88
267.055	233.88
267.287	226.88
267.52	239.88
267.752	231.88
267.984	231.88
268.216	227.88
268.448	239.88
268.681	235.88
268.913	256.88
269.145	280.88
269.377	271.88
269.609	274.88
269.841	279.88
270.073	272.88
270.306	295.88
270.538	320.88
270.77	333.88
271.002	320.88
271.234	295.88
271.466	325.88
271.698	327.88
271.93	331.88
272.162	340.88
272.394	331.88
272.626	325.88
272.858	281.88
273.09	287.88
273.322	275.88
273.553	274.88
273.785	258.88
274.017	279.88
274.249	280.88
274.481	268.88
274.713	278.88
274.945	274.88
275.176	272.88
275.408	274.88
275.64	275.88
275.872	277.88
276.104	262.88
276.335	271.88
276.567	280.88
276.799	292.88
277.031	315.88
277.262	333.88
277.494	327.88
277.726	321.88
277.957	297.88
278.189	281.88
278.421	271.88
278.652	293.88
278.884	271.88
279.115	268.88
279.347	263.88
279.579	275.88
279.81	248.88
280.042	270.88
280.273	262.88
280.505	260.88
280.736	252.88
280.968	244.88
281.199	259.88
281.431	284.88
281.662	259.88
281.894	265.88
282.125	257.88
282.356	294.88
282.588	301.88
282.819	309.88
283.051	285.88
283.282	267.88
283.513	262.88
283.745	275.88
283.976	267.88
284.207	287.88
284.439	279.88
284.67	275.88
284.901	254.88
285.132	272.88
285.364	255.88
285.595	267.88
285.826	271.88
286.057	261.88
286.288	264.88
286.52	273.88
286.751	266.88
286.982	273.88
287.213	291.88
287.444	278.88
287.675	283.88
287.906	285.88
288.138	281.88
288.369	293.88
288.6	292.88
288.831	273.88
289.062	302.88
289.293	280.88
289.524	265.88
289.755	282.88
289.986	281.88
290.217	267.88
290.448	267.88
290.679	287.88
290.91	271.88
291.141	275.88
291.371	266.88
291.602	258.88
291.833	265.88
292.064	277.88
292.295	291.88
292.526	259.88
292.757	278.88
292.987	277.88
293.218	271.88
293.449	260.88
293.68	290.88
293.91	271.88
294.141	271.88
294.372	288.88
294.603	275.88
294.833	266.88
295.064	272.88
295.295	279.88
295.525	280.88
295.756	284.88
295.987	291.88
296.217	300.88
296.448	339.88
296.679	286.88
296.909	272.88
297.14	291.88
297.37	290.88
297.601	276.88
297.831	262.88
298.062	284.88
298.292	289.88
298.523	279.88
298.753	291.88
298.984	283.88
299.214	278.88
299.445	303.88
299.675	289.88
299.905	296.88
300.136	291.88
300.366	281.88
300.597	270.88
300.827	303.88
301.057	295.88
301.288	311.88
301.518	302.88
301.748	310.88
301.979	295.88
302.209	294.88
302.439	315.88
302.669	301.88
302.9	313.88
303.13	301.88
303.36	307.88
303.59	299.88
303.82	321.88
304.051	309.88
304.281	299.88
304.511	289.88
304.741	300.88
304.971	288.88
305.201	300.88
305.431	314.88
305.661	313.88
305.891	292.88
306.121	310.88
306.352	320.88
306.582	308.88
306.812	331.88
307.042	310.88
307.272	308.88
307.502	307.88
307.731	309.88
307.961	305.88
308.191	334.88
308.421	318.88
308.651	331.88
308.881	322.88
309.111	333.88
309.341	328.88
309.571	325.88
309.8	338.88
310.03	351.88
310.26	373.88
310.49	373.88
310.72	381.88
310.949	395.88
311.179	385.88
311.409	361.88
311.639	370.88
311.868	391.88
312.098	369.88
312.328	381.88
312.557	402.88
312.787	405.88
313.017	438.88
313.246	370.88
313.476	361.88
313.706	363.88
313.935	359.88
314.165	395.88
314.394	392.88
314.624	404.88
314.853	382.88
315.083	383.88
315.312	361.88
315.542	361.88
315.771	347.88
316.001	350.88
316.23	350.88
316.46	325.88
316.689	365.88
316.919	395.88
317.148	379.88
317.377	375.88
317.607	367.88
317.836	376.88
318.065	365.88
318.295	373.88
318.524	365.88
318.753	370.88
318.983	354.88
319.212	358.88
319.441	379.88
319.67	377.88
319.9	385.88
320.129	370.88
320.358	359.88
320.587	365.88
320.816	378.88
321.046	415.88
321.275	387.88
321.504	386.88
321.733	375.88
321.962	402.88
322.191	420.88
322.42	449.88
322.649	464.88
322.878	473.88
323.108	476.88
323.337	506.88
323.566	525.88
323.795	554.88
324.024	645.88
324.253	815.88
324.482	1108.88
324.71	1750.88
324.939	2559.88
325.168	2184.88
325.397	1161.88
325.626	756.88
325.855	598.88
326.084	556.88
326.313	517.88
326.542	522.88
326.77	603.88
326.999	702.88
327.228	1010.88
327.457	1514.88
327.686	1909.88
327.914	1311.88
328.143	859.88
328.372	746.88
328.6	666.88
328.829	600.88
329.058	616.88
329.287	641.88
329.515	598.88
329.744	533.88
329.972	527.88
330.201	571.88
330.43	617.88
330.658	635.88
330.887	693.88
331.115	657.88
331.344	544.88
331.572	509.88
331.801	515.88
332.03	468.88
332.258	487.88
332.486	451.88
332.715	442.88
332.943	424.88
333.172	432.88
333.4	440.88
333.629	459.88
333.857	481.88
334.085	484.88
334.314	489.88
334.542	529.88
334.771	553.88
334.999	485.88
335.227	482.88
335.455	451.88
335.684	438.88
335.912	448.88
336.14	411.88
336.369	419.88
336.597	436.88
336.825	432.88
337.053	426.88
337.281	426.88
337.51	401.88
337.738	410.88
337.966	423.88
338.194	429.88
338.422	438.88
338.65	427.88
338.878	396.88
339.106	397.88
339.334	426.88
339.562	397.88
339.79	420.88
340.018	431.88
340.246	412.88
340.474	429.88
340.702	416.88
340.93	393.88
341.158	396.88
341.386	413.88
341.614	416.88
341.842	396.88
342.07	402.88
342.298	400.88
342.526	396.88
342.754	387.88
342.981	384.88
343.209	373.88
343.437	390.88
343.665	406.88
343.893	415.88
344.12	398.88
344.348	405.88
344.576	405.88
344.804	406.88
345.031	434.88
345.259	449.88
345.487	445.88
345.714	398.88
345.942	408.88
346.17	405.88
346.397	375.88
346.625	392.88
346.853	400.88
347.08	422.88
347.308	393.88
347.535	429.88
347.763	403.88
347.99	410.88
348.218	415.88
348.445	418.88
348.673	425.88
348.9	434.88
349.128	411.88
349.355	394.88
349.583	395.88
349.81	375.88
350.037	395.88
350.265	376.88
350.492	392.88
350.72	385.88
350.947	401.88
351.174	425.88
351.402	435.88
351.629	427.88
351.856	415.88
352.083	420.88
352.311	412.88
352.538	414.88
352.765	437.88
352.992	417.88
353.22	414.88
353.447	408.88
353.674	383.88
353.901	386.88
354.128	365.88
354.355	364.88
354.583	371.88
354.81	371.88
355.037	381.88
355.264	360.88
355.491	365.88
355.718	352.88
355.945	352.88
356.172	358.88
356.399	352.88
356.626	358.88
356.853	361.88
357.08	344.88
357.307	353.88
357.534	368.88
357.761	355.88
357.988	363.88
358.215	353.88
358.441	364.88
358.668	351.88
358.895	368.88
359.122	373.88
359.349	382.88
359.576	401.88
359.802	425.88
360.029	473.88
360.256	476.88
360.483	452.88
360.709	411.88
360.936	407.88
361.163	387.88
361.39	408.88
361.616	409.88
361.843	397.88
362.07	406.88
362.296	412.88
362.523	404.88
362.749	407.88
362.976	396.88
363.203	374.88
363.429	371.88
363.656	369.88
363.882	386.88
364.109	354.88
364.335	378.88
364.562	374.88
364.788	379.88
365.015	366.88
365.241	361.88
365.468	389.88
365.694	393.88
365.92	374.88
366.147	389.88
366.373	387.88
366.599	379.88
366.826	388.88
367.052	378.88
367.278	377.88
367.505	369.88
367.731	376.88
367.957	389.88
368.184	394.88
368.41	381.88
368.636	384.88
368.862	389.88
369.089	365.88
369.315	398.88
369.541	358.88
369.767	381.88
369.993	370.88
370.219	371.88
370.445	378.88
370.672	369.88
370.898	349.88
371.124	375.88
371.35	361.88
371.576	354.88
371.802	372.88
372.028	365.88
372.254	385.88
372.48	352.88
372.706	351.88
372.932	335.88
373.158	342.88
373.384	359.88
373.61	347.88
373.835	349.88
374.061	354.88
374.287	375.88
374.513	372.88
374.739	358.88
374.965	372.88
375.191	370.88
375.416	354.88
375.642	358.88
375.868	360.88
376.094	375.88
376.319	365.88
376.545	367.88
376.771	358.88
376.997	354.88
377.222	361.88
377.448	369.88
377.674	347.88
377.899	345.88
378.125	355.88
378.35	354.88
378.576	367.88
378.802	362.88
379.027	377.88
379.253	370.88
379.478	357.88
379.704	332.88
379.929	356.88
380.155	377.88
380.38	365.88
380.606	362.88
380.831	367.88
381.057	376.88
381.282	362.88
381.507	352.88
381.733	368.88
381.958	370.88
382.184	369.88
382.409	375.88
382.634	371.88
382.86	373.88
383.085	354.88
383.31	383.88
383.535	374.88
383.761	373.88
383.986	374.88
384.211	375.88
384.436	365.88
384.662	366.88
384.887	365.88
385.112	358.88
385.337	362.88
385.562	376.88
385.787	375.88
386.013	387.88
386.238	384.88
386.463	395.88
386.688	399.88
386.913	396.88
387.138	379.88
387.363	392.88
387.588	380.88
387.813	385.88
388.038	379.88
388.263	391.88
388.488	371.88
388.713	384.88
388.938	389.88
389.163	392.88
389.387	393.88
389.612	379.88
389.837	392.88
390.062	396.88
390.287	391.88
390.512	383.88
390.736	393.88
390.961	372.88
391.186	377.88
391.411	393.88
391.636	375.88
391.86	391.88
392.085	387.88
392.31	395.88
392.534	388.88
392.759	401.88
392.984	399.88
393.208	381.88
393.433	377.88
393.658	375.88
393.882	385.88
394.107	378.88
394.331	378.88
394.556	382.88
394.78	393.88
395.005	409.88
395.229	373.88
395.454	387.88
395.678	400.88
395.903	395.88
396.127	449.88
396.352	432.88
396.576	396.88
396.801	399.88
397.025	404.88
397.249	380.88
397.474	391.88
397.698	409.88
397.922	413.88
398.147	427.88
398.371	439.88
398.595	419.88
398.82	434.88
399.044	410.88
399.268	429.88
399.492	433.88
399.717	475.88
399.941	490.88
400.165	515.88
400.389	514.88
400.613	487.88
400.837	468.88
401.062	443.88
401.286	433.88
401.51	438.88
401.734	447.88
401.958	435.88
402.182	451.88
402.406	464.88
402.63	461.88
402.854	453.88
403.078	457.88
403.302	445.88
403.526	485.88
403.75	454.88
403.974	457.88
404.198	447.88
404.422	468.88
404.645	450.88
404.869	468.88
405.093	493.88
405.317	535.88
405.541	567.88
405.765	513.88
405.988	514.88
406.212	498.88
406.436	506.88
406.66	522.88
406.883	501.88
407.107	519.88
407.331	555.88
407.555	628.88
407.778	618.88
408.002	573.88
408.226	521.88
408.449	533.88
408.673	525.88
408.896	548.88
409.12	578.88
409.344	543.88
409.567	492.88
409.791	481.88
410.014	464.88
410.238	469.88
410.461	472.88
410.685	441.88
410.908	488.88
411.132	523.88
411.355	525.88
411.578	521.88
411.802	497.88
412.025	454.88
412.249	473.88
412.472	519.88
412.695	529.88
412.919	518.88
413.142	477.88
413.365	458.88
413.589	463.88
413.812	442.88
414.035	443.88
414.258	431.88
414.482	434.88
414.705	418.88
414.928	424.88
415.151	432.88
415.374	427.88
415.597	450.88
415.821	422.88
416.044	418.88
416.267	453.88
416.49	425.88
416.713	439.88
416.936	442.88
417.159	442.88
417.382	451.88
417.605	428.88
417.828	454.88
418.051	478.88
418.274	466.88
418.497	422.88
418.72	433.88
418.943	431.88
419.166	443.88
419.389	457.88
419.611	456.88
419.834	465.88
420.057	478.88
420.28	462.88
420.503	482.88
420.726	481.88
420.948	483.88
421.171	504.88
421.394	577.88
421.617	466.88
421.839	465.88
422.062	469.88
422.285	484.88
422.507	545.88
422.73	643.88
422.953	592.88
423.175	521.88
423.398	498.88
423.621	490.88
423.843	520.88
424.066	521.88
424.288	493.88
424.511	513.88
424.733	597.88
424.956	650.88
425.178	643.88
425.401	634.88
425.623	678.88
425.846	564.88
426.068	522.88
426.291	512.88
426.513	524.88
426.735	533.88
426.958	603.88
427.18	680.88
427.402	778.88
427.625	869.88
427.847	815.88
428.069	692.88
428.292	607.88
428.514	533.88
428.736	498.88
428.958	510.88
429.181	488.88
429.403	487.88
429.625	511.88
429.847	544.88
430.069	600.88
430.292	613.88
430.514	521.88
430.736	488.88
430.958	478.88
431.18	460.88
431.402	449.88
431.624	438.88
431.846	429.88
432.068	431.88
432.29	465.88
432.512	437.88
432.734	435.88
432.956	461.88
433.178	460.88
433.4	457.88
433.622	450.88
433.844	467.88
434.066	439.88
434.287	441.88
434.509	454.88
434.731	448.88
434.953	465.88
435.175	472.88
435.397	484.88
435.618	536.88
435.84	568.88
436.062	680.88
436.284	727.88
436.505	613.88
436.727	544.88
436.949	523.88
437.17	493.88
437.392	511.88
437.614	530.88
437.835	553.88
438.057	665.88
438.278	727.88
438.5	740.88
438.721	810.88
438.943	776.88
439.165	620.88
439.386	567.88
439.608	563.88
439.829	544.88
440.05	593.88
440.272	632.88
440.493	592.88
440.715	526.88
440.936	521.88
441.158	512.88
441.379	489.88
441.6	491.88
441.822	517.88
442.043	559.88
442.264	660.88
442.486	695.88
442.707	586.88
442.928	551.88
443.149	549.88
443.371	579.88
443.592	620.88
443.813	710.88
444.034	793.88
444.255	632.88
444.476	545.88
444.698	525.88
444.919	537.88
445.14	604.88
445.361	597.88
445.582	561.88
445.803	655.88
446.024	744.88
446.245	769.88
446.466	681.88
446.687	605.88
446.908	531.88
447.129	511.88
447.35	490.88
447.571	481.88
447.792	498.88
448.013	485.88
448.234	521.88
448.455	557.88
448.675	668.88
448.896	785.88
449.117	687.88
449.338	614.88
449.559	727.88
449.779	824.88
450	689.88
450.221	553.88
450.442	520.88
450.662	494.88
450.883	499.88
451.104	518.88
451.324	517.88
451.545	474.88
451.766	446.88
451.986	424.88
452.207	423.88
452.428	436.88
452.648	435.88
452.869	457.88
453.089	457.88
453.31	469.88
453.53	423.88
453.751	450.88
453.971	441.88
454.192	471.88
454.412	469.88
454.633	430.88
454.853	437.88
455.073	440.88
455.294	453.88
455.514	554.88
455.734	547.88
455.955	458.88
456.175	405.88
456.395	399.88
456.616	402.88
456.836	387.88
457.056	402.88
457.276	403.88
457.497	399.88
457.717	381.88
457.937	417.88
458.157	402.88
458.377	418.88
458.598	443.88
458.818	523.88
459.038	628.88
459.258	627.88
459.478	544.88
459.698	483.88
459.918	450.88
460.138	437.88
460.358	433.88
460.578	458.88
460.798	445.88
461.018	446.88
461.238	453.88
461.458	456.88
461.678	439.88
461.898	437.88
462.118	425.88
462.338	448.88
462.558	451.88
462.777	417.88
462.997	458.88
463.217	442.88
463.437	459.88
463.657	441.88
463.876	465.88
464.096	450.88
464.316	451.88
464.536	469.88
464.755	465.88
464.975	466.88
465.195	529.88
465.414	640.88
465.634	566.88
465.854	521.88
466.073	479.88
466.293	459.88
466.512	453.88
466.732	439.88
466.951	426.88
467.171	427.88
467.391	429.88
467.61	438.88
467.829	448.88
468.049	469.88
468.268	454.88
468.488	458.88
468.707	439.88
468.927	433.88
469.146	423.88
469.365	419.88
469.585	414.88
469.804	451.88
470.023	450.88
470.243	450.88
470.462	444.88
470.681	463.88
470.901	453.88
471.12	456.88
471.339	437.88
471.558	443.88
471.777	431.88
471.997	448.88
472.216	459.88
472.435	507.88
472.654	478.88
472.873	459.88
473.092	454.88
473.311	431.88
473.53	441.88
473.749	465.88
473.968	507.88
474.187	603.88
474.406	667.88
474.625	533.88
474.844	483.88
475.063	455.88
475.282	463.88
475.501	453.88
475.72	457.88
475.939	449.88
476.158	459.88
476.377	490.88
476.596	462.88
476.814	446.88
477.033	472.88
477.252	468.88
477.471	455.88
477.69	451.88
477.908	485.88
478.127	474.88
478.346	460.88
478.564	478.88
478.783	491.88
479.002	501.88
479.22	503.88
479.439	519.88
479.658	525.88
479.876	561.88
480.095	558.88
480.313	561.88
480.532	552.88
480.751	523.88
480.969	557.88
481.188	625.88
481.406	689.88
481.624	602.88
481.843	567.88
482.061	562.88
482.28	531.88
482.498	551.88
482.717	537.88
482.935	523.88
483.153	531.88
483.372	527.88
483.59	542.88
483.808	535.88
484.027	543.88
484.245	514.88
484.463	534.88
484.681	545.88
484.9	531.88
485.118	538.88
485.336	531.88
485.554	566.88
485.772	557.88
485.99	557.88
486.209	562.88
486.427	550.88
486.645	570.88
486.863	580.88
487.081	601.88
487.299	580.88
487.517	570.88
487.735	593.88
487.953	569.88
488.171	585.88
488.389	602.88
488.607	583.88
488.825	570.88
489.043	568.88
489.261	590.88
489.479	589.88
489.696	581.88
489.914	572.88
490.132	603.88
490.35	607.88
490.568	625.88
490.786	616.88
491.003	611.88
491.221	648.88
491.439	652.88
491.657	659.88
491.874	665.88
492.092	679.88
492.31	689.88
492.527	673.88
492.745	687.88
492.963	694.88
493.18	674.88
493.398	691.88
493.615	715.88
493.833	701.88
494.05	659.88
494.268	685.88
494.485	689.88
494.703	715.88
494.92	709.88
495.138	673.88
495.355	703.88
495.573	709.88
495.79	696.88
496.008	698.88
496.225	697.88
496.442	697.88
496.66	686.88
496.877	686.88
497.094	714.88
497.312	703.88
497.529	671.88
497.746	705.88
497.963	713.88
498.181	728.88
498.398	728.88
498.615	723.88
498.832	729.88
499.049	740.88
499.267	742.88
499.484	766.88
499.701	803.88
499.918	795.88
500.135	802.88
500.352	830.88
500.569	824.88
500.786	825.88
501.003	801.88
501.22	818.88
501.437	810.88
501.654	801.88
501.871	806.88
