Data from 1980.PennyLincolnUp.Lamp.En5.5.200Scan.071819.P1_HRD10591_16-36-57-957.txt Node
Date: Thu Jul 18 16:36:57 EDT 2019
User: cochatt
Spectrometer: HR+D1059
Trigger mode: 1
Integration Time (sec): 1.000000E-1
Scans to average: 1
Electric dark correction enabled: true
Nonlinearity correction enabled: false
Boxcar width: 0
XAxis mode: Wavelengths
Number of Pixels in Spectrum: 2048
>>>>>Begin Spectral Data<<<<<
223.165	0.5
223.4	0.5
223.635	0.5
223.869	-18.5
224.104	-19.5
224.338	-17.5
224.573	-19.5
224.808	-15.5
225.042	-12.5
225.277	-6.5
225.511	-5.5
225.746	9.5
225.98	2.5
226.215	21.5
226.449	29.5
226.683	16.5
226.918	18.5
227.152	16.5
227.387	37.5
227.621	40.5
227.856	57.5
228.09	51.5
228.324	62.5
228.559	58.5
228.793	71.5
229.027	99.5
229.262	109.5
229.496	114.5
229.73	137.5
229.964	163.5
230.199	131.5
230.433	109.5
230.667	119.5
230.901	112.5
231.136	94.5
231.37	107.5
231.604	114.5
231.838	106.5
232.072	114.5
232.306	108.5
232.541	109.5
232.775	112.5
233.009	110.5
233.243	120.5
233.477	110.5
233.711	120.5
233.945	107.5
234.179	110.5
234.413	112.5
234.647	123.5
234.881	123.5
235.115	122.5
235.349	133.5
235.583	108.5
235.817	134.5
236.051	124.5
236.285	119.5
236.519	119.5
236.753	127.5
236.987	147.5
237.221	191.5
237.455	237.5
237.689	203.5
237.922	161.5
238.156	139.5
238.39	125.5
238.624	133.5
238.858	126.5
239.091	133.5
239.325	123.5
239.559	128.5
239.793	118.5
240.027	130.5
240.26	127.5
240.494	148.5
240.728	137.5
240.961	143.5
241.195	149.5
241.429	142.5
241.662	131.5
241.896	125.5
242.13	136.5
242.363	130.5
242.597	139.5
242.83	150.5
243.064	144.5
243.298	132.5
243.531	135.5
243.765	134.5
243.998	131.5
244.232	152.5
244.465	132.5
244.699	141.5
244.932	143.5
245.166	148.5
245.399	150.5
245.633	156.5
245.866	152.5
246.099	147.5
246.333	149.5
246.566	143.5
246.8	148.5
247.033	164.5
247.266	160.5
247.5	163.5
247.733	165.5
247.966	164.5
248.2	170.5
248.433	154.5
248.666	181.5
248.899	165.5
249.133	202.5
249.366	212.5
249.599	199.5
249.832	191.5
250.066	183.5
250.299	183.5
250.532	186.5
250.765	197.5
250.998	201.5
251.231	230.5
251.465	218.5
251.698	240.5
251.931	197.5
252.164	201.5
252.397	190.5
252.63	201.5
252.863	206.5
253.096	208.5
253.329	219.5
253.562	218.5
253.795	223.5
254.028	212.5
254.261	212.5
254.494	231.5
254.727	258.5
254.96	295.5
255.193	262.5
255.426	248.5
255.659	220.5
255.892	224.5
256.124	230.5
256.357	218.5
256.59	224.5
256.823	205.5
257.056	216.5
257.289	213.5
257.521	216.5
257.754	204.5
257.987	224.5
258.22	200.5
258.452	197.5
258.685	205.5
258.918	204.5
259.151	202.5
259.383	227.5
259.616	203.5
259.849	231.5
260.081	226.5
260.314	253.5
260.547	248.5
260.779	242.5
261.012	223.5
261.244	235.5
261.477	227.5
261.71	224.5
261.942	228.5
262.175	238.5
262.407	228.5
262.64	222.5
262.872	207.5
263.105	205.5
263.337	203.5
263.57	183.5
263.802	182.5
264.035	203.5
264.267	212.5
264.499	203.5
264.732	208.5
264.964	206.5
265.197	200.5
265.429	212.5
265.661	199.5
265.894	203.5
266.126	209.5
266.358	207.5
266.591	197.5
266.823	227.5
267.055	223.5
267.287	221.5
267.52	211.5
267.752	224.5
267.984	219.5
268.216	235.5
268.448	225.5
268.681	245.5
268.913	236.5
269.145	256.5
269.377	270.5
269.609	267.5
269.841	288.5
270.073	262.5
270.306	292.5
270.538	297.5
270.77	286.5
271.002	292.5
271.234	294.5
271.466	295.5
271.698	282.5
271.93	299.5
272.162	307.5
272.394	315.5
272.626	295.5
272.858	277.5
273.09	272.5
273.322	270.5
273.553	241.5
273.785	262.5
274.017	267.5
274.249	251.5
274.481	252.5
274.713	232.5
274.945	260.5
275.176	250.5
275.408	245.5
275.64	235.5
275.872	221.5
276.104	262.5
276.335	240.5
276.567	262.5
276.799	267.5
277.031	289.5
277.262	293.5
277.494	306.5
277.726	271.5
277.957	280.5
278.189	253.5
278.421	272.5
278.652	271.5
278.884	238.5
279.115	242.5
279.347	252.5
279.579	248.5
279.81	241.5
280.042	253.5
280.273	250.5
280.505	240.5
280.736	246.5
280.968	234.5
281.199	234.5
281.431	245.5
281.662	242.5
281.894	237.5
282.125	240.5
282.356	272.5
282.588	282.5
282.819	274.5
283.051	264.5
283.282	246.5
283.513	249.5
283.745	258.5
283.976	272.5
284.207	262.5
284.439	253.5
284.67	240.5
284.901	254.5
285.132	253.5
285.364	261.5
285.595	251.5
285.826	258.5
286.057	247.5
286.288	256.5
286.52	257.5
286.751	247.5
286.982	248.5
287.213	243.5
287.444	244.5
287.675	252.5
287.906	269.5
288.138	262.5
288.369	300.5
288.6	286.5
288.831	271.5
289.062	265.5
289.293	279.5
289.524	290.5
289.755	257.5
289.986	243.5
290.217	260.5
290.448	264.5
290.679	254.5
290.91	279.5
291.141	245.5
291.371	271.5
291.602	264.5
291.833	258.5
292.064	249.5
292.295	260.5
292.526	259.5
292.757	267.5
292.987	251.5
293.218	243.5
293.449	259.5
293.68	275.5
293.91	268.5
294.141	248.5
294.372	267.5
294.603	251.5
294.833	256.5
295.064	261.5
295.295	258.5
295.525	258.5
295.756	270.5
295.987	285.5
296.217	304.5
296.448	308.5
296.679	292.5
296.909	252.5
297.14	258.5
297.37	259.5
297.601	278.5
297.831	266.5
298.062	263.5
298.292	282.5
298.523	287.5
298.753	263.5
298.984	266.5
299.214	263.5
299.445	274.5
299.675	274.5
299.905	264.5
300.136	270.5
300.366	271.5
300.597	278.5
300.827	277.5
301.057	293.5
301.288	285.5
301.518	288.5
301.748	278.5
301.979	283.5
302.209	288.5
302.439	277.5
302.669	291.5
302.9	303.5
303.13	280.5
303.36	287.5
303.59	292.5
303.82	293.5
304.051	300.5
304.281	288.5
304.511	297.5
304.741	306.5
304.971	272.5
305.201	291.5
305.431	306.5
305.661	286.5
305.891	262.5
306.121	306.5
306.352	295.5
306.582	304.5
306.812	310.5
307.042	308.5
307.272	284.5
307.502	314.5
307.731	301.5
307.961	310.5
308.191	284.5
308.421	293.5
308.651	292.5
308.881	309.5
309.111	305.5
309.341	325.5
309.571	318.5
309.8	332.5
310.03	331.5
310.26	342.5
310.49	340.5
310.72	348.5
310.949	360.5
311.179	369.5
311.409	364.5
311.639	349.5
311.868	339.5
312.098	365.5
312.328	363.5
312.557	371.5
312.787	398.5
313.017	362.5
313.246	350.5
313.476	339.5
313.706	353.5
313.935	359.5
314.165	379.5
314.394	376.5
314.624	374.5
314.853	350.5
315.083	340.5
315.312	341.5
315.542	354.5
315.771	341.5
316.001	335.5
316.23	333.5
316.46	346.5
316.689	337.5
316.919	348.5
317.148	362.5
317.377	350.5
317.607	347.5
317.836	349.5
318.065	334.5
318.295	351.5
318.524	325.5
318.753	331.5
318.983	339.5
319.212	350.5
319.441	354.5
319.67	341.5
319.9	357.5
320.129	344.5
320.358	340.5
320.587	351.5
320.816	352.5
321.046	356.5
321.275	350.5
321.504	365.5
321.733	367.5
321.962	382.5
322.191	390.5
322.42	399.5
322.649	401.5
322.878	427.5
323.108	444.5
323.337	459.5
323.566	481.5
323.795	525.5
324.024	559.5
324.253	679.5
324.482	990.5
324.71	1498.5
324.939	2143.5
325.168	1943.5
325.397	1004.5
325.626	662.5
325.855	539.5
326.084	498.5
326.313	494.5
326.542	492.5
326.77	534.5
326.999	641.5
327.228	875.5
327.457	1305.5
327.686	1611.5
327.914	1112.5
328.143	745.5
328.372	651.5
328.6	564.5
328.829	540.5
329.058	584.5
329.287	563.5
329.515	541.5
329.744	473.5
329.972	490.5
330.201	502.5
330.43	527.5
330.658	559.5
330.887	593.5
331.115	578.5
331.344	485.5
331.572	448.5
331.801	455.5
332.03	440.5
332.258	434.5
332.486	411.5
332.715	391.5
332.943	391.5
333.172	409.5
333.4	390.5
333.629	392.5
333.857	438.5
334.085	424.5
334.314	444.5
334.542	475.5
334.771	483.5
334.999	451.5
335.227	420.5
335.455	404.5
335.684	386.5
335.912	374.5
336.14	398.5
336.369	396.5
336.597	403.5
336.825	414.5
337.053	414.5
337.281	399.5
337.51	383.5
337.738	381.5
337.966	392.5
338.194	405.5
338.422	393.5
338.65	361.5
338.878	393.5
339.106	386.5
339.334	373.5
339.562	379.5
339.79	386.5
340.018	370.5
340.246	379.5
340.474	392.5
340.702	385.5
340.93	365.5
341.158	382.5
341.386	374.5
341.614	381.5
341.842	384.5
342.07	370.5
342.298	379.5
342.526	371.5
342.754	371.5
342.981	380.5
343.209	364.5
343.437	370.5
343.665	373.5
343.893	374.5
344.12	379.5
344.348	397.5
344.576	374.5
344.804	407.5
345.031	398.5
345.259	402.5
345.487	390.5
345.714	383.5
345.942	366.5
346.17	371.5
346.397	372.5
346.625	380.5
346.853	363.5
347.08	361.5
347.308	385.5
347.535	380.5
347.763	378.5
347.99	378.5
348.218	400.5
348.445	386.5
348.673	405.5
348.9	381.5
349.128	393.5
349.355	366.5
349.583	365.5
349.81	355.5
350.037	366.5
350.265	364.5
350.492	357.5
350.72	373.5
350.947	389.5
351.174	383.5
351.402	388.5
351.629	379.5
351.856	376.5
352.083	387.5
352.311	395.5
352.538	412.5
352.765	408.5
352.992	393.5
353.22	384.5
353.447	375.5
353.674	370.5
353.901	349.5
354.128	369.5
354.355	358.5
354.583	351.5
354.81	335.5
355.037	372.5
355.264	359.5
355.491	340.5
355.718	336.5
355.945	339.5
356.172	359.5
356.399	322.5
356.626	334.5
356.853	344.5
357.08	343.5
357.307	358.5
357.534	345.5
357.761	351.5
357.988	343.5
358.215	360.5
358.441	335.5
358.668	370.5
358.895	342.5
359.122	354.5
359.349	386.5
359.576	375.5
359.802	394.5
360.029	445.5
360.256	450.5
360.483	440.5
360.709	372.5
360.936	373.5
361.163	374.5
361.39	367.5
361.616	388.5
361.843	369.5
362.07	376.5
362.296	375.5
362.523	367.5
362.749	396.5
362.976	358.5
363.203	363.5
363.429	343.5
363.656	355.5
363.882	367.5
364.109	342.5
364.335	351.5
364.562	355.5
364.788	351.5
365.015	349.5
365.241	355.5
365.468	363.5
365.694	374.5
365.92	369.5
366.147	352.5
366.373	352.5
366.599	354.5
366.826	360.5
367.052	371.5
367.278	337.5
367.505	331.5
367.731	359.5
367.957	354.5
368.184	350.5
368.41	358.5
368.636	370.5
368.862	372.5
369.089	354.5
369.315	342.5
369.541	366.5
369.767	352.5
369.993	325.5
370.219	360.5
370.445	360.5
370.672	346.5
370.898	338.5
371.124	342.5
371.35	342.5
371.576	343.5
371.802	355.5
372.028	339.5
372.254	355.5
372.48	342.5
372.706	361.5
372.932	349.5
373.158	339.5
373.384	351.5
373.61	349.5
373.835	344.5
374.061	341.5
374.287	357.5
374.513	355.5
374.739	348.5
374.965	356.5
375.191	357.5
375.416	346.5
375.642	351.5
375.868	360.5
376.094	335.5
376.319	341.5
376.545	344.5
376.771	348.5
376.997	359.5
377.222	346.5
377.448	358.5
377.674	340.5
377.899	336.5
378.125	353.5
378.35	350.5
378.576	336.5
378.802	339.5
379.027	342.5
379.253	361.5
379.478	340.5
379.704	364.5
379.929	345.5
380.155	336.5
380.38	357.5
380.606	352.5
380.831	337.5
381.057	342.5
381.282	347.5
381.507	340.5
381.733	345.5
381.958	359.5
382.184	371.5
382.409	354.5
382.634	335.5
382.86	371.5
383.085	325.5
383.31	356.5
383.535	352.5
383.761	361.5
383.986	348.5
384.211	367.5
384.436	339.5
384.662	361.5
384.887	349.5
385.112	372.5
385.337	382.5
385.562	373.5
385.787	349.5
386.013	370.5
386.238	382.5
386.463	385.5
386.688	386.5
386.913	366.5
387.138	380.5
387.363	374.5
387.588	352.5
387.813	359.5
388.038	369.5
388.263	350.5
388.488	381.5
388.713	374.5
388.938	390.5
389.163	391.5
389.387	373.5
389.612	378.5
389.837	379.5
390.062	366.5
390.287	379.5
390.512	370.5
390.736	365.5
390.961	371.5
391.186	354.5
391.411	357.5
391.636	378.5
391.86	370.5
392.085	379.5
392.31	365.5
392.534	371.5
392.759	376.5
392.984	367.5
393.208	372.5
393.433	362.5
393.658	386.5
393.882	358.5
394.107	357.5
394.331	360.5
394.556	387.5
394.78	376.5
395.005	373.5
395.229	352.5
395.454	374.5
395.678	373.5
395.903	380.5
396.127	420.5
396.352	418.5
396.576	379.5
396.801	382.5
397.025	382.5
397.249	382.5
397.474	387.5
397.698	384.5
397.922	415.5
398.147	410.5
398.371	427.5
398.595	408.5
398.82	410.5
399.044	419.5
399.268	429.5
399.492	420.5
399.717	425.5
399.941	472.5
400.165	507.5
400.389	500.5
400.613	453.5
400.837	430.5
401.062	446.5
401.286	415.5
401.51	418.5
401.734	398.5
401.958	415.5
402.182	441.5
402.406	418.5
402.63	429.5
402.854	408.5
403.078	436.5
403.302	456.5
403.526	419.5
403.75	417.5
403.974	434.5
404.198	426.5
404.422	424.5
404.645	447.5
404.869	443.5
405.093	489.5
405.317	527.5
405.541	524.5
405.765	488.5
405.988	449.5
406.212	479.5
406.436	504.5
406.66	517.5
406.883	474.5
407.107	491.5
407.331	541.5
407.555	592.5
407.778	582.5
408.002	534.5
408.226	499.5
408.449	486.5
408.673	476.5
408.896	498.5
409.12	541.5
409.344	517.5
409.567	466.5
409.791	441.5
410.014	441.5
410.238	430.5
410.461	444.5
410.685	442.5
410.908	450.5
411.132	500.5
411.355	528.5
411.578	515.5
411.802	452.5
412.025	452.5
412.249	446.5
412.472	462.5
412.695	489.5
412.919	497.5
413.142	456.5
413.365	450.5
413.589	426.5
413.812	418.5
414.035	422.5
414.258	400.5
414.482	407.5
414.705	409.5
414.928	414.5
415.151	426.5
415.374	398.5
415.597	410.5
415.821	411.5
416.044	417.5
416.267	430.5
416.49	402.5
416.713	397.5
416.936	418.5
417.159	410.5
417.382	409.5
417.605	405.5
417.828	435.5
418.051	440.5
418.274	424.5
418.497	432.5
418.72	407.5
418.943	389.5
419.166	438.5
419.389	458.5
419.611	436.5
419.834	461.5
420.057	476.5
420.28	439.5
420.503	445.5
420.726	459.5
420.948	452.5
421.171	476.5
421.394	486.5
421.617	467.5
421.839	428.5
422.062	434.5
422.285	463.5
422.507	520.5
422.73	554.5
422.953	550.5
423.175	491.5
423.398	452.5
423.621	458.5
423.843	459.5
424.066	484.5
424.288	502.5
424.511	489.5
424.733	569.5
424.956	632.5
425.178	610.5
425.401	592.5
425.623	616.5
425.846	521.5
426.068	500.5
426.291	492.5
426.513	476.5
426.735	495.5
426.958	555.5
427.18	609.5
427.402	726.5
427.625	814.5
427.847	733.5
428.069	621.5
428.292	542.5
428.514	507.5
428.736	499.5
428.958	472.5
429.181	454.5
429.403	436.5
429.625	476.5
429.847	500.5
430.069	579.5
430.292	560.5
430.514	484.5
430.736	451.5
430.958	457.5
431.18	441.5
431.402	428.5
431.624	413.5
431.846	417.5
432.068	419.5
432.29	392.5
432.512	414.5
432.734	442.5
432.956	435.5
433.178	441.5
433.4	440.5
433.622	446.5
433.844	421.5
434.066	431.5
434.287	406.5
434.509	425.5
434.731	428.5
434.953	439.5
435.175	463.5
435.397	484.5
435.618	479.5
435.84	532.5
436.062	629.5
436.284	682.5
436.505	579.5
436.727	525.5
436.949	461.5
437.17	436.5
437.392	476.5
437.614	471.5
437.835	528.5
438.057	569.5
438.278	709.5
438.5	690.5
438.721	720.5
438.943	711.5
439.165	572.5
439.386	515.5
439.608	519.5
439.829	534.5
440.05	520.5
440.272	590.5
440.493	556.5
440.715	490.5
440.936	476.5
441.158	451.5
441.379	459.5
441.6	461.5
441.822	483.5
442.043	522.5
442.264	614.5
442.486	651.5
442.707	565.5
442.928	534.5
443.149	508.5
443.371	527.5
443.592	568.5
443.813	645.5
444.034	705.5
444.255	574.5
444.476	513.5
444.698	495.5
444.919	478.5
445.14	612.5
445.361	584.5
445.582	552.5
445.803	579.5
446.024	688.5
446.245	690.5
446.466	630.5
446.687	542.5
446.908	505.5
447.129	481.5
447.35	441.5
447.571	461.5
447.792	462.5
448.013	460.5
448.234	500.5
448.455	521.5
448.675	643.5
448.896	735.5
449.117	633.5
449.338	590.5
449.559	676.5
449.779	767.5
450	629.5
450.221	509.5
450.442	478.5
450.662	451.5
450.883	478.5
451.104	487.5
451.324	477.5
451.545	434.5
451.766	432.5
451.986	414.5
452.207	406.5
452.428	414.5
452.648	412.5
452.869	406.5
453.089	431.5
453.31	431.5
453.53	448.5
453.751	435.5
453.971	396.5
454.192	451.5
454.412	444.5
454.633	405.5
454.853	405.5
455.073	398.5
455.294	450.5
455.514	503.5
455.734	510.5
455.955	406.5
456.175	392.5
456.395	377.5
456.616	396.5
456.836	394.5
457.056	402.5
457.276	376.5
457.497	371.5
457.717	388.5
457.937	392.5
458.157	390.5
458.377	403.5
458.598	429.5
458.818	465.5
459.038	597.5
459.258	593.5
459.478	501.5
459.698	435.5
459.918	419.5
460.138	422.5
460.358	407.5
460.578	395.5
460.798	428.5
461.018	433.5
461.238	410.5
461.458	404.5
461.678	396.5
461.898	423.5
462.118	413.5
462.338	427.5
462.558	430.5
462.777	437.5
462.997	436.5
463.217	451.5
463.437	444.5
463.657	451.5
463.876	424.5
464.096	441.5
464.316	446.5
464.536	448.5
464.755	411.5
464.975	448.5
465.195	518.5
465.414	597.5
465.634	509.5
465.854	458.5
466.073	438.5
466.293	434.5
466.512	416.5
466.732	422.5
466.951	416.5
467.171	411.5
467.391	438.5
467.61	446.5
467.829	427.5
468.049	419.5
468.268	414.5
468.488	418.5
468.707	401.5
468.927	422.5
469.146	394.5
469.365	396.5
469.585	418.5
469.804	420.5
470.023	412.5
470.243	437.5
470.462	425.5
470.681	470.5
470.901	452.5
471.12	412.5
471.339	406.5
471.558	424.5
471.777	423.5
471.997	422.5
472.216	407.5
472.435	455.5
472.654	437.5
472.873	415.5
473.092	410.5
473.311	407.5
473.53	418.5
473.749	406.5
473.968	475.5
474.187	582.5
474.406	612.5
474.625	500.5
474.844	446.5
475.063	410.5
475.282	419.5
475.501	429.5
475.72	448.5
475.939	431.5
476.158	429.5
476.377	443.5
476.596	432.5
476.814	440.5
477.033	446.5
477.252	447.5
477.471	442.5
477.69	440.5
477.908	454.5
478.127	443.5
478.346	452.5
478.564	444.5
478.783	463.5
479.002	444.5
479.22	468.5
479.439	480.5
479.658	511.5
479.876	475.5
480.095	543.5
480.313	551.5
480.532	516.5
480.751	523.5
480.969	544.5
481.188	576.5
481.406	627.5
481.624	554.5
481.843	505.5
482.061	495.5
482.28	493.5
482.498	505.5
482.717	495.5
482.935	510.5
483.153	498.5
483.372	489.5
483.59	481.5
483.808	499.5
484.027	489.5
484.245	498.5
484.463	486.5
484.681	509.5
484.9	486.5
485.118	504.5
485.336	509.5
485.554	499.5
485.772	507.5
485.99	502.5
486.209	517.5
486.427	512.5
486.645	539.5
486.863	567.5
487.081	548.5
487.299	554.5
487.517	529.5
487.735	542.5
487.953	527.5
488.171	538.5
488.389	522.5
488.607	517.5
488.825	539.5
489.043	517.5
489.261	555.5
489.479	543.5
489.696	541.5
489.914	546.5
490.132	557.5
490.35	556.5
490.568	558.5
490.786	571.5
491.003	572.5
491.221	573.5
491.439	582.5
491.657	607.5
491.874	602.5
492.092	624.5
492.31	623.5
492.527	608.5
492.745	617.5
492.963	613.5
493.18	612.5
493.398	649.5
493.615	638.5
493.833	651.5
494.05	637.5
494.268	616.5
494.485	641.5
494.703	632.5
494.92	640.5
495.138	632.5
495.355	642.5
495.573	655.5
495.79	664.5
496.008	650.5
496.225	634.5
496.442	637.5
496.66	665.5
496.877	646.5
497.094	674.5
497.312	663.5
497.529	645.5
497.746	658.5
497.963	643.5
498.181	675.5
498.398	695.5
498.615	678.5
498.832	706.5
499.049	686.5
499.267	690.5
499.484	707.5
499.701	744.5
499.918	727.5
500.135	758.5
500.352	783.5
500.569	768.5
500.786	801.5
501.003	797.5
501.22	776.5
501.437	758.5
501.654	777.5
501.871	783.5
502.088	750.5
502.305	691.5
502.522	700.5
502.739	706.5
502.956	680.5
503.172	668.5
503.389	670.5
503.606	670.5
503.823	669.5
504.04	664.5
504.256	647.5
504.473	656.5
504.69	631.5
504.907	633.5
505.123	631.5
505.34	642.5
505.557	623.5
505.773	627.5
505.99	634.5
506.207	637.5
506.423	618.5
506.64	648.5
506.856	615.5
507.073	618.5
507.289	604.5
507.506	612.5
507.722	605.5
507.939	641.5
508.155	629.5
508.372	584.5
508.588	596.5
508.805	587.5
509.021	592.5
509.238	616.5
509.454	606.5
509.67	635.5
509.887	600.5
510.103	590.5
510.319	619.5
510.536	730.5
510.752	1216.5
510.968	988.5
511.184	637.5
511.401	581.5
511.617	597.5
511.833	568.5
512.049	556.5
512.265	570.5
512.481	584.5
512.698	579.5
512.914	574.5
513.13	575.5
513.346	564.5
513.562	566.5
513.778	582.5
513.994	595.5
514.21	602.5
514.426	620.5
514.642	665.5
514.858	709.5
515.074	708.5
515.29	917.5
515.506	1365.5
515.721	1119.5
515.937	731.5
516.153	668.5
516.369	619.5
516.585	611.5
516.801	568.5
517.016	597.5
517.232	568.5
517.448	592.5
517.664	588.5
517.879	562.5
518.095	574.5
518.311	573.5
518.527	559.5
518.742	556.5
518.958	569.5
519.173	578.5
519.389	571.5
519.605	590.5
519.82	580.5
