Data from 1980.PennyLincolnUp.Lamp.En5.5.200Scan.071819.P1_HRD10591_16-37-07-956.txt Node
Date: Thu Jul 18 16:37:07 EDT 2019
User: cochatt
Spectrometer: HR+D1059
Trigger mode: 1
Integration Time (sec): 1.000000E-1
Scans to average: 1
Electric dark correction enabled: true
Nonlinearity correction enabled: false
Boxcar width: 0
XAxis mode: Wavelengths
Number of Pixels in Spectrum: 2048
>>>>>Begin Spectral Data<<<<<
223.165	-6.5
223.4	-6.5
223.635	-6.5
223.869	-24.5
224.104	-9.5
224.338	-13.5
224.573	-15.5
224.808	-9.5
225.042	-1.5
225.277	-8.5
225.511	-9.5
225.746	-13.5
225.98	23.5
226.215	15.5
226.449	16.5
226.683	11.5
226.918	15.5
227.152	29.5
227.387	22.5
227.621	30.5
227.856	35.5
228.09	53.5
228.324	46.5
228.559	63.5
228.793	70.5
229.027	115.5
229.262	110.5
229.496	104.5
229.73	140.5
229.964	155.5
230.199	131.5
230.433	125.5
230.667	125.5
230.901	115.5
231.136	116.5
231.37	100.5
231.604	111.5
231.838	114.5
232.072	114.5
232.306	107.5
232.541	102.5
232.775	102.5
233.009	112.5
233.243	110.5
233.477	110.5
233.711	123.5
233.945	114.5
234.179	118.5
234.413	108.5
234.647	119.5
234.881	113.5
235.115	120.5
235.349	116.5
235.583	110.5
235.817	118.5
236.051	136.5
236.285	125.5
236.519	135.5
236.753	141.5
236.987	142.5
237.221	183.5
237.455	258.5
237.689	194.5
237.922	147.5
238.156	130.5
238.39	125.5
238.624	132.5
238.858	120.5
239.091	125.5
239.325	118.5
239.559	124.5
239.793	125.5
240.027	126.5
240.26	142.5
240.494	146.5
240.728	156.5
240.961	158.5
241.195	141.5
241.429	141.5
241.662	150.5
241.896	132.5
242.13	135.5
242.363	138.5
242.597	138.5
242.83	138.5
243.064	134.5
243.298	140.5
243.531	122.5
243.765	129.5
243.998	136.5
244.232	153.5
244.465	150.5
244.699	140.5
244.932	143.5
245.166	148.5
245.399	138.5
245.633	143.5
245.866	144.5
246.099	134.5
246.333	156.5
246.566	143.5
246.8	156.5
247.033	158.5
247.266	160.5
247.5	165.5
247.733	156.5
247.966	167.5
248.2	170.5
248.433	185.5
248.666	181.5
248.899	178.5
249.133	207.5
249.366	219.5
249.599	194.5
249.832	180.5
250.066	197.5
250.299	181.5
250.532	198.5
250.765	215.5
250.998	227.5
251.231	223.5
251.465	223.5
251.698	217.5
251.931	210.5
252.164	207.5
252.397	194.5
252.63	200.5
252.863	209.5
253.096	198.5
253.329	229.5
253.562	236.5
253.795	235.5
254.028	219.5
254.261	219.5
254.494	230.5
254.727	250.5
254.96	284.5
255.193	262.5
255.426	248.5
255.659	234.5
255.892	237.5
256.124	242.5
256.357	248.5
256.59	229.5
256.823	218.5
257.056	202.5
257.289	216.5
257.521	216.5
257.754	219.5
257.987	219.5
258.22	219.5
258.452	222.5
258.685	208.5
258.918	215.5
259.151	197.5
259.383	215.5
259.616	235.5
259.849	226.5
260.081	235.5
260.314	243.5
260.547	262.5
260.779	262.5
261.012	230.5
261.244	232.5
261.477	236.5
261.71	222.5
261.942	234.5
262.175	229.5
262.407	230.5
262.64	234.5
262.872	218.5
263.105	208.5
263.337	218.5
263.57	221.5
263.802	210.5
264.035	214.5
264.267	208.5
264.499	194.5
264.732	204.5
264.964	209.5
265.197	207.5
265.429	221.5
265.661	222.5
265.894	217.5
266.126	209.5
266.358	226.5
266.591	214.5
266.823	208.5
267.055	214.5
267.287	200.5
267.52	229.5
267.752	217.5
267.984	215.5
268.216	211.5
268.448	233.5
268.681	234.5
268.913	239.5
269.145	260.5
269.377	284.5
269.609	277.5
269.841	262.5
270.073	262.5
270.306	293.5
270.538	323.5
270.77	296.5
271.002	290.5
271.234	271.5
271.466	282.5
271.698	310.5
271.93	321.5
272.162	328.5
272.394	316.5
272.626	314.5
272.858	284.5
273.09	269.5
273.322	280.5
273.553	260.5
273.785	254.5
274.017	260.5
274.249	240.5
274.481	250.5
274.713	268.5
274.945	264.5
275.176	252.5
275.408	260.5
275.64	271.5
275.872	258.5
276.104	267.5
276.335	268.5
276.567	266.5
276.799	270.5
277.031	306.5
277.262	322.5
277.494	334.5
277.726	300.5
277.957	290.5
278.189	262.5
278.421	250.5
278.652	278.5
278.884	250.5
279.115	241.5
279.347	258.5
279.579	248.5
279.81	237.5
280.042	244.5
280.273	257.5
280.505	270.5
280.736	264.5
280.968	259.5
281.199	247.5
281.431	256.5
281.662	251.5
281.894	258.5
282.125	256.5
282.356	268.5
282.588	292.5
282.819	287.5
283.051	264.5
283.282	259.5
283.513	248.5
283.745	259.5
283.976	250.5
284.207	280.5
284.439	250.5
284.67	260.5
284.901	274.5
285.132	261.5
285.364	248.5
285.595	251.5
285.826	249.5
286.057	268.5
286.288	268.5
286.52	264.5
286.751	262.5
286.982	240.5
287.213	246.5
287.444	266.5
287.675	270.5
287.906	276.5
288.138	273.5
288.369	278.5
288.6	270.5
288.831	283.5
289.062	271.5
289.293	277.5
289.524	271.5
289.755	272.5
289.986	279.5
290.217	289.5
290.448	266.5
290.679	270.5
290.91	264.5
291.141	241.5
291.371	253.5
291.602	263.5
291.833	247.5
292.064	276.5
292.295	252.5
292.526	247.5
292.757	277.5
292.987	269.5
293.218	262.5
293.449	255.5
293.68	264.5
293.91	246.5
294.141	264.5
294.372	257.5
294.603	249.5
294.833	269.5
295.064	264.5
295.295	278.5
295.525	263.5
295.756	277.5
295.987	280.5
296.217	302.5
296.448	302.5
296.679	271.5
296.909	274.5
297.14	280.5
297.37	284.5
297.601	261.5
297.831	272.5
298.062	272.5
298.292	279.5
298.523	281.5
298.753	280.5
298.984	258.5
299.214	280.5
299.445	286.5
299.675	278.5
299.905	285.5
300.136	295.5
300.366	294.5
300.597	287.5
300.827	289.5
301.057	307.5
301.288	292.5
301.518	294.5
301.748	289.5
301.979	314.5
302.209	302.5
302.439	286.5
302.669	303.5
302.9	302.5
303.13	301.5
303.36	286.5
303.59	320.5
303.82	320.5
304.051	313.5
304.281	308.5
304.511	291.5
304.741	297.5
304.971	288.5
305.201	291.5
305.431	284.5
305.661	286.5
305.891	312.5
306.121	299.5
306.352	290.5
306.582	315.5
306.812	313.5
307.042	309.5
307.272	310.5
307.502	304.5
307.731	307.5
307.961	300.5
308.191	290.5
308.421	300.5
308.651	306.5
308.881	323.5
309.111	317.5
309.341	327.5
309.571	334.5
309.8	335.5
310.03	354.5
310.26	341.5
310.49	350.5
310.72	372.5
310.949	371.5
311.179	392.5
311.409	370.5
311.639	355.5
311.868	350.5
312.098	348.5
312.328	366.5
312.557	394.5
312.787	392.5
313.017	399.5
313.246	373.5
313.476	361.5
313.706	351.5
313.935	352.5
314.165	376.5
314.394	382.5
314.624	391.5
314.853	362.5
315.083	361.5
315.312	345.5
315.542	339.5
315.771	345.5
316.001	335.5
316.23	338.5
316.46	346.5
316.689	334.5
316.919	350.5
317.148	371.5
317.377	360.5
317.607	367.5
317.836	380.5
318.065	364.5
318.295	355.5
318.524	357.5
318.753	349.5
318.983	358.5
319.212	358.5
319.441	350.5
319.67	370.5
319.9	344.5
320.129	352.5
320.358	340.5
320.587	370.5
320.816	379.5
321.046	381.5
321.275	377.5
321.504	367.5
321.733	374.5
321.962	394.5
322.191	394.5
322.42	411.5
322.649	444.5
322.878	434.5
323.108	456.5
323.337	467.5
323.566	484.5
323.795	550.5
324.024	573.5
324.253	740.5
324.482	1026.5
324.71	1567.5
324.939	2280.5
325.168	1997.5
325.397	1056.5
325.626	692.5
325.855	568.5
326.084	538.5
326.313	502.5
326.542	515.5
326.77	557.5
326.999	657.5
327.228	893.5
327.457	1406.5
327.686	1734.5
327.914	1190.5
328.143	792.5
328.372	668.5
328.6	606.5
328.829	587.5
329.058	592.5
329.287	607.5
329.515	558.5
329.744	526.5
329.972	507.5
330.201	512.5
330.43	572.5
330.658	617.5
330.887	628.5
331.115	616.5
331.344	520.5
331.572	509.5
331.801	488.5
332.03	475.5
332.258	457.5
332.486	426.5
332.715	419.5
332.943	428.5
333.172	422.5
333.4	412.5
333.629	428.5
333.857	450.5
334.085	447.5
334.314	452.5
334.542	503.5
334.771	508.5
334.999	451.5
335.227	422.5
335.455	412.5
335.684	426.5
335.912	405.5
336.14	390.5
336.369	390.5
336.597	392.5
336.825	445.5
337.053	399.5
337.281	375.5
337.51	400.5
337.738	399.5
337.966	396.5
338.194	403.5
338.422	416.5
338.65	402.5
338.878	396.5
339.106	385.5
339.334	382.5
339.562	379.5
339.79	359.5
340.018	390.5
340.246	392.5
340.474	401.5
340.702	404.5
340.93	376.5
341.158	407.5
341.386	400.5
341.614	388.5
341.842	405.5
342.07	391.5
342.298	379.5
342.526	387.5
342.754	368.5
342.981	360.5
343.209	376.5
343.437	372.5
343.665	375.5
343.893	375.5
344.12	392.5
344.348	402.5
344.576	394.5
344.804	400.5
345.031	427.5
345.259	426.5
345.487	420.5
345.714	391.5
345.942	406.5
346.17	396.5
346.397	382.5
346.625	402.5
346.853	394.5
347.08	382.5
347.308	410.5
347.535	402.5
347.763	415.5
347.99	409.5
348.218	389.5
348.445	408.5
348.673	412.5
348.9	403.5
349.128	384.5
349.355	373.5
349.583	372.5
349.81	363.5
350.037	368.5
350.265	375.5
350.492	374.5
350.72	387.5
350.947	358.5
351.174	396.5
351.402	415.5
351.629	404.5
351.856	391.5
352.083	420.5
352.311	402.5
352.538	412.5
352.765	417.5
352.992	398.5
353.22	390.5
353.447	383.5
353.674	362.5
353.901	379.5
354.128	380.5
354.355	383.5
354.583	362.5
354.81	376.5
355.037	340.5
355.264	342.5
355.491	346.5
355.718	330.5
355.945	348.5
356.172	351.5
356.399	341.5
356.626	355.5
356.853	354.5
357.08	355.5
357.307	328.5
357.534	350.5
357.761	352.5
357.988	350.5
358.215	355.5
358.441	347.5
358.668	362.5
358.895	358.5
359.122	379.5
359.349	374.5
359.576	391.5
359.802	421.5
360.029	470.5
360.256	465.5
360.483	451.5
360.709	424.5
360.936	375.5
361.163	388.5
361.39	410.5
361.616	381.5
361.843	382.5
362.07	367.5
362.296	402.5
362.523	368.5
362.749	404.5
362.976	390.5
363.203	379.5
363.429	379.5
363.656	379.5
363.882	370.5
364.109	359.5
364.335	376.5
364.562	350.5
364.788	353.5
365.015	372.5
365.241	374.5
365.468	389.5
365.694	392.5
365.92	377.5
366.147	382.5
366.373	353.5
366.599	361.5
366.826	370.5
367.052	362.5
367.278	349.5
367.505	367.5
367.731	370.5
367.957	354.5
368.184	380.5
368.41	370.5
368.636	360.5
368.862	394.5
369.089	373.5
369.315	357.5
369.541	360.5
369.767	363.5
369.993	372.5
370.219	361.5
370.445	372.5
370.672	384.5
370.898	374.5
371.124	323.5
371.35	367.5
371.576	348.5
371.802	351.5
372.028	360.5
372.254	351.5
372.48	350.5
372.706	343.5
372.932	346.5
373.158	366.5
373.384	363.5
373.61	364.5
373.835	365.5
374.061	361.5
374.287	362.5
374.513	354.5
374.739	357.5
374.965	348.5
375.191	384.5
375.416	350.5
375.642	349.5
375.868	391.5
376.094	362.5
376.319	357.5
376.545	354.5
376.771	369.5
376.997	351.5
377.222	358.5
377.448	357.5
377.674	356.5
377.899	340.5
378.125	348.5
378.35	349.5
378.576	354.5
378.802	340.5
379.027	340.5
379.253	357.5
379.478	333.5
379.704	356.5
379.929	366.5
380.155	357.5
380.38	358.5
380.606	337.5
380.831	354.5
381.057	362.5
381.282	355.5
381.507	351.5
381.733	358.5
381.958	362.5
382.184	350.5
382.409	349.5
382.634	362.5
382.86	370.5
383.085	356.5
383.31	377.5
383.535	352.5
383.761	379.5
383.986	359.5
384.211	367.5
384.436	361.5
384.662	379.5
384.887	349.5
385.112	357.5
385.337	353.5
385.562	382.5
385.787	354.5
386.013	374.5
386.238	390.5
386.463	380.5
386.688	376.5
386.913	370.5
387.138	379.5
387.363	388.5
387.588	365.5
387.813	368.5
388.038	383.5
388.263	376.5
388.488	385.5
388.713	385.5
388.938	389.5
389.163	372.5
389.387	401.5
389.612	374.5
389.837	378.5
390.062	382.5
390.287	364.5
390.512	374.5
390.736	376.5
390.961	392.5
391.186	360.5
391.411	370.5
391.636	370.5
391.86	379.5
392.085	378.5
392.31	396.5
392.534	378.5
392.759	387.5
392.984	363.5
393.208	376.5
393.433	378.5
393.658	386.5
393.882	364.5
394.107	380.5
394.331	370.5
394.556	364.5
394.78	384.5
395.005	363.5
395.229	372.5
395.454	370.5
395.678	392.5
395.903	381.5
396.127	404.5
396.352	422.5
396.576	399.5
396.801	390.5
397.025	380.5
397.249	386.5
397.474	380.5
397.698	373.5
397.922	400.5
398.147	413.5
398.371	406.5
398.595	409.5
398.82	381.5
399.044	425.5
399.268	421.5
399.492	438.5
399.717	461.5
399.941	480.5
400.165	500.5
400.389	540.5
400.613	452.5
400.837	443.5
401.062	432.5
401.286	429.5
401.51	424.5
401.734	426.5
401.958	420.5
402.182	426.5
402.406	429.5
402.63	455.5
402.854	448.5
403.078	448.5
403.302	431.5
403.526	438.5
403.75	434.5
403.974	436.5
404.198	426.5
404.422	448.5
404.645	438.5
404.869	463.5
405.093	490.5
405.317	523.5
405.541	532.5
405.765	493.5
405.988	466.5
406.212	500.5
406.436	495.5
406.66	524.5
406.883	503.5
407.107	516.5
407.331	552.5
407.555	602.5
407.778	588.5
408.002	564.5
408.226	516.5
408.449	505.5
408.673	481.5
408.896	510.5
409.12	556.5
409.344	518.5
409.567	479.5
409.791	459.5
410.014	454.5
410.238	453.5
410.461	446.5
410.685	474.5
410.908	459.5
411.132	488.5
411.355	509.5
411.578	500.5
411.802	447.5
412.025	464.5
412.249	466.5
412.472	488.5
412.695	520.5
412.919	516.5
413.142	458.5
413.365	445.5
413.589	422.5
413.812	417.5
414.035	400.5
414.258	401.5
414.482	412.5
414.705	416.5
414.928	425.5
415.151	442.5
415.374	418.5
415.597	404.5
415.821	416.5
416.044	418.5
416.267	410.5
416.49	402.5
416.713	413.5
416.936	410.5
417.159	410.5
417.382	415.5
417.605	419.5
417.828	436.5
418.051	440.5
418.274	439.5
418.497	441.5
418.72	429.5
418.943	414.5
419.166	434.5
419.389	458.5
419.611	439.5
419.834	453.5
420.057	439.5
420.28	456.5
420.503	444.5
420.726	439.5
420.948	462.5
421.171	507.5
421.394	547.5
421.617	491.5
421.839	464.5
422.062	471.5
422.285	464.5
422.507	517.5
422.73	578.5
422.953	563.5
423.175	514.5
423.398	480.5
423.621	475.5
423.843	493.5
424.066	500.5
424.288	482.5
424.511	502.5
424.733	569.5
424.956	624.5
425.178	626.5
425.401	626.5
425.623	646.5
425.846	556.5
426.068	494.5
426.291	500.5
426.513	498.5
426.735	516.5
426.958	554.5
427.18	634.5
427.402	739.5
427.625	826.5
427.847	732.5
428.069	630.5
428.292	561.5
428.514	520.5
428.736	494.5
428.958	475.5
429.181	476.5
429.403	467.5
429.625	453.5
429.847	500.5
430.069	586.5
430.292	575.5
430.514	482.5
430.736	463.5
430.958	444.5
431.18	450.5
431.402	412.5
431.624	410.5
431.846	418.5
432.068	426.5
432.29	416.5
432.512	435.5
432.734	442.5
432.956	440.5
433.178	439.5
433.4	457.5
433.622	443.5
433.844	403.5
434.066	429.5
434.287	422.5
434.509	439.5
434.731	451.5
434.953	436.5
435.175	470.5
435.397	500.5
435.618	490.5
435.84	540.5
436.062	635.5
436.284	698.5
436.505	589.5
436.727	530.5
436.949	489.5
437.17	475.5
437.392	473.5
437.614	483.5
437.835	522.5
438.057	626.5
438.278	719.5
438.5	712.5
438.721	766.5
438.943	746.5
439.165	598.5
439.386	536.5
439.608	541.5
439.829	528.5
440.05	556.5
440.272	601.5
440.493	563.5
440.715	526.5
440.936	477.5
441.158	485.5
441.379	487.5
441.6	472.5
441.822	508.5
442.043	551.5
442.264	636.5
442.486	672.5
442.707	554.5
442.928	540.5
443.149	523.5
443.371	542.5
443.592	583.5
443.813	673.5
444.034	736.5
444.255	594.5
444.476	526.5
444.698	517.5
444.919	502.5
445.14	607.5
445.361	535.5
445.582	557.5
445.803	612.5
446.024	693.5
446.245	717.5
446.466	681.5
446.687	575.5
446.908	522.5
447.129	492.5
447.35	460.5
447.571	474.5
447.792	467.5
448.013	470.5
448.234	474.5
448.455	529.5
448.675	629.5
448.896	780.5
449.117	638.5
449.338	602.5
449.559	715.5
449.779	792.5
450	645.5
450.221	562.5
450.442	484.5
450.662	453.5
450.883	466.5
451.104	487.5
451.324	486.5
451.545	465.5
451.766	440.5
451.986	446.5
452.207	418.5
452.428	422.5
452.648	431.5
452.869	438.5
453.089	409.5
453.31	463.5
453.53	435.5
453.751	428.5
453.971	443.5
454.192	465.5
454.412	441.5
454.633	432.5
454.853	400.5
455.073	419.5
455.294	440.5
455.514	534.5
455.734	518.5
455.955	423.5
456.175	406.5
456.395	397.5
456.616	397.5
456.836	383.5
457.056	392.5
457.276	385.5
457.497	392.5
457.717	384.5
457.937	382.5
458.157	405.5
458.377	405.5
458.598	436.5
458.818	489.5
459.038	584.5
459.258	590.5
459.478	498.5
459.698	427.5
459.918	446.5
460.138	424.5
460.358	434.5
460.578	418.5
460.798	442.5
461.018	444.5
461.238	417.5
461.458	411.5
461.678	415.5
461.898	420.5
462.118	418.5
462.338	425.5
462.558	417.5
462.777	446.5
462.997	443.5
463.217	436.5
463.437	447.5
463.657	449.5
463.876	448.5
464.096	441.5
464.316	447.5
464.536	436.5
464.755	432.5
464.975	470.5
465.195	506.5
465.414	601.5
465.634	525.5
465.854	488.5
466.073	463.5
466.293	468.5
466.512	434.5
466.732	426.5
466.951	428.5
467.171	403.5
467.391	437.5
467.61	438.5
467.829	448.5
468.049	452.5
468.268	421.5
468.488	414.5
468.707	411.5
468.927	412.5
469.146	407.5
469.365	418.5
469.585	400.5
469.804	414.5
470.023	441.5
470.243	417.5
470.462	420.5
470.681	464.5
470.901	438.5
471.12	438.5
471.339	428.5
471.558	429.5
471.777	424.5
471.997	430.5
472.216	450.5
472.435	474.5
472.654	464.5
472.873	441.5
473.092	411.5
473.311	424.5
473.53	435.5
473.749	455.5
473.968	480.5
474.187	588.5
474.406	636.5
474.625	484.5
474.844	431.5
475.063	424.5
475.282	431.5
475.501	447.5
475.72	459.5
475.939	448.5
476.158	448.5
476.377	444.5
476.596	435.5
476.814	446.5
477.033	465.5
477.252	454.5
477.471	461.5
477.69	456.5
477.908	458.5
478.127	464.5
478.346	472.5
478.564	483.5
478.783	473.5
479.002	466.5
479.22	479.5
479.439	495.5
479.658	518.5
479.876	511.5
480.095	513.5
480.313	546.5
480.532	539.5
480.751	521.5
480.969	551.5
481.188	586.5
481.406	650.5
481.624	560.5
481.843	513.5
482.061	522.5
482.28	521.5
482.498	514.5
482.717	502.5
482.935	507.5
483.153	517.5
483.372	520.5
483.59	494.5
483.808	522.5
484.027	513.5
484.245	508.5
484.463	503.5
484.681	499.5
484.9	515.5
485.118	513.5
485.336	515.5
485.554	515.5
485.772	499.5
485.99	516.5
486.209	526.5
486.427	518.5
486.645	539.5
486.863	576.5
487.081	570.5
487.299	550.5
487.517	548.5
487.735	548.5
487.953	566.5
488.171	544.5
488.389	548.5
488.607	532.5
488.825	546.5
489.043	539.5
489.261	567.5
489.479	559.5
489.696	569.5
489.914	572.5
490.132	573.5
490.35	575.5
490.568	599.5
490.786	600.5
491.003	598.5
491.221	613.5
491.439	616.5
491.657	615.5
491.874	622.5
492.092	624.5
492.31	632.5
492.527	637.5
492.745	616.5
492.963	648.5
493.18	654.5
493.398	653.5
493.615	650.5
493.833	673.5
494.05	662.5
494.268	633.5
494.485	663.5
494.703	661.5
494.92	655.5
495.138	650.5
495.355	646.5
495.573	660.5
495.79	650.5
496.008	658.5
496.225	662.5
496.442	699.5
496.66	664.5
496.877	650.5
497.094	674.5
497.312	678.5
497.529	672.5
497.746	677.5
497.963	690.5
498.181	698.5
498.398	681.5
498.615	702.5
498.832	706.5
499.049	698.5
499.267	710.5
499.484	724.5
499.701	758.5
499.918	778.5
500.135	779.5
500.352	780.5
500.569	786.5
500.786	784.5
501.003	798.5
501.22	785.5
501.437	774.5
501.654	774.5
501.871	778.5
502.088	760.5
502.305	743.5
502.522	720.5
502.739	700.5
502.956	687.5
503.172	668.5
503.389	688.5
503.606	689.5
503.823	669.5
504.04	671.5
504.256	670.5
504.473	650.5
504.69	651.5
504.907	648.5
505.123	656.5
505.34	642.5
505.557	657.5
505.773	630.5
505.99	638.5
506.207	647.5
506.423	624.5
506.64	644.5
506.856	627.5
507.073	629.5
507.289	608.5
507.506	618.5
507.722	621.5
507.939	676.5
508.155	647.5
508.372	648.5
508.588	605.5
508.805	610.5
509.021	619.5
509.238	631.5
509.454	638.5
509.67	628.5
509.887	631.5
510.103	620.5
510.319	636.5
510.536	734.5
510.752	1255.5
510.968	1046.5
511.184	640.5
511.401	634.5
511.617	604.5
511.833	590.5
512.049	600.5
512.265	591.5
512.481	580.5
512.698	568.5
512.914	579.5
513.13	570.5
513.346	588.5
513.562	599.5
513.778	621.5
513.994	619.5
514.21	635.5
514.426	644.5
514.642	701.5
514.858	718.5
515.074	767.5
515.29	952.5
515.506	1456.5
515.721	1186.5
515.937	738.5
516.153	658.5
516.369	633.5
516.585	632.5
516.801	604.5
517.016	602.5
517.232	602.5
517.448	607.5
517.664	586.5
517.879	570.5
518.095	581.5
518.311	560.5
518.527	574.5
518.742	582.5
518.958	570.5
519.173	591.5
519.389	607.5
519.605	572.5
519.82	608.5
