Data from 1980.PennyLincolnUp.Lamp.En5.5.200Scan.071819.P1_HRD10591_16-36-53-956.txt Node
Date: Thu Jul 18 16:36:53 EDT 2019
User: cochatt
Spectrometer: HR+D1059
Trigger mode: 1
Integration Time (sec): 1.000000E-1
Scans to average: 1
Electric dark correction enabled: true
Nonlinearity correction enabled: false
Boxcar width: 0
XAxis mode: Wavelengths
Number of Pixels in Spectrum: 2048
>>>>>Begin Spectral Data<<<<<
223.165	-4.75
223.4	-4.75
223.635	-4.75
223.869	-22.75
224.104	-27.75
224.338	-13.75
224.573	-18.75
224.808	-37.75
225.042	-10.75
225.277	-0.75
225.511	1.25
225.746	1.25
225.98	15.25
226.215	29.25
226.449	14.25
226.683	20.25
226.918	25.25
227.152	30.25
227.387	33.25
227.621	25.25
227.856	37.25
228.09	30.25
228.324	55.25
228.559	45.25
228.793	62.25
229.027	90.25
229.262	88.25
229.496	102.25
229.73	111.25
229.964	142.25
230.199	116.25
230.433	106.25
230.667	104.25
230.901	112.25
231.136	107.25
231.37	100.25
231.604	117.25
231.838	111.25
232.072	113.25
232.306	97.25
232.541	113.25
232.775	100.25
233.009	103.25
233.243	117.25
233.477	113.25
233.711	99.25
233.945	120.25
234.179	109.25
234.413	109.25
234.647	107.25
234.881	115.25
235.115	104.25
235.349	105.25
235.583	105.25
235.817	115.25
236.051	114.25
236.285	118.25
236.519	111.25
236.753	129.25
236.987	119.25
237.221	160.25
237.455	213.25
237.689	176.25
237.922	139.25
238.156	119.25
238.39	105.25
238.624	127.25
238.858	118.25
239.091	99.25
239.325	115.25
239.559	116.25
239.793	108.25
240.027	123.25
240.26	129.25
240.494	151.25
240.728	152.25
240.961	152.25
241.195	137.25
241.429	125.25
241.662	133.25
241.896	132.25
242.13	146.25
242.363	127.25
242.597	131.25
242.83	135.25
243.064	128.25
243.298	129.25
243.531	121.25
243.765	127.25
243.998	141.25
244.232	130.25
244.465	149.25
244.699	143.25
244.932	133.25
245.166	135.25
245.399	156.25
245.633	139.25
245.866	148.25
246.099	150.25
246.333	123.25
246.566	142.25
246.8	144.25
247.033	151.25
247.266	160.25
247.5	151.25
247.733	169.25
247.966	155.25
248.2	154.25
248.433	162.25
248.666	166.25
248.899	183.25
249.133	186.25
249.366	203.25
249.599	198.25
249.832	188.25
250.066	187.25
250.299	165.25
250.532	166.25
250.765	185.25
250.998	209.25
251.231	211.25
251.465	198.25
251.698	198.25
251.931	177.25
252.164	197.25
252.397	206.25
252.63	202.25
252.863	186.25
253.096	211.25
253.329	217.25
253.562	216.25
253.795	224.25
254.028	215.25
254.261	187.25
254.494	204.25
254.727	240.25
254.96	278.25
255.193	259.25
255.426	243.25
255.659	226.25
255.892	224.25
256.124	223.25
256.357	222.25
256.59	213.25
256.823	203.25
257.056	206.25
257.289	218.25
257.521	213.25
257.754	202.25
257.987	203.25
258.22	194.25
258.452	192.25
258.685	191.25
258.918	197.25
259.151	210.25
259.383	208.25
259.616	219.25
259.849	214.25
260.081	201.25
260.314	235.25
260.547	255.25
260.779	237.25
261.012	218.25
261.244	194.25
261.477	214.25
261.71	209.25
261.942	207.25
262.175	231.25
262.407	212.25
262.64	207.25
262.872	205.25
263.105	201.25
263.337	195.25
263.57	186.25
263.802	208.25
264.035	209.25
264.267	209.25
264.499	192.25
264.732	193.25
264.964	195.25
265.197	198.25
265.429	175.25
265.661	202.25
265.894	206.25
266.126	190.25
266.358	205.25
266.591	200.25
266.823	195.25
267.055	213.25
267.287	205.25
267.52	200.25
267.752	199.25
267.984	222.25
268.216	207.25
268.448	208.25
268.681	202.25
268.913	217.25
269.145	239.25
269.377	259.25
269.609	248.25
269.841	258.25
270.073	244.25
270.306	274.25
270.538	281.25
270.77	300.25
271.002	287.25
271.234	265.25
271.466	278.25
271.698	288.25
271.93	298.25
272.162	290.25
272.394	303.25
272.626	266.25
272.858	274.25
273.09	268.25
273.322	261.25
273.553	228.25
273.785	244.25
274.017	253.25
274.249	221.25
274.481	232.25
274.713	246.25
274.945	267.25
275.176	263.25
275.408	270.25
275.64	257.25
275.872	241.25
276.104	257.25
276.335	240.25
276.567	238.25
276.799	244.25
277.031	264.25
277.262	298.25
277.494	292.25
277.726	296.25
277.957	263.25
278.189	249.25
278.421	242.25
278.652	260.25
278.884	245.25
279.115	227.25
279.347	233.25
279.579	226.25
279.81	225.25
280.042	233.25
280.273	223.25
280.505	238.25
280.736	233.25
280.968	220.25
281.199	225.25
281.431	238.25
281.662	223.25
281.894	232.25
282.125	229.25
282.356	252.25
282.588	277.25
282.819	266.25
283.051	243.25
283.282	239.25
283.513	248.25
283.745	241.25
283.976	254.25
284.207	255.25
284.439	249.25
284.67	241.25
284.901	232.25
285.132	243.25
285.364	228.25
285.595	244.25
285.826	241.25
286.057	230.25
286.288	229.25
286.52	224.25
286.751	240.25
286.982	235.25
287.213	234.25
287.444	234.25
287.675	253.25
287.906	253.25
288.138	288.25
288.369	262.25
288.6	269.25
288.831	246.25
289.062	253.25
289.293	268.25
289.524	243.25
289.755	249.25
289.986	264.25
290.217	233.25
290.448	257.25
290.679	263.25
290.91	262.25
291.141	240.25
291.371	241.25
291.602	248.25
291.833	239.25
292.064	231.25
292.295	239.25
292.526	259.25
292.757	261.25
292.987	253.25
293.218	253.25
293.449	248.25
293.68	251.25
293.91	245.25
294.141	259.25
294.372	240.25
294.603	256.25
294.833	258.25
295.064	250.25
295.295	269.25
295.525	263.25
295.756	246.25
295.987	258.25
296.217	273.25
296.448	282.25
296.679	266.25
296.909	263.25
297.14	244.25
297.37	260.25
297.601	249.25
297.831	250.25
298.062	271.25
298.292	246.25
298.523	277.25
298.753	250.25
298.984	281.25
299.214	248.25
299.445	256.25
299.675	257.25
299.905	281.25
300.136	284.25
300.366	267.25
300.597	266.25
300.827	267.25
301.057	284.25
301.288	290.25
301.518	266.25
301.748	273.25
301.979	297.25
302.209	274.25
302.439	286.25
302.669	276.25
302.9	288.25
303.13	284.25
303.36	279.25
303.59	281.25
303.82	285.25
304.051	282.25
304.281	274.25
304.511	274.25
304.741	282.25
304.971	275.25
305.201	280.25
305.431	267.25
305.661	273.25
305.891	278.25
306.121	264.25
306.352	289.25
306.582	286.25
306.812	281.25
307.042	282.25
307.272	271.25
307.502	277.25
307.731	292.25
307.961	288.25
308.191	274.25
308.421	290.25
308.651	296.25
308.881	284.25
309.111	302.25
309.341	304.25
309.571	302.25
309.8	331.25
310.03	335.25
310.26	322.25
310.49	313.25
310.72	332.25
310.949	351.25
311.179	361.25
311.409	342.25
311.639	323.25
311.868	338.25
312.098	341.25
312.328	340.25
312.557	349.25
312.787	374.25
313.017	394.25
313.246	350.25
313.476	330.25
313.706	333.25
313.935	317.25
314.165	334.25
314.394	349.25
314.624	320.25
314.853	332.25
315.083	335.25
315.312	318.25
315.542	310.25
315.771	311.25
316.001	334.25
316.23	327.25
316.46	329.25
316.689	337.25
316.919	327.25
317.148	346.25
317.377	345.25
317.607	337.25
317.836	333.25
318.065	321.25
318.295	312.25
318.524	327.25
318.753	321.25
318.983	338.25
319.212	322.25
319.441	325.25
319.67	336.25
319.9	322.25
320.129	340.25
320.358	344.25
320.587	329.25
320.816	342.25
321.046	344.25
321.275	343.25
321.504	342.25
321.733	349.25
321.962	351.25
322.191	360.25
322.42	379.25
322.649	394.25
322.878	417.25
323.108	426.25
323.337	447.25
323.566	478.25
323.795	477.25
324.024	533.25
324.253	659.25
324.482	924.25
324.71	1455.25
324.939	2057.25
325.168	1817.25
325.397	1001.25
325.626	639.25
325.855	530.25
326.084	457.25
326.313	455.25
326.542	459.25
326.77	522.25
326.999	587.25
327.228	819.25
327.457	1271.25
327.686	1558.25
327.914	1070.25
328.143	712.25
328.372	605.25
328.6	553.25
328.829	518.25
329.058	543.25
329.287	577.25
329.515	512.25
329.744	458.25
329.972	458.25
330.201	475.25
330.43	522.25
330.658	531.25
330.887	589.25
331.115	559.25
331.344	483.25
331.572	423.25
331.801	444.25
332.03	429.25
332.258	424.25
332.486	381.25
332.715	400.25
332.943	386.25
333.172	397.25
333.4	390.25
333.629	394.25
333.857	414.25
334.085	425.25
334.314	453.25
334.542	461.25
334.771	469.25
334.999	423.25
335.227	392.25
335.455	381.25
335.684	388.25
335.912	387.25
336.14	362.25
336.369	368.25
336.597	385.25
336.825	382.25
337.053	381.25
337.281	369.25
337.51	383.25
337.738	387.25
337.966	372.25
338.194	375.25
338.422	381.25
338.65	346.25
338.878	359.25
339.106	377.25
339.334	359.25
339.562	363.25
339.79	370.25
340.018	371.25
340.246	344.25
340.474	377.25
340.702	379.25
340.93	370.25
341.158	377.25
341.386	375.25
341.614	367.25
341.842	367.25
342.07	355.25
342.298	352.25
342.526	360.25
342.754	356.25
342.981	351.25
343.209	377.25
343.437	360.25
343.665	360.25
343.893	360.25
344.12	352.25
344.348	352.25
344.576	371.25
344.804	380.25
345.031	381.25
345.259	378.25
345.487	377.25
345.714	375.25
345.942	360.25
346.17	359.25
346.397	352.25
346.625	367.25
346.853	346.25
347.08	351.25
347.308	356.25
347.535	372.25
347.763	371.25
347.99	371.25
348.218	379.25
348.445	392.25
348.673	382.25
348.9	363.25
349.128	365.25
349.355	339.25
349.583	339.25
349.81	344.25
350.037	346.25
350.265	341.25
350.492	347.25
350.72	348.25
350.947	340.25
351.174	372.25
351.402	374.25
351.629	377.25
351.856	372.25
352.083	371.25
352.311	354.25
352.538	375.25
352.765	373.25
352.992	393.25
353.22	359.25
353.447	360.25
353.674	363.25
353.901	327.25
354.128	326.25
354.355	332.25
354.583	331.25
354.81	345.25
355.037	320.25
355.264	315.25
355.491	324.25
355.718	320.25
355.945	317.25
356.172	352.25
356.399	321.25
356.626	326.25
356.853	352.25
357.08	326.25
357.307	310.25
357.534	336.25
357.761	331.25
357.988	320.25
358.215	329.25
358.441	326.25
358.668	323.25
358.895	331.25
359.122	346.25
359.349	336.25
359.576	343.25
359.802	380.25
360.029	426.25
360.256	421.25
360.483	403.25
360.709	377.25
360.936	349.25
361.163	330.25
361.39	369.25
361.616	373.25
361.843	342.25
362.07	355.25
362.296	346.25
362.523	355.25
362.749	350.25
362.976	361.25
363.203	336.25
363.429	350.25
363.656	331.25
363.882	341.25
364.109	330.25
364.335	339.25
364.562	326.25
364.788	351.25
365.015	358.25
365.241	336.25
365.468	347.25
365.694	336.25
365.92	361.25
366.147	342.25
366.373	342.25
366.599	352.25
366.826	344.25
367.052	317.25
367.278	349.25
367.505	341.25
367.731	350.25
367.957	335.25
368.184	346.25
368.41	340.25
368.636	346.25
368.862	353.25
369.089	354.25
369.315	342.25
369.541	326.25
369.767	330.25
369.993	346.25
370.219	345.25
370.445	340.25
370.672	352.25
370.898	329.25
371.124	320.25
371.35	341.25
371.576	338.25
371.802	329.25
372.028	327.25
372.254	334.25
372.48	336.25
372.706	320.25
372.932	333.25
373.158	327.25
373.384	344.25
373.61	345.25
373.835	327.25
374.061	324.25
374.287	321.25
374.513	339.25
374.739	334.25
374.965	333.25
375.191	321.25
375.416	326.25
375.642	334.25
375.868	345.25
376.094	330.25
376.319	327.25
376.545	332.25
376.771	352.25
376.997	309.25
377.222	327.25
377.448	341.25
377.674	341.25
377.899	355.25
378.125	322.25
378.35	331.25
378.576	335.25
378.802	338.25
379.027	315.25
379.253	319.25
379.478	320.25
379.704	325.25
379.929	344.25
380.155	328.25
380.38	351.25
380.606	313.25
380.831	324.25
381.057	348.25
381.282	332.25
381.507	341.25
381.733	328.25
381.958	345.25
382.184	342.25
382.409	334.25
382.634	333.25
382.86	340.25
383.085	345.25
383.31	326.25
383.535	344.25
383.761	340.25
383.986	332.25
384.211	345.25
384.436	330.25
384.662	338.25
384.887	352.25
385.112	345.25
385.337	361.25
385.562	355.25
385.787	335.25
386.013	367.25
386.238	371.25
386.463	325.25
386.688	355.25
386.913	337.25
387.138	339.25
387.363	385.25
387.588	362.25
387.813	358.25
388.038	374.25
388.263	362.25
388.488	341.25
388.713	357.25
388.938	342.25
389.163	356.25
389.387	356.25
389.612	337.25
389.837	351.25
390.062	328.25
390.287	337.25
390.512	326.25
390.736	357.25
390.961	336.25
391.186	340.25
391.411	342.25
391.636	349.25
391.86	343.25
392.085	382.25
392.31	369.25
392.534	350.25
392.759	344.25
392.984	374.25
393.208	367.25
393.433	337.25
393.658	359.25
393.882	349.25
394.107	326.25
394.331	365.25
394.556	346.25
394.78	351.25
395.005	358.25
395.229	361.25
395.454	358.25
395.678	366.25
395.903	359.25
396.127	370.25
396.352	392.25
396.576	362.25
396.801	371.25
397.025	371.25
397.249	362.25
397.474	371.25
397.698	375.25
397.922	374.25
398.147	396.25
398.371	411.25
398.595	392.25
398.82	389.25
399.044	399.25
399.268	408.25
399.492	425.25
399.717	419.25
399.941	479.25
400.165	467.25
400.389	469.25
400.613	451.25
400.837	432.25
401.062	421.25
401.286	397.25
401.51	388.25
401.734	399.25
401.958	431.25
402.182	411.25
402.406	429.25
402.63	415.25
402.854	419.25
403.078	421.25
403.302	411.25
403.526	415.25
403.75	417.25
403.974	409.25
404.198	406.25
404.422	421.25
404.645	441.25
404.869	432.25
405.093	455.25
405.317	482.25
405.541	493.25
405.765	476.25
405.988	456.25
406.212	460.25
406.436	465.25
406.66	494.25
406.883	465.25
407.107	481.25
407.331	483.25
407.555	554.25
407.778	582.25
408.002	544.25
408.226	476.25
408.449	478.25
408.673	486.25
408.896	481.25
409.12	501.25
409.344	493.25
409.567	446.25
409.791	423.25
410.014	418.25
410.238	421.25
410.461	430.25
410.685	424.25
410.908	450.25
411.132	483.25
411.355	490.25
411.578	476.25
411.802	426.25
412.025	402.25
412.249	412.25
412.472	457.25
412.695	473.25
412.919	472.25
413.142	417.25
413.365	411.25
413.589	405.25
413.812	396.25
414.035	377.25
414.258	394.25
414.482	394.25
414.705	422.25
414.928	389.25
415.151	385.25
415.374	396.25
415.597	393.25
415.821	392.25
416.044	417.25
416.267	404.25
416.49	401.25
416.713	374.25
416.936	375.25
417.159	395.25
417.382	401.25
417.605	407.25
417.828	426.25
418.051	415.25
418.274	409.25
418.497	381.25
418.72	395.25
418.943	409.25
419.166	412.25
419.389	445.25
419.611	437.25
419.834	431.25
420.057	440.25
420.28	435.25
420.503	418.25
420.726	413.25
420.948	443.25
421.171	484.25
421.394	518.25
421.617	449.25
421.839	424.25
422.062	445.25
422.285	449.25
422.507	494.25
422.73	580.25
422.953	535.25
423.175	447.25
423.398	439.25
423.621	430.25
423.843	450.25
424.066	478.25
424.288	461.25
424.511	508.25
424.733	514.25
424.956	602.25
425.178	553.25
425.401	572.25
425.623	590.25
425.846	493.25
426.068	480.25
426.291	436.25
426.513	465.25
426.735	495.25
426.958	529.25
427.18	593.25
427.402	720.25
427.625	755.25
427.847	700.25
428.069	608.25
428.292	540.25
428.514	511.25
428.736	465.25
428.958	461.25
429.181	450.25
429.403	424.25
429.625	450.25
429.847	477.25
430.069	535.25
430.292	520.25
430.514	445.25
430.736	431.25
430.958	426.25
431.18	401.25
431.402	399.25
431.624	401.25
431.846	395.25
432.068	401.25
432.29	427.25
432.512	413.25
432.734	429.25
432.956	410.25
433.178	425.25
433.4	446.25
433.622	402.25
433.844	421.25
434.066	401.25
434.287	432.25
434.509	389.25
434.731	411.25
434.953	419.25
435.175	454.25
435.397	455.25
435.618	467.25
435.84	512.25
436.062	601.25
436.284	646.25
436.505	552.25
436.727	481.25
436.949	457.25
437.17	455.25
437.392	450.25
437.614	457.25
437.835	469.25
438.057	609.25
438.278	662.25
438.5	668.25
438.721	712.25
438.943	680.25
439.165	561.25
439.386	516.25
439.608	502.25
439.829	494.25
440.05	530.25
440.272	535.25
440.493	534.25
440.715	486.25
440.936	447.25
441.158	446.25
441.379	442.25
441.6	457.25
441.822	487.25
442.043	499.25
442.264	565.25
442.486	631.25
442.707	511.25
442.928	503.25
443.149	500.25
443.371	494.25
443.592	537.25
443.813	610.25
444.034	671.25
444.255	581.25
444.476	512.25
444.698	472.25
444.919	465.25
445.14	557.25
445.361	515.25
445.582	493.25
445.803	572.25
446.024	664.25
446.245	657.25
446.466	617.25
446.687	522.25
446.908	468.25
447.129	437.25
447.35	446.25
447.571	451.25
447.792	433.25
448.013	446.25
448.234	469.25
448.455	509.25
448.675	610.25
448.896	719.25
449.117	597.25
449.338	552.25
449.559	621.25
449.779	715.25
450	597.25
450.221	503.25
450.442	458.25
450.662	425.25
450.883	452.25
451.104	450.25
451.324	468.25
451.545	440.25
451.766	439.25
451.986	390.25
452.207	389.25
452.428	411.25
452.648	389.25
452.869	408.25
453.089	393.25
453.31	419.25
453.53	408.25
453.751	413.25
453.971	405.25
454.192	424.25
454.412	426.25
454.633	396.25
454.853	401.25
455.073	398.25
455.294	437.25
455.514	465.25
455.734	487.25
455.955	424.25
456.175	373.25
456.395	377.25
456.616	372.25
456.836	352.25
457.056	367.25
457.276	350.25
457.497	369.25
457.717	379.25
457.937	362.25
458.157	361.25
458.377	369.25
458.598	393.25
458.818	466.25
459.038	566.25
459.258	556.25
459.478	453.25
459.698	398.25
459.918	389.25
460.138	403.25
460.358	421.25
460.578	422.25
460.798	391.25
461.018	402.25
461.238	374.25
461.458	397.25
461.678	397.25
461.898	377.25
462.118	407.25
462.338	399.25
462.558	414.25
462.777	430.25
462.997	413.25
463.217	408.25
463.437	433.25
463.657	408.25
463.876	416.25
464.096	409.25
464.316	404.25
464.536	448.25
464.755	441.25
464.975	431.25
465.195	490.25
465.414	604.25
465.634	512.25
465.854	462.25
466.073	442.25
466.293	422.25
466.512	410.25
466.732	407.25
466.951	381.25
467.171	402.25
467.391	405.25
467.61	417.25
467.829	412.25
468.049	424.25
468.268	426.25
468.488	422.25
468.707	379.25
468.927	396.25
469.146	381.25
469.365	373.25
469.585	350.25
469.804	383.25
470.023	420.25
470.243	425.25
470.462	414.25
470.681	429.25
470.901	419.25
471.12	402.25
471.339	393.25
471.558	415.25
471.777	407.25
471.997	410.25
472.216	414.25
472.435	442.25
472.654	412.25
472.873	417.25
473.092	385.25
473.311	394.25
473.53	399.25
473.749	419.25
473.968	472.25
474.187	545.25
474.406	585.25
474.625	465.25
474.844	424.25
475.063	424.25
475.282	394.25
475.501	417.25
475.72	406.25
475.939	425.25
476.158	419.25
476.377	407.25
476.596	411.25
476.814	423.25
477.033	429.25
477.252	437.25
477.471	435.25
477.69	440.25
477.908	429.25
478.127	425.25
478.346	441.25
478.564	451.25
478.783	417.25
479.002	461.25
479.22	469.25
479.439	472.25
479.658	486.25
479.876	472.25
480.095	475.25
480.313	513.25
480.532	498.25
480.751	506.25
480.969	480.25
481.188	565.25
481.406	581.25
481.624	530.25
481.843	512.25
482.061	489.25
482.28	486.25
482.498	500.25
482.717	471.25
482.935	458.25
483.153	462.25
483.372	467.25
483.59	484.25
483.808	466.25
484.027	499.25
484.245	457.25
484.463	479.25
484.681	481.25
484.9	458.25
485.118	487.25
485.336	474.25
485.554	472.25
485.772	493.25
485.99	500.25
486.209	481.25
486.427	509.25
486.645	500.25
486.863	509.25
487.081	525.25
487.299	518.25
487.517	515.25
487.735	505.25
487.953	521.25
488.171	525.25
488.389	527.25
488.607	527.25
488.825	530.25
489.043	517.25
489.261	503.25
489.479	529.25
489.696	535.25
489.914	512.25
490.132	525.25
490.35	557.25
490.568	535.25
490.786	537.25
491.003	570.25
491.221	575.25
491.439	587.25
491.657	597.25
491.874	584.25
492.092	582.25
492.31	591.25
492.527	599.25
492.745	602.25
492.963	625.25
493.18	614.25
493.398	623.25
493.615	626.25
493.833	604.25
494.05	609.25
494.268	580.25
494.485	617.25
494.703	615.25
494.92	622.25
495.138	631.25
495.355	628.25
495.573	626.25
495.79	652.25
496.008	623.25
496.225	627.25
496.442	618.25
496.66	625.25
496.877	603.25
497.094	622.25
497.312	620.25
497.529	627.25
497.746	633.25
497.963	655.25
498.181	655.25
498.398	653.25
498.615	672.25
498.832	682.25
499.049	662.25
499.267	676.25
499.484	694.25
499.701	704.25
499.918	716.25
500.135	761.25
500.352	756.25
500.569	754.25
500.786	763.25
501.003	768.25
501.22	759.25
501.437	745.25
501.654	727.25
501.871	740.25
502.088	730.25
