Data from 1980.PennyLincolnUp.Lamp.En5.5.200Scan.071819.P1_HRD10591_16-37-10-957.txt Node
Date: Thu Jul 18 16:37:10 EDT 2019
User: cochatt
Spectrometer: HR+D1059
Trigger mode: 1
Integration Time (sec): 1.000000E-1
Scans to average: 1
Electric dark correction enabled: true
Nonlinearity correction enabled: false
Boxcar width: 0
XAxis mode: Wavelengths
Number of Pixels in Spectrum: 2048
>>>>>Begin Spectral Data<<<<<
223.165	-10.69
223.4	-10.69
223.635	-10.69
223.869	-13.69
224.104	-19.69
224.338	-16.69
224.573	0.31
224.808	-9.69
225.042	-19.69
225.277	-9.69
225.511	-6.69
225.746	16.31
225.98	20.31
226.215	12.31
226.449	4.31
226.683	14.31
226.918	11.31
227.152	27.31
227.387	26.31
227.621	27.31
227.856	32.31
228.09	37.31
228.324	45.31
228.559	58.31
228.793	67.31
229.027	90.31
229.262	110.31
229.496	105.31
229.73	143.31
229.964	151.31
230.199	145.31
230.433	96.31
230.667	131.31
230.901	111.31
231.136	101.31
231.37	102.31
231.604	105.31
231.838	105.31
232.072	105.31
232.306	123.31
232.541	102.31
232.775	109.31
233.009	113.31
233.243	118.31
233.477	116.31
233.711	102.31
233.945	113.31
234.179	127.31
234.413	119.31
234.647	122.31
234.881	130.31
235.115	120.31
235.349	117.31
235.583	116.31
235.817	122.31
236.051	120.31
236.285	119.31
236.519	127.31
236.753	138.31
236.987	147.31
237.221	169.31
237.455	232.31
237.689	185.31
237.922	141.31
238.156	132.31
238.39	124.31
238.624	118.31
238.858	120.31
239.091	127.31
239.325	133.31
239.559	123.31
239.793	123.31
240.027	151.31
240.26	146.31
240.494	156.31
240.728	163.31
240.961	140.31
241.195	133.31
241.429	147.31
241.662	126.31
241.896	119.31
242.13	135.31
242.363	123.31
242.597	134.31
242.83	144.31
243.064	129.31
243.298	138.31
243.531	133.31
243.765	135.31
243.998	147.31
244.232	139.31
244.465	141.31
244.699	142.31
244.932	141.31
245.166	135.31
245.399	135.31
245.633	135.31
245.866	141.31
246.099	152.31
246.333	132.31
246.566	145.31
246.8	141.31
247.033	141.31
247.266	145.31
247.5	167.31
247.733	150.31
247.966	151.31
248.2	169.31
248.433	161.31
248.666	177.31
248.899	194.31
249.133	200.31
249.366	214.31
249.599	201.31
249.832	196.31
250.066	178.31
250.299	185.31
250.532	180.31
250.765	210.31
250.998	218.31
251.231	229.31
251.465	206.31
251.698	209.31
251.931	197.31
252.164	204.31
252.397	181.31
252.63	202.31
252.863	206.31
253.096	196.31
253.329	224.31
253.562	219.31
253.795	228.31
254.028	221.31
254.261	218.31
254.494	236.31
254.727	248.31
254.96	279.31
255.193	292.31
255.426	263.31
255.659	234.31
255.892	240.31
256.124	247.31
256.357	236.31
256.59	226.31
256.823	224.31
257.056	205.31
257.289	201.31
257.521	200.31
257.754	200.31
257.987	193.31
258.22	201.31
258.452	209.31
258.685	208.31
258.918	210.31
259.151	212.31
259.383	205.31
259.616	219.31
259.849	240.31
260.081	234.31
260.314	253.31
260.547	242.31
260.779	240.31
261.012	232.31
261.244	223.31
261.477	215.31
261.71	209.31
261.942	233.31
262.175	230.31
262.407	219.31
262.64	235.31
262.872	217.31
263.105	202.31
263.337	203.31
263.57	198.31
263.802	191.31
264.035	199.31
264.267	212.31
264.499	203.31
264.732	195.31
264.964	216.31
265.197	206.31
265.429	208.31
265.661	200.31
265.894	205.31
266.126	192.31
266.358	203.31
266.591	201.31
266.823	209.31
267.055	211.31
267.287	226.31
267.52	193.31
267.752	219.31
267.984	215.31
268.216	215.31
268.448	213.31
268.681	218.31
268.913	241.31
269.145	257.31
269.377	267.31
269.609	255.31
269.841	259.31
270.073	272.31
270.306	272.31
270.538	295.31
270.77	323.31
271.002	324.31
271.234	299.31
271.466	299.31
271.698	304.31
271.93	305.31
272.162	311.31
272.394	322.31
272.626	307.31
272.858	287.31
273.09	271.31
273.322	278.31
273.553	258.31
273.785	255.31
274.017	257.31
274.249	249.31
274.481	242.31
274.713	264.31
274.945	269.31
275.176	261.31
275.408	248.31
275.64	248.31
275.872	239.31
276.104	246.31
276.335	241.31
276.567	245.31
276.799	278.31
277.031	271.31
277.262	291.31
277.494	326.31
277.726	284.31
277.957	277.31
278.189	266.31
278.421	261.31
278.652	260.31
278.884	255.31
279.115	266.31
279.347	256.31
279.579	242.31
279.81	256.31
280.042	246.31
280.273	247.31
280.505	240.31
280.736	255.31
280.968	253.31
281.199	238.31
281.431	256.31
281.662	242.31
281.894	243.31
282.125	237.31
282.356	261.31
282.588	280.31
282.819	284.31
283.051	272.31
283.282	244.31
283.513	244.31
283.745	248.31
283.976	256.31
284.207	252.31
284.439	247.31
284.67	265.31
284.901	249.31
285.132	264.31
285.364	274.31
285.595	250.31
285.826	280.31
286.057	241.31
286.288	264.31
286.52	254.31
286.751	260.31
286.982	256.31
287.213	260.31
287.444	247.31
287.675	275.31
287.906	263.31
288.138	274.31
288.369	266.31
288.6	260.31
288.831	255.31
289.062	254.31
289.293	272.31
289.524	263.31
289.755	266.31
289.986	255.31
290.217	259.31
290.448	248.31
290.679	262.31
290.91	241.31
291.141	261.31
291.371	246.31
291.602	255.31
291.833	244.31
292.064	263.31
292.295	257.31
292.526	253.31
292.757	251.31
292.987	274.31
293.218	257.31
293.449	250.31
293.68	271.31
293.91	266.31
294.141	237.31
294.372	257.31
294.603	260.31
294.833	261.31
295.064	257.31
295.295	250.31
295.525	264.31
295.756	281.31
295.987	279.31
296.217	308.31
296.448	303.31
296.679	277.31
296.909	287.31
297.14	277.31
297.37	280.31
297.601	274.31
297.831	263.31
298.062	284.31
298.292	252.31
298.523	266.31
298.753	264.31
298.984	274.31
299.214	285.31
299.445	277.31
299.675	275.31
299.905	294.31
300.136	299.31
300.366	277.31
300.597	282.31
300.827	296.31
301.057	285.31
301.288	304.31
301.518	303.31
301.748	287.31
301.979	293.31
302.209	291.31
302.439	292.31
302.669	297.31
302.9	311.31
303.13	280.31
303.36	315.31
303.59	290.31
303.82	299.31
304.051	315.31
304.281	297.31
304.511	288.31
304.741	284.31
304.971	285.31
305.201	297.31
305.431	305.31
305.661	295.31
305.891	289.31
306.121	296.31
306.352	286.31
306.582	305.31
306.812	295.31
307.042	275.31
307.272	300.31
307.502	276.31
307.731	312.31
307.961	290.31
308.191	289.31
308.421	296.31
308.651	290.31
308.881	295.31
309.111	301.31
309.341	313.31
309.571	333.31
309.8	329.31
310.03	349.31
310.26	338.31
310.49	371.31
310.72	354.31
310.949	375.31
311.179	378.31
311.409	356.31
311.639	351.31
311.868	351.31
312.098	332.31
312.328	358.31
312.557	371.31
312.787	376.31
313.017	380.31
313.246	372.31
313.476	358.31
313.706	336.31
313.935	352.31
314.165	374.31
314.394	368.31
314.624	377.31
314.853	361.31
315.083	361.31
315.312	341.31
315.542	334.31
315.771	329.31
316.001	342.31
316.23	332.31
316.46	345.31
316.689	329.31
316.919	354.31
317.148	351.31
317.377	367.31
317.607	375.31
317.836	367.31
318.065	348.31
318.295	327.31
318.524	322.31
318.753	330.31
318.983	351.31
319.212	347.31
319.441	352.31
319.67	370.31
319.9	342.31
320.129	347.31
320.358	336.31
320.587	354.31
320.816	365.31
321.046	372.31
321.275	384.31
321.504	370.31
321.733	379.31
321.962	370.31
322.191	388.31
322.42	412.31
322.649	422.31
322.878	437.31
323.108	447.31
323.337	472.31
323.566	494.31
323.795	531.31
324.024	588.31
324.253	688.31
324.482	977.31
324.71	1527.31
324.939	2196.31
325.168	1971.31
325.397	1057.31
325.626	696.31
325.855	555.31
326.084	523.31
326.313	499.31
326.542	517.31
326.77	541.31
326.999	643.31
327.228	891.31
327.457	1361.31
327.686	1692.31
327.914	1179.31
328.143	779.31
328.372	628.31
328.6	572.31
328.829	560.31
329.058	599.31
329.287	610.31
329.515	556.31
329.744	489.31
329.972	490.31
330.201	503.31
330.43	541.31
330.658	573.31
330.887	604.31
331.115	592.31
331.344	514.31
331.572	481.31
331.801	488.31
332.03	468.31
332.258	443.31
332.486	428.31
332.715	420.31
332.943	418.31
333.172	411.31
333.4	415.31
333.629	396.31
333.857	421.31
334.085	431.31
334.314	459.31
334.542	463.31
334.771	500.31
334.999	471.31
335.227	427.31
335.455	414.31
335.684	411.31
335.912	408.31
336.14	380.31
336.369	395.31
336.597	382.31
336.825	416.31
337.053	403.31
337.281	377.31
337.51	393.31
337.738	395.31
337.966	398.31
338.194	396.31
338.422	412.31
338.65	388.31
338.878	371.31
339.106	382.31
339.334	379.31
339.562	380.31
339.79	381.31
340.018	388.31
340.246	392.31
340.474	384.31
340.702	369.31
340.93	380.31
341.158	371.31
341.386	385.31
341.614	395.31
341.842	381.31
342.07	369.31
342.298	382.31
342.526	372.31
342.754	375.31
342.981	364.31
343.209	353.31
343.437	359.31
343.665	361.31
343.893	379.31
344.12	373.31
344.348	365.31
344.576	367.31
344.804	388.31
345.031	400.31
345.259	401.31
345.487	400.31
345.714	360.31
345.942	377.31
346.17	377.31
346.397	378.31
346.625	375.31
346.853	370.31
347.08	362.31
347.308	385.31
347.535	378.31
347.763	372.31
347.99	397.31
348.218	372.31
348.445	384.31
348.673	400.31
348.9	386.31
349.128	371.31
349.355	357.31
349.583	346.31
349.81	342.31
350.037	375.31
350.265	349.31
350.492	368.31
350.72	366.31
350.947	384.31
351.174	389.31
351.402	392.31
351.629	375.31
351.856	381.31
352.083	403.31
352.311	393.31
352.538	385.31
352.765	417.31
352.992	387.31
353.22	392.31
353.447	383.31
353.674	355.31
353.901	358.31
354.128	354.31
354.355	343.31
354.583	351.31
354.81	350.31
355.037	361.31
355.264	324.31
355.491	332.31
355.718	341.31
355.945	341.31
356.172	346.31
356.399	316.31
356.626	330.31
356.853	357.31
357.08	351.31
357.307	345.31
357.534	343.31
357.761	338.31
357.988	363.31
358.215	376.31
358.441	335.31
358.668	356.31
358.895	360.31
359.122	355.31
359.349	367.31
359.576	387.31
359.802	422.31
360.029	424.31
360.256	462.31
360.483	427.31
360.709	387.31
360.936	376.31
361.163	375.31
361.39	389.31
361.616	396.31
361.843	369.31
362.07	383.31
362.296	393.31
362.523	372.31
362.749	369.31
362.976	356.31
363.203	391.31
363.429	369.31
363.656	365.31
363.882	352.31
364.109	369.31
364.335	328.31
364.562	353.31
364.788	371.31
365.015	375.31
365.241	354.31
365.468	355.31
365.694	356.31
365.92	377.31
366.147	375.31
366.373	345.31
366.599	345.31
366.826	334.31
367.052	341.31
367.278	347.31
367.505	341.31
367.731	329.31
367.957	352.31
368.184	358.31
368.41	370.31
368.636	378.31
368.862	370.31
369.089	348.31
369.315	343.31
369.541	344.31
369.767	337.31
369.993	347.31
370.219	348.31
370.445	345.31
370.672	341.31
370.898	329.31
371.124	321.31
371.35	326.31
371.576	359.31
371.802	342.31
372.028	340.31
372.254	356.31
372.48	365.31
372.706	369.31
372.932	316.31
373.158	333.31
373.384	344.31
373.61	356.31
373.835	346.31
374.061	352.31
374.287	350.31
374.513	351.31
374.739	348.31
374.965	350.31
375.191	341.31
375.416	355.31
375.642	356.31
375.868	356.31
376.094	350.31
376.319	336.31
376.545	367.31
376.771	355.31
376.997	319.31
377.222	336.31
377.448	353.31
377.674	345.31
377.899	346.31
378.125	342.31
378.35	350.31
378.576	337.31
378.802	349.31
379.027	347.31
379.253	349.31
379.478	332.31
379.704	343.31
379.929	335.31
380.155	351.31
380.38	353.31
380.606	351.31
380.831	339.31
381.057	363.31
381.282	342.31
381.507	357.31
381.733	361.31
381.958	337.31
382.184	337.31
382.409	347.31
382.634	349.31
382.86	351.31
383.085	364.31
383.31	361.31
383.535	365.31
383.761	339.31
383.986	356.31
384.211	351.31
384.436	354.31
384.662	362.31
384.887	378.31
385.112	367.31
385.337	377.31
385.562	367.31
385.787	350.31
386.013	373.31
386.238	377.31
386.463	372.31
386.688	361.31
386.913	362.31
387.138	361.31
387.363	369.31
387.588	361.31
387.813	358.31
388.038	376.31
388.263	353.31
388.488	352.31
388.713	369.31
388.938	372.31
389.163	379.31
389.387	392.31
389.612	373.31
389.837	380.31
390.062	367.31
390.287	365.31
390.512	371.31
390.736	357.31
390.961	369.31
391.186	368.31
391.411	367.31
391.636	375.31
391.86	380.31
392.085	379.31
392.31	369.31
392.534	374.31
392.759	363.31
392.984	377.31
393.208	401.31
393.433	376.31
393.658	362.31
393.882	361.31
394.107	365.31
394.331	381.31
394.556	392.31
394.78	356.31
395.005	355.31
395.229	354.31
395.454	388.31
395.678	381.31
395.903	387.31
396.127	411.31
396.352	421.31
396.576	390.31
396.801	374.31
397.025	392.31
397.249	375.31
397.474	368.31
397.698	407.31
397.922	404.31
398.147	418.31
398.371	412.31
398.595	409.31
398.82	399.31
399.044	423.31
399.268	404.31
399.492	433.31
399.717	430.31
399.941	472.31
400.165	499.31
400.389	510.31
400.613	468.31
400.837	443.31
401.062	428.31
401.286	415.31
401.51	393.31
401.734	421.31
401.958	411.31
402.182	433.31
402.406	445.31
402.63	433.31
402.854	459.31
403.078	425.31
403.302	435.31
403.526	447.31
403.75	435.31
403.974	429.31
404.198	428.31
404.422	432.31
404.645	435.31
404.869	443.31
405.093	484.31
405.317	521.31
405.541	532.31
405.765	498.31
405.988	479.31
406.212	468.31
406.436	474.31
406.66	524.31
406.883	470.31
407.107	511.31
407.331	543.31
407.555	563.31
407.778	585.31
408.002	539.31
408.226	482.31
408.449	490.31
408.673	488.31
408.896	492.31
409.12	552.31
409.344	509.31
409.567	472.31
409.791	451.31
410.014	456.31
410.238	441.31
410.461	439.31
410.685	459.31
410.908	461.31
411.132	490.31
411.355	507.31
411.578	484.31
411.802	455.31
412.025	444.31
412.249	449.31
412.472	452.31
412.695	502.31
412.919	496.31
413.142	451.31
413.365	434.31
413.589	424.31
413.812	403.31
414.035	412.31
414.258	406.31
414.482	408.31
414.705	406.31
414.928	420.31
415.151	396.31
415.374	400.31
415.597	417.31
415.821	400.31
416.044	420.31
416.267	436.31
416.49	428.31
416.713	420.31
416.936	416.31
417.159	431.31
417.382	419.31
417.605	413.31
417.828	440.31
418.051	435.31
418.274	428.31
418.497	407.31
418.72	425.31
418.943	415.31
419.166	437.31
419.389	432.31
419.611	450.31
419.834	436.31
420.057	423.31
420.28	428.31
420.503	442.31
420.726	457.31
420.948	475.31
421.171	498.31
421.394	516.31
421.617	466.31
421.839	420.31
422.062	433.31
422.285	464.31
422.507	499.31
422.73	575.31
422.953	576.31
423.175	484.31
423.398	448.31
423.621	447.31
423.843	488.31
424.066	484.31
424.288	471.31
424.511	503.31
424.733	552.31
424.956	639.31
425.178	608.31
425.401	587.31
425.623	626.31
425.846	540.31
426.068	491.31
426.291	488.31
426.513	491.31
426.735	514.31
426.958	531.31
427.18	617.31
427.402	723.31
427.625	799.31
427.847	748.31
428.069	614.31
428.292	550.31
428.514	507.31
428.736	482.31
428.958	462.31
429.181	449.31
429.403	460.31
429.625	458.31
429.847	487.31
430.069	576.31
430.292	547.31
430.514	487.31
430.736	445.31
430.958	454.31
431.18	436.31
431.402	443.31
431.624	424.31
431.846	407.31
432.068	396.31
432.29	409.31
432.512	431.31
432.734	435.31
432.956	435.31
433.178	423.31
433.4	455.31
433.622	427.31
433.844	415.31
434.066	427.31
434.287	401.31
434.509	426.31
434.731	434.31
434.953	427.31
435.175	452.31
435.397	467.31
435.618	497.31
435.84	547.31
436.062	616.31
436.284	649.31
436.505	559.31
436.727	508.31
436.949	471.31
437.17	481.31
437.392	440.31
437.614	462.31
437.835	519.31
438.057	616.31
438.278	691.31
438.5	703.31
438.721	748.31
438.943	698.31
439.165	573.31
439.386	524.31
439.608	502.31
439.829	507.31
440.05	550.31
440.272	591.31
440.493	543.31
440.715	503.31
440.936	464.31
441.158	460.31
441.379	455.31
441.6	463.31
441.822	475.31
442.043	541.31
442.264	593.31
442.486	655.31
442.707	535.31
442.928	511.31
443.149	537.31
443.371	545.31
443.592	575.31
443.813	651.31
444.034	707.31
444.255	586.31
444.476	522.31
444.698	492.31
444.919	485.31
445.14	570.31
445.361	539.31
445.582	525.31
445.803	613.31
446.024	694.31
446.245	709.31
446.466	633.31
446.687	556.31
446.908	508.31
447.129	465.31
447.35	461.31
447.571	453.31
447.792	465.31
448.013	471.31
448.234	477.31
448.455	550.31
448.675	642.31
448.896	745.31
449.117	619.31
449.338	589.31
449.559	685.31
449.779	788.31
450	628.31
450.221	521.31
450.442	490.31
450.662	476.31
450.883	471.31
451.104	488.31
451.324	463.31
451.545	465.31
451.766	433.31
451.986	434.31
452.207	427.31
452.428	413.31
452.648	424.31
452.869	407.31
453.089	424.31
453.31	449.31
453.53	412.31
453.751	417.31
453.971	424.31
454.192	461.31
454.412	448.31
454.633	425.31
454.853	423.31
455.073	384.31
455.294	441.31
455.514	501.31
455.734	502.31
455.955	428.31
456.175	389.31
456.395	396.31
456.616	389.31
456.836	385.31
457.056	376.31
457.276	375.31
457.497	385.31
457.717	395.31
457.937	395.31
458.157	390.31
458.377	393.31
458.598	432.31
458.818	479.31
459.038	559.31
459.258	563.31
459.478	479.31
459.698	439.31
459.918	445.31
460.138	426.31
460.358	398.31
460.578	412.31
460.798	428.31
461.018	398.31
461.238	405.31
461.458	421.31
461.678	412.31
461.898	411.31
462.118	412.31
462.338	416.31
462.558	400.31
462.777	415.31
462.997	427.31
463.217	460.31
463.437	444.31
463.657	429.31
463.876	462.31
464.096	424.31
464.316	410.31
464.536	459.31
464.755	472.31
464.975	437.31
465.195	482.31
465.414	616.31
465.634	539.31
465.854	484.31
466.073	447.31
466.293	424.31
466.512	413.31
466.732	404.31
466.951	413.31
467.171	421.31
467.391	406.31
467.61	423.31
467.829	428.31
468.049	417.31
468.268	432.31
468.488	433.31
468.707	419.31
468.927	392.31
469.146	408.31
469.365	410.31
469.585	392.31
469.804	410.31
470.023	425.31
470.243	415.31
470.462	419.31
470.681	434.31
470.901	455.31
471.12	445.31
471.339	434.31
471.558	437.31
471.777	437.31
471.997	411.31
472.216	425.31
472.435	462.31
472.654	448.31
472.873	427.31
473.092	421.31
473.311	424.31
473.53	405.31
473.749	414.31
473.968	473.31
474.187	571.31
474.406	587.31
474.625	495.31
474.844	437.31
475.063	427.31
475.282	420.31
475.501	424.31
475.72	433.31
475.939	441.31
476.158	425.31
476.377	441.31
476.596	420.31
476.814	428.31
477.033	461.31
477.252	452.31
477.471	442.31
477.69	453.31
477.908	488.31
478.127	464.31
478.346	472.31
478.564	474.31
478.783	457.31
479.002	441.31
479.22	480.31
479.439	480.31
479.658	505.31
479.876	524.31
480.095	498.31
480.313	545.31
480.532	508.31
480.751	500.31
480.969	513.31
481.188	564.31
481.406	624.31
481.624	545.31
481.843	532.31
482.061	531.31
482.28	511.31
482.498	497.31
482.717	487.31
482.935	522.31
483.153	496.31
483.372	468.31
483.59	500.31
483.808	475.31
484.027	486.31
484.245	502.31
484.463	514.31
484.681	484.31
484.9	497.31
485.118	502.31
485.336	501.31
485.554	496.31
485.772	504.31
485.99	514.31
486.209	519.31
486.427	499.31
486.645	525.31
486.863	565.31
487.081	567.31
487.299	557.31
487.517	549.31
487.735	522.31
487.953	536.31
488.171	551.31
488.389	526.31
488.607	538.31
488.825	559.31
489.043	531.31
489.261	540.31
489.479	531.31
489.696	549.31
489.914	554.31
490.132	570.31
490.35	553.31
490.568	581.31
490.786	571.31
491.003	596.31
491.221	621.31
491.439	581.31
491.657	609.31
491.874	649.31
492.092	633.31
492.31	631.31
492.527	621.31
492.745	613.31
492.963	632.31
493.18	638.31
493.398	660.31
493.615	648.31
493.833	628.31
494.05	651.31
494.268	631.31
494.485	647.31
494.703	643.31
494.92	655.31
495.138	664.31
495.355	666.31
495.573	658.31
495.79	646.31
496.008	659.31
496.225	641.31
496.442	646.31
496.66	649.31
496.877	649.31
497.094	650.31
497.312	658.31
497.529	651.31
497.746	653.31
497.963	677.31
498.181	687.31
498.398	687.31
498.615	687.31
498.832	693.31
499.049	706.31
499.267	720.31
499.484	725.31
499.701	740.31
499.918	745.31
500.135	743.31
500.352	765.31
500.569	761.31
500.786	791.31
501.003	740.31
501.22	799.31
501.437	768.31
501.654	778.31
501.871	792.31
