Data from 1980.PennyLincolnUp.Lamp.En5.5.200Scan.071819.P1_HRD10591_16-37-32-957.txt Node
Date: Thu Jul 18 16:37:32 EDT 2019
User: cochatt
Spectrometer: HR+D1059
Trigger mode: 1
Integration Time (sec): 1.000000E-1
Scans to average: 1
Electric dark correction enabled: true
Nonlinearity correction enabled: false
Boxcar width: 0
XAxis mode: Wavelengths
Number of Pixels in Spectrum: 2048
>>>>>Begin Spectral Data<<<<<
223.165	-13.12
223.4	-13.12
223.635	-13.12
223.869	-11.12
224.104	-0.12
224.338	-33.12
224.573	-14.12
224.808	-18.12
225.042	-6.12
225.277	-11.12
225.511	-2.12
225.746	2.88
225.98	7.88
226.215	14.88
226.449	24.88
226.683	12.88
226.918	26.88
227.152	18.88
227.387	37.88
227.621	43.88
227.856	36.88
228.09	48.88
228.324	46.88
228.559	58.88
228.793	72.88
229.027	108.88
229.262	128.88
229.496	120.88
229.73	134.88
229.964	155.88
230.199	129.88
230.433	122.88
230.667	129.88
230.901	108.88
231.136	109.88
231.37	110.88
231.604	119.88
231.838	110.88
232.072	105.88
232.306	111.88
232.541	116.88
232.775	100.88
233.009	109.88
233.243	108.88
233.477	108.88
233.711	118.88
233.945	101.88
234.179	124.88
234.413	110.88
234.647	119.88
234.881	131.88
235.115	124.88
235.349	103.88
235.583	112.88
235.817	117.88
236.051	125.88
236.285	125.88
236.519	117.88
236.753	127.88
236.987	161.88
237.221	179.88
237.455	237.88
237.689	185.88
237.922	153.88
238.156	138.88
238.39	138.88
238.624	124.88
238.858	127.88
239.091	137.88
239.325	129.88
239.559	123.88
239.793	135.88
240.027	124.88
240.26	141.88
240.494	165.88
240.728	165.88
240.961	145.88
241.195	163.88
241.429	140.88
241.662	127.88
241.896	133.88
242.13	126.88
242.363	132.88
242.597	140.88
242.83	137.88
243.064	140.88
243.298	125.88
243.531	138.88
243.765	141.88
243.998	135.88
244.232	134.88
244.465	143.88
244.699	135.88
244.932	157.88
245.166	157.88
245.399	130.88
245.633	161.88
245.866	153.88
246.099	146.88
246.333	143.88
246.566	145.88
246.8	161.88
247.033	144.88
247.266	154.88
247.5	166.88
247.733	161.88
247.966	160.88
248.2	156.88
248.433	175.88
248.666	189.88
248.899	193.88
249.133	214.88
249.366	210.88
249.599	200.88
249.832	185.88
250.066	186.88
250.299	191.88
250.532	195.88
250.765	213.88
250.998	246.88
251.231	245.88
251.465	235.88
251.698	215.88
251.931	190.88
252.164	216.88
252.397	197.88
252.63	205.88
252.863	205.88
253.096	222.88
253.329	225.88
253.562	233.88
253.795	215.88
254.028	221.88
254.261	225.88
254.494	237.88
254.727	265.88
254.96	293.88
255.193	284.88
255.426	239.88
255.659	250.88
255.892	247.88
256.124	243.88
256.357	245.88
256.59	236.88
256.823	224.88
257.056	212.88
257.289	211.88
257.521	232.88
257.754	219.88
257.987	201.88
258.22	204.88
258.452	215.88
258.685	207.88
258.918	217.88
259.151	205.88
259.383	212.88
259.616	215.88
259.849	234.88
260.081	241.88
260.314	257.88
260.547	281.88
260.779	247.88
261.012	244.88
261.244	218.88
261.477	217.88
261.71	229.88
261.942	227.88
262.175	245.88
262.407	249.88
262.64	231.88
262.872	206.88
263.105	201.88
263.337	209.88
263.57	212.88
263.802	208.88
264.035	207.88
264.267	211.88
264.499	220.88
264.732	222.88
264.964	228.88
265.197	207.88
265.429	205.88
265.661	206.88
265.894	216.88
266.126	209.88
266.358	212.88
266.591	232.88
266.823	218.88
267.055	205.88
267.287	212.88
267.52	220.88
267.752	221.88
267.984	231.88
268.216	229.88
268.448	221.88
268.681	210.88
268.913	237.88
269.145	269.88
269.377	268.88
269.609	268.88
269.841	281.88
270.073	268.88
270.306	298.88
270.538	316.88
270.77	320.88
271.002	313.88
271.234	301.88
271.466	321.88
271.698	328.88
271.93	316.88
272.162	317.88
272.394	326.88
272.626	329.88
272.858	295.88
273.09	309.88
273.322	267.88
273.553	270.88
273.785	264.88
274.017	253.88
274.249	278.88
274.481	272.88
274.713	245.88
274.945	282.88
275.176	279.88
275.408	269.88
275.64	264.88
275.872	269.88
276.104	274.88
276.335	265.88
276.567	265.88
276.799	284.88
277.031	328.88
277.262	309.88
277.494	307.88
277.726	323.88
277.957	286.88
278.189	267.88
278.421	270.88
278.652	249.88
278.884	259.88
279.115	271.88
279.347	262.88
279.579	238.88
279.81	259.88
280.042	224.88
280.273	263.88
280.505	251.88
280.736	245.88
280.968	256.88
281.199	253.88
281.431	263.88
281.662	247.88
281.894	245.88
282.125	238.88
282.356	273.88
282.588	290.88
282.819	301.88
283.051	287.88
283.282	265.88
283.513	249.88
283.745	270.88
283.976	262.88
284.207	274.88
284.439	266.88
284.67	261.88
284.901	268.88
285.132	263.88
285.364	245.88
285.595	251.88
285.826	277.88
286.057	248.88
286.288	268.88
286.52	270.88
286.751	269.88
286.982	254.88
287.213	270.88
287.444	260.88
287.675	265.88
287.906	283.88
288.138	277.88
288.369	294.88
288.6	291.88
288.831	286.88
289.062	276.88
289.293	284.88
289.524	284.88
289.755	269.88
289.986	265.88
290.217	250.88
290.448	255.88
290.679	260.88
290.91	255.88
291.141	243.88
291.371	271.88
291.602	277.88
291.833	265.88
292.064	269.88
292.295	258.88
292.526	269.88
292.757	258.88
292.987	255.88
293.218	252.88
293.449	258.88
293.68	276.88
293.91	275.88
294.141	263.88
294.372	250.88
294.603	269.88
294.833	277.88
295.064	268.88
295.295	268.88
295.525	272.88
295.756	303.88
295.987	297.88
296.217	303.88
296.448	303.88
296.679	279.88
296.909	280.88
297.14	276.88
297.37	284.88
297.601	286.88
297.831	267.88
298.062	289.88
298.292	267.88
298.523	270.88
298.753	270.88
298.984	296.88
299.214	287.88
299.445	286.88
299.675	293.88
299.905	301.88
300.136	287.88
300.366	270.88
300.597	297.88
300.827	281.88
301.057	293.88
301.288	317.88
301.518	301.88
301.748	318.88
301.979	307.88
302.209	303.88
302.439	306.88
302.669	296.88
302.9	295.88
303.13	289.88
303.36	295.88
303.59	291.88
303.82	308.88
304.051	337.88
304.281	318.88
304.511	310.88
304.741	293.88
304.971	292.88
305.201	295.88
305.431	284.88
305.661	305.88
305.891	310.88
306.121	321.88
306.352	311.88
306.582	314.88
306.812	305.88
307.042	293.88
307.272	299.88
307.502	339.88
307.731	313.88
307.961	325.88
308.191	307.88
308.421	308.88
308.651	323.88
308.881	311.88
309.111	311.88
309.341	317.88
309.571	332.88
309.8	348.88
310.03	324.88
310.26	370.88
310.49	360.88
310.72	378.88
310.949	369.88
311.179	399.88
311.409	377.88
311.639	378.88
311.868	358.88
312.098	379.88
312.328	371.88
312.557	406.88
312.787	421.88
313.017	399.88
313.246	383.88
313.476	346.88
313.706	358.88
313.935	360.88
314.165	362.88
314.394	382.88
314.624	397.88
314.853	355.88
315.083	359.88
315.312	364.88
315.542	335.88
315.771	323.88
316.001	344.88
316.23	344.88
316.46	360.88
316.689	354.88
316.919	344.88
317.148	377.88
317.377	376.88
317.607	373.88
317.836	359.88
318.065	330.88
318.295	362.88
318.524	343.88
318.753	355.88
318.983	354.88
319.212	354.88
319.441	372.88
319.67	389.88
319.9	362.88
320.129	362.88
320.358	354.88
320.587	362.88
320.816	373.88
321.046	411.88
321.275	380.88
321.504	377.88
321.733	369.88
321.962	391.88
322.191	397.88
322.42	429.88
322.649	429.88
322.878	462.88
323.108	461.88
323.337	484.88
323.566	517.88
323.795	557.88
324.024	620.88
324.253	747.88
324.482	1062.88
324.71	1636.88
324.939	2411.88
325.168	2141.88
325.397	1116.88
325.626	720.88
325.855	593.88
326.084	556.88
326.313	524.88
326.542	527.88
326.77	587.88
326.999	681.88
327.228	945.88
327.457	1482.88
327.686	1797.88
327.914	1227.88
328.143	797.88
328.372	697.88
328.6	633.88
328.829	598.88
329.058	591.88
329.287	633.88
329.515	577.88
329.744	521.88
329.972	513.88
330.201	545.88
330.43	583.88
330.658	597.88
330.887	637.88
331.115	622.88
331.344	516.88
331.572	482.88
331.801	481.88
332.03	466.88
332.258	459.88
332.486	447.88
332.715	403.88
332.943	435.88
333.172	431.88
333.4	411.88
333.629	440.88
333.857	439.88
334.085	457.88
334.314	486.88
334.542	507.88
334.771	524.88
334.999	481.88
335.227	457.88
335.455	415.88
335.684	425.88
335.912	415.88
336.14	400.88
336.369	395.88
336.597	406.88
336.825	426.88
337.053	391.88
337.281	401.88
337.51	421.88
337.738	413.88
337.966	426.88
338.194	397.88
338.422	395.88
338.65	415.88
338.878	402.88
339.106	394.88
339.334	398.88
339.562	399.88
339.79	383.88
340.018	402.88
340.246	412.88
340.474	406.88
340.702	402.88
340.93	391.88
341.158	403.88
341.386	398.88
341.614	393.88
341.842	399.88
342.07	396.88
342.298	399.88
342.526	408.88
342.754	379.88
342.981	389.88
343.209	360.88
343.437	381.88
343.665	375.88
343.893	383.88
344.12	394.88
344.348	393.88
344.576	385.88
344.804	399.88
345.031	425.88
345.259	417.88
345.487	422.88
345.714	399.88
345.942	380.88
346.17	389.88
346.397	349.88
346.625	392.88
346.853	397.88
347.08	395.88
347.308	396.88
347.535	405.88
347.763	397.88
347.99	409.88
348.218	405.88
348.445	417.88
348.673	402.88
348.9	408.88
349.128	406.88
349.355	385.88
349.583	382.88
349.81	377.88
350.037	379.88
350.265	373.88
350.492	369.88
350.72	383.88
350.947	379.88
351.174	398.88
351.402	409.88
351.629	410.88
351.856	384.88
352.083	421.88
352.311	425.88
352.538	420.88
352.765	406.88
352.992	386.88
353.22	398.88
353.447	393.88
353.674	363.88
353.901	381.88
354.128	379.88
354.355	364.88
354.583	369.88
354.81	361.88
355.037	367.88
355.264	355.88
355.491	370.88
355.718	351.88
355.945	354.88
356.172	352.88
356.399	373.88
356.626	340.88
356.853	356.88
357.08	353.88
357.307	358.88
357.534	348.88
357.761	342.88
357.988	339.88
358.215	367.88
358.441	373.88
358.668	367.88
358.895	373.88
359.122	369.88
359.349	370.88
359.576	383.88
359.802	406.88
360.029	459.88
360.256	463.88
360.483	455.88
360.709	427.88
360.936	391.88
361.163	395.88
361.39	392.88
361.616	394.88
361.843	406.88
362.07	380.88
362.296	403.88
362.523	379.88
362.749	383.88
362.976	382.88
363.203	402.88
363.429	368.88
363.656	376.88
363.882	361.88
364.109	382.88
364.335	369.88
364.562	378.88
364.788	361.88
365.015	364.88
365.241	379.88
365.468	378.88
365.694	355.88
365.92	377.88
366.147	378.88
366.373	355.88
366.599	371.88
366.826	369.88
367.052	332.88
367.278	369.88
367.505	379.88
367.731	381.88
367.957	364.88
368.184	375.88
368.41	373.88
368.636	373.88
368.862	391.88
369.089	361.88
369.315	359.88
369.541	357.88
369.767	369.88
369.993	355.88
370.219	361.88
370.445	337.88
370.672	349.88
370.898	351.88
371.124	328.88
371.35	373.88
371.576	361.88
371.802	354.88
372.028	354.88
372.254	338.88
372.48	335.88
372.706	341.88
372.932	350.88
373.158	377.88
373.384	344.88
373.61	354.88
373.835	351.88
374.061	339.88
374.287	354.88
374.513	362.88
374.739	350.88
374.965	358.88
375.191	352.88
375.416	346.88
375.642	357.88
375.868	353.88
376.094	358.88
376.319	339.88
376.545	356.88
376.771	337.88
376.997	348.88
377.222	354.88
377.448	363.88
377.674	341.88
377.899	345.88
378.125	339.88
378.35	348.88
378.576	344.88
378.802	337.88
379.027	349.88
379.253	349.88
379.478	355.88
379.704	358.88
379.929	357.88
380.155	361.88
380.38	349.88
380.606	353.88
380.831	344.88
381.057	366.88
381.282	348.88
381.507	365.88
381.733	362.88
381.958	342.88
382.184	344.88
382.409	356.88
382.634	365.88
382.86	372.88
383.085	360.88
383.31	359.88
383.535	363.88
383.761	348.88
383.986	372.88
384.211	361.88
384.436	364.88
384.662	354.88
384.887	358.88
385.112	372.88
385.337	400.88
385.562	364.88
385.787	358.88
386.013	392.88
386.238	385.88
386.463	381.88
386.688	374.88
386.913	379.88
387.138	365.88
387.363	381.88
387.588	365.88
387.813	373.88
388.038	376.88
388.263	368.88
388.488	377.88
388.713	381.88
388.938	396.88
389.163	367.88
389.387	381.88
389.612	363.88
389.837	377.88
390.062	374.88
390.287	371.88
390.512	349.88
390.736	369.88
390.961	364.88
391.186	362.88
391.411	373.88
391.636	368.88
391.86	361.88
392.085	403.88
392.31	391.88
392.534	385.88
392.759	374.88
392.984	379.88
393.208	373.88
393.433	374.88
393.658	381.88
393.882	375.88
394.107	378.88
394.331	373.88
394.556	361.88
394.78	371.88
395.005	365.88
395.229	373.88
395.454	379.88
395.678	387.88
395.903	398.88
396.127	427.88
396.352	391.88
396.576	396.88
396.801	388.88
397.025	395.88
397.249	390.88
397.474	399.88
397.698	376.88
397.922	412.88
398.147	418.88
398.371	437.88
398.595	420.88
398.82	413.88
399.044	420.88
399.268	427.88
399.492	469.88
399.717	443.88
399.941	504.88
400.165	521.88
400.389	526.88
400.613	492.88
400.837	456.88
401.062	434.88
401.286	441.88
401.51	413.88
401.734	435.88
401.958	426.88
402.182	412.88
402.406	436.88
402.63	473.88
402.854	460.88
403.078	433.88
403.302	429.88
403.526	453.88
403.75	416.88
403.974	442.88
404.198	415.88
404.422	433.88
404.645	458.88
404.869	455.88
405.093	465.88
405.317	502.88
405.541	539.88
405.765	490.88
405.988	470.88
406.212	473.88
406.436	507.88
406.66	525.88
406.883	509.88
407.107	518.88
407.331	548.88
407.555	617.88
407.778	616.88
408.002	573.88
408.226	521.88
408.449	485.88
408.673	478.88
408.896	539.88
409.12	561.88
409.344	539.88
409.567	470.88
409.791	462.88
410.014	453.88
410.238	439.88
410.461	441.88
410.685	462.88
410.908	488.88
411.132	487.88
411.355	545.88
411.578	527.88
411.802	471.88
412.025	469.88
412.249	440.88
412.472	463.88
412.695	507.88
412.919	532.88
413.142	457.88
413.365	474.88
413.589	441.88
413.812	436.88
414.035	419.88
414.258	424.88
414.482	429.88
414.705	409.88
414.928	418.88
415.151	398.88
415.374	411.88
415.597	413.88
415.821	433.88
416.044	427.88
416.267	418.88
416.49	405.88
416.713	425.88
416.936	423.88
417.159	424.88
417.382	453.88
417.605	425.88
417.828	451.88
418.051	447.88
418.274	440.88
418.497	430.88
418.72	429.88
418.943	415.88
419.166	427.88
419.389	444.88
419.611	451.88
419.834	433.88
420.057	428.88
420.28	470.88
420.503	451.88
420.726	457.88
420.948	456.88
421.171	503.88
421.394	532.88
421.617	467.88
421.839	455.88
422.062	454.88
422.285	485.88
422.507	537.88
422.73	586.88
422.953	584.88
423.175	518.88
423.398	452.88
423.621	467.88
423.843	502.88
424.066	480.88
424.288	496.88
424.511	501.88
424.733	554.88
424.956	651.88
425.178	610.88
425.401	620.88
425.623	639.88
425.846	559.88
426.068	519.88
426.291	494.88
426.513	499.88
426.735	517.88
426.958	545.88
427.18	637.88
427.402	762.88
427.625	827.88
427.847	755.88
428.069	644.88
428.292	582.88
428.514	542.88
428.736	510.88
428.958	470.88
429.181	461.88
429.403	472.88
429.625	473.88
429.847	515.88
430.069	587.88
430.292	587.88
430.514	501.88
430.736	473.88
430.958	451.88
431.18	449.88
431.402	437.88
431.624	426.88
431.846	436.88
432.068	447.88
432.29	440.88
432.512	449.88
432.734	419.88
432.956	447.88
433.178	467.88
433.4	457.88
433.622	460.88
433.844	425.88
434.066	445.88
434.287	426.88
434.509	449.88
434.731	447.88
434.953	441.88
435.175	484.88
435.397	492.88
435.618	509.88
435.84	549.88
436.062	645.88
436.284	693.88
436.505	587.88
436.727	553.88
436.949	470.88
437.17	478.88
437.392	471.88
437.614	483.88
437.835	527.88
438.057	627.88
438.278	727.88
438.5	719.88
438.721	781.88
438.943	729.88
439.165	617.88
439.386	553.88
439.608	558.88
439.829	552.88
440.05	573.88
440.272	593.88
440.493	553.88
440.715	537.88
440.936	505.88
441.158	493.88
441.379	476.88
441.6	474.88
441.822	515.88
442.043	543.88
442.264	629.88
442.486	654.88
442.707	567.88
442.928	518.88
443.149	540.88
443.371	565.88
443.592	601.88
443.813	682.88
444.034	707.88
444.255	613.88
444.476	527.88
444.698	498.88
444.919	498.88
445.14	627.88
445.361	562.88
445.582	561.88
445.803	650.88
446.024	707.88
446.245	737.88
446.466	678.88
446.687	549.88
446.908	538.88
447.129	498.88
447.35	468.88
447.571	477.88
447.792	476.88
448.013	477.88
448.234	494.88
448.455	547.88
448.675	646.88
448.896	738.88
449.117	669.88
449.338	591.88
449.559	726.88
449.779	793.88
450	649.88
450.221	526.88
450.442	475.88
450.662	479.88
450.883	503.88
451.104	502.88
451.324	470.88
451.545	444.88
451.766	439.88
451.986	390.88
452.207	421.88
452.428	424.88
452.648	430.88
452.869	424.88
453.089	433.88
453.31	445.88
453.53	449.88
453.751	437.88
453.971	456.88
454.192	470.88
454.412	450.88
454.633	444.88
454.853	430.88
455.073	416.88
455.294	446.88
455.514	535.88
455.734	517.88
455.955	435.88
456.175	384.88
456.395	393.88
456.616	406.88
456.836	395.88
457.056	409.88
457.276	357.88
457.497	398.88
457.717	391.88
457.937	403.88
458.157	397.88
458.377	409.88
458.598	447.88
458.818	522.88
459.038	579.88
459.258	622.88
459.478	514.88
459.698	470.88
459.918	428.88
460.138	412.88
460.358	424.88
460.578	435.88
460.798	436.88
461.018	453.88
461.238	405.88
461.458	414.88
461.678	427.88
461.898	433.88
462.118	414.88
462.338	422.88
462.558	443.88
462.777	420.88
462.997	435.88
463.217	449.88
463.437	452.88
463.657	446.88
463.876	440.88
464.096	448.88
464.316	429.88
464.536	447.88
464.755	461.88
464.975	479.88
465.195	541.88
465.414	628.88
465.634	542.88
465.854	469.88
466.073	443.88
466.293	417.88
466.512	421.88
466.732	421.88
466.951	437.88
467.171	421.88
467.391	417.88
467.61	440.88
467.829	465.88
468.049	429.88
468.268	434.88
468.488	430.88
468.707	411.88
468.927	422.88
469.146	398.88
469.365	416.88
469.585	411.88
469.804	425.88
470.023	423.88
470.243	427.88
470.462	436.88
470.681	471.88
470.901	451.88
471.12	431.88
471.339	430.88
471.558	442.88
471.777	441.88
471.997	425.88
472.216	444.88
472.435	471.88
472.654	462.88
472.873	456.88
473.092	433.88
473.311	434.88
473.53	439.88
473.749	434.88
473.968	482.88
474.187	585.88
474.406	626.88
474.625	514.88
474.844	445.88
475.063	440.88
475.282	451.88
475.501	437.88
475.72	446.88
475.939	452.88
476.158	437.88
476.377	447.88
476.596	442.88
476.814	442.88
477.033	449.88
477.252	463.88
477.471	463.88
477.69	461.88
477.908	436.88
478.127	496.88
478.346	478.88
478.564	465.88
478.783	470.88
479.002	473.88
479.22	485.88
479.439	473.88
479.658	533.88
479.876	518.88
480.095	543.88
480.313	549.88
480.532	505.88
480.751	535.88
480.969	558.88
481.188	622.88
481.406	648.88
481.624	584.88
481.843	565.88
482.061	543.88
482.28	510.88
482.498	518.88
482.717	505.88
482.935	524.88
483.153	516.88
483.372	511.88
483.59	511.88
483.808	527.88
484.027	522.88
484.245	509.88
484.463	535.88
484.681	513.88
484.9	523.88
485.118	553.88
485.336	518.88
485.554	498.88
485.772	535.88
485.99	527.88
486.209	534.88
486.427	540.88
486.645	558.88
486.863	568.88
487.081	576.88
487.299	573.88
487.517	556.88
487.735	557.88
487.953	557.88
488.171	563.88
488.389	573.88
488.607	554.88
488.825	550.88
489.043	569.88
489.261	573.88
489.479	569.88
489.696	578.88
489.914	562.88
490.132	562.88
490.35	578.88
490.568	604.88
490.786	614.88
491.003	599.88
491.221	625.88
491.439	636.88
491.657	657.88
491.874	619.88
492.092	630.88
492.31	643.88
492.527	635.88
492.745	643.88
492.963	645.88
493.18	652.88
493.398	654.88
493.615	667.88
493.833	679.88
494.05	657.88
494.268	639.88
494.485	666.88
494.703	644.88
494.92	650.88
495.138	656.88
495.355	661.88
495.573	678.88
495.79	660.88
496.008	697.88
496.225	667.88
496.442	667.88
496.66	674.88
496.877	667.88
497.094	677.88
497.312	671.88
497.529	659.88
497.746	682.88
497.963	718.88
498.181	709.88
498.398	710.88
498.615	703.88
498.832	702.88
499.049	720.88
499.267	735.88
499.484	724.88
499.701	771.88
499.918	789.88
500.135	796.88
500.352	825.88
500.569	811.88
500.786	792.88
501.003	838.88
501.22	783.88
501.437	757.88
501.654	795.88
501.871	809.88
