Data from 1980.PennyLincolnUp.Lamp.En5.5.200Scan.071819.P1_HRD10591_16-36-31-956.txt Node
Date: Thu Jul 18 16:36:31 EDT 2019
User: cochatt
Spectrometer: HR+D1059
Trigger mode: 1
Integration Time (sec): 1.000000E-1
Scans to average: 1
Electric dark correction enabled: true
Nonlinearity correction enabled: false
Boxcar width: 0
XAxis mode: Wavelengths
Number of Pixels in Spectrum: 2048
>>>>>Begin Spectral Data<<<<<
223.165	-7.81
223.4	-7.81
223.635	-7.81
223.869	-14.81
224.104	-15.81
224.338	-20.81
224.573	-23.81
224.808	-28.81
225.042	-9.81
225.277	-14.81
225.511	-3.81
225.746	3.19
225.98	11.19
226.215	16.19
226.449	29.19
226.683	28.19
226.918	24.19
227.152	28.19
227.387	38.19
227.621	36.19
227.856	43.19
228.09	43.19
228.324	49.19
228.559	70.19
228.793	65.19
229.027	91.19
229.262	107.19
229.496	101.19
229.73	119.19
229.964	150.19
230.199	112.19
230.433	125.19
230.667	117.19
230.901	113.19
231.136	105.19
231.37	110.19
231.604	98.19
231.838	109.19
232.072	111.19
232.306	96.19
232.541	100.19
232.775	104.19
233.009	111.19
233.243	109.19
233.477	117.19
233.711	111.19
233.945	115.19
234.179	113.19
234.413	120.19
234.647	118.19
234.881	116.19
235.115	126.19
235.349	116.19
235.583	104.19
235.817	97.19
236.051	126.19
236.285	126.19
236.519	118.19
236.753	137.19
236.987	134.19
237.221	161.19
237.455	217.19
237.689	180.19
237.922	129.19
238.156	112.19
238.39	115.19
238.624	126.19
238.858	123.19
239.091	130.19
239.325	128.19
239.559	112.19
239.793	124.19
240.027	131.19
240.26	142.19
240.494	156.19
240.728	135.19
240.961	118.19
241.195	136.19
241.429	134.19
241.662	131.19
241.896	126.19
242.13	116.19
242.363	125.19
242.597	123.19
242.83	112.19
243.064	126.19
243.298	134.19
243.531	129.19
243.765	121.19
243.998	120.19
244.232	136.19
244.465	127.19
244.699	146.19
244.932	135.19
245.166	131.19
245.399	146.19
245.633	131.19
245.866	140.19
246.099	114.19
246.333	136.19
246.566	141.19
246.8	142.19
247.033	146.19
247.266	159.19
247.5	169.19
247.733	166.19
247.966	147.19
248.2	152.19
248.433	165.19
248.666	176.19
248.899	168.19
249.133	181.19
249.366	176.19
249.599	188.19
249.832	169.19
250.066	163.19
250.299	156.19
250.532	171.19
250.765	189.19
250.998	197.19
251.231	200.19
251.465	213.19
251.698	197.19
251.931	178.19
252.164	198.19
252.397	169.19
252.63	180.19
252.863	209.19
253.096	198.19
253.329	217.19
253.562	184.19
253.795	209.19
254.028	198.19
254.261	201.19
254.494	203.19
254.727	235.19
254.96	276.19
255.193	247.19
255.426	230.19
255.659	210.19
255.892	211.19
256.124	203.19
256.357	216.19
256.59	208.19
256.823	202.19
257.056	201.19
257.289	203.19
257.521	209.19
257.754	195.19
257.987	185.19
258.22	195.19
258.452	188.19
258.685	191.19
258.918	193.19
259.151	188.19
259.383	221.19
259.616	203.19
259.849	205.19
260.081	222.19
260.314	236.19
260.547	243.19
260.779	242.19
261.012	213.19
261.244	221.19
261.477	217.19
261.71	205.19
261.942	213.19
262.175	220.19
262.407	199.19
262.64	207.19
262.872	176.19
263.105	178.19
263.337	203.19
263.57	188.19
263.802	188.19
264.035	190.19
264.267	194.19
264.499	182.19
264.732	196.19
264.964	186.19
265.197	187.19
265.429	186.19
265.661	198.19
265.894	185.19
266.126	189.19
266.358	190.19
266.591	184.19
266.823	200.19
267.055	194.19
267.287	204.19
267.52	197.19
267.752	191.19
267.984	212.19
268.216	189.19
268.448	194.19
268.681	196.19
268.913	193.19
269.145	219.19
269.377	245.19
269.609	245.19
269.841	260.19
270.073	252.19
270.306	235.19
270.538	274.19
270.77	280.19
271.002	274.19
271.234	284.19
271.466	278.19
271.698	281.19
271.93	274.19
272.162	267.19
272.394	297.19
272.626	278.19
272.858	250.19
273.09	263.19
273.322	250.19
273.553	233.19
273.785	237.19
274.017	240.19
274.249	221.19
274.481	230.19
274.713	218.19
274.945	218.19
275.176	240.19
275.408	230.19
275.64	227.19
275.872	236.19
276.104	230.19
276.335	231.19
276.567	233.19
276.799	229.19
277.031	260.19
277.262	288.19
277.494	285.19
277.726	285.19
277.957	259.19
278.189	231.19
278.421	232.19
278.652	241.19
278.884	233.19
279.115	228.19
279.347	223.19
279.579	224.19
279.81	211.19
280.042	232.19
280.273	243.19
280.505	228.19
280.736	245.19
280.968	217.19
281.199	209.19
281.431	210.19
281.662	220.19
281.894	230.19
282.125	232.19
282.356	231.19
282.588	264.19
282.819	260.19
283.051	237.19
283.282	225.19
283.513	233.19
283.745	225.19
283.976	236.19
284.207	230.19
284.439	238.19
284.67	236.19
284.901	220.19
285.132	234.19
285.364	230.19
285.595	217.19
285.826	233.19
286.057	212.19
286.288	213.19
286.52	227.19
286.751	256.19
286.982	241.19
287.213	256.19
287.444	213.19
287.675	228.19
287.906	261.19
288.138	229.19
288.369	247.19
288.6	248.19
288.831	234.19
289.062	232.19
289.293	235.19
289.524	223.19
289.755	232.19
289.986	225.19
290.217	219.19
290.448	237.19
290.679	233.19
290.91	242.19
291.141	240.19
291.371	245.19
291.602	241.19
291.833	235.19
292.064	247.19
292.295	243.19
292.526	232.19
292.757	228.19
292.987	230.19
293.218	230.19
293.449	232.19
293.68	244.19
293.91	243.19
294.141	228.19
294.372	222.19
294.603	250.19
294.833	230.19
295.064	242.19
295.295	233.19
295.525	234.19
295.756	238.19
295.987	265.19
296.217	275.19
296.448	274.19
296.679	254.19
296.909	230.19
297.14	229.19
297.37	229.19
297.601	231.19
297.831	234.19
298.062	253.19
298.292	264.19
298.523	248.19
298.753	260.19
298.984	259.19
299.214	237.19
299.445	224.19
299.675	253.19
299.905	270.19
300.136	241.19
300.366	250.19
300.597	236.19
300.827	248.19
301.057	240.19
301.288	254.19
301.518	275.19
301.748	265.19
301.979	260.19
302.209	264.19
302.439	251.19
302.669	251.19
302.9	266.19
303.13	274.19
303.36	266.19
303.59	262.19
303.82	266.19
304.051	272.19
304.281	249.19
304.511	268.19
304.741	246.19
304.971	248.19
305.201	254.19
305.431	268.19
305.661	266.19
305.891	275.19
306.121	252.19
306.352	268.19
306.582	274.19
306.812	269.19
307.042	291.19
307.272	269.19
307.502	280.19
307.731	281.19
307.961	262.19
308.191	281.19
308.421	277.19
308.651	276.19
308.881	278.19
309.111	280.19
309.341	278.19
309.571	294.19
309.8	301.19
310.03	297.19
310.26	329.19
310.49	305.19
310.72	308.19
310.949	337.19
311.179	333.19
311.409	333.19
311.639	316.19
311.868	310.19
312.098	318.19
312.328	325.19
312.557	321.19
312.787	345.19
313.017	352.19
313.246	328.19
313.476	301.19
313.706	330.19
313.935	320.19
314.165	311.19
314.394	337.19
314.624	332.19
314.853	324.19
315.083	317.19
315.312	298.19
315.542	279.19
315.771	284.19
316.001	310.19
316.23	292.19
316.46	288.19
316.689	297.19
316.919	300.19
317.148	325.19
317.377	333.19
317.607	307.19
317.836	313.19
318.065	290.19
318.295	300.19
318.524	292.19
318.753	300.19
318.983	305.19
319.212	319.19
319.441	317.19
319.67	312.19
319.9	294.19
320.129	320.19
320.358	328.19
320.587	296.19
320.816	314.19
321.046	323.19
321.275	333.19
321.504	331.19
321.733	330.19
321.962	334.19
322.191	348.19
322.42	370.19
322.649	370.19
322.878	367.19
323.108	403.19
323.337	406.19
323.566	434.19
323.795	446.19
324.024	508.19
324.253	609.19
324.482	868.19
324.71	1362.19
324.939	1918.19
325.168	1667.19
325.397	898.19
325.626	600.19
325.855	496.19
326.084	436.19
326.313	434.19
326.542	467.19
326.77	482.19
326.999	569.19
327.228	770.19
327.457	1184.19
327.686	1458.19
327.914	1007.19
328.143	642.19
328.372	555.19
328.6	500.19
328.829	472.19
329.058	517.19
329.287	518.19
329.515	459.19
329.744	425.19
329.972	440.19
330.201	419.19
330.43	469.19
330.658	506.19
330.887	542.19
331.115	518.19
331.344	438.19
331.572	431.19
331.801	405.19
332.03	422.19
332.258	396.19
332.486	363.19
332.715	364.19
332.943	353.19
333.172	369.19
333.4	351.19
333.629	370.19
333.857	380.19
334.085	374.19
334.314	401.19
334.542	403.19
334.771	420.19
334.999	385.19
335.227	371.19
335.455	354.19
335.684	350.19
335.912	378.19
336.14	338.19
336.369	370.19
336.597	372.19
336.825	377.19
337.053	345.19
337.281	351.19
337.51	337.19
337.738	346.19
337.966	376.19
338.194	338.19
338.422	345.19
338.65	349.19
338.878	353.19
339.106	346.19
339.334	333.19
339.562	364.19
339.79	350.19
340.018	333.19
340.246	359.19
340.474	353.19
340.702	356.19
340.93	351.19
341.158	349.19
341.386	345.19
341.614	344.19
341.842	356.19
342.07	340.19
342.298	334.19
342.526	335.19
342.754	332.19
342.981	296.19
343.209	323.19
343.437	331.19
343.665	330.19
343.893	346.19
344.12	356.19
344.348	344.19
344.576	352.19
344.804	362.19
345.031	348.19
345.259	360.19
345.487	380.19
345.714	352.19
345.942	316.19
346.17	351.19
346.397	353.19
346.625	318.19
346.853	321.19
347.08	333.19
347.308	345.19
347.535	347.19
347.763	361.19
347.99	345.19
348.218	366.19
348.445	374.19
348.673	360.19
348.9	341.19
349.128	332.19
349.355	318.19
349.583	335.19
349.81	344.19
350.037	318.19
350.265	324.19
350.492	320.19
350.72	326.19
350.947	341.19
351.174	321.19
351.402	353.19
351.629	359.19
351.856	352.19
352.083	362.19
352.311	357.19
352.538	373.19
352.765	361.19
352.992	353.19
353.22	361.19
353.447	336.19
353.674	330.19
353.901	334.19
354.128	318.19
354.355	306.19
354.583	312.19
354.81	308.19
355.037	299.19
355.264	325.19
355.491	325.19
355.718	301.19
355.945	314.19
356.172	306.19
356.399	312.19
356.626	310.19
356.853	304.19
357.08	300.19
357.307	293.19
357.534	312.19
357.761	296.19
357.988	305.19
358.215	310.19
358.441	306.19
358.668	310.19
358.895	310.19
359.122	318.19
359.349	333.19
359.576	331.19
359.802	358.19
360.029	395.19
360.256	412.19
360.483	377.19
360.709	360.19
360.936	348.19
361.163	356.19
361.39	350.19
361.616	349.19
361.843	342.19
362.07	350.19
362.296	353.19
362.523	355.19
362.749	339.19
362.976	349.19
363.203	329.19
363.429	334.19
363.656	318.19
363.882	338.19
364.109	295.19
364.335	317.19
364.562	325.19
364.788	317.19
365.015	321.19
365.241	315.19
365.468	328.19
365.694	333.19
365.92	341.19
366.147	341.19
366.373	343.19
366.599	317.19
366.826	326.19
367.052	326.19
367.278	324.19
367.505	324.19
367.731	326.19
367.957	328.19
368.184	333.19
368.41	340.19
368.636	338.19
368.862	348.19
369.089	310.19
369.315	324.19
369.541	319.19
369.767	328.19
369.993	325.19
370.219	320.19
370.445	332.19
370.672	304.19
370.898	310.19
371.124	312.19
371.35	322.19
371.576	320.19
371.802	316.19
372.028	300.19
372.254	338.19
372.48	317.19
372.706	316.19
372.932	316.19
373.158	326.19
373.384	321.19
373.61	324.19
373.835	313.19
374.061	321.19
374.287	318.19
374.513	314.19
374.739	329.19
374.965	325.19
375.191	326.19
375.416	312.19
375.642	330.19
375.868	338.19
376.094	322.19
376.319	325.19
376.545	314.19
376.771	313.19
376.997	310.19
377.222	323.19
377.448	305.19
377.674	308.19
377.899	298.19
378.125	322.19
378.35	315.19
378.576	309.19
378.802	308.19
379.027	314.19
379.253	320.19
379.478	318.19
379.704	320.19
379.929	312.19
380.155	322.19
380.38	302.19
380.606	328.19
380.831	327.19
381.057	329.19
381.282	322.19
381.507	318.19
381.733	324.19
381.958	338.19
382.184	327.19
382.409	312.19
382.634	330.19
382.86	316.19
383.085	320.19
383.31	316.19
383.535	344.19
383.761	320.19
383.986	318.19
384.211	331.19
384.436	314.19
384.662	337.19
384.887	310.19
385.112	317.19
385.337	308.19
385.562	325.19
385.787	329.19
386.013	339.19
386.238	338.19
386.463	343.19
386.688	354.19
386.913	330.19
387.138	336.19
387.363	334.19
387.588	326.19
387.813	334.19
388.038	331.19
388.263	345.19
388.488	332.19
388.713	338.19
388.938	324.19
389.163	345.19
389.387	342.19
389.612	335.19
389.837	324.19
390.062	351.19
390.287	342.19
390.512	319.19
390.736	341.19
390.961	346.19
391.186	316.19
391.411	342.19
391.636	337.19
391.86	333.19
392.085	325.19
392.31	322.19
392.534	344.19
392.759	339.19
392.984	324.19
393.208	348.19
393.433	357.19
393.658	340.19
393.882	354.19
394.107	300.19
394.331	357.19
394.556	340.19
394.78	339.19
395.005	338.19
395.229	342.19
395.454	350.19
395.678	329.19
395.903	352.19
396.127	374.19
396.352	359.19
396.576	346.19
396.801	345.19
397.025	338.19
397.249	350.19
397.474	357.19
397.698	348.19
397.922	353.19
398.147	375.19
398.371	379.19
398.595	364.19
398.82	372.19
399.044	403.19
399.268	390.19
399.492	384.19
399.717	420.19
399.941	444.19
400.165	468.19
400.389	476.19
400.613	435.19
400.837	399.19
401.062	397.19
401.286	390.19
401.51	384.19
401.734	376.19
401.958	387.19
402.182	397.19
402.406	391.19
402.63	378.19
402.854	396.19
403.078	394.19
403.302	386.19
403.526	410.19
403.75	397.19
403.974	396.19
404.198	386.19
404.422	398.19
404.645	412.19
404.869	391.19
405.093	422.19
405.317	454.19
405.541	500.19
405.765	457.19
405.988	438.19
406.212	425.19
406.436	444.19
406.66	458.19
406.883	432.19
407.107	445.19
407.331	504.19
407.555	542.19
407.778	538.19
408.002	484.19
408.226	442.19
408.449	424.19
408.673	440.19
408.896	477.19
409.12	483.19
409.344	500.19
409.567	428.19
409.791	432.19
410.014	410.19
410.238	413.19
410.461	395.19
410.685	395.19
410.908	417.19
411.132	447.19
411.355	460.19
411.578	464.19
411.802	423.19
412.025	412.19
412.249	394.19
412.472	405.19
412.695	445.19
412.919	425.19
413.142	378.19
413.365	404.19
413.589	402.19
413.812	375.19
414.035	394.19
414.258	375.19
414.482	371.19
414.705	362.19
414.928	373.19
415.151	356.19
415.374	383.19
415.597	380.19
415.821	388.19
416.044	358.19
416.267	386.19
416.49	376.19
416.713	367.19
416.936	356.19
417.159	376.19
417.382	369.19
417.605	385.19
417.828	385.19
418.051	405.19
418.274	400.19
418.497	395.19
418.72	384.19
418.943	374.19
419.166	390.19
419.389	387.19
419.611	395.19
419.834	400.19
420.057	410.19
420.28	408.19
420.503	402.19
420.726	410.19
420.948	411.19
421.171	456.19
421.394	458.19
421.617	425.19
421.839	406.19
422.062	398.19
422.285	425.19
422.507	460.19
422.73	525.19
422.953	502.19
423.175	454.19
423.398	420.19
423.621	436.19
423.843	438.19
424.066	443.19
424.288	443.19
424.511	446.19
424.733	499.19
424.956	564.19
425.178	565.19
425.401	537.19
425.623	573.19
425.846	498.19
426.068	454.19
426.291	447.19
426.513	440.19
426.735	462.19
426.958	483.19
427.18	545.19
427.402	665.19
427.625	740.19
427.847	668.19
428.069	577.19
428.292	516.19
428.514	466.19
428.736	440.19
428.958	433.19
429.181	417.19
429.403	389.19
429.625	420.19
429.847	445.19
430.069	521.19
430.292	492.19
430.514	419.19
430.736	423.19
430.958	394.19
431.18	412.19
431.402	396.19
431.624	388.19
431.846	401.19
432.068	375.19
432.29	400.19
432.512	388.19
432.734	388.19
432.956	393.19
433.178	385.19
433.4	395.19
433.622	383.19
433.844	381.19
434.066	378.19
434.287	376.19
434.509	389.19
434.731	368.19
434.953	400.19
435.175	409.19
435.397	438.19
435.618	447.19
435.84	475.19
436.062	567.19
436.284	611.19
436.505	546.19
436.727	473.19
436.949	450.19
437.17	406.19
437.392	426.19
437.614	430.19
437.835	450.19
438.057	565.19
438.278	640.19
438.5	602.19
438.721	688.19
438.943	651.19
439.165	539.19
439.386	474.19
439.608	460.19
439.829	479.19
440.05	480.19
440.272	538.19
440.493	481.19
440.715	465.19
440.936	431.19
441.158	428.19
441.379	399.19
441.6	445.19
441.822	450.19
442.043	472.19
442.264	530.19
442.486	600.19
442.707	494.19
442.928	471.19
443.149	491.19
443.371	500.19
443.592	516.19
443.813	603.19
444.034	666.19
444.255	532.19
444.476	466.19
444.698	465.19
444.919	461.19
445.14	544.19
445.361	496.19
445.582	496.19
445.803	542.19
446.024	622.19
446.245	638.19
446.466	581.19
446.687	482.19
446.908	469.19
447.129	435.19
447.35	414.19
447.571	438.19
447.792	435.19
448.013	440.19
448.234	450.19
448.455	491.19
448.675	578.19
448.896	658.19
449.117	582.19
449.338	539.19
449.559	632.19
449.779	697.19
450	579.19
450.221	474.19
450.442	421.19
450.662	412.19
450.883	428.19
451.104	441.19
451.324	436.19
451.545	414.19
451.766	402.19
451.986	385.19
452.207	359.19
452.428	359.19
452.648	401.19
452.869	378.19
453.089	387.19
453.31	390.19
453.53	403.19
453.751	376.19
453.971	373.19
454.192	397.19
454.412	391.19
454.633	382.19
454.853	372.19
455.073	384.19
455.294	386.19
455.514	448.19
455.734	441.19
455.955	381.19
456.175	349.19
456.395	382.19
456.616	340.19
456.836	325.19
457.056	349.19
457.276	332.19
457.497	353.19
457.717	342.19
457.937	347.19
458.157	357.19
458.377	363.19
458.598	378.19
458.818	437.19
459.038	510.19
459.258	522.19
459.478	440.19
459.698	397.19
459.918	394.19
460.138	362.19
460.358	382.19
460.578	370.19
460.798	359.19
461.018	388.19
461.238	369.19
461.458	380.19
461.678	363.19
461.898	373.19
462.118	348.19
462.338	380.19
462.558	384.19
462.777	390.19
462.997	400.19
463.217	398.19
463.437	376.19
463.657	373.19
463.876	397.19
464.096	384.19
464.316	384.19
464.536	401.19
464.755	409.19
464.975	388.19
465.195	445.19
465.414	520.19
465.634	475.19
465.854	434.19
466.073	388.19
466.293	380.19
466.512	366.19
466.732	372.19
466.951	369.19
467.171	371.19
467.391	378.19
467.61	386.19
467.829	386.19
468.049	390.19
468.268	364.19
468.488	374.19
468.707	365.19
468.927	357.19
469.146	367.19
469.365	354.19
469.585	370.19
469.804	364.19
470.023	388.19
470.243	378.19
470.462	382.19
470.681	390.19
470.901	399.19
471.12	385.19
471.339	378.19
471.558	370.19
471.777	390.19
471.997	366.19
472.216	372.19
472.435	406.19
472.654	408.19
472.873	376.19
473.092	381.19
473.311	380.19
473.53	392.19
473.749	389.19
473.968	444.19
474.187	504.19
474.406	535.19
474.625	446.19
474.844	411.19
475.063	391.19
475.282	378.19
475.501	396.19
475.72	382.19
475.939	398.19
476.158	402.19
476.377	394.19
476.596	376.19
476.814	396.19
477.033	414.19
477.252	398.19
477.471	388.19
477.69	404.19
477.908	410.19
478.127	421.19
478.346	413.19
478.564	420.19
478.783	411.19
479.002	415.19
479.22	421.19
479.439	438.19
479.658	443.19
479.876	439.19
480.095	455.19
480.313	459.19
480.532	461.19
480.751	449.19
480.969	457.19
481.188	508.19
481.406	534.19
481.624	491.19
481.843	460.19
482.061	445.19
482.28	461.19
482.498	452.19
482.717	453.19
482.935	436.19
483.153	440.19
483.372	455.19
483.59	463.19
483.808	449.19
484.027	461.19
484.245	438.19
484.463	464.19
484.681	459.19
484.9	457.19
485.118	458.19
485.336	449.19
485.554	445.19
485.772	452.19
485.99	457.19
486.209	458.19
486.427	480.19
486.645	465.19
486.863	495.19
487.081	497.19
487.299	487.19
487.517	488.19
487.735	498.19
487.953	474.19
488.171	459.19
488.389	478.19
488.607	478.19
488.825	488.19
489.043	486.19
489.261	493.19
489.479	509.19
489.696	501.19
489.914	517.19
490.132	495.19
490.35	518.19
490.568	492.19
490.786	525.19
491.003	534.19
491.221	557.19
491.439	542.19
491.657	540.19
491.874	545.19
492.092	553.19
492.31	582.19
492.527	597.19
492.745	567.19
492.963	568.19
493.18	574.19
493.398	597.19
493.615	568.19
493.833	582.19
494.05	594.19
494.268	582.19
494.485	582.19
494.703	584.19
494.92	572.19
495.138	574.19
495.355	587.19
495.573	583.19
495.79	581.19
496.008	599.19
496.225	591.19
496.442	583.19
496.66	565.19
496.877	568.19
497.094	574.19
497.312	620.19
497.529	597.19
497.746	598.19
497.963	597.19
498.181	620.19
498.398	618.19
498.615	614.19
498.832	648.19
499.049	636.19
499.267	627.19
499.484	644.19
499.701	662.19
499.918	692.19
500.135	676.19
500.352	713.19
500.569	698.19
500.786	734.19
501.003	724.19
501.22	690.19
501.437	709.19
501.654	674.19
501.871	686.19
502.088	659.19
