Data from 1980.PennyLincolnUp.Lamp.En5.5.200Scan.071819.P1_HRD10591_16-36-56-956.txt Node
Date: Thu Jul 18 16:36:56 EDT 2019
User: cochatt
Spectrometer: HR+D1059
Trigger mode: 1
Integration Time (sec): 1.000000E-1
Scans to average: 1
Electric dark correction enabled: true
Nonlinearity correction enabled: false
Boxcar width: 0
XAxis mode: Wavelengths
Number of Pixels in Spectrum: 2048
>>>>>Begin Spectral Data<<<<<
223.165	-11.38
223.4	-11.38
223.635	-11.38
223.869	-11.38
224.104	-25.38
224.338	-23.38
224.573	-24.38
224.808	0.62
225.042	-7.38
225.277	-2.38
225.511	7.62
225.746	7.62
225.98	12.62
226.215	-3.38
226.449	15.62
226.683	21.62
226.918	17.62
227.152	25.62
227.387	33.62
227.621	40.62
227.856	47.62
228.09	40.62
228.324	52.62
228.559	52.62
228.793	59.62
229.027	95.62
229.262	113.62
229.496	117.62
229.73	121.62
229.964	165.62
230.199	130.62
230.433	134.62
230.667	117.62
230.901	113.62
231.136	115.62
231.37	118.62
231.604	105.62
231.838	110.62
232.072	105.62
232.306	95.62
232.541	111.62
232.775	118.62
233.009	114.62
233.243	116.62
233.477	120.62
233.711	114.62
233.945	111.62
234.179	108.62
234.413	125.62
234.647	117.62
234.881	114.62
235.115	121.62
235.349	126.62
235.583	138.62
235.817	119.62
236.051	121.62
236.285	131.62
236.519	127.62
236.753	129.62
236.987	141.62
237.221	202.62
237.455	236.62
237.689	198.62
237.922	149.62
238.156	148.62
238.39	126.62
238.624	138.62
238.858	130.62
239.091	118.62
239.325	114.62
239.559	121.62
239.793	131.62
240.027	127.62
240.26	134.62
240.494	161.62
240.728	158.62
240.961	159.62
241.195	149.62
241.429	139.62
241.662	146.62
241.896	133.62
242.13	128.62
242.363	132.62
242.597	145.62
242.83	137.62
243.064	134.62
243.298	161.62
243.531	132.62
243.765	133.62
243.998	145.62
244.232	145.62
244.465	154.62
244.699	147.62
244.932	161.62
245.166	158.62
245.399	147.62
245.633	137.62
245.866	138.62
246.099	142.62
246.333	138.62
246.566	155.62
246.8	149.62
247.033	156.62
247.266	146.62
247.5	154.62
247.733	164.62
247.966	171.62
248.2	165.62
248.433	177.62
248.666	182.62
248.899	187.62
249.133	204.62
249.366	221.62
249.599	189.62
249.832	202.62
250.066	190.62
250.299	180.62
250.532	202.62
250.765	194.62
250.998	223.62
251.231	240.62
251.465	221.62
251.698	215.62
251.931	227.62
252.164	194.62
252.397	193.62
252.63	215.62
252.863	220.62
253.096	231.62
253.329	237.62
253.562	230.62
253.795	227.62
254.028	206.62
254.261	199.62
254.494	236.62
254.727	261.62
254.96	294.62
255.193	286.62
255.426	257.62
255.659	232.62
255.892	234.62
256.124	245.62
256.357	232.62
256.59	211.62
256.823	224.62
257.056	214.62
257.289	221.62
257.521	204.62
257.754	198.62
257.987	205.62
258.22	213.62
258.452	208.62
258.685	213.62
258.918	220.62
259.151	228.62
259.383	211.62
259.616	225.62
259.849	234.62
260.081	233.62
260.314	234.62
260.547	260.62
260.779	232.62
261.012	243.62
261.244	225.62
261.477	205.62
261.71	216.62
261.942	217.62
262.175	237.62
262.407	242.62
262.64	214.62
262.872	214.62
263.105	208.62
263.337	220.62
263.57	209.62
263.802	211.62
264.035	205.62
264.267	205.62
264.499	188.62
264.732	218.62
264.964	202.62
265.197	187.62
265.429	221.62
265.661	202.62
265.894	198.62
266.126	217.62
266.358	214.62
266.591	210.62
266.823	222.62
267.055	213.62
267.287	214.62
267.52	212.62
267.752	213.62
267.984	229.62
268.216	225.62
268.448	229.62
268.681	225.62
268.913	223.62
269.145	257.62
269.377	278.62
269.609	269.62
269.841	267.62
270.073	278.62
270.306	285.62
270.538	311.62
270.77	296.62
271.002	310.62
271.234	301.62
271.466	301.62
271.698	296.62
271.93	315.62
272.162	309.62
272.394	307.62
272.626	314.62
272.858	297.62
273.09	264.62
273.322	282.62
273.553	269.62
273.785	259.62
274.017	254.62
274.249	244.62
274.481	246.62
274.713	264.62
274.945	266.62
275.176	254.62
275.408	267.62
275.64	247.62
275.872	250.62
276.104	246.62
276.335	261.62
276.567	277.62
276.799	279.62
277.031	315.62
277.262	300.62
277.494	299.62
277.726	280.62
277.957	290.62
278.189	266.62
278.421	278.62
278.652	272.62
278.884	266.62
279.115	250.62
279.347	267.62
279.579	234.62
279.81	246.62
280.042	261.62
280.273	276.62
280.505	279.62
280.736	247.62
280.968	234.62
281.199	244.62
281.431	259.62
281.662	266.62
281.894	253.62
282.125	241.62
282.356	277.62
282.588	305.62
282.819	298.62
283.051	259.62
283.282	244.62
283.513	252.62
283.745	262.62
283.976	265.62
284.207	260.62
284.439	250.62
284.67	249.62
284.901	230.62
285.132	241.62
285.364	256.62
285.595	248.62
285.826	238.62
286.057	267.62
286.288	244.62
286.52	265.62
286.751	257.62
286.982	250.62
287.213	257.62
287.444	257.62
287.675	277.62
287.906	270.62
288.138	251.62
288.369	266.62
288.6	284.62
288.831	267.62
289.062	279.62
289.293	264.62
289.524	261.62
289.755	268.62
289.986	275.62
290.217	269.62
290.448	248.62
290.679	268.62
290.91	245.62
291.141	277.62
291.371	265.62
291.602	263.62
291.833	266.62
292.064	263.62
292.295	237.62
292.526	257.62
292.757	261.62
292.987	260.62
293.218	258.62
293.449	266.62
293.68	262.62
293.91	260.62
294.141	250.62
294.372	258.62
294.603	269.62
294.833	269.62
295.064	260.62
295.295	276.62
295.525	285.62
295.756	278.62
295.987	290.62
296.217	279.62
296.448	322.62
296.679	271.62
296.909	258.62
297.14	269.62
297.37	283.62
297.601	256.62
297.831	239.62
298.062	264.62
298.292	267.62
298.523	275.62
298.753	271.62
298.984	264.62
299.214	262.62
299.445	248.62
299.675	277.62
299.905	284.62
300.136	290.62
300.366	274.62
300.597	290.62
300.827	263.62
301.057	296.62
301.288	282.62
301.518	281.62
301.748	289.62
301.979	287.62
302.209	283.62
302.439	314.62
302.669	290.62
302.9	294.62
303.13	297.62
303.36	297.62
303.59	290.62
303.82	293.62
304.051	310.62
304.281	297.62
304.511	290.62
304.741	285.62
304.971	277.62
305.201	290.62
305.431	300.62
305.661	290.62
305.891	306.62
306.121	310.62
306.352	308.62
306.582	297.62
306.812	287.62
307.042	278.62
307.272	298.62
307.502	291.62
307.731	302.62
307.961	300.62
308.191	288.62
308.421	289.62
308.651	298.62
308.881	304.62
309.111	297.62
309.341	308.62
309.571	319.62
309.8	319.62
310.03	344.62
310.26	354.62
310.49	357.62
310.72	370.62
310.949	375.62
311.179	369.62
311.409	339.62
311.639	347.62
311.868	348.62
312.098	346.62
312.328	342.62
312.557	362.62
312.787	387.62
313.017	397.62
313.246	357.62
313.476	347.62
313.706	342.62
313.935	362.62
314.165	361.62
314.394	369.62
314.624	364.62
314.853	357.62
315.083	350.62
315.312	344.62
315.542	315.62
315.771	339.62
316.001	321.62
316.23	336.62
316.46	335.62
316.689	350.62
316.919	340.62
317.148	343.62
317.377	351.62
317.607	365.62
317.836	352.62
318.065	346.62
318.295	339.62
318.524	334.62
318.753	332.62
318.983	335.62
319.212	340.62
319.441	349.62
319.67	358.62
319.9	335.62
320.129	348.62
320.358	343.62
320.587	329.62
320.816	359.62
321.046	390.62
321.275	353.62
321.504	361.62
321.733	378.62
321.962	389.62
322.191	405.62
322.42	407.62
322.649	416.62
322.878	434.62
323.108	454.62
323.337	478.62
323.566	501.62
323.795	523.62
324.024	570.62
324.253	719.62
324.482	1002.62
324.71	1525.62
324.939	2193.62
325.168	1962.62
325.397	1051.62
325.626	682.62
325.855	550.62
326.084	519.62
326.313	502.62
326.542	508.62
326.77	538.62
326.999	643.62
327.228	893.62
327.457	1362.62
327.686	1701.62
327.914	1153.62
328.143	761.62
328.372	649.62
328.6	613.62
328.829	554.62
329.058	595.62
329.287	594.62
329.515	541.62
329.744	524.62
329.972	468.62
330.201	528.62
330.43	559.62
330.658	596.62
330.887	617.62
331.115	598.62
331.344	506.62
331.572	474.62
331.801	456.62
332.03	463.62
332.258	436.62
332.486	445.62
332.715	430.62
332.943	411.62
333.172	393.62
333.4	396.62
333.629	426.62
333.857	426.62
334.085	450.62
334.314	444.62
334.542	477.62
334.771	489.62
334.999	474.62
335.227	433.62
335.455	396.62
335.684	415.62
335.912	383.62
336.14	399.62
336.369	382.62
336.597	399.62
336.825	423.62
337.053	399.62
337.281	388.62
337.51	379.62
337.738	374.62
337.966	394.62
338.194	406.62
338.422	408.62
338.65	385.62
338.878	403.62
339.106	389.62
339.334	397.62
339.562	394.62
339.79	377.62
340.018	376.62
340.246	408.62
340.474	371.62
340.702	392.62
340.93	376.62
341.158	389.62
341.386	376.62
341.614	398.62
341.842	389.62
342.07	401.62
342.298	375.62
342.526	359.62
342.754	364.62
342.981	364.62
343.209	363.62
343.437	384.62
343.665	370.62
343.893	372.62
344.12	373.62
344.348	389.62
344.576	384.62
344.804	389.62
345.031	385.62
345.259	414.62
345.487	389.62
345.714	389.62
345.942	383.62
346.17	362.62
346.397	395.62
346.625	392.62
346.853	382.62
347.08	374.62
347.308	387.62
347.535	386.62
347.763	395.62
347.99	405.62
348.218	385.62
348.445	389.62
348.673	403.62
348.9	377.62
349.128	350.62
349.355	372.62
349.583	370.62
349.81	371.62
350.037	362.62
350.265	358.62
350.492	380.62
350.72	359.62
350.947	378.62
351.174	399.62
351.402	385.62
351.629	391.62
351.856	391.62
352.083	371.62
352.311	406.62
352.538	415.62
352.765	399.62
352.992	382.62
353.22	385.62
353.447	393.62
353.674	382.62
353.901	351.62
354.128	347.62
354.355	378.62
354.583	386.62
354.81	339.62
355.037	355.62
355.264	354.62
355.491	324.62
355.718	345.62
355.945	338.62
356.172	357.62
356.399	350.62
356.626	349.62
356.853	353.62
357.08	355.62
357.307	353.62
357.534	364.62
357.761	353.62
357.988	338.62
358.215	344.62
358.441	341.62
358.668	356.62
358.895	354.62
359.122	356.62
359.349	369.62
359.576	383.62
359.802	427.62
360.029	440.62
360.256	447.62
360.483	419.62
360.709	389.62
360.936	376.62
361.163	375.62
361.39	399.62
361.616	370.62
361.843	362.62
362.07	377.62
362.296	381.62
362.523	355.62
362.749	371.62
362.976	378.62
363.203	358.62
363.429	357.62
363.656	374.62
363.882	378.62
364.109	342.62
364.335	358.62
364.562	366.62
364.788	340.62
365.015	369.62
365.241	369.62
365.468	379.62
365.694	386.62
365.92	369.62
366.147	357.62
366.373	359.62
366.599	353.62
366.826	357.62
367.052	349.62
367.278	348.62
367.505	360.62
367.731	358.62
367.957	355.62
368.184	350.62
368.41	366.62
368.636	362.62
368.862	387.62
369.089	353.62
369.315	348.62
369.541	359.62
369.767	365.62
369.993	343.62
370.219	366.62
370.445	349.62
370.672	339.62
370.898	337.62
371.124	325.62
371.35	344.62
371.576	343.62
371.802	348.62
372.028	361.62
372.254	353.62
372.48	342.62
372.706	334.62
372.932	353.62
373.158	353.62
373.384	344.62
373.61	335.62
373.835	320.62
374.061	346.62
374.287	351.62
374.513	358.62
374.739	342.62
374.965	347.62
375.191	363.62
375.416	347.62
375.642	338.62
375.868	366.62
376.094	366.62
376.319	332.62
376.545	342.62
376.771	349.62
376.997	347.62
377.222	324.62
377.448	332.62
377.674	370.62
377.899	341.62
378.125	317.62
378.35	346.62
378.576	341.62
378.802	340.62
379.027	345.62
379.253	341.62
379.478	337.62
379.704	356.62
379.929	342.62
380.155	350.62
380.38	346.62
380.606	352.62
380.831	356.62
381.057	344.62
381.282	364.62
381.507	351.62
381.733	336.62
381.958	359.62
382.184	359.62
382.409	329.62
382.634	349.62
382.86	341.62
383.085	338.62
383.31	345.62
383.535	359.62
383.761	358.62
383.986	354.62
384.211	361.62
384.436	373.62
384.662	371.62
384.887	374.62
385.112	353.62
385.337	348.62
385.562	367.62
385.787	353.62
386.013	380.62
386.238	385.62
386.463	381.62
386.688	377.62
386.913	377.62
387.138	369.62
387.363	376.62
387.588	353.62
387.813	347.62
388.038	351.62
388.263	375.62
388.488	349.62
388.713	374.62
388.938	389.62
389.163	372.62
389.387	350.62
389.612	357.62
389.837	357.62
390.062	374.62
390.287	353.62
390.512	377.62
390.736	358.62
390.961	358.62
391.186	364.62
391.411	370.62
391.636	379.62
391.86	386.62
392.085	374.62
392.31	378.62
392.534	378.62
392.759	365.62
392.984	364.62
393.208	375.62
393.433	381.62
393.658	385.62
393.882	381.62
394.107	362.62
394.331	374.62
394.556	355.62
394.78	373.62
395.005	376.62
395.229	367.62
395.454	369.62
395.678	379.62
395.903	402.62
396.127	406.62
396.352	416.62
396.576	398.62
396.801	393.62
397.025	389.62
397.249	369.62
397.474	397.62
397.698	403.62
397.922	421.62
398.147	422.62
398.371	423.62
398.595	410.62
398.82	400.62
399.044	407.62
399.268	416.62
399.492	412.62
399.717	445.62
399.941	478.62
400.165	490.62
400.389	502.62
400.613	457.62
400.837	450.62
401.062	444.62
401.286	412.62
401.51	417.62
401.734	404.62
401.958	421.62
402.182	437.62
402.406	437.62
402.63	434.62
402.854	436.62
403.078	442.62
403.302	433.62
403.526	439.62
403.75	437.62
403.974	421.62
404.198	423.62
404.422	439.62
404.645	443.62
404.869	437.62
405.093	459.62
405.317	517.62
405.541	529.62
405.765	497.62
405.988	451.62
406.212	449.62
406.436	511.62
406.66	506.62
406.883	493.62
407.107	488.62
407.331	521.62
407.555	588.62
407.778	598.62
408.002	535.62
408.226	483.62
408.449	483.62
408.673	497.62
408.896	539.62
409.12	539.62
409.344	514.62
409.567	463.62
409.791	454.62
410.014	447.62
410.238	443.62
410.461	447.62
410.685	430.62
410.908	451.62
411.132	487.62
411.355	547.62
411.578	494.62
411.802	454.62
412.025	436.62
412.249	453.62
412.472	474.62
412.695	470.62
412.919	494.62
413.142	456.62
413.365	429.62
413.589	416.62
413.812	421.62
414.035	413.62
414.258	428.62
414.482	414.62
414.705	429.62
414.928	410.62
415.151	413.62
415.374	417.62
415.597	412.62
415.821	414.62
416.044	419.62
416.267	405.62
416.49	421.62
416.713	392.62
416.936	430.62
417.159	435.62
417.382	403.62
417.605	431.62
417.828	421.62
418.051	445.62
418.274	450.62
418.497	424.62
418.72	419.62
418.943	411.62
419.166	447.62
419.389	473.62
419.611	454.62
419.834	428.62
420.057	446.62
420.28	452.62
420.503	457.62
420.726	447.62
420.948	447.62
421.171	488.62
421.394	526.62
421.617	479.62
421.839	463.62
422.062	434.62
422.285	467.62
422.507	527.62
422.73	609.62
422.953	539.62
423.175	505.62
423.398	489.62
423.621	466.62
423.843	477.62
424.066	515.62
424.288	478.62
424.511	503.62
424.733	548.62
424.956	623.62
425.178	615.62
425.401	616.62
425.623	639.62
425.846	563.62
426.068	497.62
426.291	492.62
426.513	484.62
426.735	525.62
426.958	562.62
427.18	601.62
427.402	708.62
427.625	825.62
427.847	718.62
428.069	613.62
428.292	553.62
428.514	521.62
428.736	461.62
428.958	472.62
429.181	462.62
429.403	459.62
429.625	482.62
429.847	488.62
430.069	542.62
430.292	545.62
430.514	475.62
430.736	470.62
430.958	453.62
431.18	435.62
431.402	420.62
431.624	433.62
431.846	419.62
432.068	409.62
432.29	410.62
432.512	443.62
432.734	411.62
432.956	424.62
433.178	449.62
433.4	429.62
433.622	427.62
433.844	404.62
434.066	424.62
434.287	419.62
434.509	410.62
434.731	417.62
434.953	434.62
435.175	449.62
435.397	466.62
435.618	499.62
435.84	537.62
436.062	615.62
436.284	665.62
436.505	573.62
436.727	519.62
436.949	471.62
437.17	450.62
437.392	471.62
437.614	471.62
437.835	517.62
438.057	615.62
438.278	701.62
438.5	698.62
438.721	739.62
438.943	725.62
439.165	582.62
439.386	547.62
439.608	511.62
439.829	516.62
440.05	532.62
440.272	574.62
440.493	550.62
440.715	490.62
440.936	498.62
441.158	457.62
441.379	464.62
441.6	453.62
441.822	511.62
442.043	527.62
442.264	630.62
442.486	653.62
442.707	565.62
442.928	523.62
443.149	524.62
443.371	544.62
443.592	592.62
443.813	678.62
444.034	685.62
444.255	575.62
444.476	499.62
444.698	501.62
444.919	493.62
445.14	577.62
445.361	557.62
445.582	535.62
445.803	595.62
446.024	692.62
446.245	693.62
446.466	651.62
446.687	565.62
446.908	507.62
447.129	474.62
447.35	471.62
447.571	457.62
447.792	446.62
448.013	449.62
448.234	489.62
448.455	536.62
448.675	649.62
448.896	705.62
449.117	633.62
449.338	591.62
449.559	698.62
449.779	757.62
450	635.62
450.221	516.62
450.442	464.62
450.662	440.62
450.883	479.62
451.104	483.62
451.324	459.62
451.545	465.62
451.766	444.62
451.986	424.62
452.207	408.62
452.428	412.62
452.648	423.62
452.869	420.62
453.089	431.62
453.31	450.62
453.53	427.62
453.751	428.62
453.971	423.62
454.192	451.62
454.412	421.62
454.633	424.62
454.853	423.62
455.073	418.62
455.294	444.62
455.514	507.62
455.734	498.62
455.955	427.62
456.175	385.62
456.395	383.62
456.616	378.62
456.836	377.62
457.056	388.62
457.276	370.62
457.497	380.62
457.717	387.62
457.937	388.62
458.157	379.62
458.377	408.62
458.598	427.62
458.818	502.62
459.038	574.62
459.258	570.62
459.478	475.62
459.698	431.62
459.918	409.62
460.138	417.62
460.358	434.62
460.578	411.62
460.798	407.62
461.018	413.62
461.238	427.62
461.458	408.62
461.678	399.62
461.898	401.62
462.118	399.62
462.338	418.62
462.558	400.62
462.777	428.62
462.997	426.62
463.217	446.62
463.437	435.62
463.657	436.62
463.876	411.62
464.096	440.62
464.316	438.62
464.536	451.62
464.755	451.62
464.975	471.62
465.195	526.62
465.414	578.62
465.634	525.62
465.854	512.62
466.073	423.62
466.293	433.62
466.512	411.62
466.732	421.62
466.951	426.62
467.171	433.62
467.391	411.62
467.61	420.62
467.829	429.62
468.049	421.62
468.268	428.62
468.488	423.62
468.707	422.62
468.927	388.62
469.146	390.62
469.365	414.62
469.585	421.62
469.804	419.62
470.023	443.62
470.243	417.62
470.462	437.62
470.681	441.62
470.901	454.62
471.12	425.62
471.339	427.62
471.558	416.62
471.777	426.62
471.997	398.62
472.216	446.62
472.435	472.62
472.654	451.62
472.873	433.62
473.092	397.62
473.311	415.62
473.53	405.62
473.749	427.62
473.968	470.62
474.187	582.62
474.406	610.62
474.625	501.62
474.844	461.62
475.063	418.62
475.282	413.62
475.501	411.62
475.72	439.62
475.939	450.62
476.158	448.62
476.377	442.62
476.596	425.62
476.814	443.62
477.033	455.62
477.252	439.62
477.471	451.62
477.69	450.62
477.908	440.62
478.127	454.62
478.346	447.62
478.564	457.62
478.783	467.62
479.002	460.62
479.22	480.62
479.439	479.62
479.658	533.62
479.876	491.62
480.095	531.62
480.313	528.62
480.532	537.62
480.751	494.62
480.969	526.62
481.188	579.62
481.406	623.62
481.624	551.62
481.843	541.62
482.061	522.62
482.28	499.62
482.498	484.62
482.717	483.62
482.935	500.62
483.153	493.62
483.372	499.62
483.59	497.62
483.808	477.62
484.027	516.62
484.245	507.62
484.463	490.62
484.681	519.62
484.9	495.62
485.118	490.62
485.336	521.62
485.554	523.62
485.772	503.62
485.99	495.62
486.209	517.62
486.427	536.62
486.645	545.62
486.863	536.62
487.081	550.62
487.299	515.62
487.517	531.62
487.735	533.62
487.953	522.62
488.171	525.62
488.389	546.62
488.607	540.62
488.825	542.62
489.043	537.62
489.261	561.62
489.479	549.62
489.696	552.62
489.914	570.62
490.132	558.62
490.35	549.62
490.568	580.62
490.786	591.62
491.003	597.62
491.221	605.62
491.439	607.62
491.657	630.62
491.874	624.62
492.092	615.62
492.31	609.62
492.527	631.62
492.745	627.62
492.963	622.62
493.18	641.62
493.398	649.62
493.615	650.62
493.833	653.62
494.05	643.62
494.268	643.62
494.485	638.62
494.703	642.62
494.92	643.62
495.138	653.62
495.355	667.62
495.573	665.62
495.79	636.62
496.008	645.62
496.225	655.62
496.442	630.62
496.66	653.62
496.877	649.62
497.094	641.62
497.312	665.62
497.529	661.62
497.746	680.62
497.963	672.62
498.181	690.62
498.398	692.62
498.615	678.62
498.832	686.62
499.049	674.62
499.267	730.62
499.484	723.62
499.701	738.62
499.918	749.62
500.135	752.62
500.352	794.62
500.569	774.62
500.786	789.62
501.003	787.62
501.22	765.62
501.437	774.62
501.654	748.62
501.871	761.62
