Data from 1981.PennyLincolnUp.Lamp.En5.5.200Scan.071819.P1_HRD10591_16-40-39-967.txt Node
Date: Thu Jul 18 16:40:39 EDT 2019
User: cochatt
Spectrometer: HR+D1059
Trigger mode: 1
Integration Time (sec): 1.000000E-1
Scans to average: 1
Electric dark correction enabled: true
Nonlinearity correction enabled: false
Boxcar width: 0
XAxis mode: Wavelengths
Number of Pixels in Spectrum: 2048
>>>>>Begin Spectral Data<<<<<
223.165	-20.81
223.4	-20.81
223.635	-20.81
223.869	-19.81
224.104	-13.81
224.338	-14.81
224.573	-17.81
224.808	-10.81
225.042	-0.81
225.277	-1.81
225.511	8.19
225.746	-5.81
225.98	5.19
226.215	6.19
226.449	20.19
226.683	26.19
226.918	15.19
227.152	25.19
227.387	20.19
227.621	32.19
227.856	34.19
228.09	45.19
228.324	57.19
228.559	59.19
228.793	52.19
229.027	84.19
229.262	105.19
229.496	84.19
229.73	119.19
229.964	133.19
230.199	119.19
230.433	99.19
230.667	109.19
230.901	103.19
231.136	116.19
231.37	106.19
231.604	117.19
231.838	97.19
232.072	87.19
232.306	102.19
232.541	113.19
232.775	111.19
233.009	111.19
233.243	84.19
233.477	124.19
233.711	94.19
233.945	105.19
234.179	102.19
234.413	116.19
234.647	119.19
234.881	119.19
235.115	111.19
235.349	111.19
235.583	108.19
235.817	109.19
236.051	122.19
236.285	127.19
236.519	117.19
236.753	123.19
236.987	133.19
237.221	155.19
237.455	196.19
237.689	165.19
237.922	133.19
238.156	125.19
238.39	123.19
238.624	109.19
238.858	111.19
239.091	117.19
239.325	112.19
239.559	113.19
239.793	123.19
240.027	119.19
240.26	131.19
240.494	134.19
240.728	128.19
240.961	142.19
241.195	129.19
241.429	129.19
241.662	130.19
241.896	117.19
242.13	106.19
242.363	131.19
242.597	123.19
242.83	125.19
243.064	144.19
243.298	134.19
243.531	120.19
243.765	124.19
243.998	133.19
244.232	130.19
244.465	134.19
244.699	134.19
244.932	139.19
245.166	137.19
245.399	141.19
245.633	148.19
245.866	141.19
246.099	135.19
246.333	154.19
246.566	141.19
246.8	147.19
247.033	164.19
247.266	154.19
247.5	152.19
247.733	156.19
247.966	170.19
248.2	148.19
248.433	167.19
248.666	164.19
248.899	177.19
249.133	169.19
249.366	199.19
249.599	190.19
249.832	189.19
250.066	180.19
250.299	170.19
250.532	188.19
250.765	199.19
250.998	199.19
251.231	201.19
251.465	203.19
251.698	197.19
251.931	200.19
252.164	205.19
252.397	191.19
252.63	186.19
252.863	194.19
253.096	198.19
253.329	203.19
253.562	198.19
253.795	226.19
254.028	200.19
254.261	207.19
254.494	209.19
254.727	239.19
254.96	251.19
255.193	244.19
255.426	239.19
255.659	237.19
255.892	226.19
256.124	213.19
256.357	206.19
256.59	204.19
256.823	220.19
257.056	212.19
257.289	210.19
257.521	201.19
257.754	193.19
257.987	208.19
258.22	198.19
258.452	194.19
258.685	182.19
258.918	200.19
259.151	208.19
259.383	209.19
259.616	204.19
259.849	218.19
260.081	219.19
260.314	229.19
260.547	235.19
260.779	224.19
261.012	209.19
261.244	212.19
261.477	213.19
261.71	223.19
261.942	222.19
262.175	215.19
262.407	214.19
262.64	198.19
262.872	199.19
263.105	210.19
263.337	204.19
263.57	188.19
263.802	209.19
264.035	186.19
264.267	191.19
264.499	194.19
264.732	203.19
264.964	199.19
265.197	181.19
265.429	204.19
265.661	206.19
265.894	212.19
266.126	206.19
266.358	216.19
266.591	229.19
266.823	209.19
267.055	212.19
267.287	203.19
267.52	215.19
267.752	215.19
267.984	212.19
268.216	214.19
268.448	216.19
268.681	228.19
268.913	235.19
269.145	246.19
269.377	242.19
269.609	253.19
269.841	249.19
270.073	248.19
270.306	268.19
270.538	290.19
270.77	295.19
271.002	260.19
271.234	269.19
271.466	275.19
271.698	300.19
271.93	290.19
272.162	279.19
272.394	284.19
272.626	275.19
272.858	258.19
273.09	254.19
273.322	237.19
273.553	255.19
273.785	255.19
274.017	253.19
274.249	249.19
274.481	248.19
274.713	243.19
274.945	251.19
275.176	232.19
275.408	254.19
275.64	249.19
275.872	250.19
276.104	249.19
276.335	256.19
276.567	267.19
276.799	261.19
277.031	266.19
277.262	283.19
277.494	296.19
277.726	274.19
277.957	279.19
278.189	264.19
278.421	252.19
278.652	252.19
278.884	249.19
279.115	258.19
279.347	243.19
279.579	254.19
279.81	259.19
280.042	255.19
280.273	228.19
280.505	251.19
280.736	238.19
280.968	235.19
281.199	215.19
281.431	236.19
281.662	249.19
281.894	243.19
282.125	254.19
282.356	243.19
282.588	275.19
282.819	261.19
283.051	265.19
283.282	248.19
283.513	264.19
283.745	266.19
283.976	263.19
284.207	245.19
284.439	273.19
284.67	245.19
284.901	257.19
285.132	247.19
285.364	239.19
285.595	241.19
285.826	262.19
286.057	259.19
286.288	247.19
286.52	267.19
286.751	260.19
286.982	260.19
287.213	233.19
287.444	231.19
287.675	246.19
287.906	271.19
288.138	271.19
288.369	277.19
288.6	282.19
288.831	274.19
289.062	249.19
289.293	247.19
289.524	253.19
289.755	262.19
289.986	262.19
290.217	274.19
290.448	268.19
290.679	251.19
290.91	259.19
291.141	252.19
291.371	267.19
291.602	267.19
291.833	243.19
292.064	264.19
292.295	273.19
292.526	263.19
292.757	263.19
292.987	277.19
293.218	249.19
293.449	246.19
293.68	257.19
293.91	266.19
294.141	253.19
294.372	261.19
294.603	279.19
294.833	273.19
295.064	251.19
295.295	251.19
295.525	249.19
295.756	265.19
295.987	272.19
296.217	280.19
296.448	276.19
296.679	251.19
296.909	272.19
297.14	250.19
297.37	265.19
297.601	272.19
297.831	287.19
298.062	273.19
298.292	281.19
298.523	270.19
298.753	272.19
298.984	277.19
299.214	293.19
299.445	283.19
299.675	291.19
299.905	287.19
300.136	281.19
300.366	267.19
300.597	275.19
300.827	279.19
301.057	289.19
301.288	304.19
301.518	289.19
301.748	284.19
301.979	299.19
302.209	290.19
302.439	288.19
302.669	307.19
302.9	284.19
303.13	263.19
303.36	291.19
303.59	293.19
303.82	314.19
304.051	298.19
304.281	297.19
304.511	289.19
304.741	292.19
304.971	285.19
305.201	264.19
305.431	294.19
305.661	295.19
305.891	303.19
306.121	293.19
306.352	311.19
306.582	311.19
306.812	297.19
307.042	294.19
307.272	294.19
307.502	297.19
307.731	289.19
307.961	282.19
308.191	294.19
308.421	292.19
308.651	319.19
308.881	293.19
309.111	308.19
309.341	314.19
309.571	316.19
309.8	332.19
310.03	329.19
310.26	327.19
310.49	343.19
310.72	343.19
310.949	356.19
311.179	350.19
311.409	336.19
311.639	328.19
311.868	343.19
312.098	356.19
312.328	358.19
312.557	337.19
312.787	365.19
313.017	346.19
313.246	346.19
313.476	343.19
313.706	331.19
313.935	325.19
314.165	356.19
314.394	357.19
314.624	347.19
314.853	345.19
315.083	332.19
315.312	360.19
315.542	339.19
315.771	353.19
316.001	348.19
316.23	326.19
316.46	323.19
316.689	341.19
316.919	327.19
317.148	345.19
317.377	356.19
317.607	347.19
317.836	355.19
318.065	346.19
318.295	334.19
318.524	341.19
318.753	336.19
318.983	345.19
319.212	323.19
319.441	340.19
319.67	329.19
319.9	342.19
320.129	315.19
320.358	341.19
320.587	351.19
320.816	356.19
321.046	378.19
321.275	367.19
321.504	361.19
321.733	366.19
321.962	359.19
322.191	391.19
322.42	397.19
322.649	395.19
322.878	412.19
323.108	412.19
323.337	453.19
323.566	451.19
323.795	482.19
324.024	547.19
324.253	635.19
324.482	902.19
324.71	1400.19
324.939	1880.19
325.168	1600.19
325.397	876.19
325.626	593.19
325.855	512.19
326.084	441.19
326.313	459.19
326.542	466.19
326.77	502.19
326.999	595.19
327.228	796.19
327.457	1171.19
327.686	1407.19
327.914	937.19
328.143	646.19
328.372	569.19
328.6	501.19
328.829	508.19
329.058	519.19
329.287	513.19
329.515	493.19
329.744	463.19
329.972	444.19
330.201	468.19
330.43	481.19
330.658	506.19
330.887	511.19
331.115	507.19
331.344	465.19
331.572	440.19
331.801	422.19
332.03	412.19
332.258	410.19
332.486	390.19
332.715	389.19
332.943	392.19
333.172	403.19
333.4	367.19
333.629	398.19
333.857	393.19
334.085	403.19
334.314	411.19
334.542	447.19
334.771	432.19
334.999	420.19
335.227	395.19
335.455	377.19
335.684	409.19
335.912	405.19
336.14	388.19
336.369	394.19
336.597	385.19
336.825	387.19
337.053	389.19
337.281	371.19
337.51	378.19
337.738	391.19
337.966	392.19
338.194	390.19
338.422	362.19
338.65	380.19
338.878	362.19
339.106	387.19
339.334	373.19
339.562	368.19
339.79	384.19
340.018	381.19
340.246	367.19
340.474	386.19
340.702	389.19
340.93	363.19
341.158	385.19
341.386	389.19
341.614	390.19
341.842	391.19
342.07	362.19
342.298	361.19
342.526	379.19
342.754	367.19
342.981	359.19
343.209	357.19
343.437	382.19
343.665	353.19
343.893	352.19
344.12	375.19
344.348	375.19
344.576	381.19
344.804	367.19
345.031	409.19
345.259	376.19
345.487	392.19
345.714	393.19
345.942	377.19
346.17	395.19
346.397	369.19
346.625	374.19
346.853	365.19
347.08	366.19
347.308	383.19
347.535	387.19
347.763	375.19
347.99	379.19
348.218	373.19
348.445	353.19
348.673	369.19
348.9	353.19
349.128	343.19
349.355	351.19
349.583	368.19
349.81	347.19
350.037	350.19
350.265	346.19
350.492	355.19
350.72	356.19
350.947	353.19
351.174	362.19
351.402	379.19
351.629	346.19
351.856	348.19
352.083	374.19
352.311	378.19
352.538	395.19
352.765	376.19
352.992	365.19
353.22	354.19
353.447	355.19
353.674	348.19
353.901	339.19
354.128	344.19
354.355	352.19
354.583	347.19
354.81	322.19
355.037	343.19
355.264	331.19
355.491	340.19
355.718	331.19
355.945	322.19
356.172	321.19
356.399	331.19
356.626	331.19
356.853	339.19
357.08	327.19
357.307	345.19
357.534	324.19
357.761	330.19
357.988	343.19
358.215	329.19
358.441	356.19
358.668	333.19
358.895	333.19
359.122	349.19
359.349	347.19
359.576	359.19
359.802	370.19
360.029	405.19
360.256	401.19
360.483	394.19
360.709	352.19
360.936	357.19
361.163	359.19
361.39	343.19
361.616	362.19
361.843	348.19
362.07	363.19
362.296	350.19
362.523	350.19
362.749	337.19
362.976	329.19
363.203	332.19
363.429	341.19
363.656	345.19
363.882	338.19
364.109	328.19
364.335	346.19
364.562	337.19
364.788	337.19
365.015	333.19
365.241	354.19
365.468	354.19
365.694	359.19
365.92	344.19
366.147	316.19
366.373	304.19
366.599	347.19
366.826	337.19
367.052	337.19
367.278	356.19
367.505	340.19
367.731	340.19
367.957	331.19
368.184	361.19
368.41	337.19
368.636	317.19
368.862	350.19
369.089	344.19
369.315	337.19
369.541	328.19
369.767	331.19
369.993	321.19
370.219	362.19
370.445	334.19
370.672	309.19
370.898	329.19
371.124	333.19
371.35	308.19
371.576	316.19
371.802	326.19
372.028	323.19
372.254	326.19
372.48	332.19
372.706	323.19
372.932	336.19
373.158	317.19
373.384	305.19
373.61	327.19
373.835	318.19
374.061	336.19
374.287	346.19
374.513	327.19
374.739	324.19
374.965	337.19
375.191	317.19
375.416	341.19
375.642	334.19
375.868	333.19
376.094	336.19
376.319	314.19
376.545	317.19
376.771	315.19
376.997	336.19
377.222	331.19
377.448	335.19
377.674	314.19
377.899	319.19
378.125	309.19
378.35	333.19
378.576	322.19
378.802	307.19
379.027	315.19
379.253	328.19
379.478	330.19
379.704	304.19
379.929	328.19
380.155	306.19
380.38	332.19
380.606	323.19
380.831	323.19
381.057	332.19
381.282	336.19
381.507	319.19
381.733	331.19
381.958	327.19
382.184	331.19
382.409	340.19
382.634	333.19
382.86	323.19
383.085	321.19
383.31	314.19
383.535	345.19
383.761	329.19
383.986	322.19
384.211	328.19
384.436	337.19
384.662	321.19
384.887	340.19
385.112	330.19
385.337	351.19
385.562	339.19
385.787	345.19
386.013	353.19
386.238	352.19
386.463	367.19
386.688	344.19
386.913	329.19
387.138	331.19
387.363	332.19
387.588	347.19
387.813	356.19
388.038	349.19
388.263	330.19
388.488	322.19
388.713	356.19
388.938	326.19
389.163	340.19
389.387	339.19
389.612	324.19
389.837	332.19
390.062	344.19
390.287	333.19
390.512	336.19
390.736	343.19
390.961	328.19
391.186	319.19
391.411	367.19
391.636	353.19
391.86	336.19
392.085	344.19
392.31	351.19
392.534	329.19
392.759	340.19
392.984	347.19
393.208	345.19
393.433	336.19
393.658	344.19
393.882	338.19
394.107	337.19
394.331	336.19
394.556	340.19
394.78	342.19
395.005	351.19
395.229	367.19
395.454	343.19
395.678	335.19
395.903	361.19
396.127	371.19
396.352	371.19
396.576	352.19
396.801	332.19
397.025	355.19
397.249	349.19
397.474	360.19
397.698	356.19
397.922	360.19
398.147	373.19
398.371	365.19
398.595	379.19
398.82	359.19
399.044	381.19
399.268	376.19
399.492	405.19
399.717	400.19
399.941	438.19
400.165	469.19
400.389	442.19
400.613	437.19
400.837	395.19
401.062	373.19
401.286	387.19
401.51	384.19
401.734	372.19
401.958	374.19
402.182	385.19
402.406	385.19
402.63	398.19
402.854	381.19
403.078	381.19
403.302	385.19
403.526	389.19
403.75	397.19
403.974	391.19
404.198	372.19
404.422	394.19
404.645	387.19
404.869	378.19
405.093	397.19
405.317	428.19
405.541	469.19
405.765	421.19
405.988	413.19
406.212	429.19
406.436	434.19
406.66	467.19
406.883	415.19
407.107	450.19
407.331	453.19
407.555	550.19
407.778	527.19
408.002	489.19
408.226	440.19
408.449	431.19
408.673	427.19
408.896	459.19
409.12	497.19
409.344	452.19
409.567	389.19
409.791	408.19
410.014	394.19
410.238	367.19
410.461	412.19
410.685	396.19
410.908	405.19
411.132	425.19
411.355	457.19
411.578	440.19
411.802	384.19
412.025	388.19
412.249	394.19
412.472	405.19
412.695	411.19
412.919	405.19
413.142	386.19
413.365	354.19
413.589	374.19
413.812	381.19
414.035	387.19
414.258	374.19
414.482	360.19
414.705	377.19
414.928	354.19
415.151	373.19
415.374	363.19
415.597	367.19
415.821	373.19
416.044	378.19
416.267	377.19
416.49	372.19
416.713	355.19
416.936	361.19
417.159	356.19
417.382	372.19
417.605	355.19
417.828	373.19
418.051	403.19
418.274	383.19
418.497	357.19
418.72	351.19
418.943	355.19
419.166	364.19
419.389	371.19
419.611	379.19
419.834	389.19
420.057	384.19
420.28	384.19
420.503	392.19
420.726	384.19
420.948	397.19
421.171	432.19
421.394	448.19
421.617	396.19
421.839	385.19
422.062	388.19
422.285	392.19
422.507	439.19
422.73	501.19
422.953	477.19
423.175	415.19
423.398	384.19
423.621	402.19
423.843	420.19
424.066	418.19
424.288	411.19
424.511	439.19
424.733	452.19
424.956	532.19
425.178	520.19
425.401	520.19
425.623	491.19
425.846	439.19
426.068	432.19
426.291	426.19
426.513	413.19
426.735	421.19
426.958	468.19
427.18	524.19
427.402	595.19
427.625	666.19
427.847	613.19
428.069	522.19
428.292	458.19
428.514	412.19
428.736	417.19
428.958	395.19
429.181	387.19
429.403	389.19
429.625	408.19
429.847	441.19
430.069	487.19
430.292	484.19
430.514	401.19
430.736	387.19
430.958	391.19
431.18	367.19
431.402	386.19
431.624	364.19
431.846	356.19
432.068	346.19
432.29	360.19
432.512	352.19
432.734	385.19
432.956	345.19
433.178	379.19
433.4	393.19
433.622	366.19
433.844	365.19
434.066	355.19
434.287	362.19
434.509	369.19
434.731	378.19
434.953	400.19
435.175	407.19
435.397	420.19
435.618	424.19
435.84	447.19
436.062	526.19
436.284	584.19
436.505	473.19
436.727	435.19
436.949	399.19
437.17	399.19
437.392	392.19
437.614	391.19
437.835	438.19
438.057	502.19
438.278	553.19
438.5	569.19
438.721	635.19
438.943	620.19
439.165	478.19
439.386	444.19
439.608	405.19
439.829	441.19
440.05	456.19
440.272	483.19
440.493	448.19
440.715	419.19
440.936	411.19
441.158	405.19
441.379	392.19
441.6	397.19
441.822	425.19
442.043	429.19
442.264	517.19
442.486	563.19
442.707	461.19
442.928	426.19
443.149	433.19
443.371	447.19
443.592	473.19
443.813	563.19
444.034	585.19
444.255	496.19
444.476	431.19
444.698	421.19
444.919	396.19
445.14	498.19
445.361	463.19
445.582	451.19
445.803	508.19
446.024	590.19
446.245	603.19
446.466	541.19
446.687	461.19
446.908	424.19
447.129	426.19
447.35	383.19
447.571	384.19
447.792	390.19
448.013	404.19
448.234	428.19
448.455	458.19
448.675	565.19
448.896	611.19
449.117	519.19
449.338	499.19
449.559	573.19
449.779	638.19
450	535.19
450.221	444.19
450.442	396.19
450.662	402.19
450.883	397.19
451.104	389.19
451.324	393.19
451.545	377.19
451.766	364.19
451.986	360.19
452.207	342.19
452.428	358.19
452.648	363.19
452.869	359.19
453.089	353.19
453.31	374.19
453.53	341.19
453.751	354.19
453.971	358.19
454.192	347.19
454.412	358.19
454.633	353.19
454.853	338.19
455.073	342.19
455.294	374.19
455.514	424.19
455.734	410.19
455.955	346.19
456.175	326.19
456.395	327.19
456.616	314.19
456.836	338.19
457.056	326.19
457.276	309.19
457.497	323.19
457.717	316.19
457.937	324.19
458.157	342.19
458.377	345.19
458.598	367.19
458.818	413.19
459.038	471.19
459.258	461.19
459.478	385.19
459.698	388.19
459.918	367.19
460.138	362.19
460.358	356.19
460.578	342.19
460.798	361.19
461.018	362.19
461.238	372.19
461.458	348.19
461.678	353.19
461.898	356.19
462.118	345.19
462.338	367.19
462.558	376.19
462.777	379.19
462.997	373.19
463.217	384.19
463.437	404.19
463.657	379.19
463.876	395.19
464.096	351.19
464.316	367.19
464.536	383.19
464.755	383.19
464.975	386.19
465.195	418.19
465.414	476.19
465.634	416.19
465.854	389.19
466.073	347.19
466.293	382.19
466.512	368.19
466.732	340.19
466.951	339.19
467.171	329.19
467.391	361.19
467.61	340.19
467.829	353.19
468.049	376.19
468.268	367.19
468.488	343.19
468.707	353.19
468.927	341.19
469.146	351.19
469.365	341.19
469.585	341.19
469.804	366.19
470.023	365.19
470.243	359.19
470.462	369.19
470.681	362.19
470.901	373.19
471.12	356.19
471.339	347.19
471.558	346.19
471.777	371.19
471.997	353.19
472.216	358.19
472.435	370.19
472.654	367.19
472.873	358.19
473.092	371.19
473.311	373.19
473.53	349.19
473.749	357.19
473.968	388.19
474.187	485.19
474.406	504.19
474.625	400.19
474.844	378.19
475.063	369.19
475.282	364.19
475.501	365.19
475.72	361.19
475.939	373.19
476.158	353.19
476.377	371.19
476.596	371.19
476.814	374.19
477.033	375.19
477.252	377.19
477.471	373.19
477.69	368.19
477.908	378.19
478.127	386.19
478.346	387.19
478.564	397.19
478.783	378.19
479.002	433.19
479.22	403.19
479.439	403.19
479.658	416.19
479.876	418.19
480.095	424.19
480.313	441.19
480.532	425.19
480.751	422.19
480.969	419.19
481.188	464.19
481.406	475.19
481.624	443.19
481.843	415.19
482.061	405.19
482.28	409.19
482.498	423.19
482.717	419.19
482.935	396.19
483.153	408.19
483.372	412.19
483.59	428.19
483.808	410.19
484.027	414.19
484.245	436.19
484.463	431.19
484.681	447.19
484.9	443.19
485.118	419.19
485.336	420.19
485.554	433.19
485.772	441.19
485.99	432.19
486.209	431.19
486.427	416.19
486.645	443.19
486.863	452.19
487.081	452.19
487.299	448.19
487.517	477.19
487.735	467.19
487.953	455.19
488.171	447.19
488.389	437.19
488.607	458.19
488.825	435.19
489.043	449.19
489.261	443.19
489.479	452.19
489.696	452.19
489.914	465.19
490.132	463.19
490.35	455.19
490.568	475.19
490.786	457.19
491.003	476.19
491.221	498.19
491.439	481.19
491.657	491.19
491.874	505.19
492.092	507.19
492.31	519.19
492.527	493.19
492.745	508.19
492.963	500.19
493.18	492.19
493.398	522.19
493.615	523.19
493.833	539.19
494.05	533.19
494.268	533.19
494.485	517.19
494.703	513.19
494.92	512.19
495.138	505.19
495.355	529.19
495.573	540.19
495.79	531.19
496.008	528.19
496.225	525.19
496.442	517.19
496.66	537.19
496.877	524.19
497.094	498.19
497.312	546.19
497.529	537.19
497.746	569.19
497.963	539.19
498.181	563.19
498.398	539.19
498.615	578.19
498.832	567.19
499.049	586.19
499.267	625.19
499.484	593.19
499.701	581.19
499.918	671.19
500.135	641.19
500.352	655.19
500.569	673.19
500.786	667.19
501.003	675.19
501.22	664.19
501.437	649.19
501.654	658.19
501.871	655.19
502.088	644.19
