Data from 1981.PennyLincolnUp.Lamp.En5.5.200Scan.071819.P1_HRD10591_16-43-39-960.txt Node
Date: Thu Jul 18 16:43:39 EDT 2019
User: cochatt
Spectrometer: HR+D1059
Trigger mode: 1
Integration Time (sec): 1.000000E-1
Scans to average: 1
Electric dark correction enabled: true
Nonlinearity correction enabled: false
Boxcar width: 0
XAxis mode: Wavelengths
Number of Pixels in Spectrum: 2048
>>>>>Begin Spectral Data<<<<<
223.165	-23.31
223.4	-23.31
223.635	-23.31
223.869	-14.31
224.104	-16.31
224.338	-25.31
224.573	-21.31
224.808	-7.31
225.042	3.69
225.277	-17.31
225.511	4.69
225.746	11.69
225.98	4.69
226.215	21.69
226.449	11.69
226.683	13.69
226.918	26.69
227.152	26.69
227.387	37.69
227.621	35.69
227.856	38.69
228.09	39.69
228.324	45.69
228.559	52.69
228.793	74.69
229.027	99.69
229.262	111.69
229.496	115.69
229.73	134.69
229.964	154.69
230.199	140.69
230.433	113.69
230.667	122.69
230.901	113.69
231.136	109.69
231.37	106.69
231.604	116.69
231.838	119.69
232.072	99.69
232.306	122.69
232.541	109.69
232.775	109.69
233.009	104.69
233.243	102.69
233.477	120.69
233.711	107.69
233.945	131.69
234.179	118.69
234.413	106.69
234.647	117.69
234.881	112.69
235.115	109.69
235.349	113.69
235.583	127.69
235.817	106.69
236.051	127.69
236.285	122.69
236.519	143.69
236.753	143.69
236.987	137.69
237.221	169.69
237.455	241.69
237.689	208.69
237.922	141.69
238.156	147.69
238.39	129.69
238.624	121.69
238.858	125.69
239.091	112.69
239.325	122.69
239.559	107.69
239.793	118.69
240.027	124.69
240.26	140.69
240.494	163.69
240.728	152.69
240.961	149.69
241.195	136.69
241.429	138.69
241.662	135.69
241.896	149.69
242.13	137.69
242.363	141.69
242.597	129.69
242.83	135.69
243.064	118.69
243.298	137.69
243.531	156.69
243.765	133.69
243.998	143.69
244.232	137.69
244.465	142.69
244.699	160.69
244.932	141.69
245.166	143.69
245.399	151.69
245.633	153.69
245.866	151.69
246.099	152.69
246.333	150.69
246.566	155.69
246.8	169.69
247.033	160.69
247.266	159.69
247.5	159.69
247.733	181.69
247.966	185.69
248.2	178.69
248.433	185.69
248.666	192.69
248.899	180.69
249.133	197.69
249.366	233.69
249.599	215.69
249.832	196.69
250.066	180.69
250.299	204.69
250.532	198.69
250.765	207.69
250.998	226.69
251.231	223.69
251.465	227.69
251.698	221.69
251.931	193.69
252.164	215.69
252.397	200.69
252.63	212.69
252.863	228.69
253.096	235.69
253.329	235.69
253.562	240.69
253.795	255.69
254.028	232.69
254.261	236.69
254.494	259.69
254.727	267.69
254.96	290.69
255.193	289.69
255.426	248.69
255.659	268.69
255.892	255.69
256.124	264.69
256.357	252.69
256.59	235.69
256.823	243.69
257.056	218.69
257.289	227.69
257.521	235.69
257.754	227.69
257.987	215.69
258.22	232.69
258.452	207.69
258.685	214.69
258.918	229.69
259.151	220.69
259.383	230.69
259.616	242.69
259.849	247.69
260.081	252.69
260.314	277.69
260.547	285.69
260.779	261.69
261.012	242.69
261.244	240.69
261.477	215.69
261.71	239.69
261.942	243.69
262.175	250.69
262.407	255.69
262.64	232.69
262.872	232.69
263.105	218.69
263.337	226.69
263.57	214.69
263.802	203.69
264.035	215.69
264.267	212.69
264.499	206.69
264.732	227.69
264.964	221.69
265.197	218.69
265.429	201.69
265.661	213.69
265.894	208.69
266.126	236.69
266.358	226.69
266.591	226.69
266.823	239.69
267.055	253.69
267.287	226.69
267.52	217.69
267.752	230.69
267.984	242.69
268.216	248.69
268.448	249.69
268.681	232.69
268.913	263.69
269.145	284.69
269.377	273.69
269.609	280.69
269.841	284.69
270.073	286.69
270.306	319.69
270.538	340.69
270.77	340.69
271.002	331.69
271.234	323.69
271.466	340.69
271.698	343.69
271.93	349.69
272.162	346.69
272.394	356.69
272.626	338.69
272.858	314.69
273.09	297.69
273.322	280.69
273.553	312.69
273.785	289.69
274.017	285.69
274.249	296.69
274.481	285.69
274.713	282.69
274.945	266.69
275.176	291.69
275.408	283.69
275.64	292.69
275.872	273.69
276.104	276.69
276.335	253.69
276.567	282.69
276.799	314.69
277.031	337.69
277.262	345.69
277.494	330.69
277.726	326.69
277.957	314.69
278.189	304.69
278.421	280.69
278.652	284.69
278.884	282.69
279.115	274.69
279.347	277.69
279.579	270.69
279.81	269.69
280.042	281.69
280.273	286.69
280.505	270.69
280.736	292.69
280.968	291.69
281.199	265.69
281.431	283.69
281.662	291.69
281.894	286.69
282.125	299.69
282.356	282.69
282.588	301.69
282.819	311.69
283.051	275.69
283.282	267.69
283.513	301.69
283.745	300.69
283.976	293.69
284.207	287.69
284.439	290.69
284.67	273.69
284.901	289.69
285.132	288.69
285.364	287.69
285.595	290.69
285.826	298.69
286.057	290.69
286.288	291.69
286.52	288.69
286.751	269.69
286.982	305.69
287.213	302.69
287.444	299.69
287.675	309.69
287.906	303.69
288.138	313.69
288.369	317.69
288.6	308.69
288.831	315.69
289.062	322.69
289.293	307.69
289.524	307.69
289.755	279.69
289.986	297.69
290.217	288.69
290.448	280.69
290.679	303.69
290.91	299.69
291.141	293.69
291.371	296.69
291.602	305.69
291.833	281.69
292.064	282.69
292.295	298.69
292.526	299.69
292.757	293.69
292.987	295.69
293.218	294.69
293.449	288.69
293.68	290.69
293.91	286.69
294.141	300.69
294.372	287.69
294.603	291.69
294.833	293.69
295.064	284.69
295.295	295.69
295.525	297.69
295.756	297.69
295.987	297.69
296.217	353.69
296.448	338.69
296.679	320.69
296.909	296.69
297.14	291.69
297.37	308.69
297.601	305.69
297.831	311.69
298.062	321.69
298.292	299.69
298.523	310.69
298.753	324.69
298.984	305.69
299.214	315.69
299.445	307.69
299.675	310.69
299.905	312.69
300.136	311.69
300.366	307.69
300.597	312.69
300.827	332.69
301.057	315.69
301.288	330.69
301.518	320.69
301.748	325.69
301.979	332.69
302.209	336.69
302.439	324.69
302.669	353.69
302.9	330.69
303.13	338.69
303.36	348.69
303.59	339.69
303.82	342.69
304.051	357.69
304.281	341.69
304.511	315.69
304.741	328.69
304.971	328.69
305.201	343.69
305.431	324.69
305.661	336.69
305.891	331.69
306.121	339.69
306.352	312.69
306.582	347.69
306.812	341.69
307.042	331.69
307.272	337.69
307.502	335.69
307.731	344.69
307.961	352.69
308.191	333.69
308.421	355.69
308.651	340.69
308.881	340.69
309.111	343.69
309.341	353.69
309.571	372.69
309.8	367.69
310.03	369.69
310.26	400.69
310.49	396.69
310.72	403.69
310.949	426.69
311.179	412.69
311.409	412.69
311.639	389.69
311.868	382.69
312.098	387.69
312.328	400.69
312.557	449.69
312.787	452.69
313.017	442.69
313.246	413.69
313.476	398.69
313.706	381.69
313.935	383.69
314.165	420.69
314.394	412.69
314.624	414.69
314.853	409.69
315.083	400.69
315.312	392.69
315.542	390.69
315.771	385.69
316.001	406.69
316.23	385.69
316.46	386.69
316.689	388.69
316.919	383.69
317.148	403.69
317.377	398.69
317.607	408.69
317.836	420.69
318.065	405.69
318.295	395.69
318.524	389.69
318.753	402.69
318.983	386.69
319.212	404.69
319.441	404.69
319.67	424.69
319.9	397.69
320.129	388.69
320.358	390.69
320.587	402.69
320.816	422.69
321.046	407.69
321.275	403.69
321.504	427.69
321.733	420.69
321.962	454.69
322.191	454.69
322.42	463.69
322.649	471.69
322.878	478.69
323.108	511.69
323.337	548.69
323.566	556.69
323.795	607.69
324.024	679.69
324.253	827.69
324.482	1223.69
324.71	1869.69
324.939	2589.69
325.168	2197.69
325.397	1138.69
325.626	771.69
325.855	636.69
326.084	577.69
326.313	577.69
326.542	574.69
326.77	636.69
326.999	756.69
327.228	1113.69
327.457	1580.69
327.686	1837.69
327.914	1259.69
328.143	839.69
328.372	715.69
328.6	655.69
328.829	643.69
329.058	657.69
329.287	662.69
329.515	612.69
329.744	574.69
329.972	556.69
330.201	594.69
330.43	646.69
330.658	655.69
330.887	672.69
331.115	643.69
331.344	580.69
331.572	505.69
331.801	525.69
332.03	525.69
332.258	482.69
332.486	475.69
332.715	455.69
332.943	442.69
333.172	472.69
333.4	458.69
333.629	477.69
333.857	490.69
334.085	487.69
334.314	492.69
334.542	531.69
334.771	558.69
334.999	531.69
335.227	497.69
335.455	486.69
335.684	468.69
335.912	451.69
336.14	449.69
336.369	439.69
336.597	455.69
336.825	448.69
337.053	459.69
337.281	445.69
337.51	421.69
337.738	426.69
337.966	452.69
338.194	461.69
338.422	447.69
338.65	452.69
338.878	461.69
339.106	437.69
339.334	409.69
339.562	408.69
339.79	431.69
340.018	416.69
340.246	428.69
340.474	447.69
340.702	434.69
340.93	425.69
341.158	417.69
341.386	428.69
341.614	436.69
341.842	403.69
342.07	438.69
342.298	436.69
342.526	417.69
342.754	414.69
342.981	412.69
343.209	413.69
343.437	417.69
343.665	444.69
343.893	425.69
344.12	416.69
344.348	417.69
344.576	420.69
344.804	431.69
345.031	414.69
345.259	445.69
345.487	438.69
345.714	435.69
345.942	408.69
346.17	412.69
346.397	407.69
346.625	415.69
346.853	395.69
347.08	395.69
347.308	425.69
347.535	446.69
347.763	447.69
347.99	423.69
348.218	428.69
348.445	436.69
348.673	432.69
348.9	414.69
349.128	415.69
349.355	408.69
349.583	411.69
349.81	411.69
350.037	402.69
350.265	408.69
350.492	368.69
350.72	399.69
350.947	407.69
351.174	426.69
351.402	425.69
351.629	436.69
351.856	431.69
352.083	423.69
352.311	419.69
352.538	412.69
352.765	424.69
352.992	445.69
353.22	413.69
353.447	423.69
353.674	407.69
353.901	395.69
354.128	387.69
354.355	380.69
354.583	392.69
354.81	375.69
355.037	377.69
355.264	372.69
355.491	381.69
355.718	356.69
355.945	382.69
356.172	389.69
356.399	386.69
356.626	372.69
356.853	365.69
357.08	364.69
357.307	347.69
357.534	372.69
357.761	363.69
357.988	360.69
358.215	367.69
358.441	380.69
358.668	377.69
358.895	400.69
359.122	383.69
359.349	391.69
359.576	409.69
359.802	435.69
360.029	463.69
360.256	483.69
360.483	448.69
360.709	420.69
360.936	421.69
361.163	420.69
361.39	406.69
361.616	409.69
361.843	379.69
362.07	414.69
362.296	425.69
362.523	413.69
362.749	419.69
362.976	404.69
363.203	393.69
363.429	365.69
363.656	385.69
363.882	372.69
364.109	393.69
364.335	383.69
364.562	387.69
364.788	383.69
365.015	388.69
365.241	371.69
365.468	389.69
365.694	387.69
365.92	377.69
366.147	379.69
366.373	370.69
366.599	361.69
366.826	383.69
367.052	365.69
367.278	377.69
367.505	384.69
367.731	363.69
367.957	375.69
368.184	373.69
368.41	397.69
368.636	392.69
368.862	408.69
369.089	387.69
369.315	369.69
369.541	371.69
369.767	370.69
369.993	370.69
370.219	359.69
370.445	366.69
370.672	361.69
370.898	375.69
371.124	356.69
371.35	382.69
371.576	355.69
371.802	349.69
372.028	361.69
372.254	375.69
372.48	361.69
372.706	364.69
372.932	353.69
373.158	362.69
373.384	352.69
373.61	350.69
373.835	363.69
374.061	389.69
374.287	387.69
374.513	352.69
374.739	353.69
374.965	373.69
375.191	376.69
375.416	372.69
375.642	349.69
375.868	365.69
376.094	376.69
376.319	362.69
376.545	359.69
376.771	362.69
376.997	352.69
377.222	354.69
377.448	353.69
377.674	364.69
377.899	344.69
378.125	362.69
378.35	339.69
378.576	339.69
378.802	357.69
379.027	345.69
379.253	346.69
379.478	358.69
379.704	355.69
379.929	347.69
380.155	377.69
380.38	346.69
380.606	364.69
380.831	361.69
381.057	356.69
381.282	349.69
381.507	345.69
381.733	346.69
381.958	343.69
382.184	324.69
382.409	356.69
382.634	352.69
382.86	368.69
383.085	369.69
383.31	375.69
383.535	356.69
383.761	383.69
383.986	380.69
384.211	363.69
384.436	365.69
384.662	367.69
384.887	360.69
385.112	367.69
385.337	381.69
385.562	371.69
385.787	399.69
386.013	374.69
386.238	388.69
386.463	392.69
386.688	383.69
386.913	367.69
387.138	364.69
387.363	364.69
387.588	391.69
387.813	361.69
388.038	370.69
388.263	377.69
388.488	379.69
388.713	364.69
388.938	371.69
389.163	377.69
389.387	387.69
389.612	383.69
389.837	360.69
390.062	372.69
390.287	367.69
390.512	373.69
390.736	363.69
390.961	367.69
391.186	369.69
391.411	381.69
391.636	369.69
391.86	372.69
392.085	376.69
392.31	375.69
392.534	369.69
392.759	369.69
392.984	365.69
393.208	379.69
393.433	363.69
393.658	363.69
393.882	368.69
394.107	359.69
394.331	379.69
394.556	362.69
394.78	367.69
395.005	368.69
395.229	362.69
395.454	373.69
395.678	395.69
395.903	373.69
396.127	395.69
396.352	413.69
396.576	374.69
396.801	391.69
397.025	392.69
397.249	376.69
397.474	386.69
397.698	395.69
397.922	389.69
398.147	414.69
398.371	420.69
398.595	395.69
398.82	412.69
399.044	402.69
399.268	417.69
399.492	436.69
399.717	437.69
399.941	467.69
400.165	505.69
400.389	526.69
400.613	468.69
400.837	442.69
401.062	449.69
401.286	417.69
401.51	412.69
401.734	421.69
401.958	418.69
402.182	421.69
402.406	411.69
402.63	413.69
402.854	399.69
403.078	427.69
403.302	421.69
403.526	426.69
403.75	460.69
403.974	412.69
404.198	411.69
404.422	424.69
404.645	428.69
404.869	446.69
405.093	477.69
405.317	482.69
405.541	536.69
405.765	488.69
405.988	454.69
406.212	465.69
406.436	487.69
406.66	482.69
406.883	449.69
407.107	514.69
407.331	515.69
407.555	575.69
407.778	572.69
408.002	522.69
408.226	485.69
408.449	487.69
408.673	487.69
408.896	510.69
409.12	536.69
409.344	511.69
409.567	457.69
409.791	441.69
410.014	440.69
410.238	436.69
410.461	414.69
410.685	433.69
410.908	463.69
411.132	487.69
411.355	537.69
411.578	495.69
411.802	458.69
412.025	412.69
412.249	453.69
412.472	472.69
412.695	497.69
412.919	486.69
413.142	445.69
413.365	424.69
413.589	426.69
413.812	408.69
414.035	393.69
414.258	397.69
414.482	393.69
414.705	397.69
414.928	411.69
415.151	392.69
415.374	396.69
415.597	393.69
415.821	395.69
416.044	406.69
416.267	426.69
416.49	397.69
416.713	387.69
416.936	394.69
417.159	397.69
417.382	400.69
417.605	412.69
417.828	431.69
418.051	420.69
418.274	403.69
418.497	401.69
418.72	417.69
418.943	410.69
419.166	417.69
419.389	409.69
419.611	422.69
419.834	428.69
420.057	419.69
420.28	433.69
420.503	421.69
420.726	416.69
420.948	452.69
421.171	482.69
421.394	513.69
421.617	456.69
421.839	415.69
422.062	409.69
422.285	459.69
422.507	489.69
422.73	563.69
422.953	553.69
423.175	487.69
423.398	436.69
423.621	457.69
423.843	474.69
424.066	464.69
424.288	485.69
424.511	476.69
424.733	521.69
424.956	604.69
425.178	583.69
425.401	575.69
425.623	621.69
425.846	520.69
426.068	484.69
426.291	491.69
426.513	473.69
426.735	508.69
426.958	528.69
427.18	604.69
427.402	704.69
427.625	802.69
427.847	716.69
428.069	598.69
428.292	563.69
428.514	491.69
428.736	472.69
428.958	467.69
429.181	425.69
429.403	449.69
429.625	455.69
429.847	510.69
430.069	533.69
430.292	534.69
430.514	461.69
430.736	433.69
430.958	418.69
431.18	398.69
431.402	398.69
431.624	406.69
431.846	393.69
432.068	410.69
432.29	416.69
432.512	394.69
432.734	433.69
432.956	415.69
433.178	423.69
433.4	432.69
433.622	413.69
433.844	417.69
434.066	416.69
434.287	398.69
434.509	399.69
434.731	414.69
434.953	417.69
435.175	444.69
435.397	472.69
435.618	476.69
435.84	500.69
436.062	597.69
436.284	674.69
436.505	547.69
436.727	495.69
436.949	473.69
437.17	422.69
437.392	436.69
437.614	457.69
437.835	496.69
438.057	588.69
438.278	657.69
438.5	675.69
438.721	715.69
438.943	681.69
439.165	550.69
439.386	527.69
439.608	485.69
439.829	495.69
440.05	523.69
440.272	575.69
440.493	537.69
440.715	469.69
440.936	447.69
441.158	432.69
441.379	436.69
441.6	436.69
441.822	472.69
442.043	521.69
442.264	600.69
442.486	639.69
442.707	519.69
442.928	485.69
443.149	494.69
443.371	523.69
443.592	554.69
443.813	642.69
444.034	671.69
444.255	551.69
444.476	488.69
444.698	481.69
444.919	469.69
445.14	565.69
445.361	523.69
445.582	516.69
445.803	579.69
446.024	676.69
446.245	697.69
446.466	632.69
446.687	511.69
446.908	473.69
447.129	464.69
447.35	456.69
447.571	447.69
447.792	427.69
448.013	433.69
448.234	472.69
448.455	530.69
448.675	611.69
448.896	719.69
449.117	608.69
449.338	602.69
449.559	694.69
449.779	755.69
450	597.69
450.221	524.69
450.442	459.69
450.662	453.69
450.883	444.69
451.104	445.69
451.324	437.69
451.545	419.69
451.766	406.69
451.986	418.69
452.207	390.69
452.428	393.69
452.648	385.69
452.869	397.69
453.089	402.69
453.31	410.69
453.53	413.69
453.751	421.69
453.971	394.69
454.192	440.69
454.412	407.69
454.633	388.69
454.853	388.69
455.073	399.69
455.294	413.69
455.514	487.69
455.734	469.69
455.955	405.69
456.175	377.69
456.395	371.69
456.616	373.69
456.836	377.69
457.056	363.69
457.276	341.69
457.497	357.69
457.717	362.69
457.937	368.69
458.157	365.69
458.377	381.69
458.598	392.69
458.818	455.69
459.038	540.69
459.258	551.69
459.478	459.69
459.698	419.69
459.918	395.69
460.138	406.69
460.358	414.69
460.578	409.69
460.798	412.69
461.018	388.69
461.238	400.69
461.458	398.69
461.678	391.69
461.898	385.69
462.118	377.69
462.338	410.69
462.558	409.69
462.777	417.69
462.997	421.69
463.217	423.69
463.437	422.69
463.657	416.69
463.876	412.69
464.096	406.69
464.316	406.69
464.536	425.69
464.755	424.69
464.975	428.69
465.195	482.69
465.414	540.69
465.634	490.69
465.854	441.69
466.073	409.69
466.293	410.69
466.512	404.69
466.732	392.69
466.951	402.69
467.171	398.69
467.391	380.69
467.61	392.69
467.829	417.69
468.049	417.69
468.268	402.69
468.488	375.69
468.707	372.69
468.927	393.69
469.146	381.69
469.365	379.69
469.585	372.69
469.804	389.69
470.023	389.69
470.243	401.69
470.462	402.69
470.681	414.69
470.901	408.69
471.12	418.69
471.339	399.69
471.558	384.69
471.777	395.69
471.997	403.69
472.216	397.69
472.435	459.69
472.654	413.69
472.873	405.69
473.092	383.69
473.311	393.69
473.53	385.69
473.749	431.69
473.968	453.69
474.187	565.69
474.406	595.69
474.625	463.69
474.844	424.69
475.063	410.69
475.282	407.69
475.501	416.69
475.72	409.69
475.939	410.69
476.158	427.69
476.377	421.69
476.596	414.69
476.814	427.69
477.033	428.69
477.252	432.69
477.471	436.69
477.69	431.69
477.908	432.69
478.127	428.69
478.346	425.69
478.564	441.69
478.783	422.69
479.002	433.69
479.22	457.69
479.439	464.69
479.658	477.69
479.876	510.69
480.095	492.69
480.313	518.69
480.532	501.69
480.751	474.69
480.969	498.69
481.188	554.69
481.406	588.69
481.624	509.69
481.843	501.69
482.061	471.69
482.28	476.69
482.498	467.69
482.717	444.69
482.935	479.69
483.153	466.69
483.372	449.69
483.59	460.69
483.808	460.69
484.027	480.69
484.245	463.69
484.463	448.69
484.681	474.69
484.9	475.69
485.118	491.69
485.336	470.69
485.554	450.69
485.772	478.69
485.99	476.69
486.209	484.69
486.427	474.69
486.645	511.69
486.863	519.69
487.081	512.69
487.299	506.69
487.517	495.69
487.735	485.69
487.953	513.69
488.171	510.69
488.389	489.69
488.607	510.69
488.825	484.69
489.043	503.69
489.261	505.69
489.479	524.69
489.696	504.69
489.914	510.69
490.132	525.69
490.35	535.69
490.568	525.69
490.786	519.69
491.003	547.69
491.221	532.69
491.439	566.69
491.657	583.69
491.874	564.69
492.092	551.69
492.31	587.69
492.527	595.69
492.745	594.69
492.963	578.69
493.18	599.69
493.398	602.69
493.615	589.69
493.833	595.69
494.05	593.69
494.268	597.69
494.485	577.69
494.703	598.69
494.92	611.69
495.138	595.69
495.355	586.69
495.573	616.69
495.79	604.69
496.008	609.69
496.225	610.69
496.442	592.69
496.66	604.69
496.877	581.69
497.094	599.69
497.312	596.69
497.529	612.69
497.746	607.69
497.963	643.69
498.181	644.69
498.398	651.69
498.615	658.69
498.832	658.69
499.049	650.69
499.267	639.69
499.484	641.69
499.701	676.69
499.918	711.69
500.135	694.69
500.352	732.69
500.569	727.69
500.786	743.69
501.003	711.69
501.22	728.69
501.437	737.69
501.654	716.69
501.871	712.69
