Data from 1981.PennyLincolnUp.Lamp.En5.5.200Scan.071819.P1_HRD10591_16-41-22-959.txt Node
Date: Thu Jul 18 16:41:22 EDT 2019
User: cochatt
Spectrometer: HR+D1059
Trigger mode: 1
Integration Time (sec): 1.000000E-1
Scans to average: 1
Electric dark correction enabled: true
Nonlinearity correction enabled: false
Boxcar width: 0
XAxis mode: Wavelengths
Number of Pixels in Spectrum: 2048
>>>>>Begin Spectral Data<<<<<
223.165	-21.06
223.4	-21.06
223.635	-21.06
223.869	-14.06
224.104	-28.06
224.338	-9.06
224.573	-10.06
224.808	-26.06
225.042	0.94
225.277	-9.06
225.511	-7.06
225.746	5.94
225.98	-4.06
226.215	22.94
226.449	17.94
226.683	10.94
226.918	36.94
227.152	32.94
227.387	38.94
227.621	39.94
227.856	36.94
228.09	36.94
228.324	54.94
228.559	37.94
228.793	63.94
229.027	119.94
229.262	113.94
229.496	119.94
229.73	125.94
229.964	140.94
230.199	135.94
230.433	116.94
230.667	104.94
230.901	114.94
231.136	98.94
231.37	113.94
231.604	110.94
231.838	112.94
232.072	104.94
232.306	121.94
232.541	107.94
232.775	98.94
233.009	104.94
233.243	96.94
233.477	127.94
233.711	117.94
233.945	113.94
234.179	109.94
234.413	124.94
234.647	120.94
234.881	113.94
235.115	126.94
235.349	116.94
235.583	125.94
235.817	114.94
236.051	132.94
236.285	130.94
236.519	122.94
236.753	134.94
236.987	137.94
237.221	190.94
237.455	229.94
237.689	197.94
237.922	138.94
238.156	108.94
238.39	128.94
238.624	116.94
238.858	132.94
239.091	114.94
239.325	126.94
239.559	132.94
239.793	124.94
240.027	143.94
240.26	140.94
240.494	145.94
240.728	136.94
240.961	151.94
241.195	145.94
241.429	135.94
241.662	130.94
241.896	132.94
242.13	140.94
242.363	136.94
242.597	148.94
242.83	153.94
243.064	130.94
243.298	140.94
243.531	146.94
243.765	135.94
243.998	154.94
244.232	126.94
244.465	132.94
244.699	140.94
244.932	152.94
245.166	145.94
245.399	142.94
245.633	137.94
245.866	148.94
246.099	139.94
246.333	136.94
246.566	140.94
246.8	140.94
247.033	149.94
247.266	153.94
247.5	155.94
247.733	155.94
247.966	161.94
248.2	156.94
248.433	198.94
248.666	184.94
248.899	187.94
249.133	202.94
249.366	201.94
249.599	202.94
249.832	187.94
250.066	168.94
250.299	179.94
250.532	189.94
250.765	213.94
250.998	211.94
251.231	227.94
251.465	205.94
251.698	219.94
251.931	197.94
252.164	191.94
252.397	221.94
252.63	200.94
252.863	208.94
253.096	222.94
253.329	235.94
253.562	230.94
253.795	217.94
254.028	222.94
254.261	233.94
254.494	238.94
254.727	267.94
254.96	285.94
255.193	286.94
255.426	275.94
255.659	237.94
255.892	233.94
256.124	255.94
256.357	233.94
256.59	240.94
256.823	225.94
257.056	207.94
257.289	226.94
257.521	236.94
257.754	225.94
257.987	216.94
258.22	224.94
258.452	214.94
258.685	221.94
258.918	226.94
259.151	216.94
259.383	212.94
259.616	223.94
259.849	246.94
260.081	247.94
260.314	252.94
260.547	264.94
260.779	237.94
261.012	236.94
261.244	238.94
261.477	246.94
261.71	250.94
261.942	237.94
262.175	234.94
262.407	255.94
262.64	229.94
262.872	228.94
263.105	221.94
263.337	220.94
263.57	218.94
263.802	214.94
264.035	217.94
264.267	212.94
264.499	216.94
264.732	218.94
264.964	206.94
265.197	224.94
265.429	221.94
265.661	224.94
265.894	226.94
266.126	227.94
266.358	218.94
266.591	218.94
266.823	226.94
267.055	232.94
267.287	232.94
267.52	220.94
267.752	238.94
267.984	230.94
268.216	233.94
268.448	233.94
268.681	234.94
268.913	237.94
269.145	267.94
269.377	284.94
269.609	276.94
269.841	279.94
270.073	268.94
270.306	304.94
270.538	329.94
270.77	323.94
271.002	317.94
271.234	306.94
271.466	311.94
271.698	312.94
271.93	340.94
272.162	329.94
272.394	340.94
272.626	328.94
272.858	288.94
273.09	294.94
273.322	274.94
273.553	271.94
273.785	262.94
274.017	265.94
274.249	270.94
274.481	278.94
274.713	272.94
274.945	280.94
275.176	259.94
275.408	288.94
275.64	276.94
275.872	256.94
276.104	272.94
276.335	269.94
276.567	276.94
276.799	288.94
277.031	324.94
277.262	327.94
277.494	323.94
277.726	311.94
277.957	291.94
278.189	296.94
278.421	273.94
278.652	269.94
278.884	260.94
279.115	284.94
279.347	276.94
279.579	280.94
279.81	288.94
280.042	272.94
280.273	281.94
280.505	280.94
280.736	263.94
280.968	260.94
281.199	282.94
281.431	258.94
281.662	264.94
281.894	278.94
282.125	266.94
282.356	297.94
282.588	306.94
282.819	308.94
283.051	275.94
283.282	279.94
283.513	263.94
283.745	259.94
283.976	274.94
284.207	292.94
284.439	288.94
284.67	292.94
284.901	281.94
285.132	276.94
285.364	265.94
285.595	284.94
285.826	279.94
286.057	273.94
286.288	281.94
286.52	274.94
286.751	289.94
286.982	278.94
287.213	285.94
287.444	263.94
287.675	296.94
287.906	288.94
288.138	309.94
288.369	304.94
288.6	293.94
288.831	304.94
289.062	321.94
289.293	308.94
289.524	289.94
289.755	281.94
289.986	271.94
290.217	283.94
290.448	285.94
290.679	291.94
290.91	291.94
291.141	283.94
291.371	285.94
291.602	277.94
291.833	279.94
292.064	297.94
292.295	291.94
292.526	282.94
292.757	304.94
292.987	292.94
293.218	276.94
293.449	285.94
293.68	300.94
293.91	284.94
294.141	296.94
294.372	278.94
294.603	302.94
294.833	276.94
295.064	284.94
295.295	291.94
295.525	284.94
295.756	304.94
295.987	307.94
296.217	312.94
296.448	337.94
296.679	312.94
296.909	299.94
297.14	288.94
297.37	314.94
297.601	302.94
297.831	304.94
298.062	308.94
298.292	298.94
298.523	304.94
298.753	306.94
298.984	301.94
299.214	318.94
299.445	312.94
299.675	302.94
299.905	317.94
300.136	316.94
300.366	309.94
300.597	316.94
300.827	298.94
301.057	312.94
301.288	326.94
301.518	316.94
301.748	314.94
301.979	321.94
302.209	322.94
302.439	331.94
302.669	323.94
302.9	313.94
303.13	325.94
303.36	298.94
303.59	317.94
303.82	341.94
304.051	337.94
304.281	318.94
304.511	322.94
304.741	320.94
304.971	338.94
305.201	332.94
305.431	316.94
305.661	323.94
305.891	327.94
306.121	343.94
306.352	339.94
306.582	347.94
306.812	336.94
307.042	320.94
307.272	316.94
307.502	339.94
307.731	320.94
307.961	339.94
308.191	312.94
308.421	334.94
308.651	334.94
308.881	324.94
309.111	345.94
309.341	364.94
309.571	373.94
309.8	347.94
310.03	370.94
310.26	375.94
310.49	383.94
310.72	392.94
310.949	399.94
311.179	385.94
311.409	385.94
311.639	368.94
311.868	398.94
312.098	373.94
312.328	396.94
312.557	376.94
312.787	421.94
313.017	406.94
313.246	388.94
313.476	376.94
313.706	378.94
313.935	382.94
314.165	404.94
314.394	410.94
314.624	404.94
314.853	404.94
315.083	393.94
315.312	369.94
315.542	369.94
315.771	385.94
316.001	379.94
316.23	366.94
316.46	379.94
316.689	378.94
316.919	381.94
317.148	382.94
317.377	389.94
317.607	390.94
317.836	376.94
318.065	389.94
318.295	383.94
318.524	379.94
318.753	360.94
318.983	370.94
319.212	382.94
319.441	376.94
319.67	382.94
319.9	373.94
320.129	382.94
320.358	382.94
320.587	397.94
320.816	387.94
321.046	400.94
321.275	399.94
321.504	419.94
321.733	404.94
321.962	417.94
322.191	424.94
322.42	434.94
322.649	460.94
322.878	484.94
323.108	469.94
323.337	521.94
323.566	524.94
323.795	560.94
324.024	636.94
324.253	796.94
324.482	1143.94
324.71	1730.94
324.939	2334.94
325.168	1984.94
325.397	1057.94
325.626	729.94
325.855	589.94
326.084	538.94
326.313	550.94
326.542	515.94
326.77	588.94
326.999	699.94
327.228	1011.94
327.457	1493.94
327.686	1732.94
327.914	1180.94
328.143	789.94
328.372	666.94
328.6	636.94
328.829	596.94
329.058	611.94
329.287	609.94
329.515	573.94
329.744	508.94
329.972	520.94
330.201	530.94
330.43	575.94
330.658	568.94
330.887	636.94
331.115	616.94
331.344	516.94
331.572	507.94
331.801	506.94
332.03	512.94
332.258	480.94
332.486	452.94
332.715	448.94
332.943	459.94
333.172	473.94
333.4	450.94
333.629	450.94
333.857	477.94
334.085	462.94
334.314	496.94
334.542	512.94
334.771	508.94
334.999	473.94
335.227	436.94
335.455	458.94
335.684	428.94
335.912	439.94
336.14	430.94
336.369	438.94
336.597	450.94
336.825	443.94
337.053	441.94
337.281	432.94
337.51	420.94
337.738	429.94
337.966	435.94
338.194	414.94
338.422	430.94
338.65	434.94
338.878	406.94
339.106	422.94
339.334	420.94
339.562	424.94
339.79	414.94
340.018	397.94
340.246	409.94
340.474	429.94
340.702	418.94
340.93	426.94
341.158	403.94
341.386	419.94
341.614	414.94
341.842	437.94
342.07	406.94
342.298	409.94
342.526	413.94
342.754	394.94
342.981	399.94
343.209	416.94
343.437	409.94
343.665	406.94
343.893	409.94
344.12	417.94
344.348	410.94
344.576	423.94
344.804	431.94
345.031	430.94
345.259	454.94
345.487	432.94
345.714	406.94
345.942	415.94
346.17	386.94
346.397	382.94
346.625	403.94
346.853	397.94
347.08	393.94
347.308	405.94
347.535	410.94
347.763	438.94
347.99	426.94
348.218	415.94
348.445	419.94
348.673	430.94
348.9	389.94
349.128	381.94
349.355	382.94
349.583	401.94
349.81	388.94
350.037	390.94
350.265	375.94
350.492	388.94
350.72	421.94
350.947	385.94
351.174	420.94
351.402	405.94
351.629	399.94
351.856	415.94
352.083	424.94
352.311	409.94
352.538	444.94
352.765	447.94
352.992	402.94
353.22	405.94
353.447	384.94
353.674	393.94
353.901	364.94
354.128	386.94
354.355	363.94
354.583	361.94
354.81	377.94
355.037	346.94
355.264	380.94
355.491	372.94
355.718	370.94
355.945	347.94
356.172	358.94
356.399	345.94
356.626	364.94
356.853	369.94
357.08	352.94
357.307	371.94
357.534	356.94
357.761	354.94
357.988	371.94
358.215	344.94
358.441	368.94
358.668	377.94
358.895	371.94
359.122	368.94
359.349	365.94
359.576	383.94
359.802	425.94
360.029	460.94
360.256	451.94
360.483	437.94
360.709	414.94
360.936	398.94
361.163	382.94
361.39	390.94
361.616	385.94
361.843	388.94
362.07	395.94
362.296	384.94
362.523	399.94
362.749	386.94
362.976	389.94
363.203	396.94
363.429	370.94
363.656	365.94
363.882	380.94
364.109	370.94
364.335	382.94
364.562	390.94
364.788	378.94
365.015	364.94
365.241	371.94
365.468	374.94
365.694	373.94
365.92	384.94
366.147	349.94
366.373	351.94
366.599	354.94
366.826	367.94
367.052	362.94
367.278	368.94
367.505	354.94
367.731	376.94
367.957	355.94
368.184	372.94
368.41	376.94
368.636	375.94
368.862	364.94
369.089	386.94
369.315	349.94
369.541	343.94
369.767	362.94
369.993	364.94
370.219	377.94
370.445	374.94
370.672	374.94
370.898	372.94
371.124	349.94
371.35	368.94
371.576	352.94
371.802	348.94
372.028	357.94
372.254	371.94
372.48	364.94
372.706	352.94
372.932	363.94
373.158	370.94
373.384	371.94
373.61	357.94
373.835	363.94
374.061	348.94
374.287	373.94
374.513	373.94
374.739	374.94
374.965	376.94
375.191	365.94
375.416	339.94
375.642	343.94
375.868	357.94
376.094	365.94
376.319	354.94
376.545	330.94
376.771	346.94
376.997	352.94
377.222	349.94
377.448	349.94
377.674	347.94
377.899	346.94
378.125	365.94
378.35	338.94
378.576	334.94
378.802	334.94
379.027	342.94
379.253	356.94
379.478	350.94
379.704	355.94
379.929	343.94
380.155	341.94
380.38	361.94
380.606	365.94
380.831	367.94
381.057	360.94
381.282	353.94
381.507	345.94
381.733	359.94
381.958	331.94
382.184	346.94
382.409	365.94
382.634	356.94
382.86	374.94
383.085	363.94
383.31	359.94
383.535	354.94
383.761	376.94
383.986	368.94
384.211	348.94
384.436	360.94
384.662	368.94
384.887	354.94
385.112	371.94
385.337	376.94
385.562	373.94
385.787	376.94
386.013	387.94
386.238	384.94
386.463	378.94
386.688	364.94
386.913	361.94
387.138	373.94
387.363	364.94
387.588	375.94
387.813	380.94
388.038	372.94
388.263	376.94
388.488	358.94
388.713	362.94
388.938	369.94
389.163	364.94
389.387	362.94
389.612	361.94
389.837	358.94
390.062	359.94
390.287	362.94
390.512	362.94
390.736	357.94
390.961	365.94
391.186	338.94
391.411	349.94
391.636	354.94
391.86	370.94
392.085	365.94
392.31	371.94
392.534	363.94
392.759	372.94
392.984	364.94
393.208	388.94
393.433	364.94
393.658	359.94
393.882	365.94
394.107	332.94
394.331	352.94
394.556	368.94
394.78	363.94
395.005	344.94
395.229	362.94
395.454	361.94
395.678	402.94
395.903	368.94
396.127	417.94
396.352	418.94
396.576	363.94
396.801	384.94
397.025	365.94
397.249	351.94
397.474	384.94
397.698	372.94
397.922	404.94
398.147	413.94
398.371	416.94
398.595	388.94
398.82	401.94
399.044	399.94
399.268	420.94
399.492	434.94
399.717	429.94
399.941	460.94
400.165	476.94
400.389	522.94
400.613	462.94
400.837	440.94
401.062	419.94
401.286	402.94
401.51	410.94
401.734	392.94
401.958	396.94
402.182	419.94
402.406	420.94
402.63	421.94
402.854	422.94
403.078	418.94
403.302	416.94
403.526	423.94
403.75	420.94
403.974	422.94
404.198	399.94
404.422	429.94
404.645	438.94
404.869	428.94
405.093	434.94
405.317	482.94
405.541	516.94
405.765	469.94
405.988	449.94
406.212	451.94
406.436	509.94
406.66	493.94
406.883	478.94
407.107	488.94
407.331	502.94
407.555	584.94
407.778	564.94
408.002	521.94
408.226	473.94
408.449	459.94
408.673	486.94
408.896	488.94
409.12	516.94
409.344	482.94
409.567	448.94
409.791	448.94
410.014	417.94
410.238	410.94
410.461	425.94
410.685	430.94
410.908	437.94
411.132	462.94
411.355	493.94
411.578	485.94
411.802	442.94
412.025	418.94
412.249	435.94
412.472	456.94
412.695	457.94
412.919	470.94
413.142	437.94
413.365	405.94
413.589	396.94
413.812	401.94
414.035	414.94
414.258	405.94
414.482	399.94
414.705	394.94
414.928	386.94
415.151	396.94
415.374	384.94
415.597	409.94
415.821	386.94
416.044	404.94
416.267	417.94
416.49	386.94
416.713	393.94
416.936	401.94
417.159	382.94
417.382	395.94
417.605	417.94
417.828	421.94
418.051	437.94
418.274	416.94
418.497	399.94
418.72	399.94
418.943	385.94
419.166	410.94
419.389	422.94
419.611	429.94
419.834	404.94
420.057	422.94
420.28	407.94
420.503	412.94
420.726	426.94
420.948	440.94
421.171	460.94
421.394	502.94
421.617	424.94
421.839	424.94
422.062	436.94
422.285	447.94
422.507	498.94
422.73	533.94
422.953	540.94
423.175	464.94
423.398	456.94
423.621	435.94
423.843	470.94
424.066	454.94
424.288	456.94
424.511	462.94
424.733	531.94
424.956	581.94
425.178	579.94
425.401	578.94
425.623	590.94
425.846	505.94
426.068	472.94
426.291	477.94
426.513	451.94
426.735	468.94
426.958	500.94
427.18	564.94
427.402	675.94
427.625	737.94
427.847	677.94
428.069	573.94
428.292	526.94
428.514	486.94
428.736	432.94
428.958	461.94
429.181	440.94
429.403	439.94
429.625	456.94
429.847	453.94
430.069	532.94
430.292	514.94
430.514	442.94
430.736	445.94
430.958	418.94
431.18	398.94
431.402	394.94
431.624	397.94
431.846	390.94
432.068	389.94
432.29	398.94
432.512	400.94
432.734	415.94
432.956	397.94
433.178	414.94
433.4	407.94
433.622	397.94
433.844	398.94
434.066	393.94
434.287	403.94
434.509	409.94
434.731	396.94
434.953	406.94
435.175	406.94
435.397	443.94
435.618	449.94
435.84	520.94
436.062	578.94
436.284	657.94
436.505	545.94
436.727	476.94
436.949	460.94
437.17	421.94
437.392	420.94
437.614	441.94
437.835	486.94
438.057	575.94
438.278	642.94
438.5	655.94
438.721	702.94
438.943	676.94
439.165	557.94
439.386	504.94
439.608	478.94
439.829	480.94
440.05	492.94
440.272	554.94
440.493	524.94
440.715	446.94
440.936	444.94
441.158	459.94
441.379	437.94
441.6	445.94
441.822	446.94
442.043	496.94
442.264	549.94
442.486	591.94
442.707	516.94
442.928	483.94
443.149	469.94
443.371	515.94
443.592	537.94
443.813	605.94
444.034	662.94
444.255	548.94
444.476	481.94
444.698	455.94
444.919	472.94
445.14	562.94
445.361	498.94
445.582	518.94
445.803	563.94
446.024	661.94
446.245	656.94
446.466	615.94
446.687	526.94
446.908	468.94
447.129	440.94
447.35	438.94
447.571	446.94
447.792	409.94
448.013	451.94
448.234	449.94
448.455	495.94
448.675	615.94
448.896	694.94
449.117	597.94
449.338	552.94
449.559	640.94
449.779	720.94
450	605.94
450.221	481.94
450.442	468.94
450.662	425.94
450.883	409.94
451.104	454.94
451.324	460.94
451.545	429.94
451.766	397.94
451.986	397.94
452.207	374.94
452.428	362.94
452.648	382.94
452.869	401.94
453.089	398.94
453.31	404.94
453.53	394.94
453.751	396.94
453.971	388.94
454.192	424.94
454.412	380.94
454.633	366.94
454.853	374.94
455.073	386.94
455.294	402.94
455.514	488.94
455.734	448.94
455.955	392.94
456.175	374.94
456.395	372.94
456.616	348.94
456.836	362.94
457.056	359.94
457.276	362.94
457.497	364.94
457.717	377.94
457.937	373.94
458.157	372.94
458.377	377.94
458.598	395.94
458.818	456.94
459.038	512.94
459.258	523.94
459.478	443.94
459.698	399.94
459.918	394.94
460.138	378.94
460.358	385.94
460.578	395.94
460.798	405.94
461.018	395.94
461.238	382.94
461.458	363.94
461.678	368.94
461.898	388.94
462.118	378.94
462.338	392.94
462.558	380.94
462.777	413.94
462.997	399.94
463.217	415.94
463.437	422.94
463.657	414.94
463.876	417.94
464.096	410.94
464.316	414.94
464.536	414.94
464.755	425.94
464.975	422.94
465.195	438.94
465.414	547.94
465.634	454.94
465.854	428.94
466.073	405.94
466.293	396.94
466.512	402.94
466.732	386.94
466.951	401.94
467.171	405.94
467.391	364.94
467.61	402.94
467.829	409.94
468.049	412.94
468.268	388.94
468.488	368.94
468.707	379.94
468.927	377.94
469.146	375.94
469.365	384.94
469.585	366.94
469.804	373.94
470.023	405.94
470.243	386.94
470.462	408.94
470.681	418.94
470.901	424.94
471.12	392.94
471.339	387.94
471.558	365.94
471.777	412.94
471.997	394.94
472.216	389.94
472.435	410.94
472.654	403.94
472.873	412.94
473.092	395.94
473.311	398.94
473.53	389.94
473.749	408.94
473.968	445.94
474.187	543.94
474.406	557.94
474.625	450.94
474.844	395.94
475.063	406.94
475.282	402.94
475.501	383.94
475.72	413.94
475.939	407.94
476.158	402.94
476.377	405.94
476.596	393.94
476.814	396.94
477.033	402.94
477.252	423.94
477.471	414.94
477.69	410.94
477.908	413.94
478.127	418.94
478.346	418.94
478.564	447.94
478.783	430.94
479.002	426.94
479.22	422.94
479.439	445.94
479.658	467.94
479.876	465.94
480.095	458.94
480.313	479.94
480.532	481.94
480.751	485.94
480.969	472.94
481.188	544.94
481.406	550.94
481.624	470.94
481.843	481.94
482.061	455.94
482.28	461.94
482.498	444.94
482.717	448.94
482.935	462.94
483.153	451.94
483.372	448.94
483.59	473.94
483.808	451.94
484.027	477.94
484.245	473.94
484.463	463.94
484.681	485.94
484.9	467.94
485.118	484.94
485.336	467.94
485.554	467.94
485.772	462.94
485.99	477.94
486.209	473.94
486.427	477.94
486.645	488.94
486.863	486.94
487.081	503.94
487.299	504.94
487.517	484.94
487.735	482.94
487.953	497.94
488.171	515.94
488.389	488.94
488.607	508.94
488.825	488.94
489.043	484.94
489.261	484.94
489.479	501.94
489.696	507.94
489.914	495.94
490.132	503.94
490.35	512.94
490.568	507.94
490.786	532.94
491.003	536.94
491.221	557.94
491.439	527.94
491.657	547.94
491.874	561.94
492.092	554.94
492.31	562.94
492.527	576.94
492.745	565.94
492.963	566.94
493.18	573.94
493.398	557.94
493.615	598.94
493.833	601.94
494.05	557.94
494.268	588.94
494.485	590.94
494.703	558.94
494.92	562.94
495.138	580.94
495.355	566.94
495.573	590.94
495.79	580.94
496.008	575.94
496.225	593.94
496.442	591.94
496.66	600.94
496.877	606.94
497.094	586.94
497.312	585.94
497.529	598.94
497.746	594.94
497.963	629.94
498.181	648.94
498.398	642.94
498.615	633.94
498.832	629.94
499.049	620.94
499.267	640.94
499.484	644.94
499.701	666.94
499.918	696.94
500.135	687.94
500.352	699.94
500.569	742.94
500.786	744.94
501.003	722.94
501.22	734.94
501.437	696.94
501.654	689.94
501.871	727.94
