Data from 1981.PennyLincolnUp.Lamp.En5.5.200Scan.071819.P1_HRD10591_16-42-05-959.txt Node
Date: Thu Jul 18 16:42:05 EDT 2019
User: cochatt
Spectrometer: HR+D1059
Trigger mode: 1
Integration Time (sec): 1.000000E-1
Scans to average: 1
Electric dark correction enabled: true
Nonlinearity correction enabled: false
Boxcar width: 0
XAxis mode: Wavelengths
Number of Pixels in Spectrum: 2048
>>>>>Begin Spectral Data<<<<<
223.165	-8.38
223.4	-8.38
223.635	-8.38
223.869	-10.38
224.104	-25.38
224.338	-31.38
224.573	-18.38
224.808	-14.38
225.042	-6.38
225.277	-1.38
225.511	1.62
225.746	0.62
225.98	8.62
226.215	21.62
226.449	11.62
226.683	13.62
226.918	13.62
227.152	44.62
227.387	32.62
227.621	43.62
227.856	47.62
228.09	43.62
228.324	49.62
228.559	62.62
228.793	70.62
229.027	100.62
229.262	112.62
229.496	128.62
229.73	131.62
229.964	167.62
230.199	132.62
230.433	131.62
230.667	120.62
230.901	115.62
231.136	129.62
231.37	134.62
231.604	117.62
231.838	114.62
232.072	106.62
232.306	103.62
232.541	128.62
232.775	123.62
233.009	122.62
233.243	107.62
233.477	100.62
233.711	121.62
233.945	109.62
234.179	125.62
234.413	125.62
234.647	138.62
234.881	131.62
235.115	100.62
235.349	131.62
235.583	118.62
235.817	112.62
236.051	129.62
236.285	111.62
236.519	140.62
236.753	135.62
236.987	165.62
237.221	185.62
237.455	251.62
237.689	202.62
237.922	153.62
238.156	145.62
238.39	143.62
238.624	136.62
238.858	128.62
239.091	122.62
239.325	135.62
239.559	130.62
239.793	127.62
240.027	141.62
240.26	151.62
240.494	171.62
240.728	151.62
240.961	147.62
241.195	151.62
241.429	140.62
241.662	149.62
241.896	141.62
242.13	138.62
242.363	128.62
242.597	145.62
242.83	149.62
243.064	150.62
243.298	146.62
243.531	137.62
243.765	127.62
243.998	139.62
244.232	148.62
244.465	168.62
244.699	151.62
244.932	157.62
245.166	144.62
245.399	149.62
245.633	151.62
245.866	156.62
246.099	157.62
246.333	158.62
246.566	164.62
246.8	155.62
247.033	153.62
247.266	155.62
247.5	165.62
247.733	166.62
247.966	174.62
248.2	172.62
248.433	159.62
248.666	185.62
248.899	216.62
249.133	213.62
249.366	217.62
249.599	217.62
249.832	191.62
250.066	189.62
250.299	214.62
250.532	203.62
250.765	223.62
250.998	227.62
251.231	230.62
251.465	220.62
251.698	219.62
251.931	219.62
252.164	194.62
252.397	224.62
252.63	221.62
252.863	211.62
253.096	241.62
253.329	237.62
253.562	256.62
253.795	221.62
254.028	235.62
254.261	233.62
254.494	257.62
254.727	270.62
254.96	298.62
255.193	296.62
255.426	276.62
255.659	260.62
255.892	247.62
256.124	244.62
256.357	238.62
256.59	251.62
256.823	219.62
257.056	233.62
257.289	221.62
257.521	222.62
257.754	224.62
257.987	231.62
258.22	222.62
258.452	234.62
258.685	230.62
258.918	244.62
259.151	220.62
259.383	238.62
259.616	232.62
259.849	252.62
260.081	250.62
260.314	275.62
260.547	273.62
260.779	263.62
261.012	250.62
261.244	238.62
261.477	241.62
261.71	243.62
261.942	243.62
262.175	259.62
262.407	245.62
262.64	245.62
262.872	243.62
263.105	222.62
263.337	215.62
263.57	224.62
263.802	221.62
264.035	202.62
264.267	222.62
264.499	231.62
264.732	237.62
264.964	233.62
265.197	225.62
265.429	228.62
265.661	211.62
265.894	213.62
266.126	228.62
266.358	240.62
266.591	237.62
266.823	230.62
267.055	238.62
267.287	237.62
267.52	236.62
267.752	245.62
267.984	245.62
268.216	226.62
268.448	243.62
268.681	260.62
268.913	263.62
269.145	272.62
269.377	282.62
269.609	289.62
269.841	281.62
270.073	289.62
270.306	301.62
270.538	347.62
270.77	321.62
271.002	319.62
271.234	313.62
271.466	334.62
271.698	337.62
271.93	350.62
272.162	346.62
272.394	329.62
272.626	334.62
272.858	297.62
273.09	303.62
273.322	304.62
273.553	297.62
273.785	286.62
274.017	302.62
274.249	279.62
274.481	288.62
274.713	273.62
274.945	300.62
275.176	279.62
275.408	275.62
275.64	280.62
275.872	271.62
276.104	269.62
276.335	276.62
276.567	305.62
276.799	299.62
277.031	318.62
277.262	337.62
277.494	347.62
277.726	320.62
277.957	283.62
278.189	294.62
278.421	278.62
278.652	278.62
278.884	279.62
279.115	272.62
279.347	275.62
279.579	263.62
279.81	282.62
280.042	279.62
280.273	288.62
280.505	281.62
280.736	273.62
280.968	251.62
281.199	266.62
281.431	285.62
281.662	275.62
281.894	275.62
282.125	268.62
282.356	318.62
282.588	328.62
282.819	316.62
283.051	283.62
283.282	278.62
283.513	284.62
283.745	287.62
283.976	288.62
284.207	278.62
284.439	284.62
284.67	266.62
284.901	278.62
285.132	283.62
285.364	292.62
285.595	276.62
285.826	273.62
286.057	280.62
286.288	273.62
286.52	277.62
286.751	295.62
286.982	286.62
287.213	297.62
287.444	288.62
287.675	305.62
287.906	299.62
288.138	305.62
288.369	296.62
288.6	309.62
288.831	317.62
289.062	305.62
289.293	302.62
289.524	310.62
289.755	288.62
289.986	283.62
290.217	304.62
290.448	288.62
290.679	296.62
290.91	291.62
291.141	288.62
291.371	291.62
291.602	289.62
291.833	303.62
292.064	298.62
292.295	272.62
292.526	315.62
292.757	294.62
292.987	295.62
293.218	295.62
293.449	301.62
293.68	291.62
293.91	280.62
294.141	285.62
294.372	302.62
294.603	317.62
294.833	293.62
295.064	297.62
295.295	312.62
295.525	300.62
295.756	307.62
295.987	320.62
296.217	349.62
296.448	341.62
296.679	315.62
296.909	316.62
297.14	317.62
297.37	290.62
297.601	298.62
297.831	297.62
298.062	318.62
298.292	295.62
298.523	315.62
298.753	300.62
298.984	298.62
299.214	332.62
299.445	322.62
299.675	315.62
299.905	321.62
300.136	322.62
300.366	305.62
300.597	317.62
300.827	310.62
301.057	303.62
301.288	320.62
301.518	318.62
301.748	341.62
301.979	335.62
302.209	335.62
302.439	331.62
302.669	328.62
302.9	328.62
303.13	335.62
303.36	346.62
303.59	311.62
303.82	343.62
304.051	334.62
304.281	337.62
304.511	339.62
304.741	333.62
304.971	316.62
305.201	328.62
305.431	309.62
305.661	317.62
305.891	330.62
306.121	321.62
306.352	348.62
306.582	347.62
306.812	337.62
307.042	336.62
307.272	336.62
307.502	349.62
307.731	345.62
307.961	346.62
308.191	331.62
308.421	332.62
308.651	350.62
308.881	329.62
309.111	352.62
309.341	341.62
309.571	371.62
309.8	382.62
310.03	368.62
310.26	400.62
310.49	384.62
310.72	407.62
310.949	408.62
311.179	408.62
311.409	377.62
311.639	381.62
311.868	392.62
312.098	399.62
312.328	388.62
312.557	402.62
312.787	432.62
313.017	437.62
313.246	428.62
313.476	381.62
313.706	378.62
313.935	395.62
314.165	418.62
314.394	408.62
314.624	411.62
314.853	395.62
315.083	393.62
315.312	403.62
315.542	386.62
315.771	385.62
316.001	385.62
316.23	377.62
316.46	387.62
316.689	398.62
316.919	393.62
317.148	395.62
317.377	403.62
317.607	393.62
317.836	383.62
318.065	391.62
318.295	380.62
318.524	390.62
318.753	372.62
318.983	380.62
319.212	373.62
319.441	420.62
319.67	407.62
319.9	408.62
320.129	392.62
320.358	391.62
320.587	389.62
320.816	409.62
321.046	423.62
321.275	407.62
321.504	424.62
321.733	414.62
321.962	424.62
322.191	437.62
322.42	451.62
322.649	465.62
322.878	486.62
323.108	492.62
323.337	526.62
323.566	563.62
323.795	600.62
324.024	675.62
324.253	821.62
324.482	1189.62
324.71	1829.62
324.939	2456.62
325.168	2075.62
325.397	1060.62
325.626	734.62
325.855	637.62
326.084	563.62
326.313	539.62
326.542	543.62
326.77	636.62
326.999	777.62
327.228	1064.62
327.457	1532.62
327.686	1809.62
327.914	1215.62
328.143	800.62
328.372	680.62
328.6	678.62
328.829	638.62
329.058	623.62
329.287	645.62
329.515	608.62
329.744	569.62
329.972	567.62
330.201	575.62
330.43	607.62
330.658	633.62
330.887	659.62
331.115	637.62
331.344	558.62
331.572	527.62
331.801	532.62
332.03	513.62
332.258	478.62
332.486	500.62
332.715	451.62
332.943	445.62
333.172	446.62
333.4	462.62
333.629	464.62
333.857	482.62
334.085	519.62
334.314	504.62
334.542	531.62
334.771	533.62
334.999	497.62
335.227	459.62
335.455	447.62
335.684	469.62
335.912	467.62
336.14	443.62
336.369	454.62
336.597	448.62
336.825	454.62
337.053	455.62
337.281	452.62
337.51	423.62
337.738	441.62
337.966	451.62
338.194	447.62
338.422	435.62
338.65	419.62
338.878	422.62
339.106	421.62
339.334	450.62
339.562	415.62
339.79	430.62
340.018	417.62
340.246	439.62
340.474	459.62
340.702	428.62
340.93	432.62
341.158	436.62
341.386	420.62
341.614	430.62
341.842	424.62
342.07	405.62
342.298	420.62
342.526	416.62
342.754	387.62
342.981	406.62
343.209	420.62
343.437	405.62
343.665	407.62
343.893	394.62
344.12	433.62
344.348	416.62
344.576	420.62
344.804	427.62
345.031	428.62
345.259	460.62
345.487	451.62
345.714	439.62
345.942	425.62
346.17	428.62
346.397	413.62
346.625	413.62
346.853	405.62
347.08	415.62
347.308	420.62
347.535	402.62
347.763	433.62
347.99	447.62
348.218	422.62
348.445	425.62
348.673	436.62
348.9	411.62
349.128	409.62
349.355	413.62
349.583	400.62
349.81	404.62
350.037	390.62
350.265	381.62
350.492	383.62
350.72	400.62
350.947	406.62
351.174	413.62
351.402	433.62
351.629	401.62
351.856	406.62
352.083	424.62
352.311	428.62
352.538	425.62
352.765	439.62
352.992	433.62
353.22	408.62
353.447	413.62
353.674	404.62
353.901	407.62
354.128	382.62
354.355	368.62
354.583	383.62
354.81	371.62
355.037	393.62
355.264	384.62
355.491	363.62
355.718	368.62
355.945	366.62
356.172	370.62
356.399	376.62
356.626	363.62
356.853	347.62
357.08	377.62
357.307	377.62
357.534	364.62
357.761	361.62
357.988	360.62
358.215	378.62
358.441	387.62
358.668	372.62
358.895	379.62
359.122	412.62
359.349	389.62
359.576	412.62
359.802	445.62
360.029	460.62
360.256	472.62
360.483	446.62
360.709	400.62
360.936	400.62
361.163	389.62
361.39	399.62
361.616	399.62
361.843	402.62
362.07	398.62
362.296	396.62
362.523	411.62
362.749	399.62
362.976	378.62
363.203	388.62
363.429	381.62
363.656	387.62
363.882	391.62
364.109	384.62
364.335	393.62
364.562	368.62
364.788	368.62
365.015	367.62
365.241	364.62
365.468	378.62
365.694	393.62
365.92	375.62
366.147	380.62
366.373	388.62
366.599	379.62
366.826	366.62
367.052	379.62
367.278	366.62
367.505	377.62
367.731	380.62
367.957	383.62
368.184	361.62
368.41	376.62
368.636	371.62
368.862	395.62
369.089	372.62
369.315	359.62
369.541	360.62
369.767	361.62
369.993	384.62
370.219	364.62
370.445	377.62
370.672	361.62
370.898	363.62
371.124	362.62
371.35	373.62
371.576	347.62
371.802	358.62
372.028	368.62
372.254	365.62
372.48	363.62
372.706	357.62
372.932	349.62
373.158	366.62
373.384	364.62
373.61	358.62
373.835	358.62
374.061	367.62
374.287	379.62
374.513	371.62
374.739	353.62
374.965	363.62
375.191	350.62
375.416	366.62
375.642	356.62
375.868	365.62
376.094	347.62
376.319	348.62
376.545	381.62
376.771	359.62
376.997	343.62
377.222	381.62
377.448	349.62
377.674	369.62
377.899	337.62
378.125	349.62
378.35	368.62
378.576	345.62
378.802	349.62
379.027	332.62
379.253	348.62
379.478	356.62
379.704	342.62
379.929	367.62
380.155	351.62
380.38	354.62
380.606	340.62
380.831	363.62
381.057	335.62
381.282	341.62
381.507	353.62
381.733	353.62
381.958	349.62
382.184	376.62
382.409	373.62
382.634	342.62
382.86	361.62
383.085	341.62
383.31	359.62
383.535	360.62
383.761	344.62
383.986	345.62
384.211	361.62
384.436	357.62
384.662	356.62
384.887	365.62
385.112	363.62
385.337	382.62
385.562	365.62
385.787	368.62
386.013	377.62
386.238	371.62
386.463	386.62
386.688	381.62
386.913	363.62
387.138	391.62
387.363	387.62
387.588	363.62
387.813	365.62
388.038	373.62
388.263	371.62
388.488	372.62
388.713	380.62
388.938	380.62
389.163	382.62
389.387	374.62
389.612	347.62
389.837	375.62
390.062	365.62
390.287	365.62
390.512	352.62
390.736	369.62
390.961	368.62
391.186	384.62
391.411	360.62
391.636	367.62
391.86	370.62
392.085	373.62
392.31	350.62
392.534	357.62
392.759	387.62
392.984	361.62
393.208	371.62
393.433	360.62
393.658	364.62
393.882	350.62
394.107	377.62
394.331	377.62
394.556	369.62
394.78	351.62
395.005	373.62
395.229	369.62
395.454	389.62
395.678	386.62
395.903	371.62
396.127	401.62
396.352	421.62
396.576	416.62
396.801	378.62
397.025	368.62
397.249	368.62
397.474	376.62
397.698	399.62
397.922	387.62
398.147	392.62
398.371	417.62
398.595	405.62
398.82	406.62
399.044	407.62
399.268	426.62
399.492	443.62
399.717	446.62
399.941	470.62
400.165	495.62
400.389	515.62
400.613	478.62
400.837	408.62
401.062	427.62
401.286	393.62
401.51	420.62
401.734	417.62
401.958	413.62
402.182	402.62
402.406	429.62
402.63	408.62
402.854	431.62
403.078	421.62
403.302	408.62
403.526	416.62
403.75	429.62
403.974	426.62
404.198	424.62
404.422	432.62
404.645	440.62
404.869	446.62
405.093	465.62
405.317	492.62
405.541	509.62
405.765	460.62
405.988	455.62
406.212	468.62
406.436	482.62
406.66	493.62
406.883	489.62
407.107	482.62
407.331	539.62
407.555	550.62
407.778	574.62
408.002	522.62
408.226	495.62
408.449	467.62
408.673	468.62
408.896	489.62
409.12	526.62
409.344	511.62
409.567	459.62
409.791	432.62
410.014	422.62
410.238	414.62
410.461	441.62
410.685	439.62
410.908	431.62
411.132	485.62
411.355	492.62
411.578	481.62
411.802	454.62
412.025	419.62
412.249	455.62
412.472	446.62
412.695	495.62
412.919	465.62
413.142	428.62
413.365	425.62
413.589	417.62
413.812	407.62
414.035	407.62
414.258	405.62
414.482	412.62
414.705	399.62
414.928	399.62
415.151	396.62
415.374	396.62
415.597	380.62
415.821	390.62
416.044	386.62
416.267	391.62
416.49	383.62
416.713	404.62
416.936	380.62
417.159	399.62
417.382	397.62
417.605	405.62
417.828	417.62
418.051	448.62
418.274	429.62
418.497	428.62
418.72	408.62
418.943	388.62
419.166	411.62
419.389	421.62
419.611	422.62
419.834	413.62
420.057	422.62
420.28	426.62
420.503	424.62
420.726	418.62
420.948	439.62
421.171	493.62
421.394	500.62
421.617	446.62
421.839	439.62
422.062	416.62
422.285	438.62
422.507	505.62
422.73	565.62
422.953	535.62
423.175	478.62
423.398	460.62
423.621	430.62
423.843	425.62
424.066	466.62
424.288	476.62
424.511	501.62
424.733	519.62
424.956	603.62
425.178	600.62
425.401	587.62
425.623	597.62
425.846	517.62
426.068	477.62
426.291	472.62
426.513	485.62
426.735	499.62
426.958	534.62
427.18	583.62
427.402	695.62
427.625	769.62
427.847	675.62
428.069	607.62
428.292	531.62
428.514	476.62
428.736	464.62
428.958	427.62
429.181	433.62
429.403	451.62
429.625	446.62
429.847	478.62
430.069	528.62
430.292	532.62
430.514	446.62
430.736	426.62
430.958	416.62
431.18	401.62
431.402	398.62
431.624	381.62
431.846	403.62
432.068	419.62
432.29	413.62
432.512	394.62
432.734	425.62
432.956	417.62
433.178	421.62
433.4	423.62
433.622	394.62
433.844	406.62
434.066	410.62
434.287	408.62
434.509	398.62
434.731	401.62
434.953	411.62
435.175	409.62
435.397	453.62
435.618	466.62
435.84	528.62
436.062	616.62
436.284	645.62
436.505	551.62
436.727	501.62
436.949	463.62
437.17	431.62
437.392	431.62
437.614	444.62
437.835	476.62
438.057	581.62
438.278	657.62
438.5	654.62
438.721	722.62
438.943	670.62
439.165	543.62
439.386	497.62
439.608	487.62
439.829	499.62
440.05	538.62
440.272	559.62
440.493	519.62
440.715	451.62
440.936	467.62
441.158	471.62
441.379	445.62
441.6	458.62
441.822	475.62
442.043	535.62
442.264	594.62
442.486	613.62
442.707	511.62
442.928	487.62
443.149	481.62
443.371	513.62
443.592	543.62
443.813	625.62
444.034	657.62
444.255	563.62
444.476	480.62
444.698	454.62
444.919	454.62
445.14	604.62
445.361	535.62
445.582	518.62
445.803	609.62
446.024	665.62
446.245	658.62
446.466	617.62
446.687	551.62
446.908	490.62
447.129	473.62
447.35	437.62
447.571	437.62
447.792	424.62
448.013	456.62
448.234	472.62
448.455	526.62
448.675	616.62
448.896	704.62
449.117	620.62
449.338	572.62
449.559	657.62
449.779	726.62
450	593.62
450.221	515.62
450.442	475.62
450.662	440.62
450.883	457.62
451.104	456.62
451.324	467.62
451.545	419.62
451.766	392.62
451.986	399.62
452.207	385.62
452.428	390.62
452.648	401.62
452.869	416.62
453.089	402.62
453.31	407.62
453.53	389.62
453.751	416.62
453.971	404.62
454.192	420.62
454.412	405.62
454.633	391.62
454.853	396.62
455.073	378.62
455.294	424.62
455.514	468.62
455.734	455.62
455.955	387.62
456.175	372.62
456.395	362.62
456.616	355.62
456.836	369.62
457.056	364.62
457.276	349.62
457.497	357.62
457.717	367.62
457.937	365.62
458.157	382.62
458.377	365.62
458.598	415.62
458.818	489.62
459.038	529.62
459.258	546.62
459.478	465.62
459.698	405.62
459.918	412.62
460.138	402.62
460.358	396.62
460.578	386.62
460.798	393.62
461.018	408.62
461.238	392.62
461.458	406.62
461.678	392.62
461.898	379.62
462.118	408.62
462.338	400.62
462.558	413.62
462.777	405.62
462.997	416.62
463.217	419.62
463.437	401.62
463.657	423.62
463.876	411.62
464.096	393.62
464.316	409.62
464.536	408.62
464.755	428.62
464.975	414.62
465.195	496.62
465.414	543.62
465.634	466.62
465.854	437.62
466.073	411.62
466.293	427.62
466.512	408.62
466.732	411.62
466.951	387.62
467.171	402.62
467.391	375.62
467.61	405.62
467.829	421.62
468.049	399.62
468.268	394.62
468.488	394.62
468.707	379.62
468.927	385.62
469.146	390.62
469.365	355.62
469.585	377.62
469.804	371.62
470.023	389.62
470.243	408.62
470.462	405.62
470.681	406.62
470.901	402.62
471.12	392.62
471.339	397.62
471.558	412.62
471.777	402.62
471.997	386.62
472.216	392.62
472.435	418.62
472.654	401.62
472.873	416.62
473.092	419.62
473.311	393.62
473.53	417.62
473.749	437.62
473.968	460.62
474.187	548.62
474.406	561.62
474.625	465.62
474.844	435.62
475.063	443.62
475.282	414.62
475.501	407.62
475.72	422.62
475.939	406.62
476.158	411.62
476.377	422.62
476.596	408.62
476.814	408.62
477.033	411.62
477.252	427.62
477.471	414.62
477.69	439.62
477.908	443.62
478.127	412.62
478.346	405.62
478.564	433.62
478.783	424.62
479.002	435.62
479.22	443.62
479.439	465.62
479.658	471.62
479.876	516.62
480.095	471.62
480.313	513.62
480.532	492.62
480.751	481.62
480.969	476.62
481.188	540.62
481.406	592.62
481.624	525.62
481.843	488.62
482.061	490.62
482.28	478.62
482.498	471.62
482.717	458.62
482.935	461.62
483.153	469.62
483.372	448.62
483.59	473.62
483.808	457.62
484.027	481.62
484.245	463.62
484.463	462.62
484.681	477.62
484.9	468.62
485.118	456.62
485.336	471.62
485.554	476.62
485.772	485.62
485.99	497.62
486.209	485.62
486.427	470.62
486.645	488.62
486.863	525.62
487.081	494.62
487.299	488.62
487.517	493.62
487.735	506.62
487.953	517.62
488.171	489.62
488.389	527.62
488.607	511.62
488.825	505.62
489.043	491.62
489.261	511.62
489.479	530.62
489.696	528.62
489.914	510.62
490.132	515.62
490.35	528.62
490.568	526.62
490.786	526.62
491.003	537.62
491.221	537.62
491.439	541.62
491.657	556.62
491.874	560.62
492.092	555.62
492.31	567.62
492.527	584.62
492.745	566.62
492.963	565.62
493.18	559.62
493.398	604.62
493.615	591.62
493.833	581.62
494.05	572.62
494.268	601.62
494.485	552.62
494.703	579.62
494.92	603.62
495.138	621.62
495.355	591.62
495.573	595.62
495.79	584.62
496.008	622.62
496.225	614.62
496.442	588.62
496.66	601.62
496.877	596.62
497.094	591.62
497.312	593.62
497.529	604.62
497.746	609.62
497.963	612.62
498.181	636.62
498.398	640.62
498.615	641.62
498.832	661.62
499.049	650.62
499.267	648.62
499.484	677.62
499.701	690.62
499.918	702.62
500.135	699.62
500.352	727.62
500.569	737.62
500.786	736.62
501.003	728.62
501.22	706.62
501.437	711.62
501.654	724.62
501.871	712.62
