Data from 1981.PennyLincolnUp.Lamp.En5.5.200Scan.071819.P1_HRD10591_16-42-46-960.txt Node
Date: Thu Jul 18 16:42:46 EDT 2019
User: cochatt
Spectrometer: HR+D1059
Trigger mode: 1
Integration Time (sec): 1.000000E-1
Scans to average: 1
Electric dark correction enabled: true
Nonlinearity correction enabled: false
Boxcar width: 0
XAxis mode: Wavelengths
Number of Pixels in Spectrum: 2048
>>>>>Begin Spectral Data<<<<<
223.165	-15.06
223.4	-15.06
223.635	-15.06
223.869	-14.06
224.104	-15.06
224.338	-3.06
224.573	-14.06
224.808	-20.06
225.042	-2.06
225.277	-1.06
225.511	-10.06
225.746	-5.06
225.98	20.94
226.215	-5.06
226.449	23.94
226.683	23.94
226.918	18.94
227.152	16.94
227.387	23.94
227.621	35.94
227.856	38.94
228.09	55.94
228.324	54.94
228.559	56.94
228.793	64.94
229.027	87.94
229.262	115.94
229.496	113.94
229.73	125.94
229.964	147.94
230.199	135.94
230.433	125.94
230.667	122.94
230.901	113.94
231.136	106.94
231.37	124.94
231.604	120.94
231.838	105.94
232.072	118.94
232.306	105.94
232.541	104.94
232.775	124.94
233.009	117.94
233.243	117.94
233.477	106.94
233.711	123.94
233.945	113.94
234.179	106.94
234.413	133.94
234.647	122.94
234.881	101.94
235.115	119.94
235.349	121.94
235.583	110.94
235.817	138.94
236.051	122.94
236.285	125.94
236.519	119.94
236.753	127.94
236.987	154.94
237.221	195.94
237.455	237.94
237.689	203.94
237.922	158.94
238.156	138.94
238.39	125.94
238.624	126.94
238.858	128.94
239.091	107.94
239.325	139.94
239.559	117.94
239.793	116.94
240.027	132.94
240.26	146.94
240.494	162.94
240.728	157.94
240.961	155.94
241.195	158.94
241.429	141.94
241.662	152.94
241.896	138.94
242.13	137.94
242.363	129.94
242.597	127.94
242.83	132.94
243.064	139.94
243.298	138.94
243.531	154.94
243.765	129.94
243.998	152.94
244.232	138.94
244.465	137.94
244.699	153.94
244.932	149.94
245.166	144.94
245.399	146.94
245.633	149.94
245.866	157.94
246.099	144.94
246.333	151.94
246.566	167.94
246.8	159.94
247.033	142.94
247.266	166.94
247.5	163.94
247.733	169.94
247.966	159.94
248.2	180.94
248.433	177.94
248.666	192.94
248.899	187.94
249.133	200.94
249.366	218.94
249.599	183.94
249.832	197.94
250.066	177.94
250.299	174.94
250.532	202.94
250.765	222.94
250.998	207.94
251.231	234.94
251.465	243.94
251.698	220.94
251.931	215.94
252.164	197.94
252.397	194.94
252.63	215.94
252.863	221.94
253.096	233.94
253.329	250.94
253.562	252.94
253.795	241.94
254.028	242.94
254.261	222.94
254.494	242.94
254.727	285.94
254.96	293.94
255.193	317.94
255.426	280.94
255.659	247.94
255.892	254.94
256.124	252.94
256.357	246.94
256.59	247.94
256.823	236.94
257.056	226.94
257.289	229.94
257.521	212.94
257.754	244.94
257.987	211.94
258.22	245.94
258.452	235.94
258.685	219.94
258.918	212.94
259.151	223.94
259.383	227.94
259.616	236.94
259.849	241.94
260.081	256.94
260.314	289.94
260.547	276.94
260.779	270.94
261.012	257.94
261.244	250.94
261.477	244.94
261.71	245.94
261.942	244.94
262.175	249.94
262.407	227.94
262.64	228.94
262.872	221.94
263.105	232.94
263.337	234.94
263.57	231.94
263.802	225.94
264.035	228.94
264.267	232.94
264.499	210.94
264.732	217.94
264.964	219.94
265.197	214.94
265.429	230.94
265.661	222.94
265.894	227.94
266.126	226.94
266.358	220.94
266.591	221.94
266.823	229.94
267.055	237.94
267.287	229.94
267.52	242.94
267.752	243.94
267.984	234.94
268.216	221.94
268.448	249.94
268.681	242.94
268.913	261.94
269.145	281.94
269.377	316.94
269.609	296.94
269.841	315.94
270.073	309.94
270.306	290.94
270.538	333.94
270.77	341.94
271.002	331.94
271.234	301.94
271.466	333.94
271.698	326.94
271.93	340.94
272.162	364.94
272.394	340.94
272.626	330.94
272.858	323.94
273.09	308.94
273.322	292.94
273.553	285.94
273.785	297.94
274.017	281.94
274.249	281.94
274.481	266.94
274.713	287.94
274.945	291.94
275.176	294.94
275.408	286.94
275.64	286.94
275.872	278.94
276.104	302.94
276.335	267.94
276.567	284.94
276.799	303.94
277.031	339.94
277.262	338.94
277.494	340.94
277.726	314.94
277.957	331.94
278.189	300.94
278.421	291.94
278.652	293.94
278.884	280.94
279.115	282.94
279.347	262.94
279.579	279.94
279.81	267.94
280.042	274.94
280.273	266.94
280.505	283.94
280.736	284.94
280.968	280.94
281.199	278.94
281.431	267.94
281.662	291.94
281.894	267.94
282.125	299.94
282.356	306.94
282.588	335.94
282.819	336.94
283.051	306.94
283.282	269.94
283.513	286.94
283.745	306.94
283.976	281.94
284.207	287.94
284.439	279.94
284.67	292.94
284.901	294.94
285.132	284.94
285.364	290.94
285.595	297.94
285.826	285.94
286.057	294.94
286.288	281.94
286.52	289.94
286.751	270.94
286.982	293.94
287.213	285.94
287.444	295.94
287.675	288.94
287.906	311.94
288.138	299.94
288.369	314.94
288.6	319.94
288.831	311.94
289.062	311.94
289.293	331.94
289.524	297.94
289.755	301.94
289.986	306.94
290.217	290.94
290.448	299.94
290.679	303.94
290.91	300.94
291.141	292.94
291.371	310.94
291.602	279.94
291.833	275.94
292.064	288.94
292.295	293.94
292.526	301.94
292.757	293.94
292.987	290.94
293.218	300.94
293.449	294.94
293.68	321.94
293.91	295.94
294.141	281.94
294.372	289.94
294.603	289.94
294.833	296.94
295.064	282.94
295.295	297.94
295.525	301.94
295.756	304.94
295.987	316.94
296.217	334.94
296.448	343.94
296.679	310.94
296.909	285.94
297.14	310.94
297.37	305.94
297.601	319.94
297.831	297.94
298.062	289.94
298.292	289.94
298.523	324.94
298.753	307.94
298.984	322.94
299.214	288.94
299.445	312.94
299.675	296.94
299.905	328.94
300.136	328.94
300.366	299.94
300.597	323.94
300.827	318.94
301.057	332.94
301.288	318.94
301.518	330.94
301.748	324.94
301.979	334.94
302.209	320.94
302.439	325.94
302.669	335.94
302.9	347.94
303.13	312.94
303.36	333.94
303.59	324.94
303.82	342.94
304.051	345.94
304.281	327.94
304.511	334.94
304.741	338.94
304.971	313.94
305.201	343.94
305.431	334.94
305.661	330.94
305.891	326.94
306.121	328.94
306.352	337.94
306.582	348.94
306.812	341.94
307.042	347.94
307.272	339.94
307.502	333.94
307.731	352.94
307.961	339.94
308.191	347.94
308.421	334.94
308.651	331.94
308.881	345.94
309.111	360.94
309.341	363.94
309.571	362.94
309.8	382.94
310.03	397.94
310.26	393.94
310.49	407.94
310.72	387.94
310.949	430.94
311.179	413.94
311.409	397.94
311.639	395.94
311.868	392.94
312.098	397.94
312.328	420.94
312.557	418.94
312.787	448.94
313.017	439.94
313.246	429.94
313.476	382.94
313.706	416.94
313.935	392.94
314.165	414.94
314.394	427.94
314.624	422.94
314.853	410.94
315.083	405.94
315.312	395.94
315.542	394.94
315.771	383.94
316.001	380.94
316.23	381.94
316.46	386.94
316.689	391.94
316.919	404.94
317.148	387.94
317.377	412.94
317.607	395.94
317.836	412.94
318.065	397.94
318.295	391.94
318.524	369.94
318.753	370.94
318.983	394.94
319.212	411.94
319.441	400.94
319.67	418.94
319.9	417.94
320.129	393.94
320.358	398.94
320.587	379.94
320.816	411.94
321.046	435.94
321.275	424.94
321.504	435.94
321.733	411.94
321.962	441.94
322.191	465.94
322.42	456.94
322.649	495.94
322.878	490.94
323.108	503.94
323.337	537.94
323.566	565.94
323.795	614.94
324.024	684.94
324.253	830.94
324.482	1217.94
324.71	1872.94
324.939	2577.94
325.168	2164.94
325.397	1130.94
325.626	749.94
325.855	621.94
326.084	591.94
326.313	579.94
326.542	588.94
326.77	636.94
326.999	761.94
327.228	1067.94
327.457	1605.94
327.686	1883.94
327.914	1261.94
328.143	841.94
328.372	713.94
328.6	694.94
328.829	642.94
329.058	654.94
329.287	668.94
329.515	629.94
329.744	585.94
329.972	559.94
330.201	572.94
330.43	625.94
330.658	662.94
330.887	682.94
331.115	647.94
331.344	570.94
331.572	535.94
331.801	507.94
332.03	521.94
332.258	509.94
332.486	491.94
332.715	481.94
332.943	464.94
333.172	475.94
333.4	477.94
333.629	474.94
333.857	492.94
334.085	511.94
334.314	499.94
334.542	533.94
334.771	547.94
334.999	506.94
335.227	486.94
335.455	477.94
335.684	448.94
335.912	477.94
336.14	447.94
336.369	449.94
336.597	454.94
336.825	450.94
337.053	446.94
337.281	443.94
337.51	447.94
337.738	439.94
337.966	456.94
338.194	460.94
338.422	440.94
338.65	436.94
338.878	425.94
339.106	428.94
339.334	408.94
339.562	418.94
339.79	429.94
340.018	456.94
340.246	429.94
340.474	452.94
340.702	436.94
340.93	424.94
341.158	422.94
341.386	429.94
341.614	444.94
341.842	447.94
342.07	424.94
342.298	403.94
342.526	424.94
342.754	410.94
342.981	402.94
343.209	408.94
343.437	409.94
343.665	402.94
343.893	423.94
344.12	421.94
344.348	438.94
344.576	433.94
344.804	421.94
345.031	435.94
345.259	457.94
345.487	430.94
345.714	421.94
345.942	423.94
346.17	422.94
346.397	418.94
346.625	406.94
346.853	428.94
347.08	430.94
347.308	413.94
347.535	434.94
347.763	449.94
347.99	433.94
348.218	426.94
348.445	430.94
348.673	416.94
348.9	421.94
349.128	421.94
349.355	397.94
349.583	399.94
349.81	405.94
350.037	397.94
350.265	406.94
350.492	397.94
350.72	422.94
350.947	419.94
351.174	424.94
351.402	435.94
351.629	432.94
351.856	410.94
352.083	440.94
352.311	436.94
352.538	438.94
352.765	427.94
352.992	443.94
353.22	411.94
353.447	413.94
353.674	420.94
353.901	384.94
354.128	382.94
354.355	393.94
354.583	378.94
354.81	379.94
355.037	376.94
355.264	372.94
355.491	379.94
355.718	369.94
355.945	366.94
356.172	360.94
356.399	373.94
356.626	373.94
356.853	365.94
357.08	353.94
357.307	383.94
357.534	371.94
357.761	385.94
357.988	383.94
358.215	382.94
358.441	366.94
358.668	371.94
358.895	366.94
359.122	381.94
359.349	394.94
359.576	398.94
359.802	428.94
360.029	466.94
360.256	463.94
360.483	428.94
360.709	407.94
360.936	413.94
361.163	405.94
361.39	415.94
361.616	423.94
361.843	407.94
362.07	397.94
362.296	413.94
362.523	403.94
362.749	412.94
362.976	407.94
363.203	390.94
363.429	375.94
363.656	388.94
363.882	369.94
364.109	371.94
364.335	365.94
364.562	375.94
364.788	380.94
365.015	371.94
365.241	396.94
365.468	387.94
365.694	385.94
365.92	409.94
366.147	389.94
366.373	399.94
366.599	379.94
366.826	383.94
367.052	379.94
367.278	381.94
367.505	349.94
367.731	374.94
367.957	373.94
368.184	374.94
368.41	385.94
368.636	397.94
368.862	390.94
369.089	389.94
369.315	376.94
369.541	379.94
369.767	370.94
369.993	390.94
370.219	354.94
370.445	374.94
370.672	349.94
370.898	363.94
371.124	357.94
371.35	349.94
371.576	357.94
371.802	355.94
372.028	377.94
372.254	369.94
372.48	359.94
372.706	360.94
372.932	372.94
373.158	379.94
373.384	356.94
373.61	377.94
373.835	367.94
374.061	374.94
374.287	371.94
374.513	366.94
374.739	346.94
374.965	361.94
375.191	377.94
375.416	365.94
375.642	358.94
375.868	363.94
376.094	349.94
376.319	369.94
376.545	345.94
376.771	365.94
376.997	361.94
377.222	359.94
377.448	344.94
377.674	345.94
377.899	338.94
378.125	353.94
378.35	347.94
378.576	323.94
378.802	345.94
379.027	369.94
379.253	353.94
379.478	345.94
379.704	347.94
379.929	356.94
380.155	376.94
380.38	361.94
380.606	359.94
380.831	357.94
381.057	344.94
381.282	342.94
381.507	357.94
381.733	345.94
381.958	365.94
382.184	364.94
382.409	389.94
382.634	360.94
382.86	375.94
383.085	350.94
383.31	360.94
383.535	370.94
383.761	380.94
383.986	369.94
384.211	371.94
384.436	380.94
384.662	391.94
384.887	388.94
385.112	366.94
385.337	393.94
385.562	379.94
385.787	370.94
386.013	373.94
386.238	387.94
386.463	375.94
386.688	382.94
386.913	373.94
387.138	375.94
387.363	386.94
387.588	355.94
387.813	379.94
388.038	371.94
388.263	378.94
388.488	395.94
388.713	377.94
388.938	389.94
389.163	385.94
389.387	392.94
389.612	364.94
389.837	381.94
390.062	365.94
390.287	376.94
390.512	378.94
390.736	372.94
390.961	379.94
391.186	363.94
391.411	366.94
391.636	376.94
391.86	374.94
392.085	392.94
392.31	366.94
392.534	366.94
392.759	366.94
392.984	377.94
393.208	355.94
393.433	371.94
393.658	377.94
393.882	378.94
394.107	360.94
394.331	369.94
394.556	375.94
394.78	362.94
395.005	348.94
395.229	388.94
395.454	390.94
395.678	384.94
395.903	393.94
396.127	410.94
396.352	418.94
396.576	403.94
396.801	399.94
397.025	375.94
397.249	377.94
397.474	379.94
397.698	399.94
397.922	406.94
398.147	425.94
398.371	416.94
398.595	414.94
398.82	412.94
399.044	410.94
399.268	424.94
399.492	444.94
399.717	448.94
399.941	472.94
400.165	502.94
400.389	519.94
400.613	482.94
400.837	467.94
401.062	435.94
401.286	405.94
401.51	413.94
401.734	409.94
401.958	414.94
402.182	409.94
402.406	426.94
402.63	425.94
402.854	426.94
403.078	423.94
403.302	421.94
403.526	427.94
403.75	420.94
403.974	446.94
404.198	414.94
404.422	432.94
404.645	447.94
404.869	450.94
405.093	483.94
405.317	514.94
405.541	525.94
405.765	494.94
405.988	476.94
406.212	458.94
406.436	472.94
406.66	493.94
406.883	475.94
407.107	495.94
407.331	535.94
407.555	590.94
407.778	561.94
408.002	538.94
408.226	492.94
408.449	495.94
408.673	485.94
408.896	495.94
409.12	535.94
409.344	534.94
409.567	451.94
409.791	457.94
410.014	427.94
410.238	414.94
410.461	421.94
410.685	421.94
410.908	474.94
411.132	482.94
411.355	509.94
411.578	485.94
411.802	464.94
412.025	421.94
412.249	450.94
412.472	464.94
412.695	482.94
412.919	494.94
413.142	430.94
413.365	421.94
413.589	424.94
413.812	418.94
414.035	419.94
414.258	398.94
414.482	397.94
414.705	409.94
414.928	401.94
415.151	375.94
415.374	395.94
415.597	421.94
415.821	415.94
416.044	393.94
416.267	408.94
416.49	394.94
416.713	390.94
416.936	407.94
417.159	410.94
417.382	419.94
417.605	414.94
417.828	421.94
418.051	429.94
418.274	447.94
418.497	417.94
418.72	417.94
418.943	402.94
419.166	428.94
419.389	421.94
419.611	413.94
419.834	430.94
420.057	442.94
420.28	419.94
420.503	430.94
420.726	426.94
420.948	455.94
421.171	475.94
421.394	531.94
421.617	478.94
421.839	443.94
422.062	423.94
422.285	457.94
422.507	499.94
422.73	561.94
422.953	539.94
423.175	468.94
423.398	475.94
423.621	439.94
423.843	485.94
424.066	468.94
424.288	480.94
424.511	499.94
424.733	542.94
424.956	617.94
425.178	601.94
425.401	587.94
425.623	604.94
425.846	530.94
426.068	490.94
426.291	473.94
426.513	473.94
426.735	486.94
426.958	536.94
427.18	594.94
427.402	723.94
427.625	793.94
427.847	712.94
428.069	603.94
428.292	519.94
428.514	485.94
428.736	464.94
428.958	458.94
429.181	434.94
429.403	415.94
429.625	446.94
429.847	476.94
430.069	527.94
430.292	535.94
430.514	484.94
430.736	437.94
430.958	426.94
431.18	430.94
431.402	423.94
431.624	421.94
431.846	407.94
432.068	390.94
432.29	401.94
432.512	415.94
432.734	423.94
432.956	440.94
433.178	423.94
433.4	412.94
433.622	438.94
433.844	407.94
434.066	411.94
434.287	403.94
434.509	417.94
434.731	415.94
434.953	420.94
435.175	445.94
435.397	456.94
435.618	473.94
435.84	549.94
436.062	627.94
436.284	654.94
436.505	531.94
436.727	531.94
436.949	463.94
437.17	435.94
437.392	432.94
437.614	444.94
437.835	503.94
438.057	611.94
438.278	695.94
438.5	676.94
438.721	721.94
438.943	686.94
439.165	572.94
439.386	519.94
439.608	494.94
439.829	488.94
440.05	527.94
440.272	577.94
440.493	545.94
440.715	480.94
440.936	452.94
441.158	452.94
441.379	433.94
441.6	472.94
441.822	475.94
442.043	499.94
442.264	584.94
442.486	623.94
442.707	527.94
442.928	502.94
443.149	500.94
443.371	518.94
443.592	554.94
443.813	641.94
444.034	668.94
444.255	572.94
444.476	503.94
444.698	487.94
444.919	472.94
445.14	551.94
445.361	527.94
445.582	546.94
445.803	581.94
446.024	681.94
446.245	702.94
446.466	640.94
446.687	534.94
446.908	488.94
447.129	473.94
447.35	468.94
447.571	442.94
447.792	440.94
448.013	445.94
448.234	475.94
448.455	525.94
448.675	641.94
448.896	699.94
449.117	615.94
449.338	584.94
449.559	673.94
449.779	737.94
450	606.94
450.221	507.94
450.442	470.94
450.662	435.94
450.883	448.94
451.104	454.94
451.324	446.94
451.545	443.94
451.766	419.94
451.986	435.94
452.207	411.94
452.428	382.94
452.648	383.94
452.869	394.94
453.089	411.94
453.31	417.94
453.53	395.94
453.751	406.94
453.971	400.94
454.192	410.94
454.412	427.94
454.633	419.94
454.853	383.94
455.073	395.94
455.294	428.94
455.514	487.94
455.734	461.94
455.955	405.94
456.175	373.94
456.395	391.94
456.616	362.94
456.836	361.94
457.056	358.94
457.276	379.94
457.497	387.94
457.717	387.94
457.937	384.94
458.157	388.94
458.377	393.94
458.598	417.94
458.818	460.94
459.038	549.94
459.258	555.94
459.478	468.94
459.698	431.94
459.918	425.94
460.138	420.94
460.358	414.94
460.578	399.94
460.798	408.94
461.018	419.94
461.238	391.94
461.458	385.94
461.678	405.94
461.898	395.94
462.118	389.94
462.338	402.94
462.558	414.94
462.777	406.94
462.997	400.94
463.217	429.94
463.437	411.94
463.657	413.94
463.876	411.94
464.096	419.94
464.316	425.94
464.536	450.94
464.755	428.94
464.975	438.94
465.195	490.94
465.414	561.94
465.634	497.94
465.854	453.94
466.073	416.94
466.293	410.94
466.512	423.94
466.732	384.94
466.951	397.94
467.171	403.94
467.391	412.94
467.61	412.94
467.829	407.94
468.049	422.94
468.268	424.94
468.488	382.94
468.707	390.94
468.927	382.94
469.146	378.94
469.365	371.94
469.585	357.94
469.804	391.94
470.023	412.94
470.243	401.94
470.462	409.94
470.681	425.94
470.901	430.94
471.12	406.94
471.339	396.94
471.558	415.94
471.777	410.94
471.997	415.94
472.216	409.94
472.435	451.94
472.654	425.94
472.873	404.94
473.092	392.94
473.311	405.94
473.53	411.94
473.749	407.94
473.968	462.94
474.187	580.94
474.406	596.94
474.625	484.94
474.844	421.94
475.063	413.94
475.282	422.94
475.501	410.94
475.72	415.94
475.939	421.94
476.158	412.94
476.377	419.94
476.596	405.94
476.814	435.94
477.033	416.94
477.252	424.94
477.471	423.94
477.69	431.94
477.908	443.94
478.127	441.94
478.346	440.94
478.564	431.94
478.783	445.94
479.002	446.94
479.22	464.94
479.439	450.94
479.658	475.94
479.876	469.94
480.095	488.94
480.313	533.94
480.532	499.94
480.751	482.94
480.969	496.94
481.188	563.94
481.406	597.94
481.624	511.94
481.843	517.94
482.061	476.94
482.28	474.94
482.498	478.94
482.717	464.94
482.935	457.94
483.153	477.94
483.372	446.94
483.59	465.94
483.808	470.94
484.027	461.94
484.245	460.94
484.463	485.94
484.681	484.94
484.9	457.94
485.118	499.94
485.336	498.94
485.554	451.94
485.772	485.94
485.99	487.94
486.209	479.94
486.427	480.94
486.645	495.94
486.863	528.94
487.081	517.94
487.299	516.94
487.517	476.94
487.735	503.94
487.953	517.94
488.171	498.94
488.389	503.94
488.607	511.94
488.825	507.94
489.043	525.94
489.261	511.94
489.479	515.94
489.696	511.94
489.914	504.94
490.132	519.94
490.35	523.94
490.568	546.94
490.786	555.94
491.003	538.94
491.221	564.94
491.439	580.94
491.657	571.94
491.874	564.94
492.092	577.94
492.31	567.94
492.527	585.94
492.745	593.94
492.963	590.94
493.18	618.94
493.398	599.94
493.615	590.94
493.833	596.94
494.05	615.94
494.268	605.94
494.485	612.94
494.703	577.94
494.92	596.94
495.138	609.94
495.355	597.94
495.573	610.94
495.79	606.94
496.008	597.94
496.225	601.94
496.442	605.94
496.66	596.94
496.877	609.94
497.094	591.94
497.312	609.94
497.529	611.94
497.746	601.94
497.963	623.94
498.181	640.94
498.398	644.94
498.615	656.94
498.832	651.94
499.049	663.94
499.267	670.94
499.484	678.94
499.701	677.94
499.918	675.94
500.135	701.94
500.352	732.94
500.569	760.94
500.786	745.94
501.003	728.94
501.22	744.94
501.437	717.94
501.654	709.94
501.871	724.94
