Data from 1981.PennyLincolnUp.Lamp.En5.5.200Scan.071819.P1_HRD10591_16-41-18-958.txt Node
Date: Thu Jul 18 16:41:18 EDT 2019
User: cochatt
Spectrometer: HR+D1059
Trigger mode: 1
Integration Time (sec): 1.000000E-1
Scans to average: 1
Electric dark correction enabled: true
Nonlinearity correction enabled: false
Boxcar width: 0
XAxis mode: Wavelengths
Number of Pixels in Spectrum: 2048
>>>>>Begin Spectral Data<<<<<
223.165	-21.06
223.4	-21.06
223.635	-21.06
223.869	-17.06
224.104	-10.06
224.338	-3.06
224.573	-27.06
224.808	-16.06
225.042	-3.06
225.277	-1.06
225.511	1.94
225.746	1.94
225.98	1.94
226.215	5.94
226.449	13.94
226.683	21.94
226.918	21.94
227.152	28.94
227.387	38.94
227.621	44.94
227.856	39.94
228.09	58.94
228.324	53.94
228.559	43.94
228.793	69.94
229.027	105.94
229.262	111.94
229.496	112.94
229.73	147.94
229.964	151.94
230.199	134.94
230.433	123.94
230.667	123.94
230.901	118.94
231.136	110.94
231.37	118.94
231.604	105.94
231.838	129.94
232.072	117.94
232.306	107.94
232.541	117.94
232.775	119.94
233.009	120.94
233.243	102.94
233.477	117.94
233.711	119.94
233.945	118.94
234.179	102.94
234.413	119.94
234.647	114.94
234.881	125.94
235.115	106.94
235.349	119.94
235.583	129.94
235.817	125.94
236.051	142.94
236.285	122.94
236.519	118.94
236.753	129.94
236.987	165.94
237.221	166.94
237.455	228.94
237.689	186.94
237.922	141.94
238.156	141.94
238.39	134.94
238.624	124.94
238.858	120.94
239.091	116.94
239.325	144.94
239.559	133.94
239.793	142.94
240.027	135.94
240.26	140.94
240.494	161.94
240.728	149.94
240.961	158.94
241.195	151.94
241.429	147.94
241.662	124.94
241.896	137.94
242.13	134.94
242.363	139.94
242.597	125.94
242.83	135.94
243.064	127.94
243.298	148.94
243.531	135.94
243.765	130.94
243.998	127.94
244.232	149.94
244.465	131.94
244.699	149.94
244.932	139.94
245.166	137.94
245.399	138.94
245.633	142.94
245.866	131.94
246.099	132.94
246.333	147.94
246.566	159.94
246.8	159.94
247.033	161.94
247.266	157.94
247.5	158.94
247.733	169.94
247.966	173.94
248.2	185.94
248.433	166.94
248.666	179.94
248.899	203.94
249.133	209.94
249.366	223.94
249.599	208.94
249.832	178.94
250.066	186.94
250.299	193.94
250.532	181.94
250.765	210.94
250.998	223.94
251.231	219.94
251.465	219.94
251.698	209.94
251.931	190.94
252.164	203.94
252.397	183.94
252.63	214.94
252.863	205.94
253.096	226.94
253.329	223.94
253.562	216.94
253.795	239.94
254.028	245.94
254.261	213.94
254.494	233.94
254.727	271.94
254.96	277.94
255.193	254.94
255.426	250.94
255.659	254.94
255.892	248.94
256.124	238.94
256.357	233.94
256.59	227.94
256.823	221.94
257.056	222.94
257.289	210.94
257.521	212.94
257.754	211.94
257.987	216.94
258.22	212.94
258.452	215.94
258.685	223.94
258.918	210.94
259.151	214.94
259.383	230.94
259.616	228.94
259.849	229.94
260.081	265.94
260.314	254.94
260.547	253.94
260.779	260.94
261.012	250.94
261.244	228.94
261.477	236.94
261.71	230.94
261.942	238.94
262.175	225.94
262.407	253.94
262.64	222.94
262.872	212.94
263.105	219.94
263.337	211.94
263.57	231.94
263.802	229.94
264.035	235.94
264.267	231.94
264.499	212.94
264.732	206.94
264.964	209.94
265.197	202.94
265.429	225.94
265.661	190.94
265.894	199.94
266.126	227.94
266.358	209.94
266.591	220.94
266.823	224.94
267.055	239.94
267.287	241.94
267.52	235.94
267.752	220.94
267.984	229.94
268.216	245.94
268.448	230.94
268.681	245.94
268.913	228.94
269.145	278.94
269.377	270.94
269.609	270.94
269.841	264.94
270.073	257.94
270.306	298.94
270.538	326.94
270.77	329.94
271.002	301.94
271.234	293.94
271.466	310.94
271.698	310.94
271.93	323.94
272.162	325.94
272.394	339.94
272.626	327.94
272.858	309.94
273.09	317.94
273.322	277.94
273.553	283.94
273.785	274.94
274.017	278.94
274.249	255.94
274.481	263.94
274.713	277.94
274.945	275.94
275.176	270.94
275.408	278.94
275.64	251.94
275.872	279.94
276.104	279.94
276.335	269.94
276.567	287.94
276.799	313.94
277.031	311.94
277.262	304.94
277.494	335.94
277.726	305.94
277.957	291.94
278.189	289.94
278.421	297.94
278.652	277.94
278.884	278.94
279.115	260.94
279.347	269.94
279.579	267.94
279.81	278.94
280.042	251.94
280.273	255.94
280.505	267.94
280.736	259.94
280.968	277.94
281.199	286.94
281.431	254.94
281.662	252.94
281.894	284.94
282.125	277.94
282.356	279.94
282.588	300.94
282.819	299.94
283.051	274.94
283.282	270.94
283.513	275.94
283.745	270.94
283.976	290.94
284.207	275.94
284.439	284.94
284.67	285.94
284.901	290.94
285.132	268.94
285.364	282.94
285.595	277.94
285.826	285.94
286.057	276.94
286.288	270.94
286.52	264.94
286.751	291.94
286.982	269.94
287.213	269.94
287.444	287.94
287.675	274.94
287.906	295.94
288.138	298.94
288.369	287.94
288.6	294.94
288.831	298.94
289.062	285.94
289.293	279.94
289.524	284.94
289.755	283.94
289.986	294.94
290.217	278.94
290.448	284.94
290.679	279.94
290.91	291.94
291.141	277.94
291.371	278.94
291.602	281.94
291.833	280.94
292.064	295.94
292.295	283.94
292.526	283.94
292.757	277.94
292.987	282.94
293.218	294.94
293.449	278.94
293.68	299.94
293.91	270.94
294.141	282.94
294.372	265.94
294.603	281.94
294.833	278.94
295.064	277.94
295.295	279.94
295.525	298.94
295.756	292.94
295.987	313.94
296.217	328.94
296.448	328.94
296.679	323.94
296.909	286.94
297.14	283.94
297.37	294.94
297.601	295.94
297.831	301.94
298.062	300.94
298.292	298.94
298.523	298.94
298.753	294.94
298.984	291.94
299.214	299.94
299.445	319.94
299.675	306.94
299.905	306.94
300.136	298.94
300.366	314.94
300.597	309.94
300.827	314.94
301.057	317.94
301.288	329.94
301.518	309.94
301.748	301.94
301.979	318.94
302.209	325.94
302.439	295.94
302.669	330.94
302.9	328.94
303.13	325.94
303.36	321.94
303.59	314.94
303.82	324.94
304.051	325.94
304.281	329.94
304.511	323.94
304.741	317.94
304.971	315.94
305.201	300.94
305.431	315.94
305.661	321.94
305.891	316.94
306.121	318.94
306.352	327.94
306.582	347.94
306.812	333.94
307.042	324.94
307.272	315.94
307.502	312.94
307.731	344.94
307.961	332.94
308.191	317.94
308.421	320.94
308.651	321.94
308.881	317.94
309.111	352.94
309.341	353.94
309.571	353.94
309.8	330.94
310.03	377.94
310.26	384.94
310.49	373.94
310.72	366.94
310.949	381.94
311.179	413.94
311.409	388.94
311.639	361.94
311.868	381.94
312.098	364.94
312.328	405.94
312.557	415.94
312.787	414.94
313.017	405.94
313.246	383.94
313.476	376.94
313.706	387.94
313.935	379.94
314.165	390.94
314.394	404.94
314.624	406.94
314.853	374.94
315.083	387.94
315.312	382.94
315.542	365.94
315.771	366.94
316.001	378.94
316.23	360.94
316.46	363.94
316.689	372.94
316.919	397.94
317.148	377.94
317.377	396.94
317.607	394.94
317.836	382.94
318.065	381.94
318.295	370.94
318.524	361.94
318.753	363.94
318.983	376.94
319.212	373.94
319.441	382.94
319.67	391.94
319.9	385.94
320.129	362.94
320.358	400.94
320.587	391.94
320.816	395.94
321.046	391.94
321.275	406.94
321.504	395.94
321.733	406.94
321.962	401.94
322.191	424.94
322.42	442.94
322.649	454.94
322.878	464.94
323.108	463.94
323.337	490.94
323.566	512.94
323.795	566.94
324.024	628.94
324.253	766.94
324.482	1081.94
324.71	1639.94
324.939	2282.94
325.168	1947.94
325.397	1033.94
325.626	703.94
325.855	576.94
326.084	561.94
326.313	513.94
326.542	547.94
326.77	592.94
326.999	705.94
327.228	952.94
327.457	1423.94
327.686	1671.94
327.914	1123.94
328.143	783.94
328.372	669.94
328.6	631.94
328.829	589.94
329.058	568.94
329.287	588.94
329.515	578.94
329.744	534.94
329.972	519.94
330.201	550.94
330.43	551.94
330.658	572.94
330.887	626.94
331.115	588.94
331.344	533.94
331.572	488.94
331.801	488.94
332.03	480.94
332.258	474.94
332.486	436.94
332.715	449.94
332.943	445.94
333.172	436.94
333.4	449.94
333.629	437.94
333.857	466.94
334.085	467.94
334.314	459.94
334.542	502.94
334.771	504.94
334.999	490.94
335.227	461.94
335.455	436.94
335.684	417.94
335.912	435.94
336.14	433.94
336.369	419.94
336.597	426.94
336.825	439.94
337.053	435.94
337.281	417.94
337.51	412.94
337.738	411.94
337.966	430.94
338.194	419.94
338.422	430.94
338.65	412.94
338.878	407.94
339.106	395.94
339.334	418.94
339.562	416.94
339.79	411.94
340.018	411.94
340.246	405.94
340.474	417.94
340.702	410.94
340.93	404.94
341.158	386.94
341.386	391.94
341.614	435.94
341.842	394.94
342.07	409.94
342.298	393.94
342.526	413.94
342.754	392.94
342.981	395.94
343.209	409.94
343.437	400.94
343.665	411.94
343.893	410.94
344.12	392.94
344.348	425.94
344.576	422.94
344.804	427.94
345.031	407.94
345.259	436.94
345.487	406.94
345.714	439.94
345.942	400.94
346.17	389.94
346.397	395.94
346.625	394.94
346.853	399.94
347.08	395.94
347.308	402.94
347.535	412.94
347.763	418.94
347.99	397.94
348.218	425.94
348.445	408.94
348.673	422.94
348.9	385.94
349.128	400.94
349.355	366.94
349.583	389.94
349.81	379.94
350.037	398.94
350.265	389.94
350.492	386.94
350.72	407.94
350.947	404.94
351.174	385.94
351.402	398.94
351.629	419.94
351.856	385.94
352.083	394.94
352.311	409.94
352.538	410.94
352.765	425.94
352.992	419.94
353.22	408.94
353.447	384.94
353.674	383.94
353.901	372.94
354.128	383.94
354.355	386.94
354.583	385.94
354.81	389.94
355.037	365.94
355.264	359.94
355.491	373.94
355.718	359.94
355.945	362.94
356.172	363.94
356.399	346.94
356.626	353.94
356.853	374.94
357.08	348.94
357.307	353.94
357.534	353.94
357.761	362.94
357.988	365.94
358.215	357.94
358.441	367.94
358.668	385.94
358.895	371.94
359.122	391.94
359.349	376.94
359.576	389.94
359.802	417.94
360.029	440.94
360.256	433.94
360.483	407.94
360.709	381.94
360.936	392.94
361.163	399.94
361.39	382.94
361.616	372.94
361.843	376.94
362.07	389.94
362.296	372.94
362.523	368.94
362.749	373.94
362.976	383.94
363.203	380.94
363.429	355.94
363.656	366.94
363.882	354.94
364.109	358.94
364.335	373.94
364.562	362.94
364.788	350.94
365.015	354.94
365.241	355.94
365.468	373.94
365.694	367.94
365.92	377.94
366.147	351.94
366.373	363.94
366.599	361.94
366.826	367.94
367.052	350.94
367.278	378.94
367.505	376.94
367.731	365.94
367.957	358.94
368.184	341.94
368.41	361.94
368.636	364.94
368.862	364.94
369.089	366.94
369.315	366.94
369.541	367.94
369.767	358.94
369.993	365.94
370.219	367.94
370.445	346.94
370.672	373.94
370.898	337.94
371.124	363.94
371.35	357.94
371.576	355.94
371.802	363.94
372.028	351.94
372.254	358.94
372.48	344.94
372.706	344.94
372.932	347.94
373.158	371.94
373.384	355.94
373.61	356.94
373.835	363.94
374.061	343.94
374.287	348.94
374.513	362.94
374.739	345.94
374.965	349.94
375.191	361.94
375.416	339.94
375.642	357.94
375.868	357.94
376.094	330.94
376.319	335.94
376.545	340.94
376.771	355.94
376.997	346.94
377.222	353.94
377.448	350.94
377.674	365.94
377.899	342.94
378.125	339.94
378.35	362.94
378.576	334.94
378.802	348.94
379.027	366.94
379.253	345.94
379.478	344.94
379.704	338.94
379.929	370.94
380.155	346.94
380.38	340.94
380.606	348.94
380.831	361.94
381.057	359.94
381.282	340.94
381.507	345.94
381.733	365.94
381.958	345.94
382.184	330.94
382.409	331.94
382.634	358.94
382.86	355.94
383.085	337.94
383.31	344.94
383.535	364.94
383.761	363.94
383.986	341.94
384.211	362.94
384.436	357.94
384.662	345.94
384.887	370.94
385.112	345.94
385.337	377.94
385.562	349.94
385.787	371.94
386.013	373.94
386.238	364.94
386.463	350.94
386.688	353.94
386.913	369.94
387.138	356.94
387.363	376.94
387.588	377.94
387.813	351.94
388.038	376.94
388.263	367.94
388.488	391.94
388.713	374.94
388.938	397.94
389.163	373.94
389.387	362.94
389.612	361.94
389.837	370.94
390.062	377.94
390.287	361.94
390.512	347.94
390.736	363.94
390.961	363.94
391.186	364.94
391.411	363.94
391.636	375.94
391.86	360.94
392.085	375.94
392.31	359.94
392.534	359.94
392.759	370.94
392.984	366.94
393.208	377.94
393.433	375.94
393.658	364.94
393.882	350.94
394.107	353.94
394.331	352.94
394.556	366.94
394.78	364.94
395.005	372.94
395.229	373.94
395.454	354.94
395.678	376.94
395.903	364.94
396.127	378.94
396.352	394.94
396.576	396.94
396.801	377.94
397.025	382.94
397.249	369.94
397.474	391.94
397.698	394.94
397.922	411.94
398.147	389.94
398.371	404.94
398.595	386.94
398.82	378.94
399.044	411.94
399.268	407.94
399.492	423.94
399.717	436.94
399.941	474.94
400.165	480.94
400.389	482.94
400.613	464.94
400.837	423.94
401.062	417.94
401.286	417.94
401.51	422.94
401.734	398.94
401.958	410.94
402.182	410.94
402.406	418.94
402.63	427.94
402.854	438.94
403.078	409.94
403.302	433.94
403.526	424.94
403.75	407.94
403.974	400.94
404.198	390.94
404.422	417.94
404.645	442.94
404.869	425.94
405.093	455.94
405.317	499.94
405.541	527.94
405.765	471.94
405.988	453.94
406.212	466.94
406.436	467.94
406.66	508.94
406.883	469.94
407.107	467.94
407.331	500.94
407.555	574.94
407.778	574.94
408.002	501.94
408.226	464.94
408.449	446.94
408.673	462.94
408.896	494.94
409.12	534.94
409.344	498.94
409.567	444.94
409.791	432.94
410.014	415.94
410.238	422.94
410.461	405.94
410.685	433.94
410.908	416.94
411.132	455.94
411.355	495.94
411.578	480.94
411.802	437.94
412.025	437.94
412.249	422.94
412.472	448.94
412.695	482.94
412.919	461.94
413.142	426.94
413.365	399.94
413.589	392.94
413.812	405.94
414.035	382.94
414.258	394.94
414.482	402.94
414.705	379.94
414.928	386.94
415.151	379.94
415.374	385.94
415.597	391.94
415.821	399.94
416.044	393.94
416.267	376.94
416.49	395.94
416.713	406.94
416.936	398.94
417.159	385.94
417.382	392.94
417.605	397.94
417.828	406.94
418.051	407.94
418.274	405.94
418.497	381.94
418.72	397.94
418.943	391.94
419.166	401.94
419.389	405.94
419.611	418.94
419.834	407.94
420.057	406.94
420.28	420.94
420.503	417.94
420.726	408.94
420.948	453.94
421.171	456.94
421.394	492.94
421.617	445.94
421.839	408.94
422.062	425.94
422.285	427.94
422.507	485.94
422.73	547.94
422.953	535.94
423.175	468.94
423.398	438.94
423.621	426.94
423.843	474.94
424.066	446.94
424.288	444.94
424.511	466.94
424.733	514.94
424.956	583.94
425.178	533.94
425.401	554.94
425.623	578.94
425.846	500.94
426.068	454.94
426.291	446.94
426.513	453.94
426.735	457.94
426.958	519.94
427.18	572.94
427.402	685.94
427.625	732.94
427.847	685.94
428.069	565.94
428.292	509.94
428.514	471.94
428.736	450.94
428.958	417.94
429.181	427.94
429.403	438.94
429.625	427.94
429.847	459.94
430.069	527.94
430.292	533.94
430.514	446.94
430.736	419.94
430.958	403.94
431.18	384.94
431.402	406.94
431.624	391.94
431.846	404.94
432.068	392.94
432.29	404.94
432.512	407.94
432.734	391.94
432.956	406.94
433.178	401.94
433.4	385.94
433.622	397.94
433.844	402.94
434.066	399.94
434.287	379.94
434.509	389.94
434.731	389.94
434.953	421.94
435.175	401.94
435.397	459.94
435.618	461.94
435.84	511.94
436.062	575.94
436.284	636.94
436.505	517.94
436.727	463.94
436.949	462.94
437.17	427.94
437.392	410.94
437.614	439.94
437.835	457.94
438.057	569.94
438.278	659.94
438.5	634.94
438.721	690.94
438.943	646.94
439.165	542.94
439.386	481.94
439.608	474.94
439.829	468.94
440.05	511.94
440.272	556.94
440.493	499.94
440.715	459.94
440.936	437.94
441.158	442.94
441.379	438.94
441.6	451.94
441.822	458.94
442.043	482.94
442.264	569.94
442.486	571.94
442.707	519.94
442.928	467.94
443.149	474.94
443.371	487.94
443.592	521.94
443.813	620.94
444.034	655.94
444.255	535.94
444.476	479.94
444.698	468.94
444.919	419.94
445.14	556.94
445.361	516.94
445.582	504.94
445.803	558.94
446.024	650.94
446.245	651.94
446.466	593.94
446.687	505.94
446.908	466.94
447.129	429.94
447.35	408.94
447.571	424.94
447.792	420.94
448.013	435.94
448.234	466.94
448.455	487.94
448.675	610.94
448.896	671.94
449.117	606.94
449.338	575.94
449.559	634.94
449.779	699.94
450	577.94
450.221	477.94
450.442	429.94
450.662	411.94
450.883	435.94
451.104	456.94
451.324	413.94
451.545	427.94
451.766	403.94
451.986	388.94
452.207	379.94
452.428	376.94
452.648	376.94
452.869	387.94
453.089	409.94
453.31	408.94
453.53	368.94
453.751	384.94
453.971	399.94
454.192	423.94
454.412	391.94
454.633	390.94
454.853	375.94
455.073	382.94
455.294	400.94
455.514	456.94
455.734	447.94
455.955	385.94
456.175	354.94
456.395	361.94
456.616	339.94
456.836	361.94
457.056	346.94
457.276	353.94
457.497	357.94
457.717	353.94
457.937	378.94
458.157	357.94
458.377	367.94
458.598	413.94
458.818	438.94
459.038	533.94
459.258	545.94
459.478	453.94
459.698	405.94
459.918	422.94
460.138	396.94
460.358	369.94
460.578	389.94
460.798	397.94
461.018	391.94
461.238	384.94
461.458	376.94
461.678	392.94
461.898	374.94
462.118	364.94
462.338	401.94
462.558	394.94
462.777	413.94
462.997	403.94
463.217	408.94
463.437	413.94
463.657	410.94
463.876	404.94
464.096	414.94
464.316	392.94
464.536	411.94
464.755	429.94
464.975	412.94
465.195	454.94
465.414	524.94
465.634	497.94
465.854	442.94
466.073	415.94
466.293	407.94
466.512	391.94
466.732	371.94
466.951	390.94
467.171	393.94
467.391	389.94
467.61	413.94
467.829	394.94
468.049	394.94
468.268	383.94
468.488	376.94
468.707	387.94
468.927	385.94
469.146	358.94
469.365	361.94
469.585	371.94
469.804	377.94
470.023	381.94
470.243	385.94
470.462	383.94
470.681	393.94
470.901	413.94
471.12	368.94
471.339	392.94
471.558	390.94
471.777	385.94
471.997	372.94
472.216	393.94
472.435	408.94
472.654	409.94
472.873	396.94
473.092	378.94
473.311	374.94
473.53	393.94
473.749	406.94
473.968	449.94
474.187	563.94
474.406	557.94
474.625	467.94
474.844	390.94
475.063	393.94
475.282	380.94
475.501	400.94
475.72	411.94
475.939	405.94
476.158	423.94
476.377	406.94
476.596	400.94
476.814	413.94
477.033	396.94
477.252	377.94
477.471	409.94
477.69	406.94
477.908	419.94
478.127	437.94
478.346	412.94
478.564	430.94
478.783	433.94
479.002	435.94
479.22	446.94
479.439	434.94
479.658	452.94
479.876	464.94
480.095	476.94
480.313	476.94
480.532	471.94
480.751	461.94
480.969	471.94
481.188	531.94
481.406	559.94
481.624	492.94
481.843	467.94
482.061	451.94
482.28	459.94
482.498	448.94
482.717	430.94
482.935	458.94
483.153	453.94
483.372	431.94
483.59	467.94
483.808	449.94
484.027	426.94
484.245	458.94
484.463	457.94
484.681	453.94
484.9	462.94
485.118	467.94
485.336	463.94
485.554	463.94
485.772	476.94
485.99	467.94
486.209	489.94
486.427	476.94
486.645	485.94
486.863	508.94
487.081	517.94
487.299	514.94
487.517	494.94
487.735	477.94
487.953	482.94
488.171	493.94
488.389	492.94
488.607	505.94
488.825	489.94
489.043	498.94
489.261	490.94
489.479	507.94
489.696	470.94
489.914	502.94
490.132	481.94
490.35	515.94
490.568	514.94
490.786	526.94
491.003	527.94
491.221	548.94
491.439	538.94
491.657	534.94
491.874	534.94
492.092	559.94
492.31	551.94
492.527	545.94
492.745	554.94
492.963	545.94
493.18	580.94
493.398	554.94
493.615	589.94
493.833	558.94
494.05	570.94
494.268	567.94
494.485	556.94
494.703	561.94
494.92	565.94
495.138	600.94
495.355	553.94
495.573	554.94
495.79	590.94
496.008	590.94
496.225	571.94
496.442	577.94
496.66	586.94
496.877	590.94
497.094	583.94
497.312	599.94
497.529	593.94
497.746	618.94
497.963	617.94
498.181	617.94
498.398	615.94
498.615	630.94
498.832	635.94
499.049	633.94
499.267	626.94
499.484	643.94
499.701	669.94
499.918	679.94
500.135	695.94
500.352	716.94
500.569	711.94
500.786	711.94
501.003	727.94
501.22	718.94
501.437	679.94
501.654	666.94
501.871	678.94
