Data from 1981.PennyLincolnUp.Lamp.En5.5.200Scan.071819.P1_HRD10591_16-43-33-960.txt Node
Date: Thu Jul 18 16:43:33 EDT 2019
User: cochatt
Spectrometer: HR+D1059
Trigger mode: 1
Integration Time (sec): 1.000000E-1
Scans to average: 1
Electric dark correction enabled: true
Nonlinearity correction enabled: false
Boxcar width: 0
XAxis mode: Wavelengths
Number of Pixels in Spectrum: 2048
>>>>>Begin Spectral Data<<<<<
223.165	-16.19
223.4	-16.19
223.635	-16.19
223.869	-10.19
224.104	-21.19
224.338	-11.19
224.573	-9.19
224.808	-20.19
225.042	-16.19
225.277	-18.19
225.511	2.81
225.746	-1.19
225.98	5.81
226.215	7.81
226.449	15.81
226.683	25.81
226.918	31.81
227.152	33.81
227.387	29.81
227.621	18.81
227.856	53.81
228.09	40.81
228.324	47.81
228.559	58.81
228.793	68.81
229.027	106.81
229.262	121.81
229.496	122.81
229.73	128.81
229.964	162.81
230.199	139.81
230.433	118.81
230.667	105.81
230.901	110.81
231.136	135.81
231.37	130.81
231.604	104.81
231.838	112.81
232.072	127.81
232.306	103.81
232.541	112.81
232.775	116.81
233.009	115.81
233.243	126.81
233.477	113.81
233.711	114.81
233.945	126.81
234.179	116.81
234.413	132.81
234.647	97.81
234.881	124.81
235.115	134.81
235.349	128.81
235.583	125.81
235.817	131.81
236.051	116.81
236.285	132.81
236.519	146.81
236.753	146.81
236.987	157.81
237.221	186.81
237.455	244.81
237.689	175.81
237.922	147.81
238.156	137.81
238.39	138.81
238.624	128.81
238.858	149.81
239.091	140.81
239.325	137.81
239.559	132.81
239.793	133.81
240.027	142.81
240.26	154.81
240.494	162.81
240.728	160.81
240.961	149.81
241.195	153.81
241.429	145.81
241.662	140.81
241.896	124.81
242.13	135.81
242.363	134.81
242.597	151.81
242.83	156.81
243.064	148.81
243.298	150.81
243.531	130.81
243.765	150.81
243.998	144.81
244.232	132.81
244.465	151.81
244.699	144.81
244.932	156.81
245.166	153.81
245.399	156.81
245.633	147.81
245.866	151.81
246.099	132.81
246.333	156.81
246.566	168.81
246.8	168.81
247.033	169.81
247.266	143.81
247.5	163.81
247.733	177.81
247.966	171.81
248.2	193.81
248.433	166.81
248.666	175.81
248.899	193.81
249.133	208.81
249.366	206.81
249.599	195.81
249.832	202.81
250.066	196.81
250.299	190.81
250.532	200.81
250.765	225.81
250.998	243.81
251.231	230.81
251.465	213.81
251.698	217.81
251.931	217.81
252.164	200.81
252.397	195.81
252.63	218.81
252.863	221.81
253.096	226.81
253.329	251.81
253.562	249.81
253.795	234.81
254.028	233.81
254.261	231.81
254.494	236.81
254.727	288.81
254.96	304.81
255.193	294.81
255.426	290.81
255.659	248.81
255.892	253.81
256.124	244.81
256.357	235.81
256.59	244.81
256.823	228.81
257.056	235.81
257.289	222.81
257.521	223.81
257.754	237.81
257.987	208.81
258.22	233.81
258.452	221.81
258.685	217.81
258.918	209.81
259.151	204.81
259.383	231.81
259.616	236.81
259.849	241.81
260.081	252.81
260.314	257.81
260.547	283.81
260.779	260.81
261.012	272.81
261.244	244.81
261.477	236.81
261.71	236.81
261.942	239.81
262.175	260.81
262.407	242.81
262.64	240.81
262.872	225.81
263.105	214.81
263.337	229.81
263.57	215.81
263.802	229.81
264.035	207.81
264.267	203.81
264.499	218.81
264.732	222.81
264.964	217.81
265.197	229.81
265.429	232.81
265.661	222.81
265.894	228.81
266.126	225.81
266.358	226.81
266.591	217.81
266.823	225.81
267.055	220.81
267.287	232.81
267.52	241.81
267.752	239.81
267.984	238.81
268.216	238.81
268.448	199.81
268.681	247.81
268.913	265.81
269.145	299.81
269.377	288.81
269.609	286.81
269.841	313.81
270.073	308.81
270.306	327.81
270.538	336.81
270.77	335.81
271.002	342.81
271.234	324.81
271.466	342.81
271.698	362.81
271.93	330.81
272.162	353.81
272.394	335.81
272.626	311.81
272.858	318.81
273.09	296.81
273.322	304.81
273.553	297.81
273.785	277.81
274.017	298.81
274.249	293.81
274.481	297.81
274.713	281.81
274.945	290.81
275.176	295.81
275.408	286.81
275.64	269.81
275.872	283.81
276.104	297.81
276.335	283.81
276.567	285.81
276.799	278.81
277.031	330.81
277.262	310.81
277.494	336.81
277.726	306.81
277.957	311.81
278.189	285.81
278.421	306.81
278.652	281.81
278.884	285.81
279.115	288.81
279.347	266.81
279.579	276.81
279.81	282.81
280.042	271.81
280.273	267.81
280.505	274.81
280.736	262.81
280.968	288.81
281.199	271.81
281.431	275.81
281.662	270.81
281.894	283.81
282.125	299.81
282.356	288.81
282.588	319.81
282.819	318.81
283.051	290.81
283.282	274.81
283.513	270.81
283.745	272.81
283.976	283.81
284.207	289.81
284.439	280.81
284.67	295.81
284.901	282.81
285.132	286.81
285.364	281.81
285.595	281.81
285.826	285.81
286.057	293.81
286.288	292.81
286.52	287.81
286.751	288.81
286.982	286.81
287.213	258.81
287.444	285.81
287.675	297.81
287.906	304.81
288.138	313.81
288.369	312.81
288.6	313.81
288.831	290.81
289.062	304.81
289.293	298.81
289.524	294.81
289.755	288.81
289.986	282.81
290.217	291.81
290.448	284.81
290.679	321.81
290.91	279.81
291.141	289.81
291.371	304.81
291.602	279.81
291.833	297.81
292.064	284.81
292.295	293.81
292.526	276.81
292.757	289.81
292.987	295.81
293.218	281.81
293.449	292.81
293.68	299.81
293.91	277.81
294.141	291.81
294.372	294.81
294.603	284.81
294.833	287.81
295.064	291.81
295.295	296.81
295.525	289.81
295.756	288.81
295.987	300.81
296.217	318.81
296.448	319.81
296.679	299.81
296.909	302.81
297.14	310.81
297.37	288.81
297.601	291.81
297.831	306.81
298.062	292.81
298.292	291.81
298.523	305.81
298.753	276.81
298.984	300.81
299.214	317.81
299.445	288.81
299.675	308.81
299.905	316.81
300.136	303.81
300.366	306.81
300.597	325.81
300.827	306.81
301.057	317.81
301.288	346.81
301.518	329.81
301.748	312.81
301.979	318.81
302.209	346.81
302.439	332.81
302.669	324.81
302.9	322.81
303.13	315.81
303.36	333.81
303.59	334.81
303.82	345.81
304.051	359.81
304.281	321.81
304.511	314.81
304.741	312.81
304.971	334.81
305.201	309.81
305.431	314.81
305.661	318.81
305.891	330.81
306.121	323.81
306.352	325.81
306.582	332.81
306.812	338.81
307.042	332.81
307.272	343.81
307.502	345.81
307.731	348.81
307.961	328.81
308.191	334.81
308.421	331.81
308.651	336.81
308.881	351.81
309.111	350.81
309.341	361.81
309.571	363.81
309.8	367.81
310.03	357.81
310.26	380.81
310.49	394.81
310.72	402.81
310.949	422.81
311.179	436.81
311.409	384.81
311.639	361.81
311.868	408.81
312.098	386.81
312.328	384.81
312.557	410.81
312.787	433.81
313.017	406.81
313.246	412.81
313.476	379.81
313.706	384.81
313.935	398.81
314.165	397.81
314.394	409.81
314.624	412.81
314.853	396.81
315.083	390.81
315.312	402.81
315.542	388.81
315.771	370.81
316.001	378.81
316.23	402.81
316.46	351.81
316.689	378.81
316.919	380.81
317.148	390.81
317.377	396.81
317.607	419.81
317.836	386.81
318.065	392.81
318.295	400.81
318.524	381.81
318.753	386.81
318.983	372.81
319.212	390.81
319.441	417.81
319.67	412.81
319.9	376.81
320.129	377.81
320.358	390.81
320.587	408.81
320.816	412.81
321.046	429.81
321.275	404.81
321.504	418.81
321.733	417.81
321.962	412.81
322.191	463.81
322.42	466.81
322.649	505.81
322.878	493.81
323.108	496.81
323.337	513.81
323.566	575.81
323.795	605.81
324.024	657.81
324.253	862.81
324.482	1206.81
324.71	1873.81
324.939	2550.81
325.168	2171.81
325.397	1155.81
325.626	763.81
325.855	650.81
326.084	575.81
326.313	552.81
326.542	585.81
326.77	632.81
326.999	782.81
327.228	1075.81
327.457	1613.81
327.686	1887.81
327.914	1259.81
328.143	835.81
328.372	735.81
328.6	686.81
328.829	629.81
329.058	652.81
329.287	631.81
329.515	616.81
329.744	558.81
329.972	567.81
330.201	582.81
330.43	631.81
330.658	665.81
330.887	704.81
331.115	672.81
331.344	552.81
331.572	520.81
331.801	524.81
332.03	511.81
332.258	476.81
332.486	463.81
332.715	437.81
332.943	446.81
333.172	465.81
333.4	449.81
333.629	445.81
333.857	482.81
334.085	485.81
334.314	508.81
334.542	504.81
334.771	538.81
334.999	515.81
335.227	471.81
335.455	464.81
335.684	454.81
335.912	446.81
336.14	429.81
336.369	412.81
336.597	445.81
336.825	452.81
337.053	428.81
337.281	415.81
337.51	433.81
337.738	428.81
337.966	438.81
338.194	439.81
338.422	431.81
338.65	438.81
338.878	436.81
339.106	407.81
339.334	426.81
339.562	423.81
339.79	402.81
340.018	434.81
340.246	435.81
340.474	440.81
340.702	434.81
340.93	408.81
341.158	410.81
341.386	426.81
341.614	433.81
341.842	429.81
342.07	404.81
342.298	414.81
342.526	392.81
342.754	401.81
342.981	389.81
343.209	392.81
343.437	389.81
343.665	415.81
343.893	408.81
344.12	428.81
344.348	417.81
344.576	403.81
344.804	428.81
345.031	423.81
345.259	432.81
345.487	448.81
345.714	402.81
345.942	402.81
346.17	401.81
346.397	413.81
346.625	394.81
346.853	426.81
347.08	414.81
347.308	408.81
347.535	402.81
347.763	441.81
347.99	436.81
348.218	429.81
348.445	450.81
348.673	413.81
348.9	390.81
349.128	397.81
349.355	397.81
349.583	383.81
349.81	383.81
350.037	381.81
350.265	388.81
350.492	402.81
350.72	391.81
350.947	384.81
351.174	407.81
351.402	421.81
351.629	412.81
351.856	416.81
352.083	429.81
352.311	432.81
352.538	442.81
352.765	422.81
352.992	410.81
353.22	388.81
353.447	416.81
353.674	394.81
353.901	398.81
354.128	356.81
354.355	361.81
354.583	380.81
354.81	365.81
355.037	361.81
355.264	359.81
355.491	373.81
355.718	364.81
355.945	347.81
356.172	366.81
356.399	372.81
356.626	361.81
356.853	361.81
357.08	380.81
357.307	358.81
357.534	356.81
357.761	369.81
357.988	381.81
358.215	372.81
358.441	364.81
358.668	364.81
358.895	365.81
359.122	368.81
359.349	374.81
359.576	400.81
359.802	421.81
360.029	442.81
360.256	479.81
360.483	438.81
360.709	396.81
360.936	388.81
361.163	374.81
361.39	389.81
361.616	393.81
361.843	400.81
362.07	404.81
362.296	395.81
362.523	381.81
362.749	414.81
362.976	386.81
363.203	389.81
363.429	367.81
363.656	388.81
363.882	367.81
364.109	392.81
364.335	380.81
364.562	369.81
364.788	365.81
365.015	377.81
365.241	372.81
365.468	380.81
365.694	369.81
365.92	362.81
366.147	356.81
366.373	375.81
366.599	374.81
366.826	372.81
367.052	368.81
367.278	356.81
367.505	384.81
367.731	370.81
367.957	372.81
368.184	354.81
368.41	365.81
368.636	376.81
368.862	384.81
369.089	358.81
369.315	354.81
369.541	351.81
369.767	369.81
369.993	356.81
370.219	369.81
370.445	367.81
370.672	365.81
370.898	334.81
371.124	352.81
371.35	366.81
371.576	364.81
371.802	344.81
372.028	354.81
372.254	348.81
372.48	341.81
372.706	340.81
372.932	353.81
373.158	351.81
373.384	360.81
373.61	356.81
373.835	359.81
374.061	355.81
374.287	345.81
374.513	370.81
374.739	357.81
374.965	357.81
375.191	350.81
375.416	343.81
375.642	341.81
375.868	341.81
376.094	361.81
376.319	349.81
376.545	333.81
376.771	349.81
376.997	355.81
377.222	336.81
377.448	338.81
377.674	347.81
377.899	350.81
378.125	334.81
378.35	332.81
378.576	329.81
378.802	328.81
379.027	347.81
379.253	346.81
379.478	350.81
379.704	339.81
379.929	334.81
380.155	355.81
380.38	340.81
380.606	333.81
380.831	357.81
381.057	360.81
381.282	344.81
381.507	356.81
381.733	353.81
381.958	332.81
382.184	357.81
382.409	350.81
382.634	342.81
382.86	348.81
383.085	363.81
383.31	354.81
383.535	346.81
383.761	349.81
383.986	353.81
384.211	358.81
384.436	353.81
384.662	334.81
384.887	351.81
385.112	336.81
385.337	363.81
385.562	343.81
385.787	357.81
386.013	372.81
386.238	378.81
386.463	356.81
386.688	358.81
386.913	349.81
387.138	352.81
387.363	337.81
387.588	362.81
387.813	359.81
388.038	359.81
388.263	354.81
388.488	349.81
388.713	351.81
388.938	333.81
389.163	353.81
389.387	378.81
389.612	353.81
389.837	362.81
390.062	358.81
390.287	350.81
390.512	340.81
390.736	345.81
390.961	329.81
391.186	333.81
391.411	352.81
391.636	356.81
391.86	348.81
392.085	363.81
392.31	350.81
392.534	366.81
392.759	375.81
392.984	376.81
393.208	343.81
393.433	376.81
393.658	345.81
393.882	356.81
394.107	353.81
394.331	367.81
394.556	345.81
394.78	342.81
395.005	345.81
395.229	356.81
395.454	355.81
395.678	372.81
395.903	380.81
396.127	394.81
396.352	397.81
396.576	376.81
396.801	356.81
397.025	357.81
397.249	380.81
397.474	359.81
397.698	366.81
397.922	364.81
398.147	381.81
398.371	402.81
398.595	386.81
398.82	377.81
399.044	384.81
399.268	400.81
399.492	409.81
399.717	448.81
399.941	440.81
400.165	457.81
400.389	477.81
400.613	464.81
400.837	443.81
401.062	391.81
401.286	412.81
401.51	400.81
401.734	384.81
401.958	395.81
402.182	409.81
402.406	400.81
402.63	424.81
402.854	425.81
403.078	421.81
403.302	413.81
403.526	418.81
403.75	417.81
403.974	421.81
404.198	400.81
404.422	402.81
404.645	421.81
404.869	419.81
405.093	437.81
405.317	513.81
405.541	497.81
405.765	468.81
405.988	438.81
406.212	448.81
406.436	463.81
406.66	457.81
406.883	449.81
407.107	473.81
407.331	519.81
407.555	554.81
407.778	549.81
408.002	490.81
408.226	474.81
408.449	431.81
408.673	476.81
408.896	479.81
409.12	502.81
409.344	496.81
409.567	458.81
409.791	424.81
410.014	416.81
410.238	398.81
410.461	406.81
410.685	410.81
410.908	419.81
411.132	482.81
411.355	478.81
411.578	461.81
411.802	423.81
412.025	424.81
412.249	427.81
412.472	451.81
412.695	491.81
412.919	474.81
413.142	423.81
413.365	413.81
413.589	404.81
413.812	415.81
414.035	393.81
414.258	362.81
414.482	394.81
414.705	376.81
414.928	384.81
415.151	378.81
415.374	377.81
415.597	384.81
415.821	376.81
416.044	388.81
416.267	367.81
416.49	381.81
416.713	395.81
416.936	393.81
417.159	389.81
417.382	394.81
417.605	405.81
417.828	427.81
418.051	415.81
418.274	400.81
418.497	405.81
418.72	392.81
418.943	384.81
419.166	392.81
419.389	425.81
419.611	398.81
419.834	430.81
420.057	422.81
420.28	413.81
420.503	416.81
420.726	421.81
420.948	433.81
421.171	450.81
421.394	485.81
421.617	420.81
421.839	422.81
422.062	410.81
422.285	440.81
422.507	470.81
422.73	544.81
422.953	517.81
423.175	474.81
423.398	442.81
423.621	452.81
423.843	424.81
424.066	427.81
424.288	434.81
424.511	460.81
424.733	511.81
424.956	586.81
425.178	590.81
425.401	552.81
425.623	564.81
425.846	484.81
426.068	462.81
426.291	457.81
426.513	472.81
426.735	476.81
426.958	526.81
427.18	590.81
427.402	682.81
427.625	759.81
427.847	672.81
428.069	588.81
428.292	512.81
428.514	469.81
428.736	428.81
428.958	446.81
429.181	442.81
429.403	420.81
429.625	433.81
429.847	449.81
430.069	508.81
430.292	500.81
430.514	450.81
430.736	417.81
430.958	402.81
431.18	400.81
431.402	402.81
431.624	405.81
431.846	416.81
432.068	376.81
432.29	390.81
432.512	393.81
432.734	377.81
432.956	384.81
433.178	416.81
433.4	414.81
433.622	414.81
433.844	407.81
434.066	398.81
434.287	383.81
434.509	399.81
434.731	408.81
434.953	406.81
435.175	407.81
435.397	454.81
435.618	465.81
435.84	522.81
436.062	567.81
436.284	622.81
436.505	532.81
436.727	483.81
436.949	453.81
437.17	422.81
437.392	428.81
437.614	469.81
437.835	495.81
438.057	570.81
438.278	662.81
438.5	628.81
438.721	716.81
438.943	664.81
439.165	522.81
439.386	469.81
439.608	497.81
439.829	489.81
440.05	521.81
440.272	568.81
440.493	533.81
440.715	441.81
440.936	438.81
441.158	434.81
441.379	399.81
441.6	436.81
441.822	460.81
442.043	519.81
442.264	574.81
442.486	614.81
442.707	526.81
442.928	478.81
443.149	472.81
443.371	515.81
443.592	546.81
443.813	636.81
444.034	650.81
444.255	530.81
444.476	469.81
444.698	472.81
444.919	454.81
445.14	584.81
445.361	536.81
445.582	520.81
445.803	568.81
446.024	682.81
446.245	664.81
446.466	621.81
446.687	532.81
446.908	474.81
447.129	460.81
447.35	442.81
447.571	430.81
447.792	430.81
448.013	424.81
448.234	453.81
448.455	502.81
448.675	597.81
448.896	669.81
449.117	605.81
449.338	569.81
449.559	646.81
449.779	700.81
450	570.81
450.221	474.81
450.442	440.81
450.662	426.81
450.883	446.81
451.104	444.81
451.324	429.81
451.545	393.81
451.766	401.81
451.986	390.81
452.207	389.81
452.428	384.81
452.648	387.81
452.869	406.81
453.089	404.81
453.31	398.81
453.53	393.81
453.751	391.81
453.971	408.81
454.192	409.81
454.412	380.81
454.633	390.81
454.853	383.81
455.073	372.81
455.294	421.81
455.514	472.81
455.734	472.81
455.955	396.81
456.175	380.81
456.395	364.81
456.616	354.81
456.836	358.81
457.056	371.81
457.276	343.81
457.497	342.81
457.717	360.81
457.937	373.81
458.157	350.81
458.377	347.81
458.598	391.81
458.818	450.81
459.038	553.81
459.258	569.81
459.478	454.81
459.698	398.81
459.918	387.81
460.138	393.81
460.358	388.81
460.578	390.81
460.798	400.81
461.018	402.81
461.238	380.81
461.458	393.81
461.678	382.81
461.898	372.81
462.118	378.81
462.338	390.81
462.558	386.81
462.777	375.81
462.997	400.81
463.217	393.81
463.437	396.81
463.657	402.81
463.876	392.81
464.096	420.81
464.316	412.81
464.536	429.81
464.755	401.81
464.975	433.81
465.195	472.81
465.414	556.81
465.634	464.81
465.854	438.81
466.073	392.81
466.293	398.81
466.512	380.81
466.732	373.81
466.951	379.81
467.171	376.81
467.391	387.81
467.61	400.81
467.829	420.81
468.049	387.81
468.268	398.81
468.488	368.81
468.707	379.81
468.927	375.81
469.146	351.81
469.365	368.81
469.585	348.81
469.804	372.81
470.023	413.81
470.243	390.81
470.462	410.81
470.681	432.81
470.901	400.81
471.12	395.81
471.339	390.81
471.558	388.81
471.777	383.81
471.997	378.81
472.216	403.81
472.435	436.81
472.654	410.81
472.873	385.81
473.092	387.81
473.311	376.81
473.53	377.81
473.749	399.81
473.968	415.81
474.187	544.81
474.406	556.81
474.625	462.81
474.844	418.81
475.063	414.81
475.282	406.81
475.501	397.81
475.72	385.81
475.939	397.81
476.158	402.81
476.377	407.81
476.596	401.81
476.814	390.81
477.033	403.81
477.252	414.81
477.471	410.81
477.69	402.81
477.908	419.81
478.127	408.81
478.346	400.81
478.564	386.81
478.783	413.81
479.002	422.81
479.22	435.81
479.439	446.81
479.658	457.81
479.876	475.81
480.095	477.81
480.313	489.81
480.532	482.81
480.751	448.81
480.969	490.81
481.188	537.81
481.406	578.81
481.624	515.81
481.843	484.81
482.061	468.81
482.28	471.81
482.498	464.81
482.717	440.81
482.935	435.81
483.153	464.81
483.372	456.81
483.59	454.81
483.808	469.81
484.027	439.81
484.245	452.81
484.463	464.81
484.681	456.81
484.9	448.81
485.118	475.81
485.336	444.81
485.554	465.81
485.772	467.81
485.99	474.81
486.209	466.81
486.427	473.81
486.645	476.81
486.863	528.81
487.081	502.81
487.299	484.81
487.517	490.81
487.735	493.81
487.953	503.81
488.171	498.81
488.389	484.81
488.607	493.81
488.825	479.81
489.043	469.81
489.261	487.81
489.479	476.81
489.696	495.81
489.914	504.81
490.132	497.81
490.35	509.81
490.568	501.81
490.786	516.81
491.003	524.81
491.221	558.81
491.439	545.81
491.657	547.81
491.874	568.81
492.092	554.81
492.31	559.81
492.527	546.81
492.745	586.81
492.963	553.81
493.18	537.81
493.398	564.81
493.615	561.81
493.833	564.81
494.05	558.81
494.268	566.81
494.485	560.81
494.703	567.81
494.92	563.81
495.138	580.81
495.355	576.81
495.573	589.81
495.79	575.81
496.008	576.81
496.225	619.81
496.442	580.81
496.66	576.81
496.877	592.81
497.094	589.81
497.312	576.81
497.529	580.81
497.746	583.81
497.963	598.81
498.181	623.81
498.398	634.81
498.615	620.81
498.832	632.81
499.049	620.81
499.267	617.81
499.484	644.81
499.701	676.81
499.918	654.81
500.135	665.81
500.352	688.81
500.569	697.81
500.786	716.81
501.003	695.81
501.22	696.81
501.437	680.81
501.654	685.81
501.871	679.81
