Data from 1981.PennyLincolnUp.Lamp.En5.5.200Scan.071819.P1_HRD10591_16-42-07-959.txt Node
Date: Thu Jul 18 16:42:07 EDT 2019
User: cochatt
Spectrometer: HR+D1059
Trigger mode: 1
Integration Time (sec): 1.000000E-1
Scans to average: 1
Electric dark correction enabled: true
Nonlinearity correction enabled: false
Boxcar width: 0
XAxis mode: Wavelengths
Number of Pixels in Spectrum: 2048
>>>>>Begin Spectral Data<<<<<
223.165	-24.75
223.4	-24.75
223.635	-24.75
223.869	-11.75
224.104	-38.75
224.338	-18.75
224.573	-16.75
224.808	-1.75
225.042	-7.75
225.277	2.25
225.511	-9.75
225.746	14.25
225.98	-7.75
226.215	11.25
226.449	21.25
226.683	22.25
226.918	28.25
227.152	38.25
227.387	23.25
227.621	36.25
227.856	47.25
228.09	50.25
228.324	46.25
228.559	46.25
228.793	67.25
229.027	91.25
229.262	118.25
229.496	109.25
229.73	134.25
229.964	172.25
230.199	125.25
230.433	120.25
230.667	115.25
230.901	115.25
231.136	104.25
231.37	112.25
231.604	124.25
231.838	118.25
232.072	110.25
232.306	111.25
232.541	117.25
232.775	103.25
233.009	107.25
233.243	116.25
233.477	84.25
233.711	100.25
233.945	104.25
234.179	123.25
234.413	120.25
234.647	120.25
234.881	127.25
235.115	108.25
235.349	128.25
235.583	122.25
235.817	123.25
236.051	130.25
236.285	128.25
236.519	128.25
236.753	132.25
236.987	143.25
237.221	189.25
237.455	214.25
237.689	202.25
237.922	156.25
238.156	150.25
238.39	125.25
238.624	139.25
238.858	127.25
239.091	128.25
239.325	119.25
239.559	133.25
239.793	122.25
240.027	144.25
240.26	147.25
240.494	171.25
240.728	151.25
240.961	168.25
241.195	164.25
241.429	144.25
241.662	135.25
241.896	130.25
242.13	136.25
242.363	155.25
242.597	134.25
242.83	145.25
243.064	154.25
243.298	145.25
243.531	157.25
243.765	134.25
243.998	131.25
244.232	146.25
244.465	149.25
244.699	140.25
244.932	148.25
245.166	148.25
245.399	138.25
245.633	167.25
245.866	146.25
246.099	160.25
246.333	152.25
246.566	166.25
246.8	159.25
247.033	146.25
247.266	152.25
247.5	166.25
247.733	187.25
247.966	178.25
248.2	164.25
248.433	168.25
248.666	203.25
248.899	180.25
249.133	207.25
249.366	219.25
249.599	212.25
249.832	190.25
250.066	213.25
250.299	208.25
250.532	188.25
250.765	203.25
250.998	244.25
251.231	255.25
251.465	224.25
251.698	232.25
251.931	206.25
252.164	217.25
252.397	214.25
252.63	217.25
252.863	206.25
253.096	236.25
253.329	249.25
253.562	252.25
253.795	230.25
254.028	229.25
254.261	237.25
254.494	252.25
254.727	282.25
254.96	287.25
255.193	297.25
255.426	273.25
255.659	250.25
255.892	253.25
256.124	249.25
256.357	242.25
256.59	264.25
256.823	232.25
257.056	223.25
257.289	224.25
257.521	221.25
257.754	213.25
257.987	235.25
258.22	213.25
258.452	225.25
258.685	229.25
258.918	210.25
259.151	207.25
259.383	237.25
259.616	236.25
259.849	237.25
260.081	248.25
260.314	282.25
260.547	289.25
260.779	263.25
261.012	248.25
261.244	239.25
261.477	234.25
261.71	221.25
261.942	244.25
262.175	244.25
262.407	260.25
262.64	232.25
262.872	239.25
263.105	226.25
263.337	219.25
263.57	228.25
263.802	230.25
264.035	218.25
264.267	226.25
264.499	220.25
264.732	219.25
264.964	208.25
265.197	235.25
265.429	224.25
265.661	235.25
265.894	204.25
266.126	231.25
266.358	219.25
266.591	229.25
266.823	238.25
267.055	215.25
267.287	254.25
267.52	232.25
267.752	250.25
267.984	256.25
268.216	224.25
268.448	247.25
268.681	260.25
268.913	270.25
269.145	282.25
269.377	303.25
269.609	285.25
269.841	275.25
270.073	287.25
270.306	310.25
270.538	337.25
270.77	342.25
271.002	326.25
271.234	328.25
271.466	319.25
271.698	322.25
271.93	356.25
272.162	370.25
272.394	331.25
272.626	326.25
272.858	308.25
273.09	292.25
273.322	271.25
273.553	304.25
273.785	296.25
274.017	291.25
274.249	286.25
274.481	287.25
274.713	280.25
274.945	281.25
275.176	280.25
275.408	268.25
275.64	280.25
275.872	277.25
276.104	292.25
276.335	293.25
276.567	291.25
276.799	307.25
277.031	310.25
277.262	342.25
277.494	342.25
277.726	314.25
277.957	316.25
278.189	297.25
278.421	308.25
278.652	276.25
278.884	291.25
279.115	272.25
279.347	290.25
279.579	287.25
279.81	272.25
280.042	266.25
280.273	277.25
280.505	303.25
280.736	271.25
280.968	266.25
281.199	293.25
281.431	271.25
281.662	269.25
281.894	286.25
282.125	297.25
282.356	301.25
282.588	309.25
282.819	329.25
283.051	300.25
283.282	286.25
283.513	302.25
283.745	275.25
283.976	301.25
284.207	267.25
284.439	287.25
284.67	301.25
284.901	292.25
285.132	287.25
285.364	291.25
285.595	277.25
285.826	280.25
286.057	291.25
286.288	266.25
286.52	276.25
286.751	283.25
286.982	292.25
287.213	270.25
287.444	278.25
287.675	306.25
287.906	322.25
288.138	312.25
288.369	326.25
288.6	317.25
288.831	318.25
289.062	293.25
289.293	293.25
289.524	310.25
289.755	300.25
289.986	299.25
290.217	287.25
290.448	288.25
290.679	301.25
290.91	288.25
291.141	283.25
291.371	287.25
291.602	312.25
291.833	281.25
292.064	293.25
292.295	296.25
292.526	317.25
292.757	310.25
292.987	270.25
293.218	302.25
293.449	296.25
293.68	296.25
293.91	292.25
294.141	294.25
294.372	283.25
294.603	295.25
294.833	306.25
295.064	307.25
295.295	300.25
295.525	322.25
295.756	312.25
295.987	310.25
296.217	325.25
296.448	333.25
296.679	317.25
296.909	296.25
297.14	306.25
297.37	282.25
297.601	302.25
297.831	289.25
298.062	290.25
298.292	296.25
298.523	303.25
298.753	292.25
298.984	310.25
299.214	308.25
299.445	326.25
299.675	313.25
299.905	326.25
300.136	304.25
300.366	301.25
300.597	324.25
300.827	333.25
301.057	333.25
301.288	331.25
301.518	342.25
301.748	304.25
301.979	332.25
302.209	335.25
302.439	334.25
302.669	325.25
302.9	327.25
303.13	339.25
303.36	340.25
303.59	331.25
303.82	335.25
304.051	328.25
304.281	334.25
304.511	317.25
304.741	324.25
304.971	332.25
305.201	336.25
305.431	324.25
305.661	351.25
305.891	356.25
306.121	338.25
306.352	367.25
306.582	348.25
306.812	343.25
307.042	343.25
307.272	332.25
307.502	346.25
307.731	342.25
307.961	357.25
308.191	329.25
308.421	336.25
308.651	352.25
308.881	344.25
309.111	358.25
309.341	365.25
309.571	354.25
309.8	376.25
310.03	392.25
310.26	377.25
310.49	398.25
310.72	401.25
310.949	427.25
311.179	434.25
311.409	402.25
311.639	389.25
311.868	401.25
312.098	387.25
312.328	409.25
312.557	414.25
312.787	419.25
313.017	414.25
313.246	405.25
313.476	376.25
313.706	388.25
313.935	399.25
314.165	404.25
314.394	411.25
314.624	409.25
314.853	412.25
315.083	398.25
315.312	384.25
315.542	383.25
315.771	382.25
316.001	370.25
316.23	380.25
316.46	393.25
316.689	396.25
316.919	408.25
317.148	389.25
317.377	407.25
317.607	417.25
317.836	379.25
318.065	394.25
318.295	379.25
318.524	372.25
318.753	392.25
318.983	402.25
319.212	381.25
319.441	373.25
319.67	394.25
319.9	390.25
320.129	386.25
320.358	404.25
320.587	405.25
320.816	393.25
321.046	427.25
321.275	439.25
321.504	415.25
321.733	427.25
321.962	429.25
322.191	451.25
322.42	464.25
322.649	462.25
322.878	475.25
323.108	511.25
323.337	554.25
323.566	566.25
323.795	584.25
324.024	659.25
324.253	828.25
324.482	1223.25
324.71	1851.25
324.939	2530.25
325.168	2128.25
325.397	1120.25
325.626	770.25
325.855	632.25
326.084	568.25
326.313	569.25
326.542	553.25
326.77	620.25
326.999	760.25
327.228	1062.25
327.457	1613.25
327.686	1869.25
327.914	1218.25
328.143	836.25
328.372	708.25
328.6	643.25
328.829	638.25
329.058	642.25
329.287	656.25
329.515	610.25
329.744	552.25
329.972	551.25
330.201	591.25
330.43	630.25
330.658	631.25
330.887	678.25
331.115	653.25
331.344	564.25
331.572	512.25
331.801	532.25
332.03	534.25
332.258	487.25
332.486	479.25
332.715	473.25
332.943	456.25
333.172	444.25
333.4	465.25
333.629	466.25
333.857	500.25
334.085	489.25
334.314	497.25
334.542	537.25
334.771	538.25
334.999	501.25
335.227	479.25
335.455	462.25
335.684	430.25
335.912	435.25
336.14	459.25
336.369	468.25
336.597	454.25
336.825	439.25
337.053	441.25
337.281	462.25
337.51	417.25
337.738	430.25
337.966	447.25
338.194	455.25
338.422	457.25
338.65	445.25
338.878	434.25
339.106	404.25
339.334	413.25
339.562	434.25
339.79	410.25
340.018	444.25
340.246	430.25
340.474	425.25
340.702	431.25
340.93	424.25
341.158	419.25
341.386	422.25
341.614	426.25
341.842	432.25
342.07	423.25
342.298	409.25
342.526	426.25
342.754	398.25
342.981	432.25
343.209	409.25
343.437	406.25
343.665	418.25
343.893	419.25
344.12	420.25
344.348	433.25
344.576	440.25
344.804	423.25
345.031	447.25
345.259	446.25
345.487	422.25
345.714	438.25
345.942	421.25
346.17	412.25
346.397	404.25
346.625	404.25
346.853	412.25
347.08	430.25
347.308	426.25
347.535	440.25
347.763	426.25
347.99	442.25
348.218	445.25
348.445	419.25
348.673	418.25
348.9	425.25
349.128	404.25
349.355	399.25
349.583	404.25
349.81	401.25
350.037	406.25
350.265	394.25
350.492	410.25
350.72	406.25
350.947	403.25
351.174	425.25
351.402	418.25
351.629	416.25
351.856	420.25
352.083	423.25
352.311	427.25
352.538	432.25
352.765	440.25
352.992	414.25
353.22	412.25
353.447	399.25
353.674	389.25
353.901	408.25
354.128	399.25
354.355	383.25
354.583	399.25
354.81	391.25
355.037	383.25
355.264	373.25
355.491	374.25
355.718	377.25
355.945	356.25
356.172	374.25
356.399	360.25
356.626	376.25
356.853	362.25
357.08	371.25
357.307	358.25
357.534	353.25
357.761	368.25
357.988	363.25
358.215	375.25
358.441	355.25
358.668	366.25
358.895	380.25
359.122	390.25
359.349	383.25
359.576	412.25
359.802	419.25
360.029	434.25
360.256	478.25
360.483	438.25
360.709	413.25
360.936	408.25
361.163	411.25
361.39	418.25
361.616	396.25
361.843	385.25
362.07	397.25
362.296	412.25
362.523	409.25
362.749	408.25
362.976	381.25
363.203	384.25
363.429	384.25
363.656	383.25
363.882	364.25
364.109	376.25
364.335	364.25
364.562	365.25
364.788	383.25
365.015	364.25
365.241	364.25
365.468	411.25
365.694	366.25
365.92	379.25
366.147	366.25
366.373	382.25
366.599	383.25
366.826	380.25
367.052	375.25
367.278	355.25
367.505	357.25
367.731	371.25
367.957	374.25
368.184	367.25
368.41	368.25
368.636	383.25
368.862	376.25
369.089	378.25
369.315	357.25
369.541	388.25
369.767	383.25
369.993	366.25
370.219	364.25
370.445	371.25
370.672	370.25
370.898	364.25
371.124	364.25
371.35	361.25
371.576	376.25
371.802	363.25
372.028	355.25
372.254	353.25
372.48	346.25
372.706	356.25
372.932	356.25
373.158	367.25
373.384	365.25
373.61	378.25
373.835	361.25
374.061	375.25
374.287	356.25
374.513	361.25
374.739	379.25
374.965	345.25
375.191	361.25
375.416	355.25
375.642	366.25
375.868	353.25
376.094	358.25
376.319	355.25
376.545	347.25
376.771	326.25
376.997	360.25
377.222	378.25
377.448	374.25
377.674	356.25
377.899	342.25
378.125	343.25
378.35	351.25
378.576	344.25
378.802	340.25
379.027	353.25
379.253	362.25
379.478	348.25
379.704	343.25
379.929	351.25
380.155	373.25
380.38	355.25
380.606	370.25
380.831	352.25
381.057	338.25
381.282	375.25
381.507	356.25
381.733	355.25
381.958	354.25
382.184	353.25
382.409	382.25
382.634	356.25
382.86	359.25
383.085	356.25
383.31	368.25
383.535	346.25
383.761	333.25
383.986	357.25
384.211	371.25
384.436	367.25
384.662	365.25
384.887	373.25
385.112	359.25
385.337	347.25
385.562	390.25
385.787	360.25
386.013	396.25
386.238	371.25
386.463	367.25
386.688	394.25
386.913	394.25
387.138	362.25
387.363	386.25
387.588	390.25
387.813	378.25
388.038	367.25
388.263	369.25
388.488	384.25
388.713	368.25
388.938	359.25
389.163	362.25
389.387	364.25
389.612	376.25
389.837	365.25
390.062	372.25
390.287	367.25
390.512	380.25
390.736	370.25
390.961	377.25
391.186	371.25
391.411	372.25
391.636	373.25
391.86	362.25
392.085	380.25
392.31	358.25
392.534	370.25
392.759	371.25
392.984	380.25
393.208	389.25
393.433	357.25
393.658	351.25
393.882	368.25
394.107	365.25
394.331	391.25
394.556	367.25
394.78	370.25
395.005	384.25
395.229	351.25
395.454	376.25
395.678	388.25
395.903	394.25
396.127	395.25
396.352	416.25
396.576	394.25
396.801	378.25
397.025	386.25
397.249	382.25
397.474	386.25
397.698	379.25
397.922	404.25
398.147	408.25
398.371	423.25
398.595	398.25
398.82	421.25
399.044	412.25
399.268	398.25
399.492	424.25
399.717	446.25
399.941	462.25
400.165	514.25
400.389	510.25
400.613	467.25
400.837	438.25
401.062	423.25
401.286	414.25
401.51	431.25
401.734	410.25
401.958	426.25
402.182	421.25
402.406	436.25
402.63	437.25
402.854	420.25
403.078	411.25
403.302	416.25
403.526	438.25
403.75	421.25
403.974	426.25
404.198	440.25
404.422	434.25
404.645	432.25
404.869	425.25
405.093	448.25
405.317	518.25
405.541	529.25
405.765	479.25
405.988	465.25
406.212	486.25
406.436	487.25
406.66	486.25
406.883	462.25
407.107	490.25
407.331	525.25
407.555	579.25
407.778	575.25
408.002	529.25
408.226	473.25
408.449	473.25
408.673	467.25
408.896	491.25
409.12	539.25
409.344	510.25
409.567	454.25
409.791	435.25
410.014	423.25
410.238	420.25
410.461	441.25
410.685	410.25
410.908	440.25
411.132	480.25
411.355	502.25
411.578	496.25
411.802	437.25
412.025	426.25
412.249	423.25
412.472	458.25
412.695	471.25
412.919	507.25
413.142	436.25
413.365	433.25
413.589	412.25
413.812	416.25
414.035	403.25
414.258	391.25
414.482	390.25
414.705	407.25
414.928	396.25
415.151	388.25
415.374	394.25
415.597	399.25
415.821	391.25
416.044	396.25
416.267	410.25
416.49	395.25
416.713	399.25
416.936	390.25
417.159	401.25
417.382	422.25
417.605	428.25
417.828	399.25
418.051	422.25
418.274	435.25
418.497	400.25
418.72	382.25
418.943	397.25
419.166	406.25
419.389	421.25
419.611	409.25
419.834	412.25
420.057	426.25
420.28	421.25
420.503	423.25
420.726	435.25
420.948	457.25
421.171	483.25
421.394	514.25
421.617	456.25
421.839	422.25
422.062	420.25
422.285	474.25
422.507	492.25
422.73	558.25
422.953	528.25
423.175	484.25
423.398	479.25
423.621	464.25
423.843	479.25
424.066	439.25
424.288	462.25
424.511	498.25
424.733	536.25
424.956	610.25
425.178	581.25
425.401	596.25
425.623	584.25
425.846	495.25
426.068	487.25
426.291	488.25
426.513	475.25
426.735	513.25
426.958	519.25
427.18	610.25
427.402	715.25
427.625	796.25
427.847	705.25
428.069	596.25
428.292	523.25
428.514	490.25
428.736	469.25
428.958	457.25
429.181	442.25
429.403	438.25
429.625	463.25
429.847	482.25
430.069	552.25
430.292	543.25
430.514	456.25
430.736	417.25
430.958	423.25
431.18	403.25
431.402	403.25
431.624	389.25
431.846	400.25
432.068	393.25
432.29	404.25
432.512	407.25
432.734	434.25
432.956	418.25
433.178	423.25
433.4	404.25
433.622	421.25
433.844	409.25
434.066	396.25
434.287	404.25
434.509	408.25
434.731	439.25
434.953	417.25
435.175	418.25
435.397	457.25
435.618	478.25
435.84	525.25
436.062	602.25
436.284	664.25
436.505	544.25
436.727	488.25
436.949	468.25
437.17	472.25
437.392	448.25
437.614	464.25
437.835	502.25
438.057	590.25
438.278	676.25
438.5	660.25
438.721	713.25
438.943	673.25
439.165	552.25
439.386	490.25
439.608	483.25
439.829	490.25
440.05	533.25
440.272	553.25
440.493	547.25
440.715	494.25
440.936	459.25
441.158	459.25
441.379	442.25
441.6	467.25
441.822	466.25
442.043	523.25
442.264	582.25
442.486	634.25
442.707	508.25
442.928	510.25
443.149	485.25
443.371	549.25
443.592	570.25
443.813	634.25
444.034	681.25
444.255	580.25
444.476	488.25
444.698	479.25
444.919	448.25
445.14	607.25
445.361	567.25
445.582	533.25
445.803	590.25
446.024	679.25
446.245	686.25
446.466	624.25
446.687	535.25
446.908	469.25
447.129	460.25
447.35	434.25
447.571	432.25
447.792	428.25
448.013	475.25
448.234	457.25
448.455	522.25
448.675	645.25
448.896	704.25
449.117	595.25
449.338	578.25
449.559	681.25
449.779	763.25
450	587.25
450.221	492.25
450.442	455.25
450.662	429.25
450.883	458.25
451.104	464.25
451.324	454.25
451.545	418.25
451.766	421.25
451.986	368.25
452.207	386.25
452.428	387.25
452.648	393.25
452.869	395.25
453.089	398.25
453.31	409.25
453.53	403.25
453.751	393.25
453.971	406.25
454.192	442.25
454.412	413.25
454.633	381.25
454.853	379.25
455.073	384.25
455.294	425.25
455.514	489.25
455.734	495.25
455.955	388.25
456.175	376.25
456.395	374.25
456.616	347.25
456.836	362.25
457.056	366.25
457.276	366.25
457.497	365.25
457.717	354.25
457.937	346.25
458.157	384.25
458.377	376.25
458.598	398.25
458.818	461.25
459.038	531.25
459.258	537.25
459.478	481.25
459.698	414.25
459.918	409.25
460.138	410.25
460.358	417.25
460.578	421.25
460.798	406.25
461.018	411.25
461.238	399.25
461.458	378.25
461.678	396.25
461.898	382.25
462.118	400.25
462.338	399.25
462.558	406.25
462.777	400.25
462.997	419.25
463.217	387.25
463.437	424.25
463.657	403.25
463.876	395.25
464.096	386.25
464.316	419.25
464.536	425.25
464.755	415.25
464.975	421.25
465.195	488.25
465.414	548.25
465.634	463.25
465.854	440.25
466.073	438.25
466.293	408.25
466.512	411.25
466.732	387.25
466.951	391.25
467.171	406.25
467.391	386.25
467.61	388.25
467.829	430.25
468.049	409.25
468.268	409.25
468.488	395.25
468.707	392.25
468.927	399.25
469.146	382.25
469.365	352.25
469.585	384.25
469.804	387.25
470.023	401.25
470.243	415.25
470.462	404.25
470.681	425.25
470.901	431.25
471.12	387.25
471.339	384.25
471.558	397.25
471.777	388.25
471.997	385.25
472.216	395.25
472.435	436.25
472.654	406.25
472.873	412.25
473.092	382.25
473.311	400.25
473.53	410.25
473.749	420.25
473.968	454.25
474.187	547.25
474.406	562.25
474.625	453.25
474.844	428.25
475.063	417.25
475.282	419.25
475.501	413.25
475.72	412.25
475.939	440.25
476.158	409.25
476.377	412.25
476.596	407.25
476.814	422.25
477.033	435.25
477.252	415.25
477.471	414.25
477.69	435.25
477.908	440.25
478.127	442.25
478.346	437.25
478.564	447.25
478.783	425.25
479.002	433.25
479.22	461.25
479.439	452.25
479.658	476.25
479.876	514.25
480.095	489.25
480.313	511.25
480.532	504.25
480.751	479.25
480.969	495.25
481.188	542.25
481.406	556.25
481.624	536.25
481.843	498.25
482.061	486.25
482.28	458.25
482.498	475.25
482.717	485.25
482.935	468.25
483.153	483.25
483.372	452.25
483.59	490.25
483.808	487.25
484.027	455.25
484.245	465.25
484.463	464.25
484.681	483.25
484.9	484.25
485.118	472.25
485.336	459.25
485.554	468.25
485.772	465.25
485.99	487.25
486.209	487.25
486.427	483.25
486.645	517.25
486.863	526.25
487.081	507.25
487.299	517.25
487.517	502.25
487.735	488.25
487.953	519.25
488.171	496.25
488.389	501.25
488.607	506.25
488.825	510.25
489.043	534.25
489.261	510.25
489.479	502.25
489.696	499.25
489.914	546.25
490.132	516.25
490.35	521.25
490.568	509.25
490.786	498.25
491.003	538.25
491.221	527.25
491.439	566.25
491.657	558.25
491.874	576.25
492.092	579.25
492.31	584.25
492.527	563.25
492.745	583.25
492.963	587.25
493.18	580.25
493.398	568.25
493.615	599.25
493.833	620.25
494.05	591.25
494.268	590.25
494.485	569.25
494.703	581.25
494.92	593.25
495.138	579.25
495.355	597.25
495.573	576.25
495.79	602.25
496.008	595.25
496.225	568.25
496.442	606.25
496.66	601.25
496.877	571.25
497.094	587.25
497.312	611.25
497.529	596.25
497.746	597.25
497.963	640.25
498.181	652.25
498.398	635.25
498.615	628.25
498.832	650.25
499.049	660.25
499.267	630.25
499.484	652.25
499.701	667.25
499.918	675.25
500.135	713.25
500.352	723.25
500.569	732.25
500.786	749.25
501.003	732.25
501.22	726.25
501.437	715.25
501.654	700.25
501.871	727.25
