Data from 1981.PennyLincolnUp.Lamp.En5.5.200Scan.071819.P1_HRD10591_16-40-37-958.txt Node
Date: Thu Jul 18 16:40:37 EDT 2019
User: cochatt
Spectrometer: HR+D1059
Trigger mode: 1
Integration Time (sec): 1.000000E-1
Scans to average: 1
Electric dark correction enabled: true
Nonlinearity correction enabled: false
Boxcar width: 0
XAxis mode: Wavelengths
Number of Pixels in Spectrum: 2048
>>>>>Begin Spectral Data<<<<<
223.165	-23.25
223.4	-23.25
223.635	-23.25
223.869	-17.25
224.104	-11.25
224.338	-23.25
224.573	-13.25
224.808	3.75
225.042	-27.25
225.277	-11.25
225.511	6.75
225.746	7.75
225.98	2.75
226.215	14.75
226.449	18.75
226.683	19.75
226.918	17.75
227.152	34.75
227.387	28.75
227.621	40.75
227.856	42.75
228.09	40.75
228.324	58.75
228.559	38.75
228.793	58.75
229.027	88.75
229.262	101.75
229.496	122.75
229.73	110.75
229.964	141.75
230.199	137.75
230.433	106.75
230.667	110.75
230.901	103.75
231.136	106.75
231.37	107.75
231.604	110.75
231.838	103.75
232.072	104.75
232.306	106.75
232.541	98.75
232.775	121.75
233.009	102.75
233.243	111.75
233.477	104.75
233.711	102.75
233.945	117.75
234.179	115.75
234.413	111.75
234.647	114.75
234.881	120.75
235.115	114.75
235.349	121.75
235.583	122.75
235.817	115.75
236.051	112.75
236.285	119.75
236.519	91.75
236.753	117.75
236.987	129.75
237.221	163.75
237.455	222.75
237.689	175.75
237.922	121.75
238.156	129.75
238.39	121.75
238.624	127.75
238.858	117.75
239.091	116.75
239.325	96.75
239.559	119.75
239.793	106.75
240.027	122.75
240.26	125.75
240.494	137.75
240.728	137.75
240.961	139.75
241.195	120.75
241.429	142.75
241.662	130.75
241.896	127.75
242.13	137.75
242.363	124.75
242.597	130.75
242.83	143.75
243.064	123.75
243.298	132.75
243.531	130.75
243.765	123.75
243.998	137.75
244.232	128.75
244.465	135.75
244.699	134.75
244.932	133.75
245.166	128.75
245.399	144.75
245.633	133.75
245.866	131.75
246.099	150.75
246.333	129.75
246.566	150.75
246.8	149.75
247.033	148.75
247.266	149.75
247.5	140.75
247.733	162.75
247.966	154.75
248.2	159.75
248.433	151.75
248.666	157.75
248.899	182.75
249.133	179.75
249.366	197.75
249.599	183.75
249.832	175.75
250.066	158.75
250.299	168.75
250.532	174.75
250.765	189.75
250.998	179.75
251.231	202.75
251.465	189.75
251.698	193.75
251.931	177.75
252.164	188.75
252.397	193.75
252.63	183.75
252.863	193.75
253.096	191.75
253.329	201.75
253.562	223.75
253.795	189.75
254.028	204.75
254.261	204.75
254.494	215.75
254.727	230.75
254.96	281.75
255.193	249.75
255.426	227.75
255.659	212.75
255.892	206.75
256.124	214.75
256.357	210.75
256.59	197.75
256.823	204.75
257.056	182.75
257.289	191.75
257.521	197.75
257.754	195.75
257.987	173.75
258.22	202.75
258.452	212.75
258.685	199.75
258.918	191.75
259.151	200.75
259.383	199.75
259.616	206.75
259.849	193.75
260.081	207.75
260.314	235.75
260.547	239.75
260.779	218.75
261.012	213.75
261.244	219.75
261.477	223.75
261.71	197.75
261.942	214.75
262.175	203.75
262.407	200.75
262.64	181.75
262.872	185.75
263.105	210.75
263.337	202.75
263.57	200.75
263.802	183.75
264.035	194.75
264.267	191.75
264.499	182.75
264.732	189.75
264.964	212.75
265.197	179.75
265.429	192.75
265.661	203.75
265.894	175.75
266.126	201.75
266.358	193.75
266.591	187.75
266.823	189.75
267.055	197.75
267.287	195.75
267.52	208.75
267.752	203.75
267.984	194.75
268.216	210.75
268.448	218.75
268.681	219.75
268.913	213.75
269.145	218.75
269.377	228.75
269.609	253.75
269.841	223.75
270.073	244.75
270.306	241.75
270.538	287.75
270.77	268.75
271.002	286.75
271.234	271.75
271.466	277.75
271.698	293.75
271.93	277.75
272.162	254.75
272.394	282.75
272.626	264.75
272.858	255.75
273.09	259.75
273.322	240.75
273.553	246.75
273.785	233.75
274.017	246.75
274.249	245.75
274.481	231.75
274.713	257.75
274.945	236.75
275.176	241.75
275.408	236.75
275.64	252.75
275.872	234.75
276.104	248.75
276.335	252.75
276.567	255.75
276.799	258.75
277.031	264.75
277.262	283.75
277.494	292.75
277.726	273.75
277.957	237.75
278.189	259.75
278.421	245.75
278.652	232.75
278.884	235.75
279.115	251.75
279.347	250.75
279.579	249.75
279.81	233.75
280.042	237.75
280.273	244.75
280.505	228.75
280.736	238.75
280.968	224.75
281.199	233.75
281.431	228.75
281.662	246.75
281.894	233.75
282.125	237.75
282.356	252.75
282.588	255.75
282.819	282.75
283.051	248.75
283.282	236.75
283.513	233.75
283.745	228.75
283.976	242.75
284.207	263.75
284.439	256.75
284.67	227.75
284.901	265.75
285.132	253.75
285.364	245.75
285.595	253.75
285.826	252.75
286.057	259.75
286.288	226.75
286.52	241.75
286.751	230.75
286.982	237.75
287.213	238.75
287.444	246.75
287.675	261.75
287.906	257.75
288.138	240.75
288.369	281.75
288.6	250.75
288.831	261.75
289.062	265.75
289.293	265.75
289.524	255.75
289.755	266.75
289.986	247.75
290.217	237.75
290.448	255.75
290.679	265.75
290.91	245.75
291.141	257.75
291.371	253.75
291.602	253.75
291.833	260.75
292.064	237.75
292.295	248.75
292.526	237.75
292.757	247.75
292.987	235.75
293.218	246.75
293.449	257.75
293.68	263.75
293.91	250.75
294.141	260.75
294.372	233.75
294.603	257.75
294.833	248.75
295.064	245.75
295.295	262.75
295.525	256.75
295.756	245.75
295.987	251.75
296.217	270.75
296.448	281.75
296.679	271.75
296.909	257.75
297.14	242.75
297.37	259.75
297.601	255.75
297.831	259.75
298.062	256.75
298.292	272.75
298.523	241.75
298.753	261.75
298.984	259.75
299.214	265.75
299.445	273.75
299.675	255.75
299.905	275.75
300.136	277.75
300.366	276.75
300.597	274.75
300.827	266.75
301.057	276.75
301.288	302.75
301.518	280.75
301.748	279.75
301.979	287.75
302.209	279.75
302.439	284.75
302.669	291.75
302.9	271.75
303.13	273.75
303.36	306.75
303.59	287.75
303.82	296.75
304.051	280.75
304.281	274.75
304.511	281.75
304.741	277.75
304.971	279.75
305.201	292.75
305.431	299.75
305.661	294.75
305.891	292.75
306.121	276.75
306.352	285.75
306.582	304.75
306.812	297.75
307.042	300.75
307.272	297.75
307.502	296.75
307.731	299.75
307.961	291.75
308.191	282.75
308.421	302.75
308.651	287.75
308.881	293.75
309.111	317.75
309.341	307.75
309.571	289.75
309.8	307.75
310.03	304.75
310.26	298.75
310.49	311.75
310.72	320.75
310.949	325.75
311.179	333.75
311.409	310.75
311.639	328.75
311.868	323.75
312.098	314.75
312.328	346.75
312.557	351.75
312.787	364.75
313.017	351.75
313.246	346.75
313.476	315.75
313.706	340.75
313.935	342.75
314.165	333.75
314.394	340.75
314.624	360.75
314.853	339.75
315.083	345.75
315.312	326.75
315.542	323.75
315.771	319.75
316.001	302.75
316.23	319.75
316.46	323.75
316.689	329.75
316.919	329.75
317.148	326.75
317.377	333.75
317.607	335.75
317.836	324.75
318.065	323.75
318.295	318.75
318.524	335.75
318.753	330.75
318.983	325.75
319.212	318.75
319.441	328.75
319.67	332.75
319.9	324.75
320.129	331.75
320.358	344.75
320.587	345.75
320.816	346.75
321.046	356.75
321.275	335.75
321.504	353.75
321.733	337.75
321.962	364.75
322.191	381.75
322.42	394.75
322.649	372.75
322.878	381.75
323.108	382.75
323.337	417.75
323.566	436.75
323.795	454.75
324.024	500.75
324.253	620.75
324.482	876.75
324.71	1318.75
324.939	1792.75
325.168	1541.75
325.397	812.75
325.626	541.75
325.855	483.75
326.084	460.75
326.313	427.75
326.542	426.75
326.77	453.75
326.999	573.75
327.228	778.75
327.457	1139.75
327.686	1303.75
327.914	929.75
328.143	601.75
328.372	515.75
328.6	491.75
328.829	464.75
329.058	477.75
329.287	495.75
329.515	474.75
329.744	438.75
329.972	420.75
330.201	441.75
330.43	463.75
330.658	478.75
330.887	515.75
331.115	485.75
331.344	433.75
331.572	414.75
331.801	398.75
332.03	410.75
332.258	385.75
332.486	382.75
332.715	381.75
332.943	365.75
333.172	355.75
333.4	383.75
333.629	381.75
333.857	381.75
334.085	373.75
334.314	389.75
334.542	399.75
334.771	409.75
334.999	395.75
335.227	387.75
335.455	381.75
335.684	372.75
335.912	364.75
336.14	392.75
336.369	389.75
336.597	359.75
336.825	395.75
337.053	379.75
337.281	369.75
337.51	363.75
337.738	364.75
337.966	383.75
338.194	371.75
338.422	360.75
338.65	374.75
338.878	366.75
339.106	356.75
339.334	355.75
339.562	366.75
339.79	367.75
340.018	360.75
340.246	360.75
340.474	366.75
340.702	369.75
340.93	365.75
341.158	350.75
341.386	362.75
341.614	358.75
341.842	339.75
342.07	366.75
342.298	357.75
342.526	332.75
342.754	326.75
342.981	353.75
343.209	350.75
343.437	344.75
343.665	351.75
343.893	355.75
344.12	364.75
344.348	377.75
344.576	363.75
344.804	351.75
345.031	393.75
345.259	372.75
345.487	369.75
345.714	364.75
345.942	375.75
346.17	355.75
346.397	361.75
346.625	353.75
346.853	358.75
347.08	351.75
347.308	345.75
347.535	369.75
347.763	357.75
347.99	353.75
348.218	355.75
348.445	351.75
348.673	363.75
348.9	346.75
349.128	358.75
349.355	325.75
349.583	330.75
349.81	334.75
350.037	343.75
350.265	348.75
350.492	338.75
350.72	359.75
350.947	339.75
351.174	332.75
351.402	350.75
351.629	345.75
351.856	340.75
352.083	345.75
352.311	365.75
352.538	361.75
352.765	354.75
352.992	344.75
353.22	345.75
353.447	354.75
353.674	366.75
353.901	322.75
354.128	319.75
354.355	316.75
354.583	330.75
354.81	321.75
355.037	333.75
355.264	331.75
355.491	329.75
355.718	300.75
355.945	330.75
356.172	314.75
356.399	341.75
356.626	335.75
356.853	317.75
357.08	345.75
357.307	322.75
357.534	330.75
357.761	322.75
357.988	320.75
358.215	324.75
358.441	316.75
358.668	318.75
358.895	345.75
359.122	333.75
359.349	352.75
359.576	345.75
359.802	350.75
360.029	386.75
360.256	380.75
360.483	373.75
360.709	351.75
360.936	354.75
361.163	349.75
361.39	336.75
361.616	339.75
361.843	339.75
362.07	341.75
362.296	331.75
362.523	323.75
362.749	348.75
362.976	355.75
363.203	313.75
363.429	332.75
363.656	322.75
363.882	345.75
364.109	325.75
364.335	335.75
364.562	294.75
364.788	342.75
365.015	308.75
365.241	323.75
365.468	320.75
365.694	343.75
365.92	343.75
366.147	313.75
366.373	316.75
366.599	320.75
366.826	329.75
367.052	311.75
367.278	331.75
367.505	328.75
367.731	339.75
367.957	324.75
368.184	329.75
368.41	340.75
368.636	338.75
368.862	342.75
369.089	335.75
369.315	326.75
369.541	301.75
369.767	317.75
369.993	325.75
370.219	326.75
370.445	305.75
370.672	311.75
370.898	318.75
371.124	314.75
371.35	318.75
371.576	313.75
371.802	315.75
372.028	324.75
372.254	297.75
372.48	310.75
372.706	321.75
372.932	320.75
373.158	314.75
373.384	318.75
373.61	325.75
373.835	329.75
374.061	301.75
374.287	343.75
374.513	325.75
374.739	322.75
374.965	330.75
375.191	317.75
375.416	311.75
375.642	315.75
375.868	314.75
376.094	300.75
376.319	306.75
376.545	315.75
376.771	310.75
376.997	318.75
377.222	312.75
377.448	300.75
377.674	315.75
377.899	307.75
378.125	316.75
378.35	318.75
378.576	337.75
378.802	314.75
379.027	325.75
379.253	301.75
379.478	311.75
379.704	320.75
379.929	320.75
380.155	298.75
380.38	315.75
380.606	333.75
380.831	311.75
381.057	319.75
381.282	330.75
381.507	313.75
381.733	315.75
381.958	301.75
382.184	297.75
382.409	318.75
382.634	297.75
382.86	330.75
383.085	319.75
383.31	310.75
383.535	309.75
383.761	333.75
383.986	305.75
384.211	325.75
384.436	335.75
384.662	330.75
384.887	325.75
385.112	328.75
385.337	325.75
385.562	317.75
385.787	330.75
386.013	331.75
386.238	314.75
386.463	327.75
386.688	329.75
386.913	330.75
387.138	319.75
387.363	344.75
387.588	349.75
387.813	329.75
388.038	339.75
388.263	333.75
388.488	347.75
388.713	344.75
388.938	326.75
389.163	343.75
389.387	327.75
389.612	340.75
389.837	321.75
390.062	315.75
390.287	332.75
390.512	325.75
390.736	336.75
390.961	321.75
391.186	346.75
391.411	330.75
391.636	314.75
391.86	316.75
392.085	339.75
392.31	345.75
392.534	331.75
392.759	321.75
392.984	340.75
393.208	325.75
393.433	334.75
393.658	334.75
393.882	322.75
394.107	313.75
394.331	332.75
394.556	308.75
394.78	309.75
395.005	338.75
395.229	317.75
395.454	349.75
395.678	322.75
395.903	349.75
396.127	359.75
396.352	356.75
396.576	330.75
396.801	348.75
397.025	350.75
397.249	350.75
397.474	349.75
397.698	344.75
397.922	354.75
398.147	369.75
398.371	387.75
398.595	346.75
398.82	363.75
399.044	357.75
399.268	365.75
399.492	380.75
399.717	393.75
399.941	424.75
400.165	458.75
400.389	441.75
400.613	418.75
400.837	366.75
401.062	379.75
401.286	355.75
401.51	362.75
401.734	346.75
401.958	356.75
402.182	362.75
402.406	349.75
402.63	360.75
402.854	352.75
403.078	378.75
403.302	375.75
403.526	376.75
403.75	375.75
403.974	361.75
404.198	369.75
404.422	362.75
404.645	387.75
404.869	377.75
405.093	394.75
405.317	436.75
405.541	423.75
405.765	397.75
405.988	381.75
406.212	404.75
406.436	400.75
406.66	421.75
406.883	404.75
407.107	441.75
407.331	439.75
407.555	476.75
407.778	492.75
408.002	445.75
408.226	424.75
408.449	413.75
408.673	414.75
408.896	442.75
409.12	467.75
409.344	438.75
409.567	405.75
409.791	353.75
410.014	367.75
410.238	379.75
410.461	388.75
410.685	379.75
410.908	387.75
411.132	414.75
411.355	446.75
411.578	406.75
411.802	369.75
412.025	377.75
412.249	378.75
412.472	393.75
412.695	402.75
412.919	407.75
413.142	375.75
413.365	358.75
413.589	371.75
413.812	349.75
414.035	371.75
414.258	361.75
414.482	353.75
414.705	357.75
414.928	358.75
415.151	361.75
415.374	353.75
415.597	339.75
415.821	338.75
416.044	334.75
416.267	356.75
416.49	343.75
416.713	330.75
416.936	338.75
417.159	350.75
417.382	357.75
417.605	339.75
417.828	359.75
418.051	365.75
418.274	364.75
418.497	340.75
418.72	336.75
418.943	355.75
419.166	372.75
419.389	358.75
419.611	371.75
419.834	387.75
420.057	375.75
420.28	373.75
420.503	347.75
420.726	363.75
420.948	396.75
421.171	414.75
421.394	423.75
421.617	386.75
421.839	374.75
422.062	385.75
422.285	396.75
422.507	431.75
422.73	470.75
422.953	467.75
423.175	417.75
423.398	366.75
423.621	375.75
423.843	393.75
424.066	422.75
424.288	398.75
424.511	419.75
424.733	443.75
424.956	523.75
425.178	495.75
425.401	484.75
425.623	527.75
425.846	437.75
426.068	419.75
426.291	403.75
426.513	413.75
426.735	422.75
426.958	437.75
427.18	518.75
427.402	606.75
427.625	642.75
427.847	599.75
428.069	491.75
428.292	453.75
428.514	391.75
428.736	388.75
428.958	397.75
429.181	373.75
429.403	389.75
429.625	380.75
429.847	411.75
430.069	454.75
430.292	457.75
430.514	409.75
430.736	375.75
430.958	379.75
431.18	349.75
431.402	367.75
431.624	341.75
431.846	346.75
432.068	360.75
432.29	334.75
432.512	340.75
432.734	354.75
432.956	354.75
433.178	378.75
433.4	370.75
433.622	368.75
433.844	341.75
434.066	355.75
434.287	338.75
434.509	363.75
434.731	348.75
434.953	362.75
435.175	385.75
435.397	395.75
435.618	391.75
435.84	419.75
436.062	510.75
436.284	562.75
436.505	463.75
436.727	418.75
436.949	380.75
437.17	383.75
437.392	378.75
437.614	384.75
437.835	402.75
438.057	493.75
438.278	556.75
438.5	550.75
438.721	597.75
438.943	577.75
439.165	491.75
439.386	439.75
439.608	440.75
439.829	415.75
440.05	443.75
440.272	479.75
440.493	435.75
440.715	411.75
440.936	384.75
441.158	383.75
441.379	374.75
441.6	379.75
441.822	393.75
442.043	429.75
442.264	488.75
442.486	524.75
442.707	438.75
442.928	417.75
443.149	426.75
443.371	451.75
443.592	477.75
443.813	553.75
444.034	567.75
444.255	464.75
444.476	393.75
444.698	405.75
444.919	380.75
445.14	483.75
445.361	445.75
445.582	439.75
445.803	462.75
446.024	559.75
446.245	556.75
446.466	502.75
446.687	436.75
446.908	423.75
447.129	376.75
447.35	381.75
447.571	380.75
447.792	374.75
448.013	372.75
448.234	378.75
448.455	431.75
448.675	503.75
448.896	593.75
449.117	502.75
449.338	499.75
449.559	554.75
449.779	655.75
450	507.75
450.221	411.75
450.442	391.75
450.662	387.75
450.883	382.75
451.104	389.75
451.324	400.75
451.545	359.75
451.766	354.75
451.986	335.75
452.207	336.75
452.428	346.75
452.648	346.75
452.869	331.75
453.089	324.75
453.31	351.75
453.53	338.75
453.751	341.75
453.971	347.75
454.192	366.75
454.412	342.75
454.633	337.75
454.853	327.75
455.073	334.75
455.294	350.75
455.514	405.75
455.734	386.75
455.955	351.75
456.175	339.75
456.395	317.75
456.616	329.75
456.836	320.75
457.056	322.75
457.276	306.75
457.497	307.75
457.717	311.75
457.937	316.75
458.157	325.75
458.377	324.75
458.598	351.75
458.818	385.75
459.038	450.75
459.258	431.75
459.478	387.75
459.698	373.75
459.918	343.75
460.138	344.75
460.358	345.75
460.578	340.75
460.798	348.75
461.018	330.75
461.238	345.75
461.458	367.75
461.678	339.75
461.898	342.75
462.118	355.75
462.338	347.75
462.558	349.75
462.777	357.75
462.997	364.75
463.217	349.75
463.437	369.75
463.657	373.75
463.876	369.75
464.096	353.75
464.316	343.75
464.536	380.75
464.755	360.75
464.975	365.75
465.195	430.75
465.414	439.75
465.634	407.75
465.854	357.75
466.073	350.75
466.293	346.75
466.512	337.75
466.732	363.75
466.951	343.75
467.171	340.75
467.391	311.75
467.61	340.75
467.829	346.75
468.049	332.75
468.268	356.75
468.488	333.75
468.707	330.75
468.927	311.75
469.146	324.75
469.365	333.75
469.585	317.75
469.804	335.75
470.023	356.75
470.243	348.75
470.462	339.75
470.681	360.75
470.901	343.75
471.12	341.75
471.339	350.75
471.558	346.75
471.777	335.75
471.997	326.75
472.216	348.75
472.435	358.75
472.654	358.75
472.873	350.75
473.092	341.75
473.311	339.75
473.53	348.75
473.749	362.75
473.968	387.75
474.187	457.75
474.406	471.75
474.625	385.75
474.844	363.75
475.063	352.75
475.282	346.75
475.501	353.75
475.72	358.75
475.939	346.75
476.158	326.75
476.377	362.75
476.596	339.75
476.814	345.75
477.033	371.75
477.252	369.75
477.471	376.75
477.69	357.75
477.908	360.75
478.127	355.75
478.346	365.75
478.564	373.75
478.783	378.75
479.002	392.75
479.22	393.75
479.439	397.75
479.658	401.75
479.876	405.75
480.095	403.75
480.313	434.75
480.532	415.75
480.751	404.75
480.969	413.75
481.188	447.75
481.406	457.75
481.624	415.75
481.843	409.75
482.061	441.75
482.28	412.75
482.498	402.75
482.717	405.75
482.935	387.75
483.153	403.75
483.372	405.75
483.59	406.75
483.808	381.75
484.027	402.75
484.245	392.75
484.463	410.75
484.681	419.75
484.9	409.75
485.118	422.75
485.336	420.75
485.554	412.75
485.772	419.75
485.99	422.75
486.209	428.75
486.427	417.75
486.645	414.75
486.863	431.75
487.081	446.75
487.299	439.75
487.517	437.75
487.735	446.75
487.953	415.75
488.171	407.75
488.389	393.75
488.607	437.75
488.825	435.75
489.043	445.75
489.261	419.75
489.479	421.75
489.696	441.75
489.914	433.75
490.132	427.75
490.35	456.75
490.568	448.75
490.786	473.75
491.003	469.75
491.221	480.75
491.439	475.75
491.657	471.75
491.874	474.75
492.092	479.75
492.31	485.75
492.527	484.75
492.745	494.75
492.963	476.75
493.18	499.75
493.398	513.75
493.615	482.75
493.833	498.75
494.05	524.75
494.268	494.75
494.485	493.75
494.703	484.75
494.92	497.75
495.138	486.75
495.355	511.75
495.573	501.75
495.79	499.75
496.008	511.75
496.225	513.75
496.442	499.75
496.66	502.75
496.877	485.75
497.094	517.75
497.312	516.75
497.529	510.75
497.746	535.75
497.963	541.75
498.181	558.75
498.398	549.75
498.615	557.75
498.832	546.75
499.049	564.75
499.267	559.75
499.484	577.75
499.701	602.75
499.918	600.75
500.135	640.75
500.352	630.75
500.569	665.75
500.786	645.75
501.003	646.75
501.22	621.75
501.437	621.75
501.654	634.75
501.871	630.75
502.088	584.75
