Data from 1981.PennyLincolnUp.Lamp.En5.5.200Scan.071819.P1_HRD10591_16-40-51-959.txt Node
Date: Thu Jul 18 16:40:51 EDT 2019
User: cochatt
Spectrometer: HR+D1059
Trigger mode: 1
Integration Time (sec): 1.000000E-1
Scans to average: 1
Electric dark correction enabled: true
Nonlinearity correction enabled: false
Boxcar width: 0
XAxis mode: Wavelengths
Number of Pixels in Spectrum: 2048
>>>>>Begin Spectral Data<<<<<
223.165	-19.19
223.4	-19.19
223.635	-19.19
223.869	5.81
224.104	-17.19
224.338	-19.19
224.573	-12.19
224.808	-8.19
225.042	-5.19
225.277	-13.19
225.511	9.81
225.746	-2.19
225.98	11.81
226.215	1.81
226.449	4.81
226.683	9.81
226.918	26.81
227.152	25.81
227.387	26.81
227.621	35.81
227.856	37.81
228.09	51.81
228.324	28.81
228.559	58.81
228.793	54.81
229.027	101.81
229.262	111.81
229.496	118.81
229.73	124.81
229.964	144.81
230.199	124.81
230.433	88.81
230.667	92.81
230.901	100.81
231.136	99.81
231.37	103.81
231.604	85.81
231.838	112.81
232.072	112.81
232.306	117.81
232.541	100.81
232.775	109.81
233.009	104.81
233.243	106.81
233.477	105.81
233.711	108.81
233.945	113.81
234.179	107.81
234.413	118.81
234.647	99.81
234.881	118.81
235.115	118.81
235.349	112.81
235.583	119.81
235.817	119.81
236.051	116.81
236.285	125.81
236.519	117.81
236.753	120.81
236.987	128.81
237.221	162.81
237.455	203.81
237.689	179.81
237.922	140.81
238.156	116.81
238.39	127.81
238.624	122.81
238.858	123.81
239.091	110.81
239.325	107.81
239.559	115.81
239.793	119.81
240.027	134.81
240.26	142.81
240.494	142.81
240.728	145.81
240.961	141.81
241.195	142.81
241.429	131.81
241.662	143.81
241.896	128.81
242.13	139.81
242.363	126.81
242.597	134.81
242.83	150.81
243.064	132.81
243.298	130.81
243.531	136.81
243.765	139.81
243.998	117.81
244.232	138.81
244.465	141.81
244.699	140.81
244.932	145.81
245.166	151.81
245.399	142.81
245.633	140.81
245.866	138.81
246.099	124.81
246.333	132.81
246.566	132.81
246.8	142.81
247.033	149.81
247.266	147.81
247.5	160.81
247.733	165.81
247.966	153.81
248.2	160.81
248.433	170.81
248.666	155.81
248.899	162.81
249.133	183.81
249.366	179.81
249.599	182.81
249.832	194.81
250.066	182.81
250.299	188.81
250.532	184.81
250.765	203.81
250.998	208.81
251.231	223.81
251.465	205.81
251.698	211.81
251.931	208.81
252.164	196.81
252.397	189.81
252.63	212.81
252.863	201.81
253.096	220.81
253.329	215.81
253.562	218.81
253.795	216.81
254.028	212.81
254.261	226.81
254.494	224.81
254.727	248.81
254.96	261.81
255.193	263.81
255.426	260.81
255.659	216.81
255.892	216.81
256.124	206.81
256.357	222.81
256.59	223.81
256.823	212.81
257.056	214.81
257.289	196.81
257.521	197.81
257.754	209.81
257.987	209.81
258.22	204.81
258.452	189.81
258.685	201.81
258.918	200.81
259.151	211.81
259.383	223.81
259.616	210.81
259.849	209.81
260.081	224.81
260.314	240.81
260.547	245.81
260.779	247.81
261.012	226.81
261.244	210.81
261.477	211.81
261.71	200.81
261.942	211.81
262.175	230.81
262.407	218.81
262.64	195.81
262.872	208.81
263.105	193.81
263.337	196.81
263.57	219.81
263.802	203.81
264.035	188.81
264.267	185.81
264.499	208.81
264.732	193.81
264.964	203.81
265.197	207.81
265.429	223.81
265.661	192.81
265.894	203.81
266.126	199.81
266.358	214.81
266.591	210.81
266.823	215.81
267.055	213.81
267.287	211.81
267.52	208.81
267.752	217.81
267.984	228.81
268.216	226.81
268.448	220.81
268.681	209.81
268.913	223.81
269.145	257.81
269.377	248.81
269.609	265.81
269.841	267.81
270.073	260.81
270.306	279.81
270.538	309.81
270.77	318.81
271.002	299.81
271.234	275.81
271.466	277.81
271.698	272.81
271.93	307.81
272.162	300.81
272.394	280.81
272.626	287.81
272.858	263.81
273.09	269.81
273.322	257.81
273.553	277.81
273.785	261.81
274.017	263.81
274.249	245.81
274.481	243.81
274.713	257.81
274.945	252.81
275.176	259.81
275.408	227.81
275.64	235.81
275.872	247.81
276.104	261.81
276.335	260.81
276.567	256.81
276.799	254.81
277.031	294.81
277.262	289.81
277.494	280.81
277.726	273.81
277.957	268.81
278.189	260.81
278.421	249.81
278.652	251.81
278.884	256.81
279.115	258.81
279.347	255.81
279.579	269.81
279.81	266.81
280.042	243.81
280.273	256.81
280.505	243.81
280.736	240.81
280.968	241.81
281.199	235.81
281.431	251.81
281.662	249.81
281.894	258.81
282.125	271.81
282.356	265.81
282.588	303.81
282.819	302.81
283.051	252.81
283.282	244.81
283.513	245.81
283.745	252.81
283.976	247.81
284.207	252.81
284.439	275.81
284.67	256.81
284.901	268.81
285.132	245.81
285.364	241.81
285.595	246.81
285.826	244.81
286.057	258.81
286.288	256.81
286.52	277.81
286.751	266.81
286.982	276.81
287.213	268.81
287.444	267.81
287.675	268.81
287.906	264.81
288.138	289.81
288.369	274.81
288.6	281.81
288.831	280.81
289.062	283.81
289.293	261.81
289.524	281.81
289.755	269.81
289.986	250.81
290.217	275.81
290.448	275.81
290.679	256.81
290.91	287.81
291.141	261.81
291.371	272.81
291.602	261.81
291.833	268.81
292.064	263.81
292.295	250.81
292.526	266.81
292.757	288.81
292.987	267.81
293.218	263.81
293.449	263.81
293.68	260.81
293.91	237.81
294.141	267.81
294.372	261.81
294.603	275.81
294.833	278.81
295.064	268.81
295.295	270.81
295.525	266.81
295.756	281.81
295.987	293.81
296.217	281.81
296.448	275.81
296.679	279.81
296.909	273.81
297.14	262.81
297.37	275.81
297.601	281.81
297.831	277.81
298.062	280.81
298.292	279.81
298.523	260.81
298.753	266.81
298.984	283.81
299.214	263.81
299.445	289.81
299.675	273.81
299.905	282.81
300.136	308.81
300.366	280.81
300.597	283.81
300.827	289.81
301.057	304.81
301.288	305.81
301.518	304.81
301.748	294.81
301.979	292.81
302.209	299.81
302.439	314.81
302.669	309.81
302.9	298.81
303.13	289.81
303.36	290.81
303.59	311.81
303.82	298.81
304.051	305.81
304.281	311.81
304.511	283.81
304.741	307.81
304.971	297.81
305.201	302.81
305.431	306.81
305.661	296.81
305.891	286.81
306.121	298.81
306.352	314.81
306.582	315.81
306.812	305.81
307.042	296.81
307.272	282.81
307.502	300.81
307.731	292.81
307.961	325.81
308.191	320.81
308.421	310.81
308.651	321.81
308.881	307.81
309.111	319.81
309.341	302.81
309.571	336.81
309.8	318.81
310.03	339.81
310.26	337.81
310.49	337.81
310.72	342.81
310.949	362.81
311.179	375.81
311.409	381.81
311.639	351.81
311.868	341.81
312.098	356.81
312.328	351.81
312.557	375.81
312.787	374.81
313.017	378.81
313.246	367.81
313.476	340.81
313.706	339.81
313.935	342.81
314.165	362.81
314.394	378.81
314.624	375.81
314.853	338.81
315.083	349.81
315.312	352.81
315.542	368.81
315.771	371.81
316.001	343.81
316.23	348.81
316.46	338.81
316.689	353.81
316.919	353.81
317.148	375.81
317.377	360.81
317.607	363.81
317.836	341.81
318.065	344.81
318.295	347.81
318.524	337.81
318.753	343.81
318.983	346.81
319.212	350.81
319.441	364.81
319.67	371.81
319.9	356.81
320.129	357.81
320.358	373.81
320.587	369.81
320.816	374.81
321.046	388.81
321.275	359.81
321.504	370.81
321.733	409.81
321.962	397.81
322.191	380.81
322.42	394.81
322.649	426.81
322.878	444.81
323.108	443.81
323.337	460.81
323.566	485.81
323.795	527.81
324.024	548.81
324.253	683.81
324.482	963.81
324.71	1432.81
324.939	2038.81
325.168	1708.81
325.397	951.81
325.626	640.81
325.855	541.81
326.084	490.81
326.313	475.81
326.542	495.81
326.77	535.81
326.999	595.81
327.228	887.81
327.457	1299.81
327.686	1497.81
327.914	1008.81
328.143	683.81
328.372	594.81
328.6	567.81
328.829	527.81
329.058	555.81
329.287	563.81
329.515	506.81
329.744	462.81
329.972	491.81
330.201	473.81
330.43	513.81
330.658	539.81
330.887	544.81
331.115	553.81
331.344	484.81
331.572	462.81
331.801	469.81
332.03	450.81
332.258	435.81
332.486	413.81
332.715	432.81
332.943	412.81
333.172	413.81
333.4	412.81
333.629	408.81
333.857	412.81
334.085	419.81
334.314	416.81
334.542	450.81
334.771	460.81
334.999	439.81
335.227	394.81
335.455	383.81
335.684	390.81
335.912	400.81
336.14	386.81
336.369	384.81
336.597	422.81
336.825	411.81
337.053	405.81
337.281	389.81
337.51	384.81
337.738	385.81
337.966	400.81
338.194	385.81
338.422	420.81
338.65	395.81
338.878	383.81
339.106	383.81
339.334	382.81
339.562	386.81
339.79	400.81
340.018	372.81
340.246	371.81
340.474	397.81
340.702	408.81
340.93	377.81
341.158	408.81
341.386	379.81
341.614	379.81
341.842	377.81
342.07	371.81
342.298	380.81
342.526	368.81
342.754	382.81
342.981	364.81
343.209	367.81
343.437	397.81
343.665	358.81
343.893	353.81
344.12	383.81
344.348	390.81
344.576	395.81
344.804	398.81
345.031	414.81
345.259	393.81
345.487	389.81
345.714	391.81
345.942	376.81
346.17	403.81
346.397	364.81
346.625	367.81
346.853	360.81
347.08	374.81
347.308	378.81
347.535	362.81
347.763	373.81
347.99	372.81
348.218	379.81
348.445	382.81
348.673	396.81
348.9	385.81
349.128	360.81
349.355	350.81
349.583	358.81
349.81	371.81
350.037	364.81
350.265	358.81
350.492	363.81
350.72	368.81
350.947	389.81
351.174	380.81
351.402	371.81
351.629	370.81
351.856	390.81
352.083	370.81
352.311	381.81
352.538	390.81
352.765	381.81
352.992	380.81
353.22	379.81
353.447	357.81
353.674	360.81
353.901	352.81
354.128	370.81
354.355	344.81
354.583	353.81
354.81	355.81
355.037	347.81
355.264	332.81
355.491	336.81
355.718	334.81
355.945	360.81
356.172	335.81
356.399	321.81
356.626	339.81
356.853	353.81
357.08	330.81
357.307	341.81
357.534	342.81
357.761	322.81
357.988	335.81
358.215	341.81
358.441	336.81
358.668	340.81
358.895	340.81
359.122	361.81
359.349	351.81
359.576	355.81
359.802	388.81
360.029	379.81
360.256	394.81
360.483	383.81
360.709	361.81
360.936	348.81
361.163	361.81
361.39	350.81
361.616	370.81
361.843	373.81
362.07	346.81
362.296	366.81
362.523	362.81
362.749	335.81
362.976	360.81
363.203	365.81
363.429	346.81
363.656	348.81
363.882	356.81
364.109	355.81
364.335	339.81
364.562	340.81
364.788	336.81
365.015	349.81
365.241	349.81
365.468	338.81
365.694	363.81
365.92	362.81
366.147	347.81
366.373	336.81
366.599	338.81
366.826	323.81
367.052	337.81
367.278	351.81
367.505	356.81
367.731	337.81
367.957	342.81
368.184	333.81
368.41	376.81
368.636	369.81
368.862	348.81
369.089	341.81
369.315	336.81
369.541	343.81
369.767	341.81
369.993	332.81
370.219	360.81
370.445	335.81
370.672	327.81
370.898	333.81
371.124	330.81
371.35	339.81
371.576	328.81
371.802	329.81
372.028	341.81
372.254	336.81
372.48	324.81
372.706	337.81
372.932	318.81
373.158	337.81
373.384	341.81
373.61	332.81
373.835	313.81
374.061	322.81
374.287	356.81
374.513	325.81
374.739	344.81
374.965	335.81
375.191	321.81
375.416	336.81
375.642	351.81
375.868	323.81
376.094	335.81
376.319	347.81
376.545	338.81
376.771	339.81
376.997	327.81
377.222	337.81
377.448	313.81
377.674	325.81
377.899	331.81
378.125	332.81
378.35	312.81
378.576	336.81
378.802	355.81
379.027	317.81
379.253	321.81
379.478	348.81
379.704	329.81
379.929	331.81
380.155	332.81
380.38	330.81
380.606	333.81
380.831	332.81
381.057	329.81
381.282	332.81
381.507	327.81
381.733	327.81
381.958	333.81
382.184	337.81
382.409	315.81
382.634	352.81
382.86	333.81
383.085	341.81
383.31	315.81
383.535	330.81
383.761	342.81
383.986	328.81
384.211	332.81
384.436	339.81
384.662	345.81
384.887	352.81
385.112	341.81
385.337	349.81
385.562	349.81
385.787	354.81
386.013	372.81
386.238	359.81
386.463	351.81
386.688	363.81
386.913	332.81
387.138	338.81
387.363	351.81
387.588	347.81
387.813	355.81
388.038	329.81
388.263	328.81
388.488	364.81
388.713	359.81
388.938	347.81
389.163	356.81
389.387	347.81
389.612	344.81
389.837	340.81
390.062	333.81
390.287	356.81
390.512	324.81
390.736	345.81
390.961	351.81
391.186	326.81
391.411	344.81
391.636	357.81
391.86	341.81
392.085	343.81
392.31	338.81
392.534	364.81
392.759	325.81
392.984	356.81
393.208	349.81
393.433	368.81
393.658	354.81
393.882	357.81
394.107	337.81
394.331	348.81
394.556	343.81
394.78	335.81
395.005	354.81
395.229	338.81
395.454	353.81
395.678	357.81
395.903	369.81
396.127	365.81
396.352	373.81
396.576	365.81
396.801	352.81
397.025	353.81
397.249	364.81
397.474	370.81
397.698	371.81
397.922	369.81
398.147	383.81
398.371	364.81
398.595	378.81
398.82	367.81
399.044	381.81
399.268	387.81
399.492	398.81
399.717	426.81
399.941	451.81
400.165	482.81
400.389	456.81
400.613	436.81
400.837	405.81
401.062	387.81
401.286	397.81
401.51	399.81
401.734	411.81
401.958	372.81
402.182	390.81
402.406	405.81
402.63	403.81
402.854	394.81
403.078	407.81
403.302	388.81
403.526	407.81
403.75	381.81
403.974	392.81
404.198	400.81
404.422	392.81
404.645	413.81
404.869	408.81
405.093	407.81
405.317	447.81
405.541	471.81
405.765	439.81
405.988	406.81
406.212	414.81
406.436	460.81
406.66	451.81
406.883	446.81
407.107	425.81
407.331	487.81
407.555	545.81
407.778	534.81
408.002	489.81
408.226	450.81
408.449	448.81
408.673	427.81
408.896	451.81
409.12	472.81
409.344	459.81
409.567	409.81
409.791	397.81
410.014	418.81
410.238	401.81
410.461	400.81
410.685	385.81
410.908	420.81
411.132	436.81
411.355	472.81
411.578	448.81
411.802	385.81
412.025	381.81
412.249	419.81
412.472	415.81
412.695	424.81
412.919	423.81
413.142	409.81
413.365	395.81
413.589	405.81
413.812	358.81
414.035	379.81
414.258	373.81
414.482	367.81
414.705	404.81
414.928	360.81
415.151	353.81
415.374	367.81
415.597	366.81
415.821	365.81
416.044	355.81
416.267	379.81
416.49	379.81
416.713	357.81
416.936	362.81
417.159	377.81
417.382	379.81
417.605	367.81
417.828	381.81
418.051	388.81
418.274	384.81
418.497	368.81
418.72	374.81
418.943	370.81
419.166	387.81
419.389	398.81
419.611	387.81
419.834	390.81
420.057	381.81
420.28	375.81
420.503	367.81
420.726	391.81
420.948	404.81
421.171	435.81
421.394	460.81
421.617	411.81
421.839	396.81
422.062	393.81
422.285	399.81
422.507	461.81
422.73	527.81
422.953	518.81
423.175	427.81
423.398	402.81
423.621	405.81
423.843	419.81
424.066	420.81
424.288	435.81
424.511	455.81
424.733	490.81
424.956	554.81
425.178	529.81
425.401	507.81
425.623	547.81
425.846	495.81
426.068	449.81
426.291	431.81
426.513	429.81
426.735	435.81
426.958	476.81
427.18	522.81
427.402	610.81
427.625	723.81
427.847	632.81
428.069	519.81
428.292	482.81
428.514	421.81
428.736	416.81
428.958	408.81
429.181	378.81
429.403	393.81
429.625	420.81
429.847	427.81
430.069	499.81
430.292	481.81
430.514	414.81
430.736	389.81
430.958	371.81
431.18	378.81
431.402	361.81
431.624	362.81
431.846	362.81
432.068	373.81
432.29	362.81
432.512	368.81
432.734	408.81
432.956	383.81
433.178	387.81
433.4	367.81
433.622	391.81
433.844	374.81
434.066	377.81
434.287	377.81
434.509	384.81
434.731	383.81
434.953	372.81
435.175	407.81
435.397	406.81
435.618	419.81
435.84	459.81
436.062	551.81
436.284	582.81
436.505	501.81
436.727	453.81
436.949	423.81
437.17	400.81
437.392	393.81
437.614	397.81
437.835	449.81
438.057	524.81
438.278	607.81
438.5	583.81
438.721	675.81
438.943	648.81
439.165	511.81
439.386	454.81
439.608	445.81
439.829	452.81
440.05	460.81
440.272	491.81
440.493	501.81
440.715	443.81
440.936	409.81
441.158	397.81
441.379	405.81
441.6	405.81
441.822	408.81
442.043	461.81
442.264	530.81
442.486	537.81
442.707	473.81
442.928	436.81
443.149	455.81
443.371	479.81
443.592	492.81
443.813	559.81
444.034	595.81
444.255	504.81
444.476	436.81
444.698	433.81
444.919	413.81
445.14	502.81
445.361	507.81
445.582	486.81
445.803	505.81
446.024	593.81
446.245	603.81
446.466	549.81
446.687	479.81
446.908	435.81
447.129	411.81
447.35	406.81
447.571	398.81
447.792	395.81
448.013	417.81
448.234	433.81
448.455	472.81
448.675	563.81
448.896	626.81
449.117	546.81
449.338	531.81
449.559	616.81
449.779	684.81
450	539.81
450.221	467.81
450.442	413.81
450.662	396.81
450.883	409.81
451.104	388.81
451.324	399.81
451.545	386.81
451.766	364.81
451.986	360.81
452.207	355.81
452.428	356.81
452.648	360.81
452.869	352.81
453.089	360.81
453.31	377.81
453.53	372.81
453.751	375.81
453.971	381.81
454.192	387.81
454.412	371.81
454.633	347.81
454.853	355.81
455.073	356.81
455.294	374.81
455.514	435.81
455.734	427.81
455.955	360.81
456.175	351.81
456.395	340.81
456.616	337.81
456.836	343.81
457.056	336.81
457.276	328.81
457.497	339.81
457.717	323.81
457.937	347.81
458.157	353.81
458.377	369.81
458.598	359.81
458.818	423.81
459.038	490.81
459.258	480.81
459.478	409.81
459.698	384.81
459.918	355.81
460.138	360.81
460.358	361.81
460.578	339.81
460.798	375.81
461.018	377.81
461.238	363.81
461.458	375.81
461.678	368.81
461.898	359.81
462.118	363.81
462.338	376.81
462.558	379.81
462.777	396.81
462.997	372.81
463.217	388.81
463.437	388.81
463.657	381.81
463.876	385.81
464.096	388.81
464.316	395.81
464.536	387.81
464.755	398.81
464.975	391.81
465.195	420.81
465.414	491.81
465.634	439.81
465.854	402.81
466.073	378.81
466.293	369.81
466.512	375.81
466.732	363.81
466.951	379.81
467.171	348.81
467.391	367.81
467.61	352.81
467.829	379.81
468.049	360.81
468.268	363.81
468.488	351.81
468.707	353.81
468.927	359.81
469.146	353.81
469.365	361.81
469.585	354.81
469.804	355.81
470.023	355.81
470.243	353.81
470.462	372.81
470.681	387.81
470.901	382.81
471.12	372.81
471.339	375.81
471.558	383.81
471.777	356.81
471.997	361.81
472.216	356.81
472.435	400.81
472.654	375.81
472.873	393.81
473.092	366.81
473.311	361.81
473.53	349.81
473.749	378.81
473.968	415.81
474.187	519.81
474.406	525.81
474.625	426.81
474.844	383.81
475.063	361.81
475.282	352.81
475.501	396.81
475.72	386.81
475.939	357.81
476.158	369.81
476.377	389.81
476.596	379.81
476.814	396.81
477.033	390.81
477.252	392.81
477.471	388.81
477.69	389.81
477.908	397.81
478.127	405.81
478.346	388.81
478.564	410.81
478.783	407.81
479.002	407.81
479.22	418.81
479.439	409.81
479.658	437.81
479.876	436.81
480.095	456.81
480.313	472.81
480.532	457.81
480.751	454.81
480.969	452.81
481.188	485.81
481.406	491.81
481.624	455.81
481.843	442.81
482.061	451.81
482.28	428.81
482.498	449.81
482.717	437.81
482.935	442.81
483.153	450.81
483.372	406.81
483.59	433.81
483.808	423.81
484.027	414.81
484.245	433.81
484.463	426.81
484.681	426.81
484.9	433.81
485.118	437.81
485.336	429.81
485.554	447.81
485.772	434.81
485.99	456.81
486.209	441.81
486.427	455.81
486.645	453.81
486.863	465.81
487.081	461.81
487.299	463.81
487.517	472.81
487.735	464.81
487.953	472.81
488.171	476.81
488.389	456.81
488.607	464.81
488.825	453.81
489.043	460.81
489.261	490.81
489.479	462.81
489.696	460.81
489.914	465.81
490.132	454.81
490.35	464.81
490.568	488.81
490.786	492.81
491.003	512.81
491.221	504.81
491.439	512.81
491.657	530.81
491.874	546.81
492.092	533.81
492.31	537.81
492.527	508.81
492.745	530.81
492.963	530.81
493.18	542.81
493.398	531.81
493.615	525.81
493.833	552.81
494.05	524.81
494.268	545.81
494.485	518.81
494.703	513.81
494.92	557.81
495.138	555.81
495.355	554.81
495.573	523.81
495.79	521.81
496.008	528.81
496.225	543.81
496.442	556.81
496.66	548.81
496.877	523.81
497.094	544.81
497.312	566.81
497.529	553.81
497.746	552.81
497.963	566.81
498.181	579.81
498.398	573.81
498.615	588.81
498.832	596.81
499.049	595.81
499.267	595.81
499.484	643.81
499.701	632.81
499.918	633.81
500.135	659.81
500.352	681.81
500.569	658.81
500.786	690.81
501.003	695.81
501.22	657.81
501.437	654.81
501.654	671.81
501.871	667.81
502.088	646.81
