Data from 1981.PennyLincolnUp.Lamp.En5.5.200Scan.071819.P1_HRD10591_16-42-40-959.txt Node
Date: Thu Jul 18 16:42:40 EDT 2019
User: cochatt
Spectrometer: HR+D1059
Trigger mode: 1
Integration Time (sec): 1.000000E-1
Scans to average: 1
Electric dark correction enabled: true
Nonlinearity correction enabled: false
Boxcar width: 0
XAxis mode: Wavelengths
Number of Pixels in Spectrum: 2048
>>>>>Begin Spectral Data<<<<<
223.165	-25.31
223.4	-25.31
223.635	-25.31
223.869	-25.31
224.104	-8.31
224.338	-22.31
224.573	-7.31
224.808	-12.31
225.042	6.69
225.277	5.69
225.511	1.69
225.746	-5.31
225.98	8.69
226.215	7.69
226.449	26.69
226.683	12.69
226.918	6.69
227.152	29.69
227.387	46.69
227.621	26.69
227.856	37.69
228.09	42.69
228.324	45.69
228.559	48.69
228.793	64.69
229.027	89.69
229.262	124.69
229.496	119.69
229.73	141.69
229.964	167.69
230.199	137.69
230.433	120.69
230.667	104.69
230.901	111.69
231.136	110.69
231.37	118.69
231.604	106.69
231.838	103.69
232.072	119.69
232.306	102.69
232.541	93.69
232.775	129.69
233.009	103.69
233.243	89.69
233.477	114.69
233.711	119.69
233.945	112.69
234.179	115.69
234.413	109.69
234.647	120.69
234.881	117.69
235.115	114.69
235.349	120.69
235.583	114.69
235.817	116.69
236.051	124.69
236.285	118.69
236.519	120.69
236.753	124.69
236.987	133.69
237.221	179.69
237.455	231.69
237.689	187.69
237.922	140.69
238.156	137.69
238.39	134.69
238.624	129.69
238.858	132.69
239.091	138.69
239.325	130.69
239.559	122.69
239.793	130.69
240.027	132.69
240.26	142.69
240.494	145.69
240.728	152.69
240.961	137.69
241.195	138.69
241.429	149.69
241.662	126.69
241.896	119.69
242.13	131.69
242.363	123.69
242.597	125.69
242.83	148.69
243.064	128.69
243.298	134.69
243.531	130.69
243.765	144.69
243.998	130.69
244.232	142.69
244.465	137.69
244.699	151.69
244.932	146.69
245.166	154.69
245.399	142.69
245.633	137.69
245.866	134.69
246.099	145.69
246.333	148.69
246.566	146.69
246.8	144.69
247.033	157.69
247.266	159.69
247.5	158.69
247.733	183.69
247.966	192.69
248.2	169.69
248.433	147.69
248.666	166.69
248.899	196.69
249.133	202.69
249.366	203.69
249.599	224.69
249.832	175.69
250.066	185.69
250.299	171.69
250.532	192.69
250.765	215.69
250.998	238.69
251.231	225.69
251.465	224.69
251.698	228.69
251.931	208.69
252.164	204.69
252.397	196.69
252.63	194.69
252.863	220.69
253.096	214.69
253.329	230.69
253.562	240.69
253.795	223.69
254.028	211.69
254.261	224.69
254.494	230.69
254.727	253.69
254.96	298.69
255.193	276.69
255.426	275.69
255.659	255.69
255.892	245.69
256.124	246.69
256.357	239.69
256.59	240.69
256.823	227.69
257.056	226.69
257.289	214.69
257.521	192.69
257.754	225.69
257.987	213.69
258.22	216.69
258.452	207.69
258.685	219.69
258.918	213.69
259.151	218.69
259.383	219.69
259.616	228.69
259.849	240.69
260.081	244.69
260.314	251.69
260.547	273.69
260.779	249.69
261.012	250.69
261.244	241.69
261.477	233.69
261.71	242.69
261.942	229.69
262.175	254.69
262.407	225.69
262.64	215.69
262.872	219.69
263.105	207.69
263.337	222.69
263.57	217.69
263.802	212.69
264.035	206.69
264.267	208.69
264.499	217.69
264.732	208.69
264.964	199.69
265.197	206.69
265.429	207.69
265.661	202.69
265.894	223.69
266.126	203.69
266.358	215.69
266.591	210.69
266.823	234.69
267.055	215.69
267.287	223.69
267.52	227.69
267.752	217.69
267.984	218.69
268.216	224.69
268.448	235.69
268.681	229.69
268.913	261.69
269.145	273.69
269.377	273.69
269.609	284.69
269.841	265.69
270.073	295.69
270.306	289.69
270.538	314.69
270.77	322.69
271.002	315.69
271.234	310.69
271.466	308.69
271.698	342.69
271.93	328.69
272.162	349.69
272.394	344.69
272.626	330.69
272.858	306.69
273.09	275.69
273.322	301.69
273.553	278.69
273.785	270.69
274.017	249.69
274.249	252.69
274.481	273.69
274.713	273.69
274.945	279.69
275.176	276.69
275.408	254.69
275.64	274.69
275.872	270.69
276.104	278.69
276.335	273.69
276.567	279.69
276.799	268.69
277.031	307.69
277.262	313.69
277.494	312.69
277.726	315.69
277.957	308.69
278.189	294.69
278.421	275.69
278.652	278.69
278.884	279.69
279.115	269.69
279.347	266.69
279.579	262.69
279.81	273.69
280.042	265.69
280.273	259.69
280.505	276.69
280.736	263.69
280.968	249.69
281.199	252.69
281.431	274.69
281.662	273.69
281.894	271.69
282.125	273.69
282.356	293.69
282.588	287.69
282.819	313.69
283.051	289.69
283.282	265.69
283.513	275.69
283.745	266.69
283.976	302.69
284.207	287.69
284.439	284.69
284.67	290.69
284.901	274.69
285.132	257.69
285.364	260.69
285.595	260.69
285.826	269.69
286.057	287.69
286.288	305.69
286.52	274.69
286.751	272.69
286.982	275.69
287.213	259.69
287.444	268.69
287.675	284.69
287.906	290.69
288.138	304.69
288.369	288.69
288.6	289.69
288.831	302.69
289.062	288.69
289.293	285.69
289.524	275.69
289.755	277.69
289.986	278.69
290.217	272.69
290.448	276.69
290.679	265.69
290.91	262.69
291.141	264.69
291.371	293.69
291.602	266.69
291.833	263.69
292.064	291.69
292.295	278.69
292.526	282.69
292.757	283.69
292.987	286.69
293.218	272.69
293.449	278.69
293.68	300.69
293.91	278.69
294.141	278.69
294.372	268.69
294.603	281.69
294.833	280.69
295.064	284.69
295.295	278.69
295.525	304.69
295.756	290.69
295.987	300.69
296.217	320.69
296.448	336.69
296.679	313.69
296.909	283.69
297.14	282.69
297.37	279.69
297.601	290.69
297.831	280.69
298.062	306.69
298.292	278.69
298.523	287.69
298.753	299.69
298.984	295.69
299.214	289.69
299.445	309.69
299.675	294.69
299.905	305.69
300.136	295.69
300.366	304.69
300.597	288.69
300.827	320.69
301.057	307.69
301.288	327.69
301.518	315.69
301.748	314.69
301.979	314.69
302.209	320.69
302.439	315.69
302.669	320.69
302.9	324.69
303.13	316.69
303.36	319.69
303.59	317.69
303.82	314.69
304.051	331.69
304.281	326.69
304.511	302.69
304.741	307.69
304.971	305.69
305.201	322.69
305.431	315.69
305.661	300.69
305.891	309.69
306.121	324.69
306.352	300.69
306.582	308.69
306.812	334.69
307.042	323.69
307.272	314.69
307.502	316.69
307.731	323.69
307.961	327.69
308.191	346.69
308.421	331.69
308.651	357.69
308.881	348.69
309.111	344.69
309.341	334.69
309.571	356.69
309.8	350.69
310.03	376.69
310.26	360.69
310.49	392.69
310.72	388.69
310.949	404.69
311.179	418.69
311.409	380.69
311.639	377.69
311.868	376.69
312.098	374.69
312.328	379.69
312.557	395.69
312.787	434.69
313.017	390.69
313.246	402.69
313.476	392.69
313.706	390.69
313.935	379.69
314.165	374.69
314.394	404.69
314.624	386.69
314.853	386.69
315.083	393.69
315.312	401.69
315.542	383.69
315.771	366.69
316.001	374.69
316.23	361.69
316.46	372.69
316.689	357.69
316.919	359.69
317.148	395.69
317.377	376.69
317.607	378.69
317.836	372.69
318.065	364.69
318.295	349.69
318.524	361.69
318.753	375.69
318.983	364.69
319.212	357.69
319.441	395.69
319.67	368.69
319.9	384.69
320.129	388.69
320.358	393.69
320.587	384.69
320.816	390.69
321.046	406.69
321.275	390.69
321.504	399.69
321.733	423.69
321.962	430.69
322.191	426.69
322.42	457.69
322.649	483.69
322.878	476.69
323.108	479.69
323.337	514.69
323.566	544.69
323.795	597.69
324.024	654.69
324.253	848.69
324.482	1209.69
324.71	1841.69
324.939	2451.69
325.168	2126.69
325.397	1074.69
325.626	736.69
325.855	608.69
326.084	581.69
326.313	554.69
326.542	572.69
326.77	617.69
326.999	754.69
327.228	1038.69
327.457	1536.69
327.686	1809.69
327.914	1215.69
328.143	815.69
328.372	709.69
328.6	646.69
328.829	645.69
329.058	625.69
329.287	648.69
329.515	574.69
329.744	532.69
329.972	522.69
330.201	571.69
330.43	617.69
330.658	641.69
330.887	642.69
331.115	626.69
331.344	575.69
331.572	490.69
331.801	509.69
332.03	517.69
332.258	473.69
332.486	434.69
332.715	438.69
332.943	439.69
333.172	452.69
333.4	454.69
333.629	443.69
333.857	477.69
334.085	506.69
334.314	483.69
334.542	510.69
334.771	534.69
334.999	459.69
335.227	432.69
335.455	436.69
335.684	439.69
335.912	446.69
336.14	419.69
336.369	415.69
336.597	425.69
336.825	453.69
337.053	419.69
337.281	430.69
337.51	423.69
337.738	427.69
337.966	421.69
338.194	410.69
338.422	416.69
338.65	418.69
338.878	397.69
339.106	409.69
339.334	398.69
339.562	409.69
339.79	413.69
340.018	419.69
340.246	406.69
340.474	423.69
340.702	419.69
340.93	402.69
341.158	400.69
341.386	386.69
341.614	405.69
341.842	423.69
342.07	411.69
342.298	414.69
342.526	396.69
342.754	385.69
342.981	373.69
343.209	396.69
343.437	382.69
343.665	386.69
343.893	414.69
344.12	393.69
344.348	406.69
344.576	398.69
344.804	419.69
345.031	415.69
345.259	442.69
345.487	416.69
345.714	416.69
345.942	391.69
346.17	386.69
346.397	402.69
346.625	396.69
346.853	399.69
347.08	402.69
347.308	416.69
347.535	410.69
347.763	394.69
347.99	386.69
348.218	393.69
348.445	427.69
348.673	414.69
348.9	405.69
349.128	382.69
349.355	376.69
349.583	394.69
349.81	375.69
350.037	396.69
350.265	367.69
350.492	385.69
350.72	396.69
350.947	391.69
351.174	386.69
351.402	398.69
351.629	405.69
351.856	398.69
352.083	408.69
352.311	410.69
352.538	431.69
352.765	416.69
352.992	419.69
353.22	400.69
353.447	410.69
353.674	391.69
353.901	375.69
354.128	375.69
354.355	373.69
354.583	368.69
354.81	378.69
355.037	356.69
355.264	349.69
355.491	346.69
355.718	342.69
355.945	339.69
356.172	346.69
356.399	363.69
356.626	354.69
356.853	357.69
357.08	353.69
357.307	343.69
357.534	349.69
357.761	339.69
357.988	370.69
358.215	368.69
358.441	358.69
358.668	363.69
358.895	374.69
359.122	366.69
359.349	369.69
359.576	395.69
359.802	406.69
360.029	449.69
360.256	457.69
360.483	428.69
360.709	414.69
360.936	396.69
361.163	390.69
361.39	385.69
361.616	384.69
361.843	386.69
362.07	371.69
362.296	404.69
362.523	378.69
362.749	377.69
362.976	362.69
363.203	358.69
363.429	369.69
363.656	353.69
363.882	361.69
364.109	367.69
364.335	370.69
364.562	379.69
364.788	371.69
365.015	376.69
365.241	375.69
365.468	353.69
365.694	370.69
365.92	373.69
366.147	361.69
366.373	371.69
366.599	368.69
366.826	355.69
367.052	375.69
367.278	355.69
367.505	366.69
367.731	352.69
367.957	362.69
368.184	357.69
368.41	329.69
368.636	363.69
368.862	382.69
369.089	362.69
369.315	358.69
369.541	338.69
369.767	350.69
369.993	339.69
370.219	347.69
370.445	364.69
370.672	346.69
370.898	359.69
371.124	343.69
371.35	345.69
371.576	347.69
371.802	317.69
372.028	352.69
372.254	342.69
372.48	330.69
372.706	352.69
372.932	344.69
373.158	356.69
373.384	352.69
373.61	331.69
373.835	360.69
374.061	338.69
374.287	361.69
374.513	345.69
374.739	343.69
374.965	341.69
375.191	355.69
375.416	342.69
375.642	329.69
375.868	340.69
376.094	331.69
376.319	320.69
376.545	338.69
376.771	329.69
376.997	340.69
377.222	347.69
377.448	335.69
377.674	330.69
377.899	342.69
378.125	347.69
378.35	354.69
378.576	340.69
378.802	341.69
379.027	337.69
379.253	355.69
379.478	316.69
379.704	342.69
379.929	320.69
380.155	337.69
380.38	326.69
380.606	331.69
380.831	339.69
381.057	350.69
381.282	343.69
381.507	327.69
381.733	322.69
381.958	329.69
382.184	344.69
382.409	357.69
382.634	348.69
382.86	336.69
383.085	327.69
383.31	360.69
383.535	344.69
383.761	352.69
383.986	327.69
384.211	337.69
384.436	338.69
384.662	329.69
384.887	340.69
385.112	340.69
385.337	345.69
385.562	353.69
385.787	344.69
386.013	353.69
386.238	360.69
386.463	361.69
386.688	361.69
386.913	331.69
387.138	340.69
387.363	354.69
387.588	360.69
387.813	359.69
388.038	355.69
388.263	349.69
388.488	354.69
388.713	353.69
388.938	353.69
389.163	352.69
389.387	346.69
389.612	333.69
389.837	327.69
390.062	342.69
390.287	340.69
390.512	341.69
390.736	358.69
390.961	352.69
391.186	350.69
391.411	366.69
391.636	353.69
391.86	349.69
392.085	342.69
392.31	338.69
392.534	360.69
392.759	364.69
392.984	352.69
393.208	326.69
393.433	360.69
393.658	359.69
393.882	350.69
394.107	348.69
394.331	345.69
394.556	355.69
394.78	360.69
395.005	365.69
395.229	350.69
395.454	348.69
395.678	355.69
395.903	373.69
396.127	384.69
396.352	379.69
396.576	364.69
396.801	369.69
397.025	347.69
397.249	368.69
397.474	365.69
397.698	363.69
397.922	376.69
398.147	416.69
398.371	397.69
398.595	383.69
398.82	394.69
399.044	384.69
399.268	387.69
399.492	390.69
399.717	434.69
399.941	436.69
400.165	461.69
400.389	478.69
400.613	447.69
400.837	406.69
401.062	406.69
401.286	412.69
401.51	393.69
401.734	388.69
401.958	376.69
402.182	407.69
402.406	410.69
402.63	410.69
402.854	395.69
403.078	406.69
403.302	396.69
403.526	424.69
403.75	419.69
403.974	394.69
404.198	400.69
404.422	411.69
404.645	418.69
404.869	425.69
405.093	436.69
405.317	468.69
405.541	491.69
405.765	468.69
405.988	438.69
406.212	456.69
406.436	451.69
406.66	444.69
406.883	458.69
407.107	476.69
407.331	511.69
407.555	541.69
407.778	547.69
408.002	524.69
408.226	466.69
408.449	460.69
408.673	453.69
408.896	471.69
409.12	508.69
409.344	464.69
409.567	453.69
409.791	434.69
410.014	413.69
410.238	394.69
410.461	406.69
410.685	406.69
410.908	423.69
411.132	459.69
411.355	484.69
411.578	474.69
411.802	427.69
412.025	410.69
412.249	407.69
412.472	440.69
412.695	454.69
412.919	478.69
413.142	410.69
413.365	408.69
413.589	374.69
413.812	382.69
414.035	402.69
414.258	407.69
414.482	389.69
414.705	381.69
414.928	375.69
415.151	366.69
415.374	373.69
415.597	367.69
415.821	371.69
416.044	392.69
416.267	374.69
416.49	380.69
416.713	382.69
416.936	378.69
417.159	380.69
417.382	396.69
417.605	395.69
417.828	399.69
418.051	420.69
418.274	403.69
418.497	391.69
418.72	404.69
418.943	387.69
419.166	374.69
419.389	401.69
419.611	415.69
419.834	412.69
420.057	399.69
420.28	401.69
420.503	405.69
420.726	407.69
420.948	439.69
421.171	463.69
421.394	480.69
421.617	439.69
421.839	403.69
422.062	407.69
422.285	431.69
422.507	471.69
422.73	550.69
422.953	534.69
423.175	436.69
423.398	436.69
423.621	424.69
423.843	446.69
424.066	461.69
424.288	460.69
424.511	469.69
424.733	515.69
424.956	588.69
425.178	560.69
425.401	528.69
425.623	553.69
425.846	487.69
426.068	459.69
426.291	437.69
426.513	439.69
426.735	482.69
426.958	491.69
427.18	574.69
427.402	652.69
427.625	764.69
427.847	687.69
428.069	595.69
428.292	501.69
428.514	442.69
428.736	439.69
428.958	411.69
429.181	424.69
429.403	414.69
429.625	418.69
429.847	454.69
430.069	511.69
430.292	504.69
430.514	432.69
430.736	400.69
430.958	408.69
431.18	384.69
431.402	395.69
431.624	388.69
431.846	394.69
432.068	375.69
432.29	404.69
432.512	402.69
432.734	382.69
432.956	398.69
433.178	408.69
433.4	409.69
433.622	395.69
433.844	400.69
434.066	389.69
434.287	379.69
434.509	374.69
434.731	393.69
434.953	410.69
435.175	431.69
435.397	446.69
435.618	456.69
435.84	472.69
436.062	576.69
436.284	634.69
436.505	548.69
436.727	487.69
436.949	426.69
437.17	424.69
437.392	418.69
437.614	425.69
437.835	478.69
438.057	558.69
438.278	648.69
438.5	631.69
438.721	694.69
438.943	647.69
439.165	533.69
439.386	486.69
439.608	483.69
439.829	486.69
440.05	507.69
440.272	534.69
440.493	534.69
440.715	472.69
440.936	439.69
441.158	430.69
441.379	434.69
441.6	438.69
441.822	448.69
442.043	495.69
442.264	571.69
442.486	615.69
442.707	534.69
442.928	474.69
443.149	491.69
443.371	501.69
443.592	512.69
443.813	625.69
444.034	642.69
444.255	513.69
444.476	465.69
444.698	428.69
444.919	436.69
445.14	545.69
445.361	526.69
445.582	494.69
445.803	572.69
446.024	652.69
446.245	669.69
446.466	603.69
446.687	518.69
446.908	454.69
447.129	445.69
447.35	410.69
447.571	414.69
447.792	416.69
448.013	440.69
448.234	446.69
448.455	498.69
448.675	619.69
448.896	676.69
449.117	605.69
449.338	560.69
449.559	677.69
449.779	711.69
450	586.69
450.221	485.69
450.442	460.69
450.662	433.69
450.883	425.69
451.104	435.69
451.324	437.69
451.545	390.69
451.766	399.69
451.986	405.69
452.207	379.69
452.428	372.69
452.648	376.69
452.869	382.69
453.089	404.69
453.31	418.69
453.53	393.69
453.751	383.69
453.971	396.69
454.192	420.69
454.412	384.69
454.633	393.69
454.853	344.69
455.073	386.69
455.294	414.69
455.514	484.69
455.734	486.69
455.955	387.69
456.175	362.69
456.395	356.69
456.616	348.69
456.836	343.69
457.056	345.69
457.276	335.69
457.497	353.69
457.717	336.69
457.937	335.69
458.157	362.69
458.377	360.69
458.598	395.69
458.818	454.69
459.038	537.69
459.258	526.69
459.478	456.69
459.698	419.69
459.918	386.69
460.138	360.69
460.358	380.69
460.578	376.69
460.798	393.69
461.018	378.69
461.238	378.69
461.458	375.69
461.678	368.69
461.898	384.69
462.118	355.69
462.338	386.69
462.558	378.69
462.777	381.69
462.997	385.69
463.217	376.69
463.437	374.69
463.657	392.69
463.876	399.69
464.096	384.69
464.316	416.69
464.536	400.69
464.755	406.69
464.975	422.69
465.195	467.69
465.414	534.69
465.634	458.69
465.854	427.69
466.073	412.69
466.293	387.69
466.512	368.69
466.732	378.69
466.951	371.69
467.171	356.69
467.391	366.69
467.61	380.69
467.829	407.69
468.049	394.69
468.268	384.69
468.488	363.69
468.707	372.69
468.927	363.69
469.146	366.69
469.365	369.69
469.585	358.69
469.804	369.69
470.023	394.69
470.243	387.69
470.462	394.69
470.681	400.69
470.901	414.69
471.12	395.69
471.339	369.69
471.558	372.69
471.777	372.69
471.997	360.69
472.216	375.69
472.435	395.69
472.654	406.69
472.873	376.69
473.092	367.69
473.311	375.69
473.53	387.69
473.749	395.69
473.968	431.69
474.187	544.69
474.406	552.69
474.625	451.69
474.844	400.69
475.063	403.69
475.282	394.69
475.501	395.69
475.72	401.69
475.939	389.69
476.158	392.69
476.377	391.69
476.596	399.69
476.814	404.69
477.033	403.69
477.252	413.69
477.471	404.69
477.69	395.69
477.908	390.69
478.127	400.69
478.346	392.69
478.564	415.69
478.783	402.69
479.002	414.69
479.22	436.69
479.439	424.69
479.658	442.69
479.876	454.69
480.095	471.69
480.313	489.69
480.532	474.69
480.751	465.69
480.969	495.69
481.188	546.69
481.406	578.69
481.624	522.69
481.843	465.69
482.061	450.69
482.28	475.69
482.498	458.69
482.717	436.69
482.935	440.69
483.153	432.69
483.372	450.69
483.59	469.69
483.808	440.69
484.027	457.69
484.245	448.69
484.463	461.69
484.681	472.69
484.9	462.69
485.118	455.69
485.336	458.69
485.554	454.69
485.772	466.69
485.99	454.69
486.209	470.69
486.427	481.69
486.645	476.69
486.863	463.69
487.081	511.69
487.299	470.69
487.517	462.69
487.735	501.69
487.953	485.69
488.171	474.69
488.389	489.69
488.607	489.69
488.825	474.69
489.043	480.69
489.261	479.69
489.479	484.69
489.696	498.69
489.914	488.69
490.132	512.69
490.35	511.69
490.568	529.69
490.786	513.69
491.003	536.69
491.221	531.69
491.439	531.69
491.657	551.69
491.874	550.69
492.092	557.69
492.31	555.69
492.527	548.69
492.745	550.69
492.963	570.69
493.18	564.69
493.398	567.69
493.615	566.69
493.833	559.69
494.05	564.69
494.268	568.69
494.485	578.69
494.703	555.69
494.92	549.69
495.138	583.69
495.355	564.69
495.573	576.69
495.79	594.69
496.008	589.69
496.225	593.69
496.442	574.69
496.66	554.69
496.877	568.69
497.094	563.69
497.312	581.69
497.529	602.69
497.746	569.69
497.963	593.69
498.181	625.69
498.398	619.69
498.615	609.69
498.832	614.69
499.049	614.69
499.267	622.69
499.484	603.69
499.701	633.69
499.918	650.69
500.135	688.69
500.352	698.69
500.569	689.69
500.786	696.69
501.003	708.69
501.22	688.69
501.437	688.69
501.654	693.69
501.871	692.69
502.088	676.69
