Data from 1981.PennyLincolnUp.Lamp.En5.5.200Scan.071819.P1_HRD10591_16-41-54-959.txt Node
Date: Thu Jul 18 16:41:54 EDT 2019
User: cochatt
Spectrometer: HR+D1059
Trigger mode: 1
Integration Time (sec): 1.000000E-1
Scans to average: 1
Electric dark correction enabled: true
Nonlinearity correction enabled: false
Boxcar width: 0
XAxis mode: Wavelengths
Number of Pixels in Spectrum: 2048
>>>>>Begin Spectral Data<<<<<
223.165	-9.62
223.4	-9.62
223.635	-9.62
223.869	-24.62
224.104	-12.62
224.338	-13.62
224.573	-16.62
224.808	-1.62
225.042	-12.62
225.277	-10.62
225.511	-4.62
225.746	8.38
225.98	13.38
226.215	7.38
226.449	19.38
226.683	14.38
226.918	12.38
227.152	31.38
227.387	19.38
227.621	36.38
227.856	29.38
228.09	43.38
228.324	36.38
228.559	62.38
228.793	73.38
229.027	97.38
229.262	102.38
229.496	111.38
229.73	119.38
229.964	144.38
230.199	112.38
230.433	105.38
230.667	107.38
230.901	102.38
231.136	108.38
231.37	119.38
231.604	98.38
231.838	123.38
232.072	110.38
232.306	108.38
232.541	114.38
232.775	114.38
233.009	107.38
233.243	115.38
233.477	113.38
233.711	126.38
233.945	112.38
234.179	106.38
234.413	114.38
234.647	120.38
234.881	135.38
235.115	122.38
235.349	98.38
235.583	112.38
235.817	121.38
236.051	126.38
236.285	130.38
236.519	115.38
236.753	133.38
236.987	138.38
237.221	200.38
237.455	235.38
237.689	197.38
237.922	161.38
238.156	136.38
238.39	118.38
238.624	132.38
238.858	124.38
239.091	126.38
239.325	128.38
239.559	128.38
239.793	128.38
240.027	132.38
240.26	147.38
240.494	163.38
240.728	143.38
240.961	146.38
241.195	152.38
241.429	136.38
241.662	145.38
241.896	138.38
242.13	125.38
242.363	129.38
242.597	129.38
242.83	143.38
243.064	134.38
243.298	142.38
243.531	129.38
243.765	138.38
243.998	146.38
244.232	143.38
244.465	128.38
244.699	154.38
244.932	138.38
245.166	153.38
245.399	156.38
245.633	134.38
245.866	151.38
246.099	131.38
246.333	148.38
246.566	150.38
246.8	149.38
247.033	162.38
247.266	162.38
247.5	158.38
247.733	156.38
247.966	163.38
248.2	186.38
248.433	162.38
248.666	175.38
248.899	185.38
249.133	220.38
249.366	214.38
249.599	188.38
249.832	195.38
250.066	204.38
250.299	176.38
250.532	203.38
250.765	214.38
250.998	226.38
251.231	243.38
251.465	229.38
251.698	208.38
251.931	198.38
252.164	199.38
252.397	210.38
252.63	211.38
252.863	213.38
253.096	215.38
253.329	232.38
253.562	225.38
253.795	241.38
254.028	228.38
254.261	230.38
254.494	239.38
254.727	266.38
254.96	283.38
255.193	275.38
255.426	258.38
255.659	244.38
255.892	230.38
256.124	242.38
256.357	247.38
256.59	243.38
256.823	241.38
257.056	211.38
257.289	221.38
257.521	221.38
257.754	222.38
257.987	203.38
258.22	218.38
258.452	212.38
258.685	218.38
258.918	207.38
259.151	225.38
259.383	222.38
259.616	226.38
259.849	228.38
260.081	244.38
260.314	259.38
260.547	276.38
260.779	256.38
261.012	232.38
261.244	230.38
261.477	235.38
261.71	230.38
261.942	235.38
262.175	230.38
262.407	246.38
262.64	228.38
262.872	222.38
263.105	220.38
263.337	215.38
263.57	223.38
263.802	200.38
264.035	213.38
264.267	215.38
264.499	215.38
264.732	228.38
264.964	215.38
265.197	204.38
265.429	224.38
265.661	212.38
265.894	223.38
266.126	216.38
266.358	212.38
266.591	223.38
266.823	242.38
267.055	231.38
267.287	234.38
267.52	217.38
267.752	231.38
267.984	231.38
268.216	241.38
268.448	242.38
268.681	244.38
268.913	275.38
269.145	258.38
269.377	270.38
269.609	291.38
269.841	268.38
270.073	304.38
270.306	313.38
270.538	334.38
270.77	322.38
271.002	310.38
271.234	325.38
271.466	330.38
271.698	338.38
271.93	347.38
272.162	330.38
272.394	331.38
272.626	323.38
272.858	307.38
273.09	309.38
273.322	291.38
273.553	289.38
273.785	262.38
274.017	289.38
274.249	295.38
274.481	282.38
274.713	274.38
274.945	292.38
275.176	274.38
275.408	274.38
275.64	263.38
275.872	297.38
276.104	277.38
276.335	270.38
276.567	288.38
276.799	303.38
277.031	310.38
277.262	327.38
277.494	327.38
277.726	329.38
277.957	309.38
278.189	298.38
278.421	299.38
278.652	275.38
278.884	276.38
279.115	266.38
279.347	284.38
279.579	259.38
279.81	266.38
280.042	268.38
280.273	255.38
280.505	283.38
280.736	268.38
280.968	251.38
281.199	289.38
281.431	274.38
281.662	271.38
281.894	280.38
282.125	277.38
282.356	283.38
282.588	300.38
282.819	321.38
283.051	274.38
283.282	279.38
283.513	282.38
283.745	270.38
283.976	292.38
284.207	294.38
284.439	287.38
284.67	290.38
284.901	278.38
285.132	280.38
285.364	283.38
285.595	274.38
285.826	289.38
286.057	299.38
286.288	277.38
286.52	274.38
286.751	282.38
286.982	262.38
287.213	290.38
287.444	274.38
287.675	297.38
287.906	306.38
288.138	312.38
288.369	306.38
288.6	304.38
288.831	291.38
289.062	306.38
289.293	305.38
289.524	283.38
289.755	268.38
289.986	292.38
290.217	282.38
290.448	280.38
290.679	273.38
290.91	290.38
291.141	296.38
291.371	289.38
291.602	274.38
291.833	286.38
292.064	295.38
292.295	286.38
292.526	289.38
292.757	278.38
292.987	289.38
293.218	287.38
293.449	282.38
293.68	299.38
293.91	282.38
294.141	300.38
294.372	307.38
294.603	292.38
294.833	302.38
295.064	280.38
295.295	275.38
295.525	276.38
295.756	298.38
295.987	295.38
296.217	330.38
296.448	338.38
296.679	314.38
296.909	296.38
297.14	310.38
297.37	299.38
297.601	301.38
297.831	293.38
298.062	316.38
298.292	292.38
298.523	308.38
298.753	318.38
298.984	313.38
299.214	288.38
299.445	294.38
299.675	300.38
299.905	318.38
300.136	309.38
300.366	319.38
300.597	329.38
300.827	307.38
301.057	327.38
301.288	325.38
301.518	324.38
301.748	303.38
301.979	307.38
302.209	319.38
302.439	326.38
302.669	328.38
302.9	328.38
303.13	321.38
303.36	321.38
303.59	299.38
303.82	332.38
304.051	321.38
304.281	332.38
304.511	329.38
304.741	315.38
304.971	305.38
305.201	332.38
305.431	323.38
305.661	346.38
305.891	328.38
306.121	334.38
306.352	357.38
306.582	341.38
306.812	337.38
307.042	346.38
307.272	331.38
307.502	333.38
307.731	335.38
307.961	337.38
308.191	320.38
308.421	323.38
308.651	330.38
308.881	338.38
309.111	323.38
309.341	356.38
309.571	366.38
309.8	359.38
310.03	362.38
310.26	389.38
310.49	382.38
310.72	383.38
310.949	401.38
311.179	408.38
311.409	384.38
311.639	392.38
311.868	394.38
312.098	394.38
312.328	416.38
312.557	407.38
312.787	431.38
313.017	412.38
313.246	398.38
313.476	380.38
313.706	392.38
313.935	394.38
314.165	407.38
314.394	418.38
314.624	402.38
314.853	386.38
315.083	375.38
315.312	392.38
315.542	380.38
315.771	377.38
316.001	374.38
316.23	391.38
316.46	384.38
316.689	371.38
316.919	407.38
317.148	404.38
317.377	397.38
317.607	394.38
317.836	384.38
318.065	379.38
318.295	386.38
318.524	382.38
318.753	378.38
318.983	379.38
319.212	373.38
319.441	384.38
319.67	406.38
319.9	376.38
320.129	396.38
320.358	377.38
320.587	375.38
320.816	395.38
321.046	406.38
321.275	418.38
321.504	412.38
321.733	418.38
321.962	437.38
322.191	449.38
322.42	450.38
322.649	470.38
322.878	489.38
323.108	497.38
323.337	510.38
323.566	562.38
323.795	604.38
324.024	650.38
324.253	793.38
324.482	1147.38
324.71	1804.38
324.939	2468.38
325.168	2083.38
325.397	1087.38
325.626	737.38
325.855	604.38
326.084	553.38
326.313	558.38
326.542	571.38
326.77	612.38
326.999	732.38
327.228	1002.38
327.457	1546.38
327.686	1776.38
327.914	1170.38
328.143	815.38
328.372	692.38
328.6	640.38
328.829	634.38
329.058	615.38
329.287	645.38
329.515	579.38
329.744	555.38
329.972	544.38
330.201	551.38
330.43	611.38
330.658	636.38
330.887	672.38
331.115	637.38
331.344	544.38
331.572	496.38
331.801	522.38
332.03	503.38
332.258	487.38
332.486	459.38
332.715	447.38
332.943	462.38
333.172	441.38
333.4	452.38
333.629	465.38
333.857	474.38
334.085	487.38
334.314	475.38
334.542	523.38
334.771	535.38
334.999	510.38
335.227	468.38
335.455	463.38
335.684	445.38
335.912	447.38
336.14	443.38
336.369	442.38
336.597	452.38
336.825	463.38
337.053	434.38
337.281	435.38
337.51	423.38
337.738	445.38
337.966	428.38
338.194	424.38
338.422	457.38
338.65	438.38
338.878	427.38
339.106	423.38
339.334	420.38
339.562	410.38
339.79	434.38
340.018	427.38
340.246	425.38
340.474	436.38
340.702	438.38
340.93	414.38
341.158	425.38
341.386	416.38
341.614	415.38
341.842	417.38
342.07	421.38
342.298	423.38
342.526	403.38
342.754	397.38
342.981	405.38
343.209	402.38
343.437	394.38
343.665	417.38
343.893	430.38
344.12	394.38
344.348	417.38
344.576	405.38
344.804	441.38
345.031	427.38
345.259	457.38
345.487	426.38
345.714	425.38
345.942	442.38
346.17	409.38
346.397	412.38
346.625	414.38
346.853	402.38
347.08	410.38
347.308	414.38
347.535	436.38
347.763	410.38
347.99	432.38
348.218	416.38
348.445	415.38
348.673	441.38
348.9	388.38
349.128	381.38
349.355	379.38
349.583	390.38
349.81	385.38
350.037	378.38
350.265	384.38
350.492	390.38
350.72	379.38
350.947	388.38
351.174	416.38
351.402	403.38
351.629	406.38
351.856	404.38
352.083	426.38
352.311	427.38
352.538	422.38
352.765	432.38
352.992	415.38
353.22	406.38
353.447	402.38
353.674	410.38
353.901	368.38
354.128	396.38
354.355	367.38
354.583	374.38
354.81	383.38
355.037	366.38
355.264	364.38
355.491	374.38
355.718	370.38
355.945	363.38
356.172	382.38
356.399	361.38
356.626	360.38
356.853	366.38
357.08	371.38
357.307	364.38
357.534	367.38
357.761	370.38
357.988	365.38
358.215	370.38
358.441	349.38
358.668	339.38
358.895	373.38
359.122	384.38
359.349	386.38
359.576	394.38
359.802	420.38
360.029	430.38
360.256	478.38
360.483	433.38
360.709	407.38
360.936	403.38
361.163	388.38
361.39	394.38
361.616	385.38
361.843	392.38
362.07	384.38
362.296	404.38
362.523	402.38
362.749	386.38
362.976	374.38
363.203	377.38
363.429	378.38
363.656	376.38
363.882	370.38
364.109	385.38
364.335	363.38
364.562	364.38
364.788	365.38
365.015	354.38
365.241	369.38
365.468	366.38
365.694	387.38
365.92	375.38
366.147	367.38
366.373	375.38
366.599	364.38
366.826	376.38
367.052	354.38
367.278	366.38
367.505	353.38
367.731	360.38
367.957	365.38
368.184	362.38
368.41	382.38
368.636	377.38
368.862	378.38
369.089	374.38
369.315	356.38
369.541	332.38
369.767	324.38
369.993	360.38
370.219	348.38
370.445	366.38
370.672	359.38
370.898	366.38
371.124	356.38
371.35	368.38
371.576	353.38
371.802	352.38
372.028	359.38
372.254	373.38
372.48	354.38
372.706	359.38
372.932	369.38
373.158	376.38
373.384	362.38
373.61	374.38
373.835	354.38
374.061	338.38
374.287	375.38
374.513	368.38
374.739	358.38
374.965	368.38
375.191	369.38
375.416	367.38
375.642	360.38
375.868	356.38
376.094	378.38
376.319	349.38
376.545	354.38
376.771	353.38
376.997	341.38
377.222	342.38
377.448	355.38
377.674	357.38
377.899	334.38
378.125	326.38
378.35	345.38
378.576	349.38
378.802	350.38
379.027	344.38
379.253	348.38
379.478	374.38
379.704	353.38
379.929	345.38
380.155	339.38
380.38	361.38
380.606	328.38
380.831	349.38
381.057	351.38
381.282	340.38
381.507	356.38
381.733	345.38
381.958	358.38
382.184	367.38
382.409	376.38
382.634	356.38
382.86	356.38
383.085	340.38
383.31	341.38
383.535	358.38
383.761	353.38
383.986	355.38
384.211	356.38
384.436	361.38
384.662	370.38
384.887	376.38
385.112	358.38
385.337	366.38
385.562	362.38
385.787	370.38
386.013	379.38
386.238	369.38
386.463	385.38
386.688	373.38
386.913	377.38
387.138	376.38
387.363	364.38
387.588	368.38
387.813	374.38
388.038	351.38
388.263	358.38
388.488	363.38
388.713	372.38
388.938	370.38
389.163	382.38
389.387	368.38
389.612	375.38
389.837	364.38
390.062	367.38
390.287	362.38
390.512	345.38
390.736	361.38
390.961	366.38
391.186	374.38
391.411	372.38
391.636	365.38
391.86	369.38
392.085	361.38
392.31	366.38
392.534	370.38
392.759	380.38
392.984	366.38
393.208	356.38
393.433	376.38
393.658	376.38
393.882	369.38
394.107	351.38
394.331	354.38
394.556	355.38
394.78	361.38
395.005	348.38
395.229	353.38
395.454	371.38
395.678	375.38
395.903	396.38
396.127	409.38
396.352	406.38
396.576	376.38
396.801	368.38
397.025	363.38
397.249	374.38
397.474	368.38
397.698	386.38
397.922	394.38
398.147	418.38
398.371	404.38
398.595	390.38
398.82	382.38
399.044	416.38
399.268	417.38
399.492	445.38
399.717	452.38
399.941	466.38
400.165	502.38
400.389	504.38
400.613	455.38
400.837	430.38
401.062	413.38
401.286	402.38
401.51	418.38
401.734	407.38
401.958	402.38
402.182	417.38
402.406	421.38
402.63	448.38
402.854	408.38
403.078	417.38
403.302	412.38
403.526	430.38
403.75	441.38
403.974	420.38
404.198	418.38
404.422	432.38
404.645	432.38
404.869	419.38
405.093	452.38
405.317	484.38
405.541	531.38
405.765	466.38
405.988	460.38
406.212	447.38
406.436	482.38
406.66	470.38
406.883	468.38
407.107	479.38
407.331	516.38
407.555	568.38
407.778	566.38
408.002	500.38
408.226	508.38
408.449	468.38
408.673	472.38
408.896	485.38
409.12	538.38
409.344	495.38
409.567	455.38
409.791	428.38
410.014	411.38
410.238	414.38
410.461	422.38
410.685	431.38
410.908	448.38
411.132	494.38
411.355	517.38
411.578	474.38
411.802	451.38
412.025	424.38
412.249	445.38
412.472	448.38
412.695	460.38
412.919	473.38
413.142	432.38
413.365	419.38
413.589	423.38
413.812	392.38
414.035	424.38
414.258	403.38
414.482	397.38
414.705	390.38
414.928	388.38
415.151	383.38
415.374	386.38
415.597	396.38
415.821	387.38
416.044	386.38
416.267	411.38
416.49	372.38
416.713	399.38
416.936	384.38
417.159	394.38
417.382	400.38
417.605	398.38
417.828	417.38
418.051	427.38
418.274	427.38
418.497	389.38
418.72	390.38
418.943	414.38
419.166	392.38
419.389	430.38
419.611	416.38
419.834	425.38
420.057	432.38
420.28	426.38
420.503	419.38
420.726	441.38
420.948	450.38
421.171	482.38
421.394	514.38
421.617	448.38
421.839	405.38
422.062	432.38
422.285	450.38
422.507	503.38
422.73	551.38
422.953	554.38
423.175	466.38
423.398	453.38
423.621	430.38
423.843	452.38
424.066	459.38
424.288	455.38
424.511	464.38
424.733	547.38
424.956	607.38
425.178	582.38
425.401	570.38
425.623	605.38
425.846	517.38
426.068	484.38
426.291	456.38
426.513	452.38
426.735	488.38
426.958	520.38
427.18	608.38
427.402	709.38
427.625	776.38
427.847	670.38
428.069	585.38
428.292	526.38
428.514	476.38
428.736	452.38
428.958	422.38
429.181	437.38
429.403	428.38
429.625	440.38
429.847	453.38
430.069	526.38
430.292	549.38
430.514	464.38
430.736	434.38
430.958	409.38
431.18	407.38
431.402	402.38
431.624	410.38
431.846	401.38
432.068	389.38
432.29	412.38
432.512	394.38
432.734	414.38
432.956	406.38
433.178	408.38
433.4	414.38
433.622	405.38
433.844	394.38
434.066	405.38
434.287	394.38
434.509	426.38
434.731	403.38
434.953	446.38
435.175	424.38
435.397	463.38
435.618	478.38
435.84	504.38
436.062	587.38
436.284	661.38
436.505	561.38
436.727	480.38
436.949	465.38
437.17	456.38
437.392	430.38
437.614	441.38
437.835	510.38
438.057	577.38
438.278	659.38
438.5	656.38
438.721	716.38
438.943	664.38
439.165	536.38
439.386	505.38
439.608	462.38
439.829	478.38
440.05	503.38
440.272	558.38
440.493	518.38
440.715	467.38
440.936	457.38
441.158	438.38
441.379	440.38
441.6	434.38
441.822	467.38
442.043	519.38
442.264	580.38
442.486	618.38
442.707	525.38
442.928	491.38
443.149	472.38
443.371	524.38
443.592	549.38
443.813	642.38
444.034	674.38
444.255	542.38
444.476	468.38
444.698	459.38
444.919	447.38
445.14	598.38
445.361	536.38
445.582	524.38
445.803	579.38
446.024	677.38
446.245	686.38
446.466	597.38
446.687	512.38
446.908	461.38
447.129	467.38
447.35	427.38
447.571	428.38
447.792	417.38
448.013	434.38
448.234	449.38
448.455	519.38
448.675	593.38
448.896	672.38
449.117	602.38
449.338	572.38
449.559	640.38
449.779	706.38
450	612.38
450.221	487.38
450.442	462.38
450.662	432.38
450.883	442.38
451.104	460.38
451.324	441.38
451.545	419.38
451.766	418.38
451.986	390.38
452.207	392.38
452.428	398.38
452.648	402.38
452.869	387.38
453.089	430.38
453.31	416.38
453.53	388.38
453.751	402.38
453.971	389.38
454.192	430.38
454.412	426.38
454.633	402.38
454.853	385.38
455.073	378.38
455.294	409.38
455.514	489.38
455.734	453.38
455.955	394.38
456.175	379.38
456.395	370.38
456.616	373.38
456.836	377.38
457.056	357.38
457.276	360.38
457.497	372.38
457.717	353.38
457.937	360.38
458.157	381.38
458.377	373.38
458.598	394.38
458.818	467.38
459.038	519.38
459.258	566.38
459.478	473.38
459.698	406.38
459.918	395.38
460.138	396.38
460.358	399.38
460.578	392.38
460.798	367.38
461.018	408.38
461.238	385.38
461.458	382.38
461.678	385.38
461.898	406.38
462.118	391.38
462.338	395.38
462.558	388.38
462.777	379.38
462.997	395.38
463.217	405.38
463.437	427.38
463.657	402.38
463.876	394.38
464.096	409.38
464.316	412.38
464.536	417.38
464.755	421.38
464.975	436.38
465.195	485.38
465.414	554.38
465.634	476.38
465.854	427.38
466.073	420.38
466.293	408.38
466.512	387.38
466.732	393.38
466.951	399.38
467.171	376.38
467.391	403.38
467.61	400.38
467.829	373.38
468.049	396.38
468.268	389.38
468.488	395.38
468.707	379.38
468.927	379.38
469.146	362.38
469.365	390.38
469.585	365.38
469.804	383.38
470.023	396.38
470.243	375.38
470.462	390.38
470.681	411.38
470.901	413.38
471.12	400.38
471.339	378.38
471.558	402.38
471.777	389.38
471.997	394.38
472.216	403.38
472.435	439.38
472.654	422.38
472.873	402.38
473.092	386.38
473.311	373.38
473.53	390.38
473.749	414.38
473.968	460.38
474.187	552.38
474.406	564.38
474.625	451.38
474.844	427.38
475.063	383.38
475.282	390.38
475.501	395.38
475.72	430.38
475.939	406.38
476.158	397.38
476.377	404.38
476.596	412.38
476.814	421.38
477.033	410.38
477.252	420.38
477.471	434.38
477.69	426.38
477.908	416.38
478.127	413.38
478.346	417.38
478.564	446.38
478.783	448.38
479.002	437.38
479.22	442.38
479.439	479.38
479.658	483.38
479.876	473.38
480.095	496.38
480.313	531.38
480.532	504.38
480.751	481.38
480.969	486.38
481.188	538.38
481.406	577.38
481.624	512.38
481.843	476.38
482.061	467.38
482.28	449.38
482.498	449.38
482.717	447.38
482.935	451.38
483.153	439.38
483.372	458.38
483.59	462.38
483.808	447.38
484.027	457.38
484.245	471.38
484.463	470.38
484.681	452.38
484.9	447.38
485.118	458.38
485.336	460.38
485.554	490.38
485.772	491.38
485.99	468.38
486.209	487.38
486.427	459.38
486.645	504.38
486.863	534.38
487.081	485.38
487.299	507.38
487.517	491.38
487.735	498.38
487.953	491.38
488.171	474.38
488.389	499.38
488.607	500.38
488.825	496.38
489.043	501.38
489.261	514.38
489.479	502.38
489.696	489.38
489.914	503.38
490.132	529.38
490.35	534.38
490.568	516.38
490.786	510.38
491.003	545.38
491.221	552.38
491.439	560.38
491.657	549.38
491.874	560.38
492.092	570.38
492.31	538.38
492.527	582.38
492.745	586.38
492.963	583.38
493.18	586.38
493.398	587.38
493.615	580.38
493.833	587.38
494.05	575.38
494.268	590.38
494.485	595.38
494.703	598.38
494.92	600.38
495.138	577.38
495.355	575.38
495.573	608.38
495.79	590.38
496.008	614.38
496.225	619.38
496.442	578.38
496.66	580.38
496.877	594.38
497.094	578.38
497.312	613.38
497.529	607.38
497.746	611.38
497.963	655.38
498.181	637.38
498.398	615.38
498.615	647.38
498.832	662.38
499.049	642.38
499.267	656.38
499.484	667.38
499.701	642.38
499.918	696.38
500.135	684.38
500.352	700.38
500.569	738.38
500.786	723.38
501.003	737.38
501.22	707.38
501.437	715.38
501.654	718.38
501.871	712.38
