Data from 1981.PennyLincolnUp.Lamp.En5.5.200Scan.071819.P1_HRD10591_16-43-08-960.txt Node
Date: Thu Jul 18 16:43:08 EDT 2019
User: cochatt
Spectrometer: HR+D1059
Trigger mode: 1
Integration Time (sec): 1.000000E-1
Scans to average: 1
Electric dark correction enabled: true
Nonlinearity correction enabled: false
Boxcar width: 0
XAxis mode: Wavelengths
Number of Pixels in Spectrum: 2048
>>>>>Begin Spectral Data<<<<<
223.165	-13.44
223.4	-13.44
223.635	-13.44
223.869	-9.44
224.104	-20.44
224.338	-15.44
224.573	-3.44
224.808	-12.44
225.042	0.56
225.277	-6.44
225.511	-11.44
225.746	7.56
225.98	-5.44
226.215	-5.44
226.449	24.56
226.683	22.56
226.918	29.56
227.152	18.56
227.387	26.56
227.621	26.56
227.856	38.56
228.09	42.56
228.324	62.56
228.559	43.56
228.793	59.56
229.027	80.56
229.262	97.56
229.496	111.56
229.73	126.56
229.964	162.56
230.199	124.56
230.433	117.56
230.667	93.56
230.901	130.56
231.136	124.56
231.37	114.56
231.604	97.56
231.838	98.56
232.072	122.56
232.306	114.56
232.541	111.56
232.775	114.56
233.009	122.56
233.243	104.56
233.477	116.56
233.711	106.56
233.945	114.56
234.179	110.56
234.413	107.56
234.647	130.56
234.881	107.56
235.115	94.56
235.349	105.56
235.583	114.56
235.817	125.56
236.051	131.56
236.285	119.56
236.519	114.56
236.753	151.56
236.987	130.56
237.221	192.56
237.455	232.56
237.689	188.56
237.922	138.56
238.156	130.56
238.39	135.56
238.624	128.56
238.858	131.56
239.091	133.56
239.325	116.56
239.559	125.56
239.793	122.56
240.027	150.56
240.26	134.56
240.494	155.56
240.728	134.56
240.961	146.56
241.195	148.56
241.429	134.56
241.662	130.56
241.896	136.56
242.13	132.56
242.363	131.56
242.597	128.56
242.83	149.56
243.064	131.56
243.298	138.56
243.531	139.56
243.765	150.56
243.998	134.56
244.232	132.56
244.465	143.56
244.699	141.56
244.932	141.56
245.166	154.56
245.399	147.56
245.633	149.56
245.866	154.56
246.099	152.56
246.333	154.56
246.566	144.56
246.8	142.56
247.033	159.56
247.266	150.56
247.5	148.56
247.733	158.56
247.966	178.56
248.2	164.56
248.433	153.56
248.666	190.56
248.899	208.56
249.133	209.56
249.366	212.56
249.599	217.56
249.832	198.56
250.066	188.56
250.299	190.56
250.532	203.56
250.765	214.56
250.998	230.56
251.231	231.56
251.465	209.56
251.698	230.56
251.931	231.56
252.164	206.56
252.397	208.56
252.63	206.56
252.863	216.56
253.096	215.56
253.329	239.56
253.562	224.56
253.795	223.56
254.028	225.56
254.261	239.56
254.494	255.56
254.727	282.56
254.96	315.56
255.193	295.56
255.426	283.56
255.659	253.56
255.892	246.56
256.124	260.56
256.357	234.56
256.59	231.56
256.823	242.56
257.056	241.56
257.289	226.56
257.521	227.56
257.754	235.56
257.987	225.56
258.22	215.56
258.452	210.56
258.685	209.56
258.918	231.56
259.151	229.56
259.383	231.56
259.616	219.56
259.849	234.56
260.081	256.56
260.314	282.56
260.547	273.56
260.779	256.56
261.012	238.56
261.244	255.56
261.477	240.56
261.71	239.56
261.942	241.56
262.175	271.56
262.407	243.56
262.64	237.56
262.872	227.56
263.105	211.56
263.337	208.56
263.57	216.56
263.802	222.56
264.035	222.56
264.267	223.56
264.499	215.56
264.732	217.56
264.964	216.56
265.197	214.56
265.429	229.56
265.661	228.56
265.894	219.56
266.126	227.56
266.358	240.56
266.591	242.56
266.823	243.56
267.055	240.56
267.287	252.56
267.52	227.56
267.752	242.56
267.984	223.56
268.216	229.56
268.448	266.56
268.681	276.56
268.913	267.56
269.145	288.56
269.377	287.56
269.609	284.56
269.841	287.56
270.073	273.56
270.306	311.56
270.538	328.56
270.77	349.56
271.002	343.56
271.234	295.56
271.466	319.56
271.698	360.56
271.93	353.56
272.162	372.56
272.394	366.56
272.626	339.56
272.858	324.56
273.09	297.56
273.322	312.56
273.553	292.56
273.785	296.56
274.017	282.56
274.249	274.56
274.481	262.56
274.713	289.56
274.945	282.56
275.176	274.56
275.408	278.56
275.64	299.56
275.872	267.56
276.104	293.56
276.335	282.56
276.567	302.56
276.799	286.56
277.031	327.56
277.262	336.56
277.494	352.56
277.726	333.56
277.957	305.56
278.189	290.56
278.421	295.56
278.652	268.56
278.884	280.56
279.115	279.56
279.347	272.56
279.579	262.56
279.81	274.56
280.042	276.56
280.273	285.56
280.505	270.56
280.736	267.56
280.968	290.56
281.199	273.56
281.431	289.56
281.662	288.56
281.894	267.56
282.125	286.56
282.356	290.56
282.588	340.56
282.819	322.56
283.051	289.56
283.282	264.56
283.513	276.56
283.745	275.56
283.976	299.56
284.207	289.56
284.439	276.56
284.67	284.56
284.901	273.56
285.132	283.56
285.364	282.56
285.595	291.56
285.826	290.56
286.057	265.56
286.288	273.56
286.52	277.56
286.751	305.56
286.982	298.56
287.213	284.56
287.444	297.56
287.675	290.56
287.906	304.56
288.138	308.56
288.369	314.56
288.6	308.56
288.831	295.56
289.062	324.56
289.293	300.56
289.524	276.56
289.755	302.56
289.986	268.56
290.217	300.56
290.448	274.56
290.679	292.56
290.91	296.56
291.141	279.56
291.371	288.56
291.602	291.56
291.833	287.56
292.064	294.56
292.295	275.56
292.526	321.56
292.757	292.56
292.987	302.56
293.218	302.56
293.449	308.56
293.68	307.56
293.91	298.56
294.141	300.56
294.372	286.56
294.603	298.56
294.833	306.56
295.064	286.56
295.295	293.56
295.525	313.56
295.756	307.56
295.987	306.56
296.217	340.56
296.448	353.56
296.679	315.56
296.909	293.56
297.14	292.56
297.37	296.56
297.601	306.56
297.831	296.56
298.062	286.56
298.292	307.56
298.523	315.56
298.753	302.56
298.984	290.56
299.214	322.56
299.445	326.56
299.675	316.56
299.905	335.56
300.136	332.56
300.366	313.56
300.597	310.56
300.827	325.56
301.057	319.56
301.288	349.56
301.518	331.56
301.748	315.56
301.979	330.56
302.209	318.56
302.439	328.56
302.669	335.56
302.9	321.56
303.13	330.56
303.36	316.56
303.59	335.56
303.82	327.56
304.051	342.56
304.281	343.56
304.511	333.56
304.741	341.56
304.971	338.56
305.201	327.56
305.431	335.56
305.661	320.56
305.891	303.56
306.121	347.56
306.352	335.56
306.582	342.56
306.812	354.56
307.042	348.56
307.272	346.56
307.502	327.56
307.731	338.56
307.961	349.56
308.191	350.56
308.421	346.56
308.651	332.56
308.881	334.56
309.111	343.56
309.341	374.56
309.571	384.56
309.8	382.56
310.03	397.56
310.26	397.56
310.49	383.56
310.72	405.56
310.949	398.56
311.179	447.56
311.409	391.56
311.639	406.56
311.868	400.56
312.098	405.56
312.328	411.56
312.557	417.56
312.787	436.56
313.017	434.56
313.246	427.56
313.476	388.56
313.706	408.56
313.935	396.56
314.165	435.56
314.394	426.56
314.624	396.56
314.853	406.56
315.083	388.56
315.312	387.56
315.542	387.56
315.771	386.56
316.001	381.56
316.23	385.56
316.46	382.56
316.689	370.56
316.919	402.56
317.148	402.56
317.377	407.56
317.607	403.56
317.836	414.56
318.065	396.56
318.295	380.56
318.524	391.56
318.753	394.56
318.983	414.56
319.212	402.56
319.441	400.56
319.67	392.56
319.9	418.56
320.129	402.56
320.358	393.56
320.587	395.56
320.816	427.56
321.046	412.56
321.275	437.56
321.504	422.56
321.733	431.56
321.962	443.56
322.191	448.56
322.42	495.56
322.649	471.56
322.878	498.56
323.108	489.56
323.337	535.56
323.566	573.56
323.795	621.56
324.024	673.56
324.253	844.56
324.482	1248.56
324.71	1868.56
324.939	2600.56
325.168	2196.56
325.397	1136.56
325.626	740.56
325.855	641.56
326.084	599.56
326.313	562.56
326.542	592.56
326.77	637.56
326.999	786.56
327.228	1091.56
327.457	1632.56
327.686	1912.56
327.914	1282.56
328.143	834.56
328.372	717.56
328.6	671.56
328.829	643.56
329.058	657.56
329.287	683.56
329.515	607.56
329.744	562.56
329.972	560.56
330.201	566.56
330.43	628.56
330.658	668.56
330.887	673.56
331.115	651.56
331.344	579.56
331.572	530.56
331.801	530.56
332.03	527.56
332.258	526.56
332.486	482.56
332.715	456.56
332.943	459.56
333.172	475.56
333.4	475.56
333.629	485.56
333.857	471.56
334.085	487.56
334.314	517.56
334.542	552.56
334.771	532.56
334.999	498.56
335.227	496.56
335.455	441.56
335.684	460.56
335.912	451.56
336.14	458.56
336.369	450.56
336.597	443.56
336.825	447.56
337.053	435.56
337.281	428.56
337.51	432.56
337.738	449.56
337.966	437.56
338.194	439.56
338.422	435.56
338.65	441.56
338.878	409.56
339.106	425.56
339.334	417.56
339.562	425.56
339.79	438.56
340.018	431.56
340.246	430.56
340.474	438.56
340.702	432.56
340.93	435.56
341.158	426.56
341.386	434.56
341.614	453.56
341.842	438.56
342.07	435.56
342.298	407.56
342.526	420.56
342.754	414.56
342.981	408.56
343.209	411.56
343.437	416.56
343.665	403.56
343.893	416.56
344.12	442.56
344.348	436.56
344.576	417.56
344.804	438.56
345.031	427.56
345.259	485.56
345.487	450.56
345.714	447.56
345.942	419.56
346.17	436.56
346.397	418.56
346.625	411.56
346.853	414.56
347.08	422.56
347.308	420.56
347.535	435.56
347.763	411.56
347.99	446.56
348.218	433.56
348.445	440.56
348.673	420.56
348.9	420.56
349.128	407.56
349.355	407.56
349.583	388.56
349.81	421.56
350.037	396.56
350.265	392.56
350.492	404.56
350.72	404.56
350.947	407.56
351.174	443.56
351.402	411.56
351.629	427.56
351.856	431.56
352.083	414.56
352.311	422.56
352.538	441.56
352.765	427.56
352.992	426.56
353.22	412.56
353.447	411.56
353.674	411.56
353.901	403.56
354.128	377.56
354.355	394.56
354.583	378.56
354.81	396.56
355.037	398.56
355.264	397.56
355.491	380.56
355.718	345.56
355.945	358.56
356.172	354.56
356.399	370.56
356.626	358.56
356.853	366.56
357.08	361.56
357.307	373.56
357.534	366.56
357.761	366.56
357.988	355.56
358.215	348.56
358.441	374.56
358.668	378.56
358.895	382.56
359.122	390.56
359.349	394.56
359.576	395.56
359.802	428.56
360.029	476.56
360.256	456.56
360.483	460.56
360.709	406.56
360.936	391.56
361.163	409.56
361.39	420.56
361.616	417.56
361.843	417.56
362.07	388.56
362.296	411.56
362.523	391.56
362.749	403.56
362.976	377.56
363.203	412.56
363.429	383.56
363.656	387.56
363.882	390.56
364.109	362.56
364.335	364.56
364.562	349.56
364.788	358.56
365.015	376.56
365.241	376.56
365.468	364.56
365.694	400.56
365.92	382.56
366.147	361.56
366.373	374.56
366.599	362.56
366.826	378.56
367.052	368.56
367.278	365.56
367.505	376.56
367.731	395.56
367.957	370.56
368.184	366.56
368.41	379.56
368.636	381.56
368.862	394.56
369.089	362.56
369.315	347.56
369.541	377.56
369.767	350.56
369.993	384.56
370.219	376.56
370.445	376.56
370.672	367.56
370.898	368.56
371.124	370.56
371.35	374.56
371.576	336.56
371.802	356.56
372.028	341.56
372.254	374.56
372.48	360.56
372.706	357.56
372.932	362.56
373.158	373.56
373.384	380.56
373.61	353.56
373.835	370.56
374.061	352.56
374.287	356.56
374.513	377.56
374.739	358.56
374.965	366.56
375.191	370.56
375.416	359.56
375.642	372.56
375.868	355.56
376.094	353.56
376.319	338.56
376.545	369.56
376.771	366.56
376.997	361.56
377.222	363.56
377.448	345.56
377.674	366.56
377.899	365.56
378.125	344.56
378.35	345.56
378.576	328.56
378.802	351.56
379.027	345.56
379.253	350.56
379.478	333.56
379.704	352.56
379.929	361.56
380.155	359.56
380.38	352.56
380.606	373.56
380.831	362.56
381.057	370.56
381.282	346.56
381.507	340.56
381.733	369.56
381.958	356.56
382.184	325.56
382.409	362.56
382.634	363.56
382.86	352.56
383.085	353.56
383.31	359.56
383.535	368.56
383.761	355.56
383.986	374.56
384.211	346.56
384.436	350.56
384.662	364.56
384.887	368.56
385.112	350.56
385.337	363.56
385.562	370.56
385.787	369.56
386.013	381.56
386.238	363.56
386.463	380.56
386.688	363.56
386.913	360.56
387.138	382.56
387.363	375.56
387.588	384.56
387.813	366.56
388.038	365.56
388.263	378.56
388.488	394.56
388.713	367.56
388.938	378.56
389.163	376.56
389.387	371.56
389.612	374.56
389.837	377.56
390.062	370.56
390.287	369.56
390.512	348.56
390.736	364.56
390.961	362.56
391.186	355.56
391.411	378.56
391.636	350.56
391.86	368.56
392.085	366.56
392.31	387.56
392.534	374.56
392.759	358.56
392.984	382.56
393.208	360.56
393.433	374.56
393.658	385.56
393.882	360.56
394.107	390.56
394.331	356.56
394.556	368.56
394.78	368.56
395.005	374.56
395.229	373.56
395.454	377.56
395.678	363.56
395.903	382.56
396.127	415.56
396.352	407.56
396.576	400.56
396.801	385.56
397.025	384.56
397.249	385.56
397.474	383.56
397.698	384.56
397.922	403.56
398.147	412.56
398.371	406.56
398.595	398.56
398.82	419.56
399.044	413.56
399.268	432.56
399.492	446.56
399.717	446.56
399.941	467.56
400.165	503.56
400.389	523.56
400.613	478.56
400.837	420.56
401.062	405.56
401.286	410.56
401.51	412.56
401.734	435.56
401.958	413.56
402.182	435.56
402.406	427.56
402.63	404.56
402.854	418.56
403.078	414.56
403.302	440.56
403.526	428.56
403.75	428.56
403.974	421.56
404.198	409.56
404.422	428.56
404.645	434.56
404.869	430.56
405.093	454.56
405.317	487.56
405.541	536.56
405.765	484.56
405.988	470.56
406.212	464.56
406.436	486.56
406.66	476.56
406.883	477.56
407.107	498.56
407.331	522.56
407.555	584.56
407.778	567.56
408.002	510.56
408.226	474.56
408.449	472.56
408.673	473.56
408.896	524.56
409.12	534.56
409.344	532.56
409.567	457.56
409.791	462.56
410.014	437.56
410.238	438.56
410.461	428.56
410.685	426.56
410.908	455.56
411.132	491.56
411.355	515.56
411.578	490.56
411.802	446.56
412.025	424.56
412.249	434.56
412.472	467.56
412.695	478.56
412.919	476.56
413.142	439.56
413.365	440.56
413.589	420.56
413.812	409.56
414.035	410.56
414.258	403.56
414.482	416.56
414.705	394.56
414.928	399.56
415.151	403.56
415.374	399.56
415.597	418.56
415.821	382.56
416.044	402.56
416.267	392.56
416.49	388.56
416.713	401.56
416.936	387.56
417.159	382.56
417.382	423.56
417.605	390.56
417.828	406.56
418.051	428.56
418.274	431.56
418.497	404.56
418.72	395.56
418.943	379.56
419.166	419.56
419.389	407.56
419.611	421.56
419.834	427.56
420.057	437.56
420.28	430.56
420.503	434.56
420.726	425.56
420.948	440.56
421.171	479.56
421.394	496.56
421.617	462.56
421.839	448.56
422.062	437.56
422.285	441.56
422.507	489.56
422.73	561.56
422.953	546.56
423.175	490.56
423.398	455.56
423.621	457.56
423.843	454.56
424.066	459.56
424.288	473.56
424.511	505.56
424.733	536.56
424.956	614.56
425.178	582.56
425.401	587.56
425.623	607.56
425.846	522.56
426.068	488.56
426.291	481.56
426.513	460.56
426.735	476.56
426.958	524.56
427.18	599.56
427.402	708.56
427.625	779.56
427.847	700.56
428.069	626.56
428.292	545.56
428.514	489.56
428.736	456.56
428.958	459.56
429.181	441.56
429.403	440.56
429.625	450.56
429.847	479.56
430.069	547.56
430.292	538.56
430.514	471.56
430.736	418.56
430.958	427.56
431.18	406.56
431.402	405.56
431.624	397.56
431.846	393.56
432.068	415.56
432.29	409.56
432.512	397.56
432.734	401.56
432.956	438.56
433.178	425.56
433.4	443.56
433.622	419.56
433.844	410.56
434.066	408.56
434.287	389.56
434.509	388.56
434.731	414.56
434.953	422.56
435.175	441.56
435.397	475.56
435.618	482.56
435.84	530.56
436.062	615.56
436.284	686.56
436.505	560.56
436.727	501.56
436.949	480.56
437.17	454.56
437.392	431.56
437.614	453.56
437.835	482.56
438.057	594.56
438.278	694.56
438.5	664.56
438.721	731.56
438.943	724.56
439.165	564.56
439.386	505.56
439.608	482.56
439.829	509.56
440.05	534.56
440.272	562.56
440.493	530.56
440.715	449.56
440.936	462.56
441.158	441.56
441.379	448.56
441.6	461.56
441.822	464.56
442.043	512.56
442.264	611.56
442.486	622.56
442.707	530.56
442.928	513.56
443.149	514.56
443.371	543.56
443.592	552.56
443.813	637.56
444.034	680.56
444.255	560.56
444.476	513.56
444.698	480.56
444.919	460.56
445.14	586.56
445.361	560.56
445.582	541.56
445.803	602.56
446.024	714.56
446.245	690.56
446.466	613.56
446.687	531.56
446.908	489.56
447.129	458.56
447.35	471.56
447.571	448.56
447.792	440.56
448.013	463.56
448.234	471.56
448.455	523.56
448.675	618.56
448.896	705.56
449.117	630.56
449.338	589.56
449.559	673.56
449.779	735.56
450	613.56
450.221	523.56
450.442	451.56
450.662	446.56
450.883	449.56
451.104	459.56
451.324	457.56
451.545	443.56
451.766	414.56
451.986	408.56
452.207	381.56
452.428	385.56
452.648	389.56
452.869	384.56
453.089	403.56
453.31	397.56
453.53	402.56
453.751	388.56
453.971	403.56
454.192	419.56
454.412	420.56
454.633	388.56
454.853	392.56
455.073	385.56
455.294	410.56
455.514	492.56
455.734	468.56
455.955	439.56
456.175	384.56
456.395	374.56
456.616	378.56
456.836	348.56
457.056	352.56
457.276	361.56
457.497	360.56
457.717	355.56
457.937	359.56
458.157	373.56
458.377	374.56
458.598	387.56
458.818	484.56
459.038	551.56
459.258	556.56
459.478	463.56
459.698	414.56
459.918	406.56
460.138	396.56
460.358	400.56
460.578	401.56
460.798	392.56
461.018	382.56
461.238	401.56
461.458	395.56
461.678	384.56
461.898	398.56
462.118	392.56
462.338	425.56
462.558	402.56
462.777	393.56
462.997	417.56
463.217	417.56
463.437	438.56
463.657	426.56
463.876	416.56
464.096	393.56
464.316	424.56
464.536	425.56
464.755	418.56
464.975	444.56
465.195	481.56
465.414	564.56
465.634	497.56
465.854	438.56
466.073	434.56
466.293	392.56
466.512	385.56
466.732	414.56
466.951	412.56
467.171	372.56
467.391	398.56
467.61	416.56
467.829	410.56
468.049	399.56
468.268	400.56
468.488	383.56
468.707	363.56
468.927	386.56
469.146	388.56
469.365	387.56
469.585	388.56
469.804	399.56
470.023	412.56
470.243	411.56
470.462	400.56
470.681	418.56
470.901	402.56
471.12	384.56
471.339	390.56
471.558	398.56
471.777	411.56
471.997	382.56
472.216	413.56
472.435	430.56
472.654	414.56
472.873	414.56
473.092	386.56
473.311	402.56
473.53	419.56
473.749	417.56
473.968	475.56
474.187	569.56
474.406	607.56
474.625	485.56
474.844	402.56
475.063	413.56
475.282	398.56
475.501	384.56
475.72	417.56
475.939	426.56
476.158	404.56
476.377	400.56
476.596	428.56
476.814	410.56
477.033	438.56
477.252	406.56
477.471	412.56
477.69	452.56
477.908	426.56
478.127	444.56
478.346	434.56
478.564	424.56
478.783	460.56
479.002	438.56
479.22	442.56
479.439	480.56
479.658	502.56
479.876	490.56
480.095	482.56
480.313	508.56
480.532	502.56
480.751	480.56
480.969	501.56
481.188	536.56
481.406	579.56
481.624	511.56
481.843	489.56
482.061	490.56
482.28	479.56
482.498	447.56
482.717	473.56
482.935	458.56
483.153	468.56
483.372	486.56
483.59	465.56
483.808	451.56
484.027	441.56
484.245	474.56
484.463	483.56
484.681	505.56
484.9	497.56
485.118	488.56
485.336	479.56
485.554	478.56
485.772	488.56
485.99	486.56
486.209	472.56
486.427	478.56
486.645	494.56
486.863	535.56
487.081	511.56
487.299	512.56
487.517	503.56
487.735	500.56
487.953	489.56
488.171	513.56
488.389	513.56
488.607	501.56
488.825	509.56
489.043	502.56
489.261	518.56
489.479	525.56
489.696	521.56
489.914	505.56
490.132	527.56
490.35	523.56
490.568	523.56
490.786	545.56
491.003	563.56
491.221	548.56
491.439	567.56
491.657	569.56
491.874	570.56
492.092	587.56
492.31	562.56
492.527	580.56
492.745	579.56
492.963	593.56
493.18	599.56
493.398	600.56
493.615	606.56
493.833	589.56
494.05	611.56
494.268	590.56
494.485	576.56
494.703	589.56
494.92	590.56
495.138	587.56
495.355	614.56
495.573	595.56
495.79	610.56
496.008	606.56
496.225	622.56
496.442	620.56
496.66	603.56
496.877	599.56
497.094	600.56
497.312	595.56
497.529	625.56
497.746	637.56
497.963	642.56
498.181	661.56
498.398	662.56
498.615	671.56
498.832	651.56
499.049	669.56
499.267	670.56
499.484	686.56
499.701	690.56
499.918	674.56
500.135	700.56
500.352	729.56
500.569	742.56
500.786	747.56
501.003	723.56
501.22	701.56
501.437	738.56
501.654	737.56
501.871	736.56
