Data from 1981.PennyLincolnUp.Lamp.En5.5.200Scan.071819.P1_HRD10591_16-41-23-960.txt Node
Date: Thu Jul 18 16:41:23 EDT 2019
User: cochatt
Spectrometer: HR+D1059
Trigger mode: 1
Integration Time (sec): 1.000000E-1
Scans to average: 1
Electric dark correction enabled: true
Nonlinearity correction enabled: false
Boxcar width: 0
XAxis mode: Wavelengths
Number of Pixels in Spectrum: 2048
>>>>>Begin Spectral Data<<<<<
223.165	4.94
223.4	4.94
223.635	4.94
223.869	-15.06
224.104	-16.06
224.338	-9.06
224.573	-1.06
224.808	-14.06
225.042	6.94
225.277	-6.06
225.511	-1.06
225.746	2.94
225.98	3.94
226.215	-2.06
226.449	-8.06
226.683	8.94
226.918	19.94
227.152	24.94
227.387	42.94
227.621	43.94
227.856	49.94
228.09	27.94
228.324	56.94
228.559	52.94
228.793	61.94
229.027	106.94
229.262	93.94
229.496	104.94
229.73	132.94
229.964	158.94
230.199	126.94
230.433	117.94
230.667	113.94
230.901	99.94
231.136	107.94
231.37	97.94
231.604	113.94
231.838	99.94
232.072	107.94
232.306	115.94
232.541	119.94
232.775	103.94
233.009	99.94
233.243	100.94
233.477	94.94
233.711	116.94
233.945	121.94
234.179	119.94
234.413	105.94
234.647	114.94
234.881	124.94
235.115	116.94
235.349	115.94
235.583	132.94
235.817	114.94
236.051	119.94
236.285	108.94
236.519	117.94
236.753	115.94
236.987	136.94
237.221	178.94
237.455	227.94
237.689	178.94
237.922	131.94
238.156	140.94
238.39	123.94
238.624	123.94
238.858	139.94
239.091	127.94
239.325	120.94
239.559	119.94
239.793	118.94
240.027	141.94
240.26	148.94
240.494	153.94
240.728	146.94
240.961	167.94
241.195	150.94
241.429	126.94
241.662	124.94
241.896	119.94
242.13	116.94
242.363	138.94
242.597	118.94
242.83	127.94
243.064	127.94
243.298	149.94
243.531	146.94
243.765	122.94
243.998	139.94
244.232	124.94
244.465	130.94
244.699	141.94
244.932	136.94
245.166	144.94
245.399	128.94
245.633	136.94
245.866	146.94
246.099	132.94
246.333	152.94
246.566	140.94
246.8	151.94
247.033	144.94
247.266	139.94
247.5	146.94
247.733	153.94
247.966	149.94
248.2	166.94
248.433	163.94
248.666	178.94
248.899	173.94
249.133	184.94
249.366	196.94
249.599	201.94
249.832	192.94
250.066	184.94
250.299	178.94
250.532	198.94
250.765	203.94
250.998	226.94
251.231	234.94
251.465	219.94
251.698	216.94
251.931	187.94
252.164	194.94
252.397	202.94
252.63	200.94
252.863	202.94
253.096	220.94
253.329	220.94
253.562	237.94
253.795	228.94
254.028	211.94
254.261	201.94
254.494	227.94
254.727	267.94
254.96	279.94
255.193	277.94
255.426	266.94
255.659	231.94
255.892	231.94
256.124	240.94
256.357	230.94
256.59	224.94
256.823	211.94
257.056	206.94
257.289	213.94
257.521	213.94
257.754	197.94
257.987	202.94
258.22	207.94
258.452	208.94
258.685	192.94
258.918	210.94
259.151	216.94
259.383	233.94
259.616	217.94
259.849	240.94
260.081	238.94
260.314	240.94
260.547	251.94
260.779	266.94
261.012	242.94
261.244	233.94
261.477	235.94
261.71	217.94
261.942	223.94
262.175	232.94
262.407	240.94
262.64	213.94
262.872	224.94
263.105	209.94
263.337	219.94
263.57	212.94
263.802	203.94
264.035	211.94
264.267	216.94
264.499	210.94
264.732	207.94
264.964	196.94
265.197	224.94
265.429	219.94
265.661	203.94
265.894	204.94
266.126	209.94
266.358	226.94
266.591	209.94
266.823	218.94
267.055	216.94
267.287	215.94
267.52	219.94
267.752	229.94
267.984	225.94
268.216	223.94
268.448	231.94
268.681	259.94
268.913	247.94
269.145	260.94
269.377	257.94
269.609	278.94
269.841	283.94
270.073	267.94
270.306	297.94
270.538	321.94
270.77	318.94
271.002	311.94
271.234	300.94
271.466	300.94
271.698	318.94
271.93	305.94
272.162	326.94
272.394	317.94
272.626	289.94
272.858	297.94
273.09	286.94
273.322	279.94
273.553	278.94
273.785	265.94
274.017	271.94
274.249	283.94
274.481	268.94
274.713	247.94
274.945	259.94
275.176	264.94
275.408	271.94
275.64	275.94
275.872	269.94
276.104	268.94
276.335	259.94
276.567	275.94
276.799	277.94
277.031	313.94
277.262	316.94
277.494	310.94
277.726	289.94
277.957	301.94
278.189	292.94
278.421	265.94
278.652	279.94
278.884	268.94
279.115	252.94
279.347	261.94
279.579	273.94
279.81	261.94
280.042	252.94
280.273	248.94
280.505	268.94
280.736	276.94
280.968	253.94
281.199	274.94
281.431	250.94
281.662	243.94
281.894	263.94
282.125	279.94
282.356	282.94
282.588	318.94
282.819	315.94
283.051	280.94
283.282	276.94
283.513	262.94
283.745	279.94
283.976	264.94
284.207	289.94
284.439	288.94
284.67	269.94
284.901	265.94
285.132	257.94
285.364	265.94
285.595	281.94
285.826	252.94
286.057	282.94
286.288	254.94
286.52	262.94
286.751	280.94
286.982	274.94
287.213	262.94
287.444	277.94
287.675	297.94
287.906	284.94
288.138	302.94
288.369	297.94
288.6	310.94
288.831	296.94
289.062	278.94
289.293	279.94
289.524	277.94
289.755	283.94
289.986	289.94
290.217	266.94
290.448	286.94
290.679	288.94
290.91	288.94
291.141	274.94
291.371	280.94
291.602	262.94
291.833	282.94
292.064	281.94
292.295	281.94
292.526	302.94
292.757	277.94
292.987	277.94
293.218	257.94
293.449	284.94
293.68	284.94
293.91	294.94
294.141	284.94
294.372	277.94
294.603	287.94
294.833	287.94
295.064	279.94
295.295	294.94
295.525	282.94
295.756	293.94
295.987	298.94
296.217	305.94
296.448	337.94
296.679	308.94
296.909	273.94
297.14	285.94
297.37	287.94
297.601	282.94
297.831	286.94
298.062	297.94
298.292	294.94
298.523	293.94
298.753	288.94
298.984	302.94
299.214	314.94
299.445	287.94
299.675	297.94
299.905	299.94
300.136	289.94
300.366	313.94
300.597	313.94
300.827	318.94
301.057	292.94
301.288	314.94
301.518	313.94
301.748	314.94
301.979	341.94
302.209	325.94
302.439	330.94
302.669	321.94
302.9	310.94
303.13	294.94
303.36	300.94
303.59	320.94
303.82	322.94
304.051	337.94
304.281	325.94
304.511	309.94
304.741	326.94
304.971	307.94
305.201	310.94
305.431	320.94
305.661	311.94
305.891	317.94
306.121	316.94
306.352	325.94
306.582	334.94
306.812	316.94
307.042	311.94
307.272	313.94
307.502	317.94
307.731	329.94
307.961	332.94
308.191	323.94
308.421	328.94
308.651	352.94
308.881	318.94
309.111	331.94
309.341	345.94
309.571	336.94
309.8	341.94
310.03	354.94
310.26	374.94
310.49	374.94
310.72	383.94
310.949	410.94
311.179	393.94
311.409	363.94
311.639	348.94
311.868	374.94
312.098	361.94
312.328	390.94
312.557	394.94
312.787	402.94
313.017	398.94
313.246	389.94
313.476	384.94
313.706	367.94
313.935	372.94
314.165	386.94
314.394	382.94
314.624	394.94
314.853	379.94
315.083	384.94
315.312	375.94
315.542	366.94
315.771	357.94
316.001	378.94
316.23	378.94
316.46	374.94
316.689	364.94
316.919	360.94
317.148	383.94
317.377	377.94
317.607	379.94
317.836	378.94
318.065	363.94
318.295	368.94
318.524	378.94
318.753	378.94
318.983	359.94
319.212	390.94
319.441	368.94
319.67	428.94
319.9	402.94
320.129	382.94
320.358	372.94
320.587	380.94
320.816	362.94
321.046	380.94
321.275	391.94
321.504	424.94
321.733	395.94
321.962	399.94
322.191	419.94
322.42	429.94
322.649	467.94
322.878	452.94
323.108	476.94
323.337	523.94
323.566	519.94
323.795	584.94
324.024	640.94
324.253	809.94
324.482	1086.94
324.71	1638.94
324.939	2292.94
325.168	1932.94
325.397	1040.94
325.626	706.94
325.855	606.94
326.084	554.94
326.313	532.94
326.542	550.94
326.77	609.94
326.999	730.94
327.228	973.94
327.457	1434.94
327.686	1698.94
327.914	1147.94
328.143	741.94
328.372	674.94
328.6	605.94
328.829	594.94
329.058	602.94
329.287	603.94
329.515	582.94
329.744	525.94
329.972	504.94
330.201	535.94
330.43	567.94
330.658	579.94
330.887	619.94
331.115	609.94
331.344	531.94
331.572	511.94
331.801	482.94
332.03	488.94
332.258	454.94
332.486	469.94
332.715	449.94
332.943	445.94
333.172	449.94
333.4	444.94
333.629	420.94
333.857	455.94
334.085	471.94
334.314	476.94
334.542	485.94
334.771	506.94
334.999	485.94
335.227	450.94
335.455	442.94
335.684	438.94
335.912	427.94
336.14	426.94
336.369	428.94
336.597	423.94
336.825	428.94
337.053	417.94
337.281	416.94
337.51	431.94
337.738	408.94
337.966	430.94
338.194	432.94
338.422	435.94
338.65	434.94
338.878	414.94
339.106	424.94
339.334	422.94
339.562	416.94
339.79	393.94
340.018	400.94
340.246	412.94
340.474	409.94
340.702	423.94
340.93	406.94
341.158	406.94
341.386	430.94
341.614	419.94
341.842	415.94
342.07	390.94
342.298	401.94
342.526	392.94
342.754	377.94
342.981	386.94
343.209	417.94
343.437	396.94
343.665	406.94
343.893	406.94
344.12	415.94
344.348	394.94
344.576	393.94
344.804	414.94
345.031	428.94
345.259	430.94
345.487	437.94
345.714	407.94
345.942	410.94
346.17	430.94
346.397	400.94
346.625	394.94
346.853	384.94
347.08	401.94
347.308	398.94
347.535	420.94
347.763	409.94
347.99	427.94
348.218	403.94
348.445	418.94
348.673	415.94
348.9	391.94
349.128	386.94
349.355	372.94
349.583	380.94
349.81	397.94
350.037	378.94
350.265	380.94
350.492	385.94
350.72	376.94
350.947	411.94
351.174	421.94
351.402	398.94
351.629	393.94
351.856	412.94
352.083	397.94
352.311	406.94
352.538	402.94
352.765	426.94
352.992	406.94
353.22	381.94
353.447	384.94
353.674	380.94
353.901	372.94
354.128	367.94
354.355	374.94
354.583	355.94
354.81	355.94
355.037	351.94
355.264	374.94
355.491	366.94
355.718	371.94
355.945	364.94
356.172	372.94
356.399	348.94
356.626	370.94
356.853	345.94
357.08	336.94
357.307	340.94
357.534	378.94
357.761	373.94
357.988	345.94
358.215	370.94
358.441	378.94
358.668	351.94
358.895	366.94
359.122	386.94
359.349	372.94
359.576	389.94
359.802	422.94
360.029	440.94
360.256	452.94
360.483	418.94
360.709	386.94
360.936	383.94
361.163	374.94
361.39	384.94
361.616	397.94
361.843	405.94
362.07	380.94
362.296	383.94
362.523	376.94
362.749	379.94
362.976	372.94
363.203	346.94
363.429	376.94
363.656	359.94
363.882	362.94
364.109	351.94
364.335	361.94
364.562	361.94
364.788	358.94
365.015	370.94
365.241	369.94
365.468	348.94
365.694	368.94
365.92	363.94
366.147	376.94
366.373	379.94
366.599	351.94
366.826	361.94
367.052	368.94
367.278	362.94
367.505	350.94
367.731	343.94
367.957	366.94
368.184	366.94
368.41	368.94
368.636	380.94
368.862	382.94
369.089	357.94
369.315	358.94
369.541	356.94
369.767	351.94
369.993	362.94
370.219	356.94
370.445	343.94
370.672	342.94
370.898	344.94
371.124	348.94
371.35	360.94
371.576	347.94
371.802	350.94
372.028	357.94
372.254	332.94
372.48	370.94
372.706	358.94
372.932	353.94
373.158	347.94
373.384	351.94
373.61	345.94
373.835	356.94
374.061	344.94
374.287	341.94
374.513	349.94
374.739	342.94
374.965	333.94
375.191	345.94
375.416	367.94
375.642	328.94
375.868	351.94
376.094	347.94
376.319	353.94
376.545	358.94
376.771	329.94
376.997	335.94
377.222	334.94
377.448	339.94
377.674	332.94
377.899	315.94
378.125	343.94
378.35	350.94
378.576	358.94
378.802	332.94
379.027	334.94
379.253	347.94
379.478	335.94
379.704	344.94
379.929	336.94
380.155	352.94
380.38	347.94
380.606	348.94
380.831	346.94
381.057	335.94
381.282	342.94
381.507	355.94
381.733	348.94
381.958	339.94
382.184	338.94
382.409	351.94
382.634	350.94
382.86	347.94
383.085	345.94
383.31	344.94
383.535	347.94
383.761	359.94
383.986	342.94
384.211	338.94
384.436	363.94
384.662	336.94
384.887	364.94
385.112	343.94
385.337	358.94
385.562	346.94
385.787	361.94
386.013	361.94
386.238	377.94
386.463	361.94
386.688	353.94
386.913	354.94
387.138	369.94
387.363	346.94
387.588	340.94
387.813	364.94
388.038	372.94
388.263	366.94
388.488	346.94
388.713	357.94
388.938	355.94
389.163	347.94
389.387	358.94
389.612	355.94
389.837	356.94
390.062	339.94
390.287	358.94
390.512	356.94
390.736	363.94
390.961	357.94
391.186	360.94
391.411	356.94
391.636	361.94
391.86	355.94
392.085	368.94
392.31	370.94
392.534	357.94
392.759	367.94
392.984	340.94
393.208	369.94
393.433	370.94
393.658	366.94
393.882	373.94
394.107	359.94
394.331	376.94
394.556	370.94
394.78	336.94
395.005	353.94
395.229	355.94
395.454	371.94
395.678	384.94
395.903	376.94
396.127	390.94
396.352	379.94
396.576	384.94
396.801	379.94
397.025	374.94
397.249	378.94
397.474	375.94
397.698	350.94
397.922	384.94
398.147	393.94
398.371	425.94
398.595	417.94
398.82	378.94
399.044	403.94
399.268	410.94
399.492	428.94
399.717	444.94
399.941	465.94
400.165	471.94
400.389	512.94
400.613	459.94
400.837	448.94
401.062	418.94
401.286	416.94
401.51	378.94
401.734	394.94
401.958	384.94
402.182	399.94
402.406	435.94
402.63	417.94
402.854	414.94
403.078	392.94
403.302	418.94
403.526	406.94
403.75	405.94
403.974	414.94
404.198	391.94
404.422	424.94
404.645	430.94
404.869	414.94
405.093	464.94
405.317	470.94
405.541	497.94
405.765	484.94
405.988	436.94
406.212	468.94
406.436	481.94
406.66	483.94
406.883	447.94
407.107	466.94
407.331	510.94
407.555	568.94
407.778	563.94
408.002	499.94
408.226	462.94
408.449	450.94
408.673	468.94
408.896	497.94
409.12	511.94
409.344	508.94
409.567	450.94
409.791	422.94
410.014	418.94
410.238	407.94
410.461	420.94
410.685	420.94
410.908	425.94
411.132	454.94
411.355	468.94
411.578	472.94
411.802	426.94
412.025	430.94
412.249	413.94
412.472	434.94
412.695	466.94
412.919	459.94
413.142	400.94
413.365	408.94
413.589	406.94
413.812	395.94
414.035	393.94
414.258	397.94
414.482	392.94
414.705	394.94
414.928	397.94
415.151	408.94
415.374	380.94
415.597	379.94
415.821	391.94
416.044	390.94
416.267	393.94
416.49	395.94
416.713	399.94
416.936	408.94
417.159	385.94
417.382	403.94
417.605	398.94
417.828	404.94
418.051	412.94
418.274	392.94
418.497	416.94
418.72	409.94
418.943	390.94
419.166	410.94
419.389	421.94
419.611	418.94
419.834	403.94
420.057	423.94
420.28	423.94
420.503	413.94
420.726	397.94
420.948	432.94
421.171	460.94
421.394	466.94
421.617	428.94
421.839	403.94
422.062	418.94
422.285	433.94
422.507	462.94
422.73	526.94
422.953	495.94
423.175	475.94
423.398	444.94
423.621	426.94
423.843	439.94
424.066	455.94
424.288	452.94
424.511	456.94
424.733	515.94
424.956	598.94
425.178	567.94
425.401	554.94
425.623	566.94
425.846	478.94
426.068	459.94
426.291	462.94
426.513	444.94
426.735	471.94
426.958	506.94
427.18	583.94
427.402	679.94
427.625	743.94
427.847	669.94
428.069	576.94
428.292	512.94
428.514	468.94
428.736	451.94
428.958	440.94
429.181	400.94
429.403	397.94
429.625	444.94
429.847	464.94
430.069	489.94
430.292	519.94
430.514	442.94
430.736	420.94
430.958	420.94
431.18	415.94
431.402	389.94
431.624	382.94
431.846	383.94
432.068	391.94
432.29	382.94
432.512	369.94
432.734	406.94
432.956	414.94
433.178	376.94
433.4	414.94
433.622	398.94
433.844	386.94
434.066	384.94
434.287	378.94
434.509	383.94
434.731	396.94
434.953	403.94
435.175	412.94
435.397	456.94
435.618	464.94
435.84	506.94
436.062	568.94
436.284	640.94
436.505	553.94
436.727	460.94
436.949	437.94
437.17	430.94
437.392	431.94
437.614	446.94
437.835	478.94
438.057	561.94
438.278	657.94
438.5	646.94
438.721	711.94
438.943	670.94
439.165	526.94
439.386	489.94
439.608	481.94
439.829	473.94
440.05	502.94
440.272	544.94
440.493	520.94
440.715	472.94
440.936	443.94
441.158	405.94
441.379	411.94
441.6	427.94
441.822	464.94
442.043	477.94
442.264	549.94
442.486	604.94
442.707	527.94
442.928	466.94
443.149	481.94
443.371	491.94
443.592	528.94
443.813	612.94
444.034	646.94
444.255	536.94
444.476	479.94
444.698	451.94
444.919	443.94
445.14	542.94
445.361	499.94
445.582	495.94
445.803	572.94
446.024	635.94
446.245	632.94
446.466	598.94
446.687	516.94
446.908	473.94
447.129	438.94
447.35	433.94
447.571	411.94
447.792	410.94
448.013	428.94
448.234	449.94
448.455	474.94
448.675	596.94
448.896	685.94
449.117	594.94
449.338	538.94
449.559	642.94
449.779	696.94
450	572.94
450.221	482.94
450.442	453.94
450.662	418.94
450.883	406.94
451.104	442.94
451.324	426.94
451.545	414.94
451.766	390.94
451.986	395.94
452.207	360.94
452.428	386.94
452.648	397.94
452.869	382.94
453.089	401.94
453.31	393.94
453.53	388.94
453.751	378.94
453.971	406.94
454.192	410.94
454.412	400.94
454.633	380.94
454.853	376.94
455.073	377.94
455.294	432.94
455.514	482.94
455.734	464.94
455.955	375.94
456.175	364.94
456.395	352.94
456.616	334.94
456.836	349.94
457.056	339.94
457.276	340.94
457.497	350.94
457.717	364.94
457.937	359.94
458.157	360.94
458.377	374.94
458.598	388.94
458.818	430.94
459.038	536.94
459.258	522.94
459.478	432.94
459.698	380.94
459.918	391.94
460.138	369.94
460.358	375.94
460.578	381.94
460.798	375.94
461.018	389.94
461.238	375.94
461.458	384.94
461.678	380.94
461.898	374.94
462.118	380.94
462.338	401.94
462.558	396.94
462.777	406.94
462.997	408.94
463.217	410.94
463.437	397.94
463.657	394.94
463.876	391.94
464.096	400.94
464.316	392.94
464.536	412.94
464.755	422.94
464.975	436.94
465.195	457.94
465.414	531.94
465.634	464.94
465.854	419.94
466.073	408.94
466.293	375.94
466.512	397.94
466.732	390.94
466.951	381.94
467.171	386.94
467.391	373.94
467.61	407.94
467.829	400.94
468.049	390.94
468.268	386.94
468.488	378.94
468.707	378.94
468.927	364.94
469.146	372.94
469.365	370.94
469.585	376.94
469.804	386.94
470.023	382.94
470.243	417.94
470.462	414.94
470.681	399.94
470.901	414.94
471.12	389.94
471.339	371.94
471.558	378.94
471.777	396.94
471.997	370.94
472.216	389.94
472.435	417.94
472.654	397.94
472.873	382.94
473.092	391.94
473.311	387.94
473.53	386.94
473.749	402.94
473.968	440.94
474.187	528.94
474.406	571.94
474.625	457.94
474.844	407.94
475.063	397.94
475.282	389.94
475.501	400.94
475.72	408.94
475.939	394.94
476.158	406.94
476.377	392.94
476.596	392.94
476.814	404.94
477.033	394.94
477.252	384.94
477.471	422.94
477.69	432.94
477.908	410.94
478.127	430.94
478.346	409.94
478.564	441.94
478.783	412.94
479.002	418.94
479.22	442.94
479.439	465.94
479.658	481.94
479.876	462.94
480.095	440.94
480.313	481.94
480.532	478.94
480.751	483.94
480.969	470.94
481.188	512.94
481.406	528.94
481.624	449.94
481.843	459.94
482.061	465.94
482.28	453.94
482.498	442.94
482.717	416.94
482.935	454.94
483.153	436.94
483.372	457.94
483.59	438.94
483.808	432.94
484.027	436.94
484.245	448.94
484.463	453.94
484.681	468.94
484.9	457.94
485.118	460.94
485.336	465.94
485.554	466.94
485.772	474.94
485.99	467.94
486.209	450.94
486.427	467.94
486.645	474.94
486.863	485.94
487.081	509.94
487.299	503.94
487.517	496.94
487.735	489.94
487.953	466.94
488.171	479.94
488.389	507.94
488.607	498.94
488.825	472.94
489.043	475.94
489.261	490.94
489.479	501.94
489.696	500.94
489.914	496.94
490.132	486.94
490.35	498.94
490.568	533.94
490.786	520.94
491.003	523.94
491.221	529.94
491.439	536.94
491.657	546.94
491.874	542.94
492.092	546.94
492.31	573.94
492.527	565.94
492.745	566.94
492.963	546.94
493.18	552.94
493.398	577.94
493.615	583.94
493.833	547.94
494.05	569.94
494.268	556.94
494.485	562.94
494.703	581.94
494.92	579.94
495.138	579.94
495.355	582.94
495.573	565.94
495.79	577.94
496.008	591.94
496.225	582.94
496.442	574.94
496.66	567.94
496.877	571.94
497.094	570.94
497.312	593.94
497.529	609.94
497.746	598.94
497.963	615.94
498.181	614.94
498.398	613.94
498.615	649.94
498.832	622.94
499.049	628.94
499.267	647.94
499.484	658.94
499.701	679.94
499.918	672.94
500.135	686.94
500.352	688.94
500.569	687.94
500.786	707.94
501.003	701.94
501.22	704.94
501.437	697.94
501.654	679.94
501.871	698.94
502.088	692.94
