Data from 1981.PennyLincolnUp.Lamp.En5.5.200Scan.071819.P1_HRD10591_16-41-14-959.txt Node
Date: Thu Jul 18 16:41:14 EDT 2019
User: cochatt
Spectrometer: HR+D1059
Trigger mode: 1
Integration Time (sec): 1.000000E-1
Scans to average: 1
Electric dark correction enabled: true
Nonlinearity correction enabled: false
Boxcar width: 0
XAxis mode: Wavelengths
Number of Pixels in Spectrum: 2048
>>>>>Begin Spectral Data<<<<<
223.165	-27.25
223.4	-27.25
223.635	-27.25
223.869	-26.25
224.104	-16.25
224.338	-27.25
224.573	-0.25
224.808	-7.25
225.042	-14.25
225.277	-15.25
225.511	-4.25
225.746	5.75
225.98	5.75
226.215	28.75
226.449	9.75
226.683	22.75
226.918	33.75
227.152	31.75
227.387	39.75
227.621	32.75
227.856	37.75
228.09	55.75
228.324	37.75
228.559	51.75
228.793	54.75
229.027	101.75
229.262	99.75
229.496	101.75
229.73	126.75
229.964	166.75
230.199	114.75
230.433	91.75
230.667	100.75
230.901	119.75
231.136	117.75
231.37	117.75
231.604	105.75
231.838	98.75
232.072	110.75
232.306	92.75
232.541	103.75
232.775	109.75
233.009	118.75
233.243	105.75
233.477	108.75
233.711	117.75
233.945	106.75
234.179	113.75
234.413	114.75
234.647	102.75
234.881	114.75
235.115	123.75
235.349	121.75
235.583	116.75
235.817	116.75
236.051	120.75
236.285	115.75
236.519	120.75
236.753	133.75
236.987	140.75
237.221	170.75
237.455	211.75
237.689	187.75
237.922	148.75
238.156	142.75
238.39	134.75
238.624	122.75
238.858	112.75
239.091	112.75
239.325	131.75
239.559	118.75
239.793	100.75
240.027	133.75
240.26	155.75
240.494	162.75
240.728	154.75
240.961	145.75
241.195	125.75
241.429	137.75
241.662	125.75
241.896	139.75
242.13	142.75
242.363	133.75
242.597	128.75
242.83	143.75
243.064	138.75
243.298	142.75
243.531	134.75
243.765	149.75
243.998	116.75
244.232	123.75
244.465	135.75
244.699	129.75
244.932	133.75
245.166	138.75
245.399	130.75
245.633	155.75
245.866	136.75
246.099	154.75
246.333	149.75
246.566	147.75
246.8	148.75
247.033	151.75
247.266	164.75
247.5	147.75
247.733	167.75
247.966	180.75
248.2	172.75
248.433	145.75
248.666	184.75
248.899	191.75
249.133	189.75
249.366	219.75
249.599	205.75
249.832	188.75
250.066	189.75
250.299	185.75
250.532	182.75
250.765	200.75
250.998	224.75
251.231	207.75
251.465	201.75
251.698	209.75
251.931	191.75
252.164	189.75
252.397	195.75
252.63	213.75
252.863	209.75
253.096	204.75
253.329	216.75
253.562	226.75
253.795	219.75
254.028	224.75
254.261	239.75
254.494	212.75
254.727	275.75
254.96	287.75
255.193	288.75
255.426	243.75
255.659	259.75
255.892	231.75
256.124	235.75
256.357	212.75
256.59	211.75
256.823	205.75
257.056	223.75
257.289	218.75
257.521	213.75
257.754	231.75
257.987	219.75
258.22	217.75
258.452	210.75
258.685	214.75
258.918	219.75
259.151	219.75
259.383	224.75
259.616	225.75
259.849	217.75
260.081	227.75
260.314	253.75
260.547	250.75
260.779	253.75
261.012	246.75
261.244	225.75
261.477	232.75
261.71	217.75
261.942	236.75
262.175	231.75
262.407	241.75
262.64	212.75
262.872	207.75
263.105	209.75
263.337	210.75
263.57	205.75
263.802	209.75
264.035	210.75
264.267	224.75
264.499	218.75
264.732	216.75
264.964	205.75
265.197	205.75
265.429	211.75
265.661	197.75
265.894	204.75
266.126	205.75
266.358	208.75
266.591	215.75
266.823	220.75
267.055	218.75
267.287	234.75
267.52	233.75
267.752	212.75
267.984	213.75
268.216	229.75
268.448	220.75
268.681	235.75
268.913	241.75
269.145	251.75
269.377	276.75
269.609	277.75
269.841	275.75
270.073	280.75
270.306	293.75
270.538	309.75
270.77	318.75
271.002	309.75
271.234	299.75
271.466	298.75
271.698	299.75
271.93	312.75
272.162	323.75
272.394	338.75
272.626	330.75
272.858	295.75
273.09	281.75
273.322	284.75
273.553	257.75
273.785	243.75
274.017	260.75
274.249	273.75
274.481	269.75
274.713	273.75
274.945	257.75
275.176	273.75
275.408	264.75
275.64	257.75
275.872	258.75
276.104	279.75
276.335	267.75
276.567	262.75
276.799	273.75
277.031	321.75
277.262	303.75
277.494	298.75
277.726	292.75
277.957	300.75
278.189	278.75
278.421	277.75
278.652	297.75
278.884	268.75
279.115	278.75
279.347	273.75
279.579	269.75
279.81	267.75
280.042	252.75
280.273	260.75
280.505	278.75
280.736	277.75
280.968	247.75
281.199	255.75
281.431	264.75
281.662	264.75
281.894	262.75
282.125	259.75
282.356	288.75
282.588	309.75
282.819	314.75
283.051	289.75
283.282	263.75
283.513	269.75
283.745	282.75
283.976	254.75
284.207	265.75
284.439	256.75
284.67	266.75
284.901	278.75
285.132	278.75
285.364	256.75
285.595	265.75
285.826	267.75
286.057	286.75
286.288	261.75
286.52	288.75
286.751	269.75
286.982	272.75
287.213	273.75
287.444	272.75
287.675	273.75
287.906	268.75
288.138	275.75
288.369	300.75
288.6	303.75
288.831	287.75
289.062	276.75
289.293	270.75
289.524	275.75
289.755	275.75
289.986	292.75
290.217	295.75
290.448	276.75
290.679	297.75
290.91	297.75
291.141	278.75
291.371	263.75
291.602	268.75
291.833	282.75
292.064	256.75
292.295	271.75
292.526	285.75
292.757	311.75
292.987	285.75
293.218	263.75
293.449	269.75
293.68	279.75
293.91	290.75
294.141	277.75
294.372	269.75
294.603	293.75
294.833	291.75
295.064	282.75
295.295	271.75
295.525	267.75
295.756	293.75
295.987	291.75
296.217	305.75
296.448	310.75
296.679	300.75
296.909	274.75
297.14	276.75
297.37	288.75
297.601	295.75
297.831	272.75
298.062	279.75
298.292	295.75
298.523	290.75
298.753	312.75
298.984	282.75
299.214	307.75
299.445	295.75
299.675	287.75
299.905	309.75
300.136	309.75
300.366	302.75
300.597	305.75
300.827	314.75
301.057	308.75
301.288	338.75
301.518	292.75
301.748	303.75
301.979	321.75
302.209	300.75
302.439	316.75
302.669	307.75
302.9	300.75
303.13	299.75
303.36	332.75
303.59	327.75
303.82	322.75
304.051	327.75
304.281	310.75
304.511	315.75
304.741	306.75
304.971	297.75
305.201	309.75
305.431	317.75
305.661	314.75
305.891	337.75
306.121	323.75
306.352	317.75
306.582	328.75
306.812	327.75
307.042	301.75
307.272	297.75
307.502	296.75
307.731	323.75
307.961	330.75
308.191	327.75
308.421	323.75
308.651	315.75
308.881	322.75
309.111	325.75
309.341	317.75
309.571	334.75
309.8	365.75
310.03	360.75
310.26	364.75
310.49	375.75
310.72	369.75
310.949	383.75
311.179	394.75
311.409	360.75
311.639	369.75
311.868	366.75
312.098	370.75
312.328	377.75
312.557	389.75
312.787	389.75
313.017	387.75
313.246	379.75
313.476	358.75
313.706	379.75
313.935	396.75
314.165	382.75
314.394	420.75
314.624	390.75
314.853	383.75
315.083	381.75
315.312	360.75
315.542	373.75
315.771	344.75
316.001	359.75
316.23	358.75
316.46	363.75
316.689	387.75
316.919	378.75
317.148	384.75
317.377	377.75
317.607	363.75
317.836	379.75
318.065	380.75
318.295	380.75
318.524	359.75
318.753	377.75
318.983	371.75
319.212	379.75
319.441	377.75
319.67	393.75
319.9	379.75
320.129	373.75
320.358	374.75
320.587	379.75
320.816	393.75
321.046	398.75
321.275	381.75
321.504	408.75
321.733	392.75
321.962	420.75
322.191	418.75
322.42	431.75
322.649	443.75
322.878	464.75
323.108	461.75
323.337	470.75
323.566	529.75
323.795	553.75
324.024	609.75
324.253	763.75
324.482	1068.75
324.71	1636.75
324.939	2237.75
325.168	1901.75
325.397	1032.75
325.626	703.75
325.855	594.75
326.084	529.75
326.313	510.75
326.542	509.75
326.77	595.75
326.999	695.75
327.228	960.75
327.457	1409.75
327.686	1661.75
327.914	1123.75
328.143	728.75
328.372	637.75
328.6	606.75
328.829	593.75
329.058	585.75
329.287	567.75
329.515	547.75
329.744	533.75
329.972	517.75
330.201	537.75
330.43	561.75
330.658	600.75
330.887	593.75
331.115	582.75
331.344	507.75
331.572	496.75
331.801	493.75
332.03	479.75
332.258	456.75
332.486	439.75
332.715	417.75
332.943	422.75
333.172	411.75
333.4	434.75
333.629	427.75
333.857	455.75
334.085	450.75
334.314	477.75
334.542	491.75
334.771	504.75
334.999	468.75
335.227	441.75
335.455	434.75
335.684	443.75
335.912	428.75
336.14	416.75
336.369	407.75
336.597	428.75
336.825	440.75
337.053	431.75
337.281	419.75
337.51	411.75
337.738	417.75
337.966	417.75
338.194	438.75
338.422	433.75
338.65	408.75
338.878	388.75
339.106	407.75
339.334	396.75
339.562	415.75
339.79	404.75
340.018	398.75
340.246	392.75
340.474	403.75
340.702	393.75
340.93	391.75
341.158	404.75
341.386	409.75
341.614	407.75
341.842	387.75
342.07	421.75
342.298	407.75
342.526	404.75
342.754	399.75
342.981	385.75
343.209	398.75
343.437	383.75
343.665	409.75
343.893	391.75
344.12	385.75
344.348	384.75
344.576	393.75
344.804	390.75
345.031	435.75
345.259	434.75
345.487	406.75
345.714	392.75
345.942	401.75
346.17	386.75
346.397	385.75
346.625	386.75
346.853	392.75
347.08	389.75
347.308	401.75
347.535	403.75
347.763	397.75
347.99	405.75
348.218	412.75
348.445	411.75
348.673	410.75
348.9	392.75
349.128	393.75
349.355	404.75
349.583	387.75
349.81	357.75
350.037	367.75
350.265	353.75
350.492	351.75
350.72	385.75
350.947	381.75
351.174	411.75
351.402	412.75
351.629	394.75
351.856	380.75
352.083	393.75
352.311	405.75
352.538	393.75
352.765	406.75
352.992	413.75
353.22	394.75
353.447	391.75
353.674	371.75
353.901	391.75
354.128	371.75
354.355	370.75
354.583	348.75
354.81	349.75
355.037	354.75
355.264	368.75
355.491	345.75
355.718	371.75
355.945	358.75
356.172	331.75
356.399	338.75
356.626	325.75
356.853	358.75
357.08	357.75
357.307	365.75
357.534	368.75
357.761	345.75
357.988	370.75
358.215	353.75
358.441	357.75
358.668	350.75
358.895	363.75
359.122	364.75
359.349	370.75
359.576	392.75
359.802	418.75
360.029	453.75
360.256	431.75
360.483	416.75
360.709	391.75
360.936	402.75
361.163	387.75
361.39	389.75
361.616	405.75
361.843	381.75
362.07	382.75
362.296	375.75
362.523	373.75
362.749	391.75
362.976	375.75
363.203	357.75
363.429	356.75
363.656	362.75
363.882	365.75
364.109	364.75
364.335	357.75
364.562	363.75
364.788	339.75
365.015	376.75
365.241	350.75
365.468	370.75
365.694	378.75
365.92	369.75
366.147	367.75
366.373	359.75
366.599	383.75
366.826	348.75
367.052	346.75
367.278	322.75
367.505	341.75
367.731	373.75
367.957	359.75
368.184	337.75
368.41	380.75
368.636	376.75
368.862	371.75
369.089	354.75
369.315	373.75
369.541	343.75
369.767	358.75
369.993	371.75
370.219	351.75
370.445	350.75
370.672	354.75
370.898	363.75
371.124	360.75
371.35	345.75
371.576	339.75
371.802	333.75
372.028	354.75
372.254	348.75
372.48	354.75
372.706	348.75
372.932	347.75
373.158	348.75
373.384	362.75
373.61	354.75
373.835	357.75
374.061	338.75
374.287	375.75
374.513	359.75
374.739	368.75
374.965	361.75
375.191	338.75
375.416	357.75
375.642	361.75
375.868	345.75
376.094	375.75
376.319	351.75
376.545	356.75
376.771	352.75
376.997	344.75
377.222	350.75
377.448	354.75
377.674	333.75
377.899	359.75
378.125	340.75
378.35	341.75
378.576	335.75
378.802	331.75
379.027	345.75
379.253	342.75
379.478	353.75
379.704	341.75
379.929	339.75
380.155	357.75
380.38	351.75
380.606	339.75
380.831	341.75
381.057	345.75
381.282	343.75
381.507	340.75
381.733	335.75
381.958	332.75
382.184	338.75
382.409	344.75
382.634	339.75
382.86	339.75
383.085	357.75
383.31	326.75
383.535	354.75
383.761	344.75
383.986	337.75
384.211	361.75
384.436	340.75
384.662	350.75
384.887	353.75
385.112	363.75
385.337	368.75
385.562	363.75
385.787	367.75
386.013	349.75
386.238	374.75
386.463	352.75
386.688	352.75
386.913	360.75
387.138	362.75
387.363	362.75
387.588	364.75
387.813	347.75
388.038	347.75
388.263	352.75
388.488	357.75
388.713	362.75
388.938	338.75
389.163	355.75
389.387	363.75
389.612	365.75
389.837	354.75
390.062	348.75
390.287	331.75
390.512	375.75
390.736	348.75
390.961	348.75
391.186	358.75
391.411	347.75
391.636	344.75
391.86	371.75
392.085	351.75
392.31	359.75
392.534	356.75
392.759	382.75
392.984	358.75
393.208	359.75
393.433	371.75
393.658	379.75
393.882	327.75
394.107	350.75
394.331	362.75
394.556	353.75
394.78	356.75
395.005	353.75
395.229	351.75
395.454	370.75
395.678	361.75
395.903	373.75
396.127	402.75
396.352	411.75
396.576	374.75
396.801	375.75
397.025	352.75
397.249	366.75
397.474	373.75
397.698	371.75
397.922	379.75
398.147	394.75
398.371	406.75
398.595	378.75
398.82	391.75
399.044	414.75
399.268	406.75
399.492	385.75
399.717	449.75
399.941	461.75
400.165	478.75
400.389	489.75
400.613	452.75
400.837	407.75
401.062	401.75
401.286	399.75
401.51	388.75
401.734	405.75
401.958	397.75
402.182	397.75
402.406	383.75
402.63	401.75
402.854	399.75
403.078	395.75
403.302	401.75
403.526	393.75
403.75	421.75
403.974	381.75
404.198	397.75
404.422	397.75
404.645	403.75
404.869	423.75
405.093	425.75
405.317	455.75
405.541	492.75
405.765	457.75
405.988	472.75
406.212	455.75
406.436	471.75
406.66	468.75
406.883	450.75
407.107	472.75
407.331	501.75
407.555	549.75
407.778	532.75
408.002	515.75
408.226	448.75
408.449	432.75
408.673	458.75
408.896	479.75
409.12	509.75
409.344	481.75
409.567	445.75
409.791	438.75
410.014	432.75
410.238	413.75
410.461	422.75
410.685	431.75
410.908	434.75
411.132	459.75
411.355	497.75
411.578	465.75
411.802	428.75
412.025	427.75
412.249	430.75
412.472	431.75
412.695	451.75
412.919	454.75
413.142	420.75
413.365	393.75
413.589	393.75
413.812	386.75
414.035	371.75
414.258	387.75
414.482	372.75
414.705	405.75
414.928	393.75
415.151	391.75
415.374	390.75
415.597	372.75
415.821	408.75
416.044	383.75
416.267	384.75
416.49	394.75
416.713	384.75
416.936	383.75
417.159	363.75
417.382	376.75
417.605	395.75
417.828	397.75
418.051	393.75
418.274	395.75
418.497	399.75
418.72	381.75
418.943	387.75
419.166	401.75
419.389	403.75
419.611	398.75
419.834	406.75
420.057	391.75
420.28	409.75
420.503	409.75
420.726	391.75
420.948	401.75
421.171	436.75
421.394	473.75
421.617	421.75
421.839	408.75
422.062	423.75
422.285	421.75
422.507	487.75
422.73	539.75
422.953	509.75
423.175	463.75
423.398	427.75
423.621	411.75
423.843	443.75
424.066	445.75
424.288	432.75
424.511	451.75
424.733	490.75
424.956	582.75
425.178	563.75
425.401	549.75
425.623	563.75
425.846	503.75
426.068	455.75
426.291	448.75
426.513	445.75
426.735	481.75
426.958	496.75
427.18	567.75
427.402	695.75
427.625	735.75
427.847	673.75
428.069	547.75
428.292	502.75
428.514	467.75
428.736	445.75
428.958	429.75
429.181	406.75
429.403	423.75
429.625	413.75
429.847	469.75
430.069	525.75
430.292	472.75
430.514	420.75
430.736	420.75
430.958	391.75
431.18	391.75
431.402	404.75
431.624	404.75
431.846	380.75
432.068	381.75
432.29	383.75
432.512	375.75
432.734	390.75
432.956	396.75
433.178	412.75
433.4	402.75
433.622	393.75
433.844	415.75
434.066	390.75
434.287	388.75
434.509	387.75
434.731	407.75
434.953	389.75
435.175	421.75
435.397	420.75
435.618	452.75
435.84	489.75
436.062	603.75
436.284	642.75
436.505	521.75
436.727	468.75
436.949	441.75
437.17	441.75
437.392	442.75
437.614	443.75
437.835	466.75
438.057	568.75
438.278	613.75
438.5	628.75
438.721	661.75
438.943	658.75
439.165	529.75
439.386	481.75
439.608	475.75
439.829	455.75
440.05	498.75
440.272	526.75
440.493	490.75
440.715	458.75
440.936	437.75
441.158	415.75
441.379	419.75
441.6	419.75
441.822	453.75
442.043	478.75
442.264	564.75
442.486	599.75
442.707	497.75
442.928	476.75
443.149	460.75
443.371	480.75
443.592	531.75
443.813	591.75
444.034	634.75
444.255	573.75
444.476	461.75
444.698	448.75
444.919	444.75
445.14	530.75
445.361	481.75
445.582	495.75
445.803	541.75
446.024	632.75
446.245	664.75
446.466	592.75
446.687	490.75
446.908	449.75
447.129	416.75
447.35	412.75
447.571	415.75
447.792	409.75
448.013	419.75
448.234	457.75
448.455	484.75
448.675	579.75
448.896	668.75
449.117	565.75
449.338	558.75
449.559	635.75
449.779	725.75
450	573.75
450.221	449.75
450.442	440.75
450.662	438.75
450.883	439.75
451.104	429.75
451.324	420.75
451.545	410.75
451.766	379.75
451.986	362.75
452.207	381.75
452.428	363.75
452.648	393.75
452.869	373.75
453.089	373.75
453.31	383.75
453.53	372.75
453.751	375.75
453.971	370.75
454.192	402.75
454.412	393.75
454.633	375.75
454.853	359.75
455.073	378.75
455.294	392.75
455.514	465.75
455.734	437.75
455.955	369.75
456.175	345.75
456.395	343.75
456.616	355.75
456.836	344.75
457.056	350.75
457.276	325.75
457.497	346.75
457.717	340.75
457.937	363.75
458.157	351.75
458.377	351.75
458.598	397.75
458.818	415.75
459.038	519.75
459.258	517.75
459.478	424.75
459.698	413.75
459.918	376.75
460.138	390.75
460.358	393.75
460.578	364.75
460.798	403.75
461.018	389.75
461.238	387.75
461.458	374.75
461.678	389.75
461.898	376.75
462.118	379.75
462.338	379.75
462.558	384.75
462.777	387.75
462.997	392.75
463.217	391.75
463.437	421.75
463.657	414.75
463.876	389.75
464.096	395.75
464.316	388.75
464.536	418.75
464.755	394.75
464.975	420.75
465.195	467.75
465.414	518.75
465.634	480.75
465.854	423.75
466.073	391.75
466.293	387.75
466.512	372.75
466.732	389.75
466.951	386.75
467.171	378.75
467.391	379.75
467.61	395.75
467.829	404.75
468.049	400.75
468.268	367.75
468.488	364.75
468.707	373.75
468.927	367.75
469.146	376.75
469.365	351.75
469.585	372.75
469.804	369.75
470.023	385.75
470.243	386.75
470.462	404.75
470.681	387.75
470.901	397.75
471.12	391.75
471.339	380.75
471.558	410.75
471.777	408.75
471.997	392.75
472.216	399.75
472.435	383.75
472.654	403.75
472.873	375.75
473.092	353.75
473.311	377.75
473.53	386.75
473.749	395.75
473.968	421.75
474.187	516.75
474.406	547.75
474.625	433.75
474.844	409.75
475.063	388.75
475.282	374.75
475.501	402.75
475.72	381.75
475.939	396.75
476.158	387.75
476.377	383.75
476.596	383.75
476.814	391.75
477.033	395.75
477.252	420.75
477.471	389.75
477.69	414.75
477.908	412.75
478.127	428.75
478.346	420.75
478.564	419.75
478.783	415.75
479.002	420.75
479.22	433.75
479.439	438.75
479.658	463.75
479.876	469.75
480.095	445.75
480.313	490.75
480.532	475.75
480.751	474.75
480.969	471.75
481.188	526.75
481.406	538.75
481.624	480.75
481.843	471.75
482.061	451.75
482.28	423.75
482.498	431.75
482.717	436.75
482.935	456.75
483.153	427.75
483.372	443.75
483.59	450.75
483.808	439.75
484.027	440.75
484.245	460.75
484.463	447.75
484.681	442.75
484.9	444.75
485.118	448.75
485.336	445.75
485.554	460.75
485.772	472.75
485.99	441.75
486.209	431.75
486.427	455.75
486.645	458.75
486.863	489.75
487.081	484.75
487.299	488.75
487.517	479.75
487.735	472.75
487.953	469.75
488.171	470.75
488.389	467.75
488.607	484.75
488.825	477.75
489.043	485.75
489.261	507.75
489.479	488.75
489.696	473.75
489.914	496.75
490.132	482.75
490.35	518.75
490.568	490.75
490.786	501.75
491.003	507.75
491.221	513.75
491.439	523.75
491.657	528.75
491.874	545.75
492.092	536.75
492.31	534.75
492.527	548.75
492.745	578.75
492.963	552.75
493.18	571.75
493.398	576.75
493.615	559.75
493.833	575.75
494.05	555.75
494.268	559.75
494.485	567.75
494.703	550.75
494.92	547.75
495.138	561.75
495.355	563.75
495.573	572.75
495.79	556.75
496.008	569.75
496.225	574.75
496.442	567.75
496.66	559.75
496.877	579.75
497.094	575.75
497.312	561.75
497.529	578.75
497.746	559.75
497.963	595.75
498.181	613.75
498.398	629.75
498.615	608.75
498.832	605.75
499.049	610.75
499.267	636.75
499.484	614.75
499.701	670.75
499.918	668.75
500.135	693.75
500.352	699.75
500.569	711.75
500.786	727.75
501.003	725.75
501.22	699.75
501.437	677.75
501.654	700.75
501.871	709.75
