Data from 1981.PennyLincolnUp.Lamp.En5.5.200Scan.071819.P1_HRD10591_16-41-01-959.txt Node
Date: Thu Jul 18 16:41:01 EDT 2019
User: cochatt
Spectrometer: HR+D1059
Trigger mode: 1
Integration Time (sec): 1.000000E-1
Scans to average: 1
Electric dark correction enabled: true
Nonlinearity correction enabled: false
Boxcar width: 0
XAxis mode: Wavelengths
Number of Pixels in Spectrum: 2048
>>>>>Begin Spectral Data<<<<<
223.165	-27.94
223.4	-27.94
223.635	-27.94
223.869	-13.94
224.104	-10.94
224.338	-18.94
224.573	-10.94
224.808	-5.94
225.042	-9.94
225.277	-10.94
225.511	-3.94
225.746	12.06
225.98	6.06
226.215	-1.94
226.449	22.06
226.683	14.06
226.918	32.06
227.152	29.06
227.387	20.06
227.621	54.06
227.856	34.06
228.09	38.06
228.324	54.06
228.559	61.06
228.793	74.06
229.027	103.06
229.262	115.06
229.496	109.06
229.73	127.06
229.964	152.06
230.199	139.06
230.433	102.06
230.667	110.06
230.901	126.06
231.136	101.06
231.37	107.06
231.604	121.06
231.838	100.06
232.072	106.06
232.306	118.06
232.541	109.06
232.775	112.06
233.009	106.06
233.243	102.06
233.477	111.06
233.711	115.06
233.945	117.06
234.179	115.06
234.413	100.06
234.647	99.06
234.881	106.06
235.115	126.06
235.349	129.06
235.583	109.06
235.817	109.06
236.051	119.06
236.285	111.06
236.519	122.06
236.753	127.06
236.987	129.06
237.221	181.06
237.455	220.06
237.689	184.06
237.922	143.06
238.156	131.06
238.39	126.06
238.624	118.06
238.858	117.06
239.091	123.06
239.325	129.06
239.559	117.06
239.793	127.06
240.027	126.06
240.26	141.06
240.494	142.06
240.728	152.06
240.961	123.06
241.195	141.06
241.429	135.06
241.662	126.06
241.896	127.06
242.13	125.06
242.363	144.06
242.597	139.06
242.83	135.06
243.064	127.06
243.298	127.06
243.531	124.06
243.765	135.06
243.998	121.06
244.232	121.06
244.465	148.06
244.699	135.06
244.932	149.06
245.166	138.06
245.399	132.06
245.633	133.06
245.866	140.06
246.099	134.06
246.333	138.06
246.566	131.06
246.8	139.06
247.033	151.06
247.266	147.06
247.5	161.06
247.733	157.06
247.966	151.06
248.2	158.06
248.433	154.06
248.666	163.06
248.899	180.06
249.133	196.06
249.366	209.06
249.599	186.06
249.832	176.06
250.066	178.06
250.299	186.06
250.532	188.06
250.765	213.06
250.998	228.06
251.231	217.06
251.465	217.06
251.698	200.06
251.931	187.06
252.164	186.06
252.397	203.06
252.63	214.06
252.863	212.06
253.096	220.06
253.329	224.06
253.562	228.06
253.795	227.06
254.028	220.06
254.261	213.06
254.494	215.06
254.727	250.06
254.96	293.06
255.193	283.06
255.426	245.06
255.659	238.06
255.892	229.06
256.124	221.06
256.357	230.06
256.59	209.06
256.823	220.06
257.056	232.06
257.289	198.06
257.521	207.06
257.754	223.06
257.987	196.06
258.22	226.06
258.452	207.06
258.685	220.06
258.918	209.06
259.151	213.06
259.383	223.06
259.616	226.06
259.849	226.06
260.081	231.06
260.314	257.06
260.547	251.06
260.779	232.06
261.012	228.06
261.244	243.06
261.477	222.06
261.71	227.06
261.942	216.06
262.175	233.06
262.407	217.06
262.64	225.06
262.872	206.06
263.105	212.06
263.337	204.06
263.57	201.06
263.802	198.06
264.035	222.06
264.267	216.06
264.499	211.06
264.732	200.06
264.964	208.06
265.197	206.06
265.429	207.06
265.661	200.06
265.894	214.06
266.126	189.06
266.358	205.06
266.591	215.06
266.823	207.06
267.055	222.06
267.287	220.06
267.52	217.06
267.752	228.06
267.984	219.06
268.216	222.06
268.448	230.06
268.681	210.06
268.913	237.06
269.145	243.06
269.377	268.06
269.609	261.06
269.841	269.06
270.073	261.06
270.306	290.06
270.538	301.06
270.77	323.06
271.002	268.06
271.234	276.06
271.466	306.06
271.698	306.06
271.93	303.06
272.162	311.06
272.394	309.06
272.626	296.06
272.858	273.06
273.09	285.06
273.322	268.06
273.553	245.06
273.785	263.06
274.017	251.06
274.249	262.06
274.481	267.06
274.713	261.06
274.945	276.06
275.176	263.06
275.408	246.06
275.64	249.06
275.872	259.06
276.104	231.06
276.335	250.06
276.567	271.06
276.799	273.06
277.031	297.06
277.262	321.06
277.494	305.06
277.726	283.06
277.957	270.06
278.189	287.06
278.421	265.06
278.652	270.06
278.884	264.06
279.115	255.06
279.347	272.06
279.579	239.06
279.81	247.06
280.042	259.06
280.273	238.06
280.505	255.06
280.736	248.06
280.968	249.06
281.199	263.06
281.431	257.06
281.662	250.06
281.894	246.06
282.125	255.06
282.356	289.06
282.588	307.06
282.819	286.06
283.051	276.06
283.282	276.06
283.513	259.06
283.745	236.06
283.976	248.06
284.207	266.06
284.439	270.06
284.67	261.06
284.901	253.06
285.132	267.06
285.364	243.06
285.595	267.06
285.826	269.06
286.057	275.06
286.288	261.06
286.52	262.06
286.751	270.06
286.982	267.06
287.213	279.06
287.444	287.06
287.675	266.06
287.906	261.06
288.138	281.06
288.369	284.06
288.6	291.06
288.831	279.06
289.062	279.06
289.293	280.06
289.524	266.06
289.755	265.06
289.986	276.06
290.217	261.06
290.448	270.06
290.679	285.06
290.91	272.06
291.141	257.06
291.371	265.06
291.602	277.06
291.833	253.06
292.064	275.06
292.295	269.06
292.526	267.06
292.757	289.06
292.987	282.06
293.218	271.06
293.449	266.06
293.68	267.06
293.91	263.06
294.141	289.06
294.372	271.06
294.603	271.06
294.833	280.06
295.064	276.06
295.295	276.06
295.525	255.06
295.756	272.06
295.987	277.06
296.217	308.06
296.448	311.06
296.679	286.06
296.909	250.06
297.14	284.06
297.37	277.06
297.601	265.06
297.831	284.06
298.062	275.06
298.292	282.06
298.523	289.06
298.753	282.06
298.984	281.06
299.214	277.06
299.445	306.06
299.675	289.06
299.905	281.06
300.136	293.06
300.366	291.06
300.597	286.06
300.827	301.06
301.057	300.06
301.288	301.06
301.518	306.06
301.748	298.06
301.979	300.06
302.209	311.06
302.439	329.06
302.669	308.06
302.9	317.06
303.13	305.06
303.36	309.06
303.59	307.06
303.82	313.06
304.051	324.06
304.281	328.06
304.511	301.06
304.741	309.06
304.971	295.06
305.201	293.06
305.431	317.06
305.661	309.06
305.891	303.06
306.121	309.06
306.352	313.06
306.582	321.06
306.812	311.06
307.042	301.06
307.272	308.06
307.502	306.06
307.731	333.06
307.961	295.06
308.191	311.06
308.421	298.06
308.651	325.06
308.881	314.06
309.111	313.06
309.341	316.06
309.571	341.06
309.8	324.06
310.03	349.06
310.26	367.06
310.49	359.06
310.72	356.06
310.949	381.06
311.179	405.06
311.409	376.06
311.639	364.06
311.868	342.06
312.098	356.06
312.328	348.06
312.557	374.06
312.787	391.06
313.017	375.06
313.246	376.06
313.476	380.06
313.706	351.06
313.935	347.06
314.165	383.06
314.394	374.06
314.624	369.06
314.853	358.06
315.083	357.06
315.312	349.06
315.542	355.06
315.771	343.06
316.001	347.06
316.23	355.06
316.46	350.06
316.689	345.06
316.919	371.06
317.148	375.06
317.377	377.06
317.607	366.06
317.836	358.06
318.065	339.06
318.295	365.06
318.524	332.06
318.753	358.06
318.983	346.06
319.212	350.06
319.441	366.06
319.67	378.06
319.9	365.06
320.129	342.06
320.358	364.06
320.587	371.06
320.816	371.06
321.046	354.06
321.275	379.06
321.504	373.06
321.733	362.06
321.962	387.06
322.191	407.06
322.42	409.06
322.649	441.06
322.878	430.06
323.108	449.06
323.337	465.06
323.566	493.06
323.795	510.06
324.024	587.06
324.253	723.06
324.482	1014.06
324.71	1551.06
324.939	2119.06
325.168	1742.06
325.397	950.06
325.626	665.06
325.855	547.06
326.084	487.06
326.313	504.06
326.542	506.06
326.77	564.06
326.999	637.06
327.228	921.06
327.457	1356.06
327.686	1548.06
327.914	1061.06
328.143	709.06
328.372	599.06
328.6	599.06
328.829	548.06
329.058	550.06
329.287	553.06
329.515	529.06
329.744	478.06
329.972	479.06
330.201	494.06
330.43	511.06
330.658	562.06
330.887	583.06
331.115	586.06
331.344	491.06
331.572	457.06
331.801	458.06
332.03	486.06
332.258	436.06
332.486	412.06
332.715	423.06
332.943	403.06
333.172	419.06
333.4	405.06
333.629	424.06
333.857	428.06
334.085	426.06
334.314	427.06
334.542	448.06
334.771	459.06
334.999	437.06
335.227	413.06
335.455	400.06
335.684	407.06
335.912	412.06
336.14	406.06
336.369	402.06
336.597	399.06
336.825	400.06
337.053	400.06
337.281	398.06
337.51	383.06
337.738	413.06
337.966	403.06
338.194	398.06
338.422	417.06
338.65	398.06
338.878	407.06
339.106	365.06
339.334	396.06
339.562	395.06
339.79	383.06
340.018	387.06
340.246	389.06
340.474	381.06
340.702	392.06
340.93	388.06
341.158	414.06
341.386	388.06
341.614	410.06
341.842	377.06
342.07	379.06
342.298	389.06
342.526	384.06
342.754	374.06
342.981	357.06
343.209	395.06
343.437	382.06
343.665	384.06
343.893	397.06
344.12	382.06
344.348	399.06
344.576	393.06
344.804	407.06
345.031	396.06
345.259	399.06
345.487	423.06
345.714	374.06
345.942	386.06
346.17	385.06
346.397	391.06
346.625	360.06
346.853	373.06
347.08	381.06
347.308	393.06
347.535	381.06
347.763	393.06
347.99	387.06
348.218	395.06
348.445	392.06
348.673	397.06
348.9	367.06
349.128	378.06
349.355	362.06
349.583	387.06
349.81	385.06
350.037	374.06
350.265	380.06
350.492	369.06
350.72	373.06
350.947	366.06
351.174	375.06
351.402	378.06
351.629	398.06
351.856	369.06
352.083	369.06
352.311	391.06
352.538	394.06
352.765	385.06
352.992	400.06
353.22	369.06
353.447	375.06
353.674	364.06
353.901	370.06
354.128	350.06
354.355	360.06
354.583	350.06
354.81	344.06
355.037	350.06
355.264	346.06
355.491	348.06
355.718	340.06
355.945	338.06
356.172	333.06
356.399	348.06
356.626	346.06
356.853	345.06
357.08	325.06
357.307	353.06
357.534	332.06
357.761	347.06
357.988	371.06
358.215	352.06
358.441	335.06
358.668	350.06
358.895	362.06
359.122	360.06
359.349	360.06
359.576	366.06
359.802	397.06
360.029	417.06
360.256	410.06
360.483	395.06
360.709	381.06
360.936	364.06
361.163	377.06
361.39	377.06
361.616	373.06
361.843	359.06
362.07	365.06
362.296	381.06
362.523	362.06
362.749	366.06
362.976	364.06
363.203	363.06
363.429	330.06
363.656	364.06
363.882	362.06
364.109	343.06
364.335	372.06
364.562	370.06
364.788	334.06
365.015	353.06
365.241	349.06
365.468	354.06
365.694	351.06
365.92	349.06
366.147	344.06
366.373	358.06
366.599	335.06
366.826	337.06
367.052	343.06
367.278	356.06
367.505	349.06
367.731	343.06
367.957	329.06
368.184	334.06
368.41	351.06
368.636	358.06
368.862	353.06
369.089	362.06
369.315	350.06
369.541	332.06
369.767	358.06
369.993	325.06
370.219	347.06
370.445	346.06
370.672	326.06
370.898	342.06
371.124	323.06
371.35	339.06
371.576	330.06
371.802	340.06
372.028	327.06
372.254	351.06
372.48	346.06
372.706	329.06
372.932	330.06
373.158	360.06
373.384	353.06
373.61	353.06
373.835	323.06
374.061	330.06
374.287	329.06
374.513	335.06
374.739	345.06
374.965	327.06
375.191	354.06
375.416	326.06
375.642	335.06
375.868	350.06
376.094	322.06
376.319	349.06
376.545	349.06
376.771	339.06
376.997	335.06
377.222	316.06
377.448	323.06
377.674	325.06
377.899	342.06
378.125	319.06
378.35	338.06
378.576	339.06
378.802	332.06
379.027	307.06
379.253	339.06
379.478	341.06
379.704	344.06
379.929	308.06
380.155	319.06
380.38	323.06
380.606	346.06
380.831	348.06
381.057	327.06
381.282	323.06
381.507	335.06
381.733	333.06
381.958	331.06
382.184	319.06
382.409	330.06
382.634	337.06
382.86	329.06
383.085	321.06
383.31	337.06
383.535	349.06
383.761	339.06
383.986	343.06
384.211	332.06
384.436	348.06
384.662	346.06
384.887	333.06
385.112	341.06
385.337	338.06
385.562	344.06
385.787	333.06
386.013	369.06
386.238	353.06
386.463	363.06
386.688	359.06
386.913	332.06
387.138	349.06
387.363	344.06
387.588	334.06
387.813	348.06
388.038	366.06
388.263	331.06
388.488	341.06
388.713	339.06
388.938	350.06
389.163	339.06
389.387	368.06
389.612	339.06
389.837	344.06
390.062	365.06
390.287	344.06
390.512	342.06
390.736	357.06
390.961	355.06
391.186	362.06
391.411	341.06
391.636	348.06
391.86	340.06
392.085	331.06
392.31	337.06
392.534	342.06
392.759	348.06
392.984	336.06
393.208	335.06
393.433	352.06
393.658	336.06
393.882	332.06
394.107	353.06
394.331	350.06
394.556	352.06
394.78	355.06
395.005	344.06
395.229	338.06
395.454	352.06
395.678	341.06
395.903	361.06
396.127	384.06
396.352	385.06
396.576	370.06
396.801	357.06
397.025	345.06
397.249	356.06
397.474	363.06
397.698	378.06
397.922	364.06
398.147	385.06
398.371	390.06
398.595	393.06
398.82	375.06
399.044	390.06
399.268	391.06
399.492	399.06
399.717	408.06
399.941	422.06
400.165	454.06
400.389	473.06
400.613	433.06
400.837	413.06
401.062	365.06
401.286	385.06
401.51	393.06
401.734	383.06
401.958	379.06
402.182	394.06
402.406	403.06
402.63	389.06
402.854	408.06
403.078	406.06
403.302	399.06
403.526	392.06
403.75	395.06
403.974	402.06
404.198	388.06
404.422	384.06
404.645	381.06
404.869	414.06
405.093	424.06
405.317	449.06
405.541	467.06
405.765	456.06
405.988	441.06
406.212	418.06
406.436	444.06
406.66	431.06
406.883	439.06
407.107	450.06
407.331	468.06
407.555	527.06
407.778	537.06
408.002	484.06
408.226	453.06
408.449	444.06
408.673	414.06
408.896	463.06
409.12	484.06
409.344	484.06
409.567	447.06
409.791	422.06
410.014	406.06
410.238	386.06
410.461	397.06
410.685	387.06
410.908	417.06
411.132	423.06
411.355	466.06
411.578	436.06
411.802	409.06
412.025	398.06
412.249	397.06
412.472	422.06
412.695	450.06
412.919	442.06
413.142	396.06
413.365	388.06
413.589	360.06
413.812	381.06
414.035	371.06
414.258	363.06
414.482	357.06
414.705	368.06
414.928	357.06
415.151	357.06
415.374	344.06
415.597	362.06
415.821	369.06
416.044	375.06
416.267	358.06
416.49	371.06
416.713	360.06
416.936	386.06
417.159	375.06
417.382	377.06
417.605	375.06
417.828	394.06
418.051	370.06
418.274	379.06
418.497	367.06
418.72	368.06
418.943	381.06
419.166	383.06
419.389	411.06
419.611	389.06
419.834	407.06
420.057	387.06
420.28	400.06
420.503	401.06
420.726	393.06
420.948	409.06
421.171	460.06
421.394	483.06
421.617	427.06
421.839	388.06
422.062	411.06
422.285	410.06
422.507	490.06
422.73	530.06
422.953	489.06
423.175	449.06
423.398	416.06
423.621	412.06
423.843	426.06
424.066	428.06
424.288	420.06
424.511	447.06
424.733	492.06
424.956	557.06
425.178	535.06
425.401	532.06
425.623	526.06
425.846	474.06
426.068	429.06
426.291	422.06
426.513	433.06
426.735	465.06
426.958	468.06
427.18	541.06
427.402	621.06
427.625	705.06
427.847	645.06
428.069	537.06
428.292	494.06
428.514	430.06
428.736	424.06
428.958	422.06
429.181	412.06
429.403	403.06
429.625	437.06
429.847	429.06
430.069	474.06
430.292	481.06
430.514	406.06
430.736	400.06
430.958	388.06
431.18	380.06
431.402	381.06
431.624	386.06
431.846	361.06
432.068	379.06
432.29	375.06
432.512	371.06
432.734	351.06
432.956	383.06
433.178	396.06
433.4	382.06
433.622	382.06
433.844	374.06
434.066	347.06
434.287	393.06
434.509	391.06
434.731	364.06
434.953	361.06
435.175	392.06
435.397	422.06
435.618	429.06
435.84	494.06
436.062	541.06
436.284	609.06
436.505	508.06
436.727	469.06
436.949	426.06
437.17	412.06
437.392	392.06
437.614	447.06
437.835	454.06
438.057	516.06
438.278	596.06
438.5	606.06
438.721	658.06
438.943	647.06
439.165	492.06
439.386	469.06
439.608	443.06
439.829	454.06
440.05	474.06
440.272	517.06
440.493	497.06
440.715	455.06
440.936	429.06
441.158	411.06
441.379	413.06
441.6	401.06
441.822	441.06
442.043	464.06
442.264	541.06
442.486	574.06
442.707	473.06
442.928	453.06
443.149	467.06
443.371	455.06
443.592	515.06
443.813	576.06
444.034	618.06
444.255	515.06
444.476	470.06
444.698	445.06
444.919	417.06
445.14	522.06
445.361	476.06
445.582	486.06
445.803	531.06
446.024	633.06
446.245	615.06
446.466	549.06
446.687	496.06
446.908	442.06
447.129	439.06
447.35	422.06
447.571	391.06
447.792	406.06
448.013	411.06
448.234	436.06
448.455	461.06
448.675	579.06
448.896	627.06
449.117	551.06
449.338	521.06
449.559	604.06
449.779	663.06
450	560.06
450.221	427.06
450.442	420.06
450.662	413.06
450.883	414.06
451.104	435.06
451.324	399.06
451.545	368.06
451.766	386.06
451.986	356.06
452.207	367.06
452.428	347.06
452.648	350.06
452.869	355.06
453.089	376.06
453.31	389.06
453.53	385.06
453.751	350.06
453.971	365.06
454.192	387.06
454.412	386.06
454.633	362.06
454.853	361.06
455.073	343.06
455.294	393.06
455.514	436.06
455.734	429.06
455.955	361.06
456.175	355.06
456.395	345.06
456.616	327.06
456.836	318.06
457.056	343.06
457.276	342.06
457.497	324.06
457.717	359.06
457.937	345.06
458.157	334.06
458.377	345.06
458.598	388.06
458.818	419.06
459.038	493.06
459.258	493.06
459.478	426.06
459.698	398.06
459.918	402.06
460.138	359.06
460.358	352.06
460.578	372.06
460.798	366.06
461.018	383.06
461.238	378.06
461.458	357.06
461.678	357.06
461.898	368.06
462.118	376.06
462.338	366.06
462.558	389.06
462.777	376.06
462.997	384.06
463.217	398.06
463.437	383.06
463.657	374.06
463.876	382.06
464.096	389.06
464.316	383.06
464.536	397.06
464.755	389.06
464.975	376.06
465.195	429.06
465.414	496.06
465.634	454.06
465.854	397.06
466.073	396.06
466.293	382.06
466.512	358.06
466.732	363.06
466.951	359.06
467.171	345.06
467.391	369.06
467.61	377.06
467.829	378.06
468.049	365.06
468.268	375.06
468.488	354.06
468.707	363.06
468.927	364.06
469.146	341.06
469.365	344.06
469.585	359.06
469.804	364.06
470.023	380.06
470.243	376.06
470.462	380.06
470.681	395.06
470.901	375.06
471.12	381.06
471.339	375.06
471.558	368.06
471.777	381.06
471.997	370.06
472.216	381.06
472.435	390.06
472.654	366.06
472.873	356.06
473.092	376.06
473.311	370.06
473.53	364.06
473.749	378.06
473.968	415.06
474.187	501.06
474.406	531.06
474.625	446.06
474.844	399.06
475.063	357.06
475.282	357.06
475.501	385.06
475.72	374.06
475.939	377.06
476.158	386.06
476.377	371.06
476.596	376.06
476.814	389.06
477.033	405.06
477.252	408.06
477.471	379.06
477.69	398.06
477.908	395.06
478.127	402.06
478.346	396.06
478.564	401.06
478.783	418.06
479.002	399.06
479.22	416.06
479.439	415.06
479.658	451.06
479.876	446.06
480.095	436.06
480.313	444.06
480.532	454.06
480.751	447.06
480.969	451.06
481.188	484.06
481.406	511.06
481.624	453.06
481.843	431.06
482.061	422.06
482.28	433.06
482.498	439.06
482.717	418.06
482.935	401.06
483.153	421.06
483.372	444.06
483.59	427.06
483.808	439.06
484.027	413.06
484.245	444.06
484.463	429.06
484.681	423.06
484.9	448.06
485.118	438.06
485.336	428.06
485.554	443.06
485.772	446.06
485.99	451.06
486.209	463.06
486.427	438.06
486.645	453.06
486.863	466.06
487.081	461.06
487.299	498.06
487.517	469.06
487.735	479.06
487.953	443.06
488.171	450.06
488.389	488.06
488.607	461.06
488.825	461.06
489.043	462.06
489.261	461.06
489.479	470.06
489.696	478.06
489.914	478.06
490.132	494.06
490.35	485.06
490.568	476.06
490.786	504.06
491.003	493.06
491.221	515.06
491.439	545.06
491.657	519.06
491.874	538.06
492.092	507.06
492.31	518.06
492.527	525.06
492.745	535.06
492.963	526.06
493.18	540.06
493.398	524.06
493.615	521.06
493.833	526.06
494.05	547.06
494.268	514.06
494.485	537.06
494.703	561.06
494.92	557.06
495.138	542.06
495.355	561.06
495.573	557.06
495.79	551.06
496.008	543.06
496.225	539.06
496.442	563.06
496.66	538.06
496.877	560.06
497.094	534.06
497.312	544.06
497.529	566.06
497.746	561.06
497.963	577.06
498.181	585.06
498.398	593.06
498.615	604.06
498.832	618.06
499.049	591.06
499.267	597.06
499.484	623.06
499.701	639.06
499.918	612.06
500.135	649.06
500.352	681.06
500.569	690.06
500.786	701.06
501.003	686.06
501.22	652.06
501.437	695.06
501.654	673.06
501.871	663.06
