Data from 1981.PennyLincolnUp.Lamp.En5.5.200Scan.071819.P1_HRD10591_16-40-32-959.txt Node
Date: Thu Jul 18 16:40:32 EDT 2019
User: cochatt
Spectrometer: HR+D1059
Trigger mode: 1
Integration Time (sec): 1.000000E-1
Scans to average: 1
Electric dark correction enabled: true
Nonlinearity correction enabled: false
Boxcar width: 0
XAxis mode: Wavelengths
Number of Pixels in Spectrum: 2048
>>>>>Begin Spectral Data<<<<<
223.165	-16.44
223.4	-16.44
223.635	-16.44
223.869	-6.44
224.104	-23.44
224.338	-5.44
224.573	-10.44
224.808	-13.44
225.042	-14.44
225.277	-8.44
225.511	2.56
225.746	-3.44
225.98	-3.44
226.215	11.56
226.449	12.56
226.683	14.56
226.918	12.56
227.152	51.56
227.387	47.56
227.621	32.56
227.856	35.56
228.09	44.56
228.324	60.56
228.559	67.56
228.793	63.56
229.027	86.56
229.262	96.56
229.496	101.56
229.73	100.56
229.964	124.56
230.199	122.56
230.433	115.56
230.667	105.56
230.901	105.56
231.136	107.56
231.37	120.56
231.604	105.56
231.838	105.56
232.072	91.56
232.306	102.56
232.541	110.56
232.775	103.56
233.009	110.56
233.243	95.56
233.477	108.56
233.711	106.56
233.945	90.56
234.179	107.56
234.413	108.56
234.647	96.56
234.881	112.56
235.115	110.56
235.349	111.56
235.583	100.56
235.817	110.56
236.051	115.56
236.285	111.56
236.519	111.56
236.753	116.56
236.987	144.56
237.221	173.56
237.455	189.56
237.689	150.56
237.922	123.56
238.156	120.56
238.39	128.56
238.624	108.56
238.858	116.56
239.091	106.56
239.325	117.56
239.559	100.56
239.793	121.56
240.027	124.56
240.26	132.56
240.494	138.56
240.728	133.56
240.961	138.56
241.195	137.56
241.429	118.56
241.662	127.56
241.896	108.56
242.13	134.56
242.363	130.56
242.597	124.56
242.83	135.56
243.064	119.56
243.298	121.56
243.531	131.56
243.765	124.56
243.998	132.56
244.232	125.56
244.465	124.56
244.699	134.56
244.932	131.56
245.166	129.56
245.399	126.56
245.633	139.56
245.866	127.56
246.099	131.56
246.333	132.56
246.566	131.56
246.8	135.56
247.033	141.56
247.266	141.56
247.5	155.56
247.733	153.56
247.966	151.56
248.2	154.56
248.433	163.56
248.666	156.56
248.899	164.56
249.133	163.56
249.366	191.56
249.599	171.56
249.832	174.56
250.066	159.56
250.299	167.56
250.532	165.56
250.765	181.56
250.998	182.56
251.231	199.56
251.465	197.56
251.698	160.56
251.931	168.56
252.164	167.56
252.397	179.56
252.63	166.56
252.863	191.56
253.096	202.56
253.329	196.56
253.562	203.56
253.795	194.56
254.028	182.56
254.261	175.56
254.494	215.56
254.727	222.56
254.96	219.56
255.193	205.56
255.426	207.56
255.659	200.56
255.892	196.56
256.124	188.56
256.357	216.56
256.59	190.56
256.823	200.56
257.056	191.56
257.289	174.56
257.521	187.56
257.754	200.56
257.987	188.56
258.22	197.56
258.452	185.56
258.685	172.56
258.918	180.56
259.151	189.56
259.383	188.56
259.616	208.56
259.849	197.56
260.081	194.56
260.314	226.56
260.547	220.56
260.779	226.56
261.012	195.56
261.244	189.56
261.477	196.56
261.71	180.56
261.942	201.56
262.175	194.56
262.407	207.56
262.64	184.56
262.872	201.56
263.105	185.56
263.337	196.56
263.57	189.56
263.802	168.56
264.035	192.56
264.267	180.56
264.499	189.56
264.732	175.56
264.964	196.56
265.197	187.56
265.429	201.56
265.661	190.56
265.894	190.56
266.126	180.56
266.358	208.56
266.591	198.56
266.823	202.56
267.055	198.56
267.287	203.56
267.52	178.56
267.752	201.56
267.984	192.56
268.216	185.56
268.448	228.56
268.681	214.56
268.913	211.56
269.145	220.56
269.377	217.56
269.609	221.56
269.841	219.56
270.073	254.56
270.306	236.56
270.538	260.56
270.77	253.56
271.002	243.56
271.234	246.56
271.466	250.56
271.698	273.56
271.93	259.56
272.162	261.56
272.394	284.56
272.626	251.56
272.858	265.56
273.09	229.56
273.322	242.56
273.553	223.56
273.785	229.56
274.017	233.56
274.249	231.56
274.481	244.56
274.713	233.56
274.945	228.56
275.176	242.56
275.408	231.56
275.64	238.56
275.872	218.56
276.104	220.56
276.335	218.56
276.567	218.56
276.799	246.56
277.031	256.56
277.262	278.56
277.494	266.56
277.726	226.56
277.957	235.56
278.189	232.56
278.421	240.56
278.652	238.56
278.884	230.56
279.115	223.56
279.347	235.56
279.579	226.56
279.81	232.56
280.042	223.56
280.273	236.56
280.505	225.56
280.736	240.56
280.968	229.56
281.199	231.56
281.431	235.56
281.662	237.56
281.894	229.56
282.125	239.56
282.356	244.56
282.588	254.56
282.819	237.56
283.051	228.56
283.282	236.56
283.513	227.56
283.745	238.56
283.976	248.56
284.207	236.56
284.439	242.56
284.67	231.56
284.901	248.56
285.132	224.56
285.364	238.56
285.595	238.56
285.826	245.56
286.057	235.56
286.288	232.56
286.52	239.56
286.751	244.56
286.982	246.56
287.213	258.56
287.444	241.56
287.675	234.56
287.906	228.56
288.138	235.56
288.369	235.56
288.6	253.56
288.831	240.56
289.062	242.56
289.293	246.56
289.524	253.56
289.755	237.56
289.986	222.56
290.217	235.56
290.448	246.56
290.679	242.56
290.91	230.56
291.141	236.56
291.371	239.56
291.602	233.56
291.833	225.56
292.064	243.56
292.295	236.56
292.526	251.56
292.757	258.56
292.987	258.56
293.218	248.56
293.449	244.56
293.68	249.56
293.91	242.56
294.141	236.56
294.372	233.56
294.603	235.56
294.833	234.56
295.064	229.56
295.295	250.56
295.525	241.56
295.756	243.56
295.987	247.56
296.217	259.56
296.448	270.56
296.679	263.56
296.909	237.56
297.14	255.56
297.37	247.56
297.601	248.56
297.831	250.56
298.062	244.56
298.292	256.56
298.523	234.56
298.753	262.56
298.984	255.56
299.214	250.56
299.445	222.56
299.675	262.56
299.905	272.56
300.136	259.56
300.366	251.56
300.597	243.56
300.827	252.56
301.057	271.56
301.288	251.56
301.518	271.56
301.748	270.56
301.979	264.56
302.209	262.56
302.439	274.56
302.669	260.56
302.9	265.56
303.13	274.56
303.36	263.56
303.59	270.56
303.82	279.56
304.051	281.56
304.281	278.56
304.511	263.56
304.741	286.56
304.971	262.56
305.201	262.56
305.431	272.56
305.661	276.56
305.891	272.56
306.121	272.56
306.352	269.56
306.582	283.56
306.812	272.56
307.042	296.56
307.272	266.56
307.502	277.56
307.731	270.56
307.961	285.56
308.191	283.56
308.421	278.56
308.651	283.56
308.881	276.56
309.111	309.56
309.341	265.56
309.571	292.56
309.8	301.56
310.03	295.56
310.26	307.56
310.49	317.56
310.72	307.56
310.949	291.56
311.179	331.56
311.409	301.56
311.639	299.56
311.868	306.56
312.098	300.56
312.328	303.56
312.557	310.56
312.787	316.56
313.017	319.56
313.246	300.56
313.476	307.56
313.706	310.56
313.935	307.56
314.165	318.56
314.394	322.56
314.624	307.56
314.853	307.56
315.083	307.56
315.312	304.56
315.542	308.56
315.771	318.56
316.001	299.56
316.23	312.56
316.46	308.56
316.689	298.56
316.919	292.56
317.148	336.56
317.377	306.56
317.607	327.56
317.836	323.56
318.065	312.56
318.295	298.56
318.524	300.56
318.753	302.56
318.983	315.56
319.212	306.56
319.441	324.56
319.67	308.56
319.9	309.56
320.129	301.56
320.358	312.56
320.587	321.56
320.816	320.56
321.046	318.56
321.275	336.56
321.504	341.56
321.733	330.56
321.962	320.56
322.191	356.56
322.42	356.56
322.649	363.56
322.878	336.56
323.108	363.56
323.337	378.56
323.566	406.56
323.795	396.56
324.024	460.56
324.253	538.56
324.482	743.56
324.71	1110.56
324.939	1512.56
325.168	1294.56
325.397	724.56
325.626	528.56
325.855	458.56
326.084	420.56
326.313	396.56
326.542	401.56
326.77	440.56
326.999	483.56
327.228	674.56
327.457	972.56
327.686	1124.56
327.914	778.56
328.143	544.56
328.372	489.56
328.6	460.56
328.829	425.56
329.058	454.56
329.287	429.56
329.515	424.56
329.744	393.56
329.972	392.56
330.201	390.56
330.43	418.56
330.658	446.56
330.887	456.56
331.115	428.56
331.344	394.56
331.572	386.56
331.801	370.56
332.03	374.56
332.258	363.56
332.486	365.56
332.715	351.56
332.943	337.56
333.172	351.56
333.4	366.56
333.629	354.56
333.857	370.56
334.085	357.56
334.314	376.56
334.542	370.56
334.771	379.56
334.999	364.56
335.227	359.56
335.455	354.56
335.684	357.56
335.912	370.56
336.14	337.56
336.369	340.56
336.597	356.56
336.825	347.56
337.053	347.56
337.281	344.56
337.51	348.56
337.738	342.56
337.966	327.56
338.194	346.56
338.422	346.56
338.65	331.56
338.878	353.56
339.106	333.56
339.334	350.56
339.562	332.56
339.79	332.56
340.018	330.56
340.246	354.56
340.474	344.56
340.702	348.56
340.93	333.56
341.158	333.56
341.386	347.56
341.614	348.56
341.842	326.56
342.07	334.56
342.298	314.56
342.526	329.56
342.754	333.56
342.981	328.56
343.209	317.56
343.437	329.56
343.665	350.56
343.893	327.56
344.12	357.56
344.348	331.56
344.576	358.56
344.804	363.56
345.031	349.56
345.259	350.56
345.487	345.56
345.714	333.56
345.942	337.56
346.17	345.56
346.397	335.56
346.625	328.56
346.853	335.56
347.08	318.56
347.308	339.56
347.535	342.56
347.763	334.56
347.99	338.56
348.218	350.56
348.445	356.56
348.673	331.56
348.9	317.56
349.128	314.56
349.355	314.56
349.583	307.56
349.81	301.56
350.037	336.56
350.265	328.56
350.492	298.56
350.72	330.56
350.947	326.56
351.174	335.56
351.402	347.56
351.629	329.56
351.856	323.56
352.083	346.56
352.311	340.56
352.538	332.56
352.765	333.56
352.992	328.56
353.22	339.56
353.447	328.56
353.674	319.56
353.901	316.56
354.128	316.56
354.355	303.56
354.583	318.56
354.81	312.56
355.037	308.56
355.264	294.56
355.491	310.56
355.718	312.56
355.945	325.56
356.172	282.56
356.399	284.56
356.626	283.56
356.853	308.56
357.08	297.56
357.307	323.56
357.534	301.56
357.761	272.56
357.988	336.56
358.215	301.56
358.441	302.56
358.668	314.56
358.895	314.56
359.122	317.56
359.349	316.56
359.576	328.56
359.802	324.56
360.029	355.56
360.256	359.56
360.483	341.56
360.709	320.56
360.936	319.56
361.163	340.56
361.39	339.56
361.616	311.56
361.843	333.56
362.07	311.56
362.296	323.56
362.523	328.56
362.749	323.56
362.976	302.56
363.203	310.56
363.429	332.56
363.656	310.56
363.882	330.56
364.109	301.56
364.335	306.56
364.562	303.56
364.788	302.56
365.015	328.56
365.241	309.56
365.468	325.56
365.694	321.56
365.92	314.56
366.147	309.56
366.373	295.56
366.599	313.56
366.826	319.56
367.052	324.56
367.278	302.56
367.505	306.56
367.731	315.56
367.957	305.56
368.184	311.56
368.41	321.56
368.636	329.56
368.862	314.56
369.089	313.56
369.315	307.56
369.541	303.56
369.767	309.56
369.993	305.56
370.219	304.56
370.445	293.56
370.672	298.56
370.898	306.56
371.124	316.56
371.35	320.56
371.576	319.56
371.802	302.56
372.028	303.56
372.254	315.56
372.48	305.56
372.706	311.56
372.932	318.56
373.158	295.56
373.384	318.56
373.61	311.56
373.835	309.56
374.061	309.56
374.287	308.56
374.513	296.56
374.739	314.56
374.965	313.56
375.191	313.56
375.416	312.56
375.642	297.56
375.868	309.56
376.094	299.56
376.319	301.56
376.545	298.56
376.771	309.56
376.997	295.56
377.222	281.56
377.448	303.56
377.674	300.56
377.899	307.56
378.125	326.56
378.35	299.56
378.576	297.56
378.802	294.56
379.027	312.56
379.253	326.56
379.478	302.56
379.704	303.56
379.929	292.56
380.155	300.56
380.38	304.56
380.606	313.56
380.831	299.56
381.057	303.56
381.282	286.56
381.507	320.56
381.733	288.56
381.958	294.56
382.184	294.56
382.409	302.56
382.634	305.56
382.86	320.56
383.085	300.56
383.31	320.56
383.535	303.56
383.761	326.56
383.986	318.56
384.211	327.56
384.436	325.56
384.662	298.56
384.887	303.56
385.112	332.56
385.337	308.56
385.562	323.56
385.787	322.56
386.013	336.56
386.238	332.56
386.463	303.56
386.688	306.56
386.913	323.56
387.138	326.56
387.363	312.56
387.588	329.56
387.813	324.56
388.038	303.56
388.263	314.56
388.488	301.56
388.713	310.56
388.938	308.56
389.163	326.56
389.387	320.56
389.612	312.56
389.837	335.56
390.062	329.56
390.287	310.56
390.512	322.56
390.736	300.56
390.961	312.56
391.186	315.56
391.411	324.56
391.636	330.56
391.86	316.56
392.085	330.56
392.31	336.56
392.534	331.56
392.759	314.56
392.984	326.56
393.208	320.56
393.433	334.56
393.658	324.56
393.882	322.56
394.107	338.56
394.331	322.56
394.556	324.56
394.78	319.56
395.005	318.56
395.229	312.56
395.454	321.56
395.678	321.56
395.903	331.56
396.127	359.56
396.352	356.56
396.576	326.56
396.801	331.56
397.025	322.56
397.249	322.56
397.474	339.56
397.698	307.56
397.922	334.56
398.147	354.56
398.371	345.56
398.595	351.56
398.82	339.56
399.044	352.56
399.268	358.56
399.492	381.56
399.717	380.56
399.941	402.56
400.165	395.56
400.389	409.56
400.613	398.56
400.837	372.56
401.062	359.56
401.286	366.56
401.51	348.56
401.734	339.56
401.958	349.56
402.182	371.56
402.406	366.56
402.63	363.56
402.854	357.56
403.078	367.56
403.302	354.56
403.526	350.56
403.75	356.56
403.974	358.56
404.198	344.56
404.422	349.56
404.645	352.56
404.869	362.56
405.093	374.56
405.317	392.56
405.541	426.56
405.765	386.56
405.988	380.56
406.212	390.56
406.436	393.56
406.66	410.56
406.883	387.56
407.107	397.56
407.331	428.56
407.555	476.56
407.778	455.56
408.002	414.56
408.226	416.56
408.449	391.56
408.673	396.56
408.896	418.56
409.12	439.56
409.344	415.56
409.567	403.56
409.791	378.56
410.014	362.56
410.238	384.56
410.461	356.56
410.685	369.56
410.908	368.56
411.132	384.56
411.355	420.56
411.578	406.56
411.802	393.56
412.025	356.56
412.249	370.56
412.472	343.56
412.695	380.56
412.919	376.56
413.142	340.56
413.365	347.56
413.589	356.56
413.812	338.56
414.035	355.56
414.258	345.56
414.482	350.56
414.705	343.56
414.928	327.56
415.151	340.56
415.374	337.56
415.597	337.56
415.821	332.56
416.044	334.56
416.267	357.56
416.49	327.56
416.713	328.56
416.936	331.56
417.159	335.56
417.382	339.56
417.605	347.56
417.828	349.56
418.051	382.56
418.274	347.56
418.497	346.56
418.72	334.56
418.943	347.56
419.166	349.56
419.389	360.56
419.611	332.56
419.834	336.56
420.057	355.56
420.28	362.56
420.503	345.56
420.726	333.56
420.948	367.56
421.171	388.56
421.394	416.56
421.617	370.56
421.839	344.56
422.062	372.56
422.285	346.56
422.507	413.56
422.73	461.56
422.953	454.56
423.175	399.56
423.398	378.56
423.621	360.56
423.843	390.56
424.066	378.56
424.288	397.56
424.511	401.56
424.733	442.56
424.956	489.56
425.178	483.56
425.401	464.56
425.623	485.56
425.846	410.56
426.068	391.56
426.291	394.56
426.513	388.56
426.735	396.56
426.958	416.56
427.18	458.56
427.402	545.56
427.625	633.56
427.847	520.56
428.069	466.56
428.292	409.56
428.514	390.56
428.736	374.56
428.958	364.56
429.181	357.56
429.403	371.56
429.625	358.56
429.847	390.56
430.069	420.56
430.292	436.56
430.514	366.56
430.736	361.56
430.958	342.56
431.18	335.56
431.402	343.56
431.624	337.56
431.846	334.56
432.068	338.56
432.29	335.56
432.512	355.56
432.734	334.56
432.956	354.56
433.178	359.56
433.4	331.56
433.622	326.56
433.844	323.56
434.066	335.56
434.287	326.56
434.509	334.56
434.731	338.56
434.953	367.56
435.175	341.56
435.397	383.56
435.618	395.56
435.84	414.56
436.062	466.56
436.284	521.56
436.505	441.56
436.727	386.56
436.949	361.56
437.17	371.56
437.392	360.56
437.614	382.56
437.835	404.56
438.057	486.56
438.278	530.56
438.5	524.56
438.721	578.56
438.943	545.56
439.165	429.56
439.386	409.56
439.608	394.56
439.829	393.56
440.05	395.56
440.272	439.56
440.493	403.56
440.715	380.56
440.936	365.56
441.158	336.56
441.379	355.56
441.6	370.56
441.822	356.56
442.043	416.56
442.264	460.56
442.486	503.56
442.707	415.56
442.928	391.56
443.149	403.56
443.371	400.56
443.592	419.56
443.813	514.56
444.034	531.56
444.255	452.56
444.476	398.56
444.698	380.56
444.919	382.56
445.14	493.56
445.361	426.56
445.582	408.56
445.803	446.56
446.024	505.56
446.245	535.56
446.466	475.56
446.687	408.56
446.908	383.56
447.129	386.56
447.35	365.56
447.571	363.56
447.792	355.56
448.013	361.56
448.234	378.56
448.455	411.56
448.675	474.56
448.896	556.56
449.117	475.56
449.338	458.56
449.559	535.56
449.779	596.56
450	471.56
450.221	389.56
450.442	368.56
450.662	361.56
450.883	345.56
451.104	344.56
451.324	350.56
451.545	344.56
451.766	333.56
451.986	331.56
452.207	298.56
452.428	320.56
452.648	324.56
452.869	326.56
453.089	324.56
453.31	327.56
453.53	318.56
453.751	334.56
453.971	330.56
454.192	331.56
454.412	334.56
454.633	313.56
454.853	324.56
455.073	333.56
455.294	331.56
455.514	390.56
455.734	384.56
455.955	330.56
456.175	318.56
456.395	298.56
456.616	301.56
456.836	302.56
457.056	310.56
457.276	302.56
457.497	295.56
457.717	304.56
457.937	301.56
458.157	312.56
458.377	311.56
458.598	327.56
458.818	352.56
459.038	411.56
459.258	428.56
459.478	367.56
459.698	335.56
459.918	341.56
460.138	316.56
460.358	332.56
460.578	327.56
460.798	335.56
461.018	344.56
461.238	335.56
461.458	321.56
461.678	347.56
461.898	334.56
462.118	337.56
462.338	364.56
462.558	364.56
462.777	331.56
462.997	342.56
463.217	352.56
463.437	361.56
463.657	347.56
463.876	350.56
464.096	354.56
464.316	351.56
464.536	343.56
464.755	355.56
464.975	384.56
465.195	390.56
465.414	411.56
465.634	382.56
465.854	361.56
466.073	371.56
466.293	340.56
466.512	321.56
466.732	331.56
466.951	327.56
467.171	328.56
467.391	330.56
467.61	335.56
467.829	329.56
468.049	319.56
468.268	330.56
468.488	324.56
468.707	318.56
468.927	318.56
469.146	302.56
469.365	320.56
469.585	340.56
469.804	319.56
470.023	328.56
470.243	320.56
470.462	335.56
470.681	358.56
470.901	348.56
471.12	344.56
471.339	315.56
471.558	315.56
471.777	318.56
471.997	322.56
472.216	313.56
472.435	343.56
472.654	330.56
472.873	329.56
473.092	336.56
473.311	327.56
473.53	340.56
473.749	320.56
473.968	393.56
474.187	432.56
474.406	447.56
474.625	390.56
474.844	353.56
475.063	348.56
475.282	318.56
475.501	332.56
475.72	363.56
475.939	356.56
476.158	352.56
476.377	331.56
476.596	332.56
476.814	352.56
477.033	356.56
477.252	354.56
477.471	356.56
477.69	355.56
477.908	352.56
478.127	374.56
478.346	354.56
478.564	367.56
478.783	368.56
479.002	362.56
479.22	363.56
479.439	380.56
479.658	373.56
479.876	383.56
480.095	397.56
480.313	437.56
480.532	422.56
480.751	378.56
480.969	385.56
481.188	405.56
481.406	425.56
481.624	396.56
481.843	395.56
482.061	390.56
482.28	384.56
482.498	402.56
482.717	390.56
482.935	405.56
483.153	384.56
483.372	378.56
483.59	389.56
483.808	401.56
484.027	388.56
484.245	388.56
484.463	384.56
484.681	385.56
484.9	388.56
485.118	381.56
485.336	396.56
485.554	400.56
485.772	396.56
485.99	403.56
486.209	416.56
486.427	432.56
486.645	404.56
486.863	411.56
487.081	407.56
487.299	403.56
487.517	427.56
487.735	424.56
487.953	407.56
488.171	420.56
488.389	408.56
488.607	432.56
488.825	412.56
489.043	421.56
489.261	422.56
489.479	414.56
489.696	416.56
489.914	440.56
490.132	400.56
490.35	426.56
490.568	438.56
490.786	413.56
491.003	434.56
491.221	428.56
491.439	450.56
491.657	444.56
491.874	447.56
492.092	477.56
492.31	446.56
492.527	464.56
492.745	455.56
492.963	464.56
493.18	479.56
493.398	467.56
493.615	456.56
493.833	472.56
494.05	472.56
494.268	498.56
494.485	448.56
494.703	453.56
494.92	476.56
495.138	482.56
495.355	500.56
495.573	486.56
495.79	483.56
496.008	490.56
496.225	464.56
496.442	464.56
496.66	464.56
496.877	470.56
497.094	491.56
497.312	478.56
497.529	496.56
497.746	505.56
497.963	503.56
498.181	527.56
498.398	524.56
498.615	529.56
498.832	542.56
499.049	538.56
499.267	535.56
499.484	557.56
499.701	559.56
499.918	575.56
500.135	583.56
500.352	603.56
500.569	619.56
500.786	616.56
501.003	650.56
501.22	616.56
501.437	605.56
501.654	588.56
501.871	568.56
502.088	564.56
