Data from 1981.PennyLincolnUp.Lamp.En5.5.200Scan.071819.P1_HRD10591_16-41-03-959.txt Node
Date: Thu Jul 18 16:41:03 EDT 2019
User: cochatt
Spectrometer: HR+D1059
Trigger mode: 1
Integration Time (sec): 1.000000E-1
Scans to average: 1
Electric dark correction enabled: true
Nonlinearity correction enabled: false
Boxcar width: 0
XAxis mode: Wavelengths
Number of Pixels in Spectrum: 2048
>>>>>Begin Spectral Data<<<<<
223.165	-0.5
223.4	-0.5
223.635	-0.5
223.869	-17.5
224.104	-20.5
224.338	-17.5
224.573	-21.5
224.808	-0.5
225.042	0.5
225.277	-3.5
225.511	-10.5
225.746	7.5
225.98	3.5
226.215	11.5
226.449	13.5
226.683	7.5
226.918	27.5
227.152	20.5
227.387	34.5
227.621	27.5
227.856	27.5
228.09	37.5
228.324	53.5
228.559	62.5
228.793	59.5
229.027	94.5
229.262	90.5
229.496	125.5
229.73	138.5
229.964	153.5
230.199	119.5
230.433	110.5
230.667	106.5
230.901	116.5
231.136	102.5
231.37	106.5
231.604	102.5
231.838	101.5
232.072	104.5
232.306	112.5
232.541	118.5
232.775	98.5
233.009	105.5
233.243	97.5
233.477	114.5
233.711	107.5
233.945	114.5
234.179	108.5
234.413	105.5
234.647	118.5
234.881	123.5
235.115	111.5
235.349	120.5
235.583	101.5
235.817	112.5
236.051	110.5
236.285	117.5
236.519	102.5
236.753	128.5
236.987	146.5
237.221	172.5
237.455	215.5
237.689	170.5
237.922	146.5
238.156	124.5
238.39	123.5
238.624	127.5
238.858	126.5
239.091	127.5
239.325	104.5
239.559	114.5
239.793	129.5
240.027	140.5
240.26	143.5
240.494	158.5
240.728	156.5
240.961	138.5
241.195	139.5
241.429	130.5
241.662	138.5
241.896	132.5
242.13	122.5
242.363	125.5
242.597	147.5
242.83	137.5
243.064	133.5
243.298	117.5
243.531	122.5
243.765	139.5
243.998	133.5
244.232	144.5
244.465	139.5
244.699	143.5
244.932	141.5
245.166	136.5
245.399	139.5
245.633	134.5
245.866	148.5
246.099	133.5
246.333	130.5
246.566	155.5
246.8	155.5
247.033	156.5
247.266	168.5
247.5	147.5
247.733	165.5
247.966	159.5
248.2	169.5
248.433	170.5
248.666	159.5
248.899	178.5
249.133	208.5
249.366	191.5
249.599	182.5
249.832	173.5
250.066	190.5
250.299	174.5
250.532	191.5
250.765	207.5
250.998	210.5
251.231	230.5
251.465	218.5
251.698	207.5
251.931	213.5
252.164	196.5
252.397	183.5
252.63	211.5
252.863	192.5
253.096	225.5
253.329	228.5
253.562	250.5
253.795	224.5
254.028	214.5
254.261	197.5
254.494	239.5
254.727	248.5
254.96	286.5
255.193	265.5
255.426	251.5
255.659	241.5
255.892	225.5
256.124	218.5
256.357	232.5
256.59	220.5
256.823	207.5
257.056	216.5
257.289	213.5
257.521	212.5
257.754	223.5
257.987	210.5
258.22	189.5
258.452	206.5
258.685	222.5
258.918	201.5
259.151	210.5
259.383	215.5
259.616	201.5
259.849	231.5
260.081	252.5
260.314	260.5
260.547	254.5
260.779	239.5
261.012	240.5
261.244	214.5
261.477	214.5
261.71	214.5
261.942	221.5
262.175	231.5
262.407	230.5
262.64	201.5
262.872	213.5
263.105	218.5
263.337	214.5
263.57	205.5
263.802	201.5
264.035	199.5
264.267	214.5
264.499	223.5
264.732	214.5
264.964	202.5
265.197	210.5
265.429	202.5
265.661	225.5
265.894	212.5
266.126	229.5
266.358	231.5
266.591	217.5
266.823	224.5
267.055	241.5
267.287	224.5
267.52	213.5
267.752	227.5
267.984	220.5
268.216	234.5
268.448	236.5
268.681	224.5
268.913	246.5
269.145	256.5
269.377	269.5
269.609	270.5
269.841	271.5
270.073	258.5
270.306	285.5
270.538	309.5
270.77	288.5
271.002	289.5
271.234	307.5
271.466	295.5
271.698	298.5
271.93	314.5
272.162	318.5
272.394	314.5
272.626	305.5
272.858	292.5
273.09	284.5
273.322	279.5
273.553	280.5
273.785	261.5
274.017	260.5
274.249	273.5
274.481	273.5
274.713	267.5
274.945	277.5
275.176	282.5
275.408	265.5
275.64	261.5
275.872	265.5
276.104	260.5
276.335	267.5
276.567	277.5
276.799	263.5
277.031	307.5
277.262	307.5
277.494	337.5
277.726	301.5
277.957	308.5
278.189	274.5
278.421	274.5
278.652	266.5
278.884	248.5
279.115	252.5
279.347	272.5
279.579	280.5
279.81	255.5
280.042	264.5
280.273	262.5
280.505	247.5
280.736	259.5
280.968	260.5
281.199	278.5
281.431	256.5
281.662	264.5
281.894	277.5
282.125	262.5
282.356	291.5
282.588	290.5
282.819	302.5
283.051	283.5
283.282	263.5
283.513	252.5
283.745	256.5
283.976	255.5
284.207	256.5
284.439	253.5
284.67	269.5
284.901	249.5
285.132	253.5
285.364	260.5
285.595	286.5
285.826	275.5
286.057	268.5
286.288	269.5
286.52	276.5
286.751	264.5
286.982	263.5
287.213	277.5
287.444	280.5
287.675	296.5
287.906	282.5
288.138	299.5
288.369	284.5
288.6	275.5
288.831	278.5
289.062	294.5
289.293	282.5
289.524	281.5
289.755	275.5
289.986	256.5
290.217	266.5
290.448	289.5
290.679	282.5
290.91	272.5
291.141	259.5
291.371	265.5
291.602	284.5
291.833	257.5
292.064	269.5
292.295	305.5
292.526	271.5
292.757	280.5
292.987	268.5
293.218	266.5
293.449	280.5
293.68	274.5
293.91	283.5
294.141	277.5
294.372	287.5
294.603	294.5
294.833	274.5
295.064	267.5
295.295	278.5
295.525	279.5
295.756	297.5
295.987	296.5
296.217	316.5
296.448	328.5
296.679	293.5
296.909	286.5
297.14	298.5
297.37	311.5
297.601	281.5
297.831	283.5
298.062	291.5
298.292	295.5
298.523	291.5
298.753	308.5
298.984	283.5
299.214	287.5
299.445	293.5
299.675	300.5
299.905	310.5
300.136	285.5
300.366	306.5
300.597	304.5
300.827	296.5
301.057	310.5
301.288	312.5
301.518	309.5
301.748	304.5
301.979	314.5
302.209	315.5
302.439	320.5
302.669	295.5
302.9	328.5
303.13	291.5
303.36	304.5
303.59	302.5
303.82	324.5
304.051	310.5
304.281	308.5
304.511	320.5
304.741	310.5
304.971	307.5
305.201	314.5
305.431	310.5
305.661	316.5
305.891	296.5
306.121	323.5
306.352	312.5
306.582	319.5
306.812	325.5
307.042	316.5
307.272	299.5
307.502	329.5
307.731	324.5
307.961	322.5
308.191	303.5
308.421	326.5
308.651	326.5
308.881	334.5
309.111	329.5
309.341	334.5
309.571	340.5
309.8	343.5
310.03	339.5
310.26	359.5
310.49	371.5
310.72	362.5
310.949	371.5
311.179	382.5
311.409	367.5
311.639	366.5
311.868	378.5
312.098	371.5
312.328	374.5
312.557	379.5
312.787	384.5
313.017	410.5
313.246	382.5
313.476	363.5
313.706	370.5
313.935	370.5
314.165	376.5
314.394	380.5
314.624	392.5
314.853	390.5
315.083	364.5
315.312	350.5
315.542	346.5
315.771	355.5
316.001	337.5
316.23	354.5
316.46	358.5
316.689	354.5
316.919	375.5
317.148	390.5
317.377	375.5
317.607	383.5
317.836	385.5
318.065	373.5
318.295	353.5
318.524	352.5
318.753	352.5
318.983	365.5
319.212	392.5
319.441	380.5
319.67	395.5
319.9	385.5
320.129	374.5
320.358	385.5
320.587	369.5
320.816	392.5
321.046	386.5
321.275	398.5
321.504	394.5
321.733	386.5
321.962	396.5
322.191	391.5
322.42	443.5
322.649	443.5
322.878	441.5
323.108	452.5
323.337	483.5
323.566	488.5
323.795	543.5
324.024	595.5
324.253	710.5
324.482	1037.5
324.71	1632.5
324.939	2218.5
325.168	1913.5
325.397	1001.5
325.626	675.5
325.855	581.5
326.084	534.5
326.313	524.5
326.542	523.5
326.77	552.5
326.999	671.5
327.228	943.5
327.457	1375.5
327.686	1651.5
327.914	1114.5
328.143	734.5
328.372	617.5
328.6	575.5
328.829	560.5
329.058	579.5
329.287	593.5
329.515	560.5
329.744	538.5
329.972	490.5
330.201	515.5
330.43	562.5
330.658	567.5
330.887	609.5
331.115	596.5
331.344	522.5
331.572	479.5
331.801	484.5
332.03	462.5
332.258	433.5
332.486	428.5
332.715	446.5
332.943	410.5
333.172	430.5
333.4	425.5
333.629	434.5
333.857	445.5
334.085	453.5
334.314	455.5
334.542	490.5
334.771	495.5
334.999	446.5
335.227	422.5
335.455	431.5
335.684	422.5
335.912	413.5
336.14	425.5
336.369	416.5
336.597	420.5
336.825	419.5
337.053	407.5
337.281	402.5
337.51	410.5
337.738	416.5
337.966	406.5
338.194	411.5
338.422	415.5
338.65	425.5
338.878	407.5
339.106	393.5
339.334	396.5
339.562	401.5
339.79	370.5
340.018	398.5
340.246	389.5
340.474	422.5
340.702	427.5
340.93	385.5
341.158	403.5
341.386	393.5
341.614	390.5
341.842	408.5
342.07	400.5
342.298	389.5
342.526	385.5
342.754	384.5
342.981	367.5
343.209	381.5
343.437	397.5
343.665	379.5
343.893	409.5
344.12	414.5
344.348	414.5
344.576	385.5
344.804	418.5
345.031	420.5
345.259	406.5
345.487	413.5
345.714	406.5
345.942	403.5
346.17	398.5
346.397	371.5
346.625	386.5
346.853	392.5
347.08	398.5
347.308	406.5
347.535	405.5
347.763	412.5
347.99	399.5
348.218	408.5
348.445	385.5
348.673	392.5
348.9	387.5
349.128	381.5
349.355	378.5
349.583	384.5
349.81	377.5
350.037	370.5
350.265	364.5
350.492	357.5
350.72	382.5
350.947	395.5
351.174	380.5
351.402	415.5
351.629	404.5
351.856	396.5
352.083	390.5
352.311	397.5
352.538	399.5
352.765	404.5
352.992	392.5
353.22	387.5
353.447	383.5
353.674	368.5
353.901	372.5
354.128	371.5
354.355	355.5
354.583	355.5
354.81	360.5
355.037	379.5
355.264	334.5
355.491	329.5
355.718	338.5
355.945	352.5
356.172	342.5
356.399	361.5
356.626	344.5
356.853	342.5
357.08	378.5
357.307	334.5
357.534	352.5
357.761	351.5
357.988	330.5
358.215	351.5
358.441	353.5
358.668	342.5
358.895	357.5
359.122	371.5
359.349	386.5
359.576	390.5
359.802	427.5
360.029	436.5
360.256	445.5
360.483	415.5
360.709	371.5
360.936	388.5
361.163	389.5
361.39	390.5
361.616	368.5
361.843	370.5
362.07	383.5
362.296	402.5
362.523	393.5
362.749	390.5
362.976	355.5
363.203	366.5
363.429	357.5
363.656	371.5
363.882	380.5
364.109	363.5
364.335	353.5
364.562	355.5
364.788	352.5
365.015	374.5
365.241	351.5
365.468	364.5
365.694	364.5
365.92	372.5
366.147	378.5
366.373	344.5
366.599	358.5
366.826	350.5
367.052	354.5
367.278	349.5
367.505	354.5
367.731	347.5
367.957	330.5
368.184	356.5
368.41	359.5
368.636	367.5
368.862	365.5
369.089	378.5
369.315	348.5
369.541	371.5
369.767	342.5
369.993	342.5
370.219	354.5
370.445	373.5
370.672	346.5
370.898	350.5
371.124	354.5
371.35	351.5
371.576	341.5
371.802	351.5
372.028	359.5
372.254	361.5
372.48	351.5
372.706	333.5
372.932	328.5
373.158	352.5
373.384	360.5
373.61	358.5
373.835	345.5
374.061	352.5
374.287	359.5
374.513	346.5
374.739	335.5
374.965	348.5
375.191	336.5
375.416	338.5
375.642	339.5
375.868	356.5
376.094	357.5
376.319	351.5
376.545	337.5
376.771	352.5
376.997	350.5
377.222	366.5
377.448	344.5
377.674	331.5
377.899	363.5
378.125	339.5
378.35	354.5
378.576	323.5
378.802	323.5
379.027	341.5
379.253	370.5
379.478	352.5
379.704	352.5
379.929	361.5
380.155	347.5
380.38	345.5
380.606	337.5
380.831	338.5
381.057	363.5
381.282	342.5
381.507	344.5
381.733	332.5
381.958	331.5
382.184	331.5
382.409	352.5
382.634	352.5
382.86	345.5
383.085	343.5
383.31	346.5
383.535	354.5
383.761	346.5
383.986	350.5
384.211	352.5
384.436	338.5
384.662	364.5
384.887	350.5
385.112	344.5
385.337	353.5
385.562	354.5
385.787	353.5
386.013	354.5
386.238	346.5
386.463	361.5
386.688	356.5
386.913	361.5
387.138	360.5
387.363	355.5
387.588	356.5
387.813	361.5
388.038	370.5
388.263	356.5
388.488	349.5
388.713	351.5
388.938	361.5
389.163	374.5
389.387	374.5
389.612	348.5
389.837	360.5
390.062	345.5
390.287	351.5
390.512	382.5
390.736	370.5
390.961	357.5
391.186	354.5
391.411	367.5
391.636	352.5
391.86	366.5
392.085	366.5
392.31	347.5
392.534	374.5
392.759	354.5
392.984	345.5
393.208	355.5
393.433	364.5
393.658	376.5
393.882	359.5
394.107	337.5
394.331	355.5
394.556	351.5
394.78	367.5
395.005	371.5
395.229	346.5
395.454	371.5
395.678	370.5
395.903	369.5
396.127	389.5
396.352	393.5
396.576	391.5
396.801	373.5
397.025	356.5
397.249	361.5
397.474	378.5
397.698	379.5
397.922	378.5
398.147	393.5
398.371	423.5
398.595	382.5
398.82	388.5
399.044	405.5
399.268	414.5
399.492	415.5
399.717	422.5
399.941	442.5
400.165	449.5
400.389	489.5
400.613	444.5
400.837	419.5
401.062	394.5
401.286	391.5
401.51	403.5
401.734	383.5
401.958	397.5
402.182	403.5
402.406	411.5
402.63	418.5
402.854	423.5
403.078	412.5
403.302	409.5
403.526	398.5
403.75	400.5
403.974	409.5
404.198	405.5
404.422	412.5
404.645	398.5
404.869	436.5
405.093	434.5
405.317	475.5
405.541	495.5
405.765	467.5
405.988	434.5
406.212	430.5
406.436	489.5
406.66	482.5
406.883	441.5
407.107	474.5
407.331	488.5
407.555	533.5
407.778	556.5
408.002	494.5
408.226	452.5
408.449	452.5
408.673	464.5
408.896	464.5
409.12	516.5
409.344	476.5
409.567	427.5
409.791	422.5
410.014	411.5
410.238	421.5
410.461	423.5
410.685	430.5
410.908	440.5
411.132	459.5
411.355	498.5
411.578	460.5
411.802	432.5
412.025	398.5
412.249	423.5
412.472	438.5
412.695	448.5
412.919	445.5
413.142	407.5
413.365	416.5
413.589	396.5
413.812	398.5
414.035	392.5
414.258	376.5
414.482	379.5
414.705	385.5
414.928	402.5
415.151	386.5
415.374	387.5
415.597	377.5
415.821	372.5
416.044	371.5
416.267	394.5
416.49	398.5
416.713	416.5
416.936	396.5
417.159	391.5
417.382	398.5
417.605	414.5
417.828	406.5
418.051	410.5
418.274	385.5
418.497	379.5
418.72	399.5
418.943	370.5
419.166	392.5
419.389	417.5
419.611	393.5
419.834	408.5
420.057	407.5
420.28	424.5
420.503	398.5
420.726	414.5
420.948	412.5
421.171	450.5
421.394	505.5
421.617	436.5
421.839	403.5
422.062	409.5
422.285	434.5
422.507	452.5
422.73	533.5
422.953	500.5
423.175	457.5
423.398	442.5
423.621	424.5
423.843	448.5
424.066	448.5
424.288	454.5
424.511	465.5
424.733	491.5
424.956	573.5
425.178	585.5
425.401	566.5
425.623	573.5
425.846	511.5
426.068	449.5
426.291	453.5
426.513	436.5
426.735	480.5
426.958	494.5
427.18	552.5
427.402	676.5
427.625	748.5
427.847	657.5
428.069	572.5
428.292	495.5
428.514	452.5
428.736	441.5
428.958	447.5
429.181	436.5
429.403	418.5
429.625	448.5
429.847	442.5
430.069	499.5
430.292	512.5
430.514	442.5
430.736	408.5
430.958	434.5
431.18	399.5
431.402	385.5
431.624	372.5
431.846	374.5
432.068	378.5
432.29	391.5
432.512	374.5
432.734	400.5
432.956	386.5
433.178	412.5
433.4	412.5
433.622	400.5
433.844	384.5
434.066	395.5
434.287	380.5
434.509	367.5
434.731	418.5
434.953	406.5
435.175	407.5
435.397	432.5
435.618	440.5
435.84	489.5
436.062	565.5
436.284	604.5
436.505	522.5
436.727	477.5
436.949	416.5
437.17	402.5
437.392	417.5
437.614	410.5
437.835	489.5
438.057	535.5
438.278	638.5
438.5	642.5
438.721	683.5
438.943	644.5
439.165	524.5
439.386	489.5
439.608	483.5
439.829	451.5
440.05	502.5
440.272	526.5
440.493	488.5
440.715	448.5
440.936	444.5
441.158	430.5
441.379	420.5
441.6	418.5
441.822	446.5
442.043	478.5
442.264	579.5
442.486	590.5
442.707	522.5
442.928	480.5
443.149	480.5
443.371	475.5
443.592	508.5
443.813	609.5
444.034	667.5
444.255	541.5
444.476	459.5
444.698	444.5
444.919	443.5
445.14	535.5
445.361	492.5
445.582	500.5
445.803	560.5
446.024	641.5
446.245	636.5
446.466	598.5
446.687	483.5
446.908	483.5
447.129	425.5
447.35	417.5
447.571	419.5
447.792	389.5
448.013	427.5
448.234	435.5
448.455	494.5
448.675	580.5
448.896	674.5
449.117	564.5
449.338	542.5
449.559	623.5
449.779	694.5
450	559.5
450.221	482.5
450.442	420.5
450.662	432.5
450.883	420.5
451.104	424.5
451.324	424.5
451.545	408.5
451.766	405.5
451.986	387.5
452.207	367.5
452.428	367.5
452.648	365.5
452.869	369.5
453.089	378.5
453.31	395.5
453.53	368.5
453.751	384.5
453.971	390.5
454.192	400.5
454.412	371.5
454.633	375.5
454.853	359.5
455.073	374.5
455.294	410.5
455.514	457.5
455.734	444.5
455.955	391.5
456.175	374.5
456.395	359.5
456.616	344.5
456.836	338.5
457.056	350.5
457.276	327.5
457.497	350.5
457.717	348.5
457.937	363.5
458.157	358.5
458.377	371.5
458.598	398.5
458.818	440.5
459.038	514.5
459.258	508.5
459.478	444.5
459.698	413.5
459.918	380.5
460.138	378.5
460.358	366.5
460.578	345.5
460.798	376.5
461.018	377.5
461.238	369.5
461.458	392.5
461.678	401.5
461.898	392.5
462.118	361.5
462.338	386.5
462.558	385.5
462.777	396.5
462.997	398.5
463.217	410.5
463.437	416.5
463.657	400.5
463.876	402.5
464.096	408.5
464.316	399.5
464.536	396.5
464.755	405.5
464.975	387.5
465.195	466.5
465.414	545.5
465.634	475.5
465.854	411.5
466.073	388.5
466.293	389.5
466.512	388.5
466.732	375.5
466.951	351.5
467.171	378.5
467.391	374.5
467.61	382.5
467.829	403.5
468.049	396.5
468.268	393.5
468.488	393.5
468.707	348.5
468.927	359.5
469.146	359.5
469.365	371.5
469.585	360.5
469.804	386.5
470.023	376.5
470.243	384.5
470.462	378.5
470.681	422.5
470.901	390.5
471.12	391.5
471.339	393.5
471.558	388.5
471.777	377.5
471.997	382.5
472.216	392.5
472.435	390.5
472.654	384.5
472.873	387.5
473.092	386.5
473.311	395.5
473.53	381.5
473.749	394.5
473.968	441.5
474.187	551.5
474.406	544.5
474.625	448.5
474.844	392.5
475.063	379.5
475.282	375.5
475.501	388.5
475.72	383.5
475.939	414.5
476.158	404.5
476.377	385.5
476.596	389.5
476.814	403.5
477.033	401.5
477.252	406.5
477.471	386.5
477.69	411.5
477.908	407.5
478.127	415.5
478.346	411.5
478.564	405.5
478.783	431.5
479.002	419.5
479.22	432.5
479.439	440.5
479.658	464.5
479.876	458.5
480.095	478.5
480.313	473.5
480.532	482.5
480.751	456.5
480.969	454.5
481.188	513.5
481.406	548.5
481.624	484.5
481.843	458.5
482.061	448.5
482.28	456.5
482.498	452.5
482.717	459.5
482.935	448.5
483.153	445.5
483.372	444.5
483.59	440.5
483.808	445.5
484.027	447.5
484.245	446.5
484.463	456.5
484.681	472.5
484.9	461.5
485.118	455.5
485.336	437.5
485.554	454.5
485.772	471.5
485.99	457.5
486.209	460.5
486.427	472.5
486.645	472.5
486.863	502.5
487.081	512.5
487.299	476.5
487.517	478.5
487.735	471.5
487.953	483.5
488.171	489.5
488.389	488.5
488.607	495.5
488.825	462.5
489.043	489.5
489.261	495.5
489.479	484.5
489.696	474.5
489.914	500.5
490.132	492.5
490.35	499.5
490.568	511.5
490.786	510.5
491.003	518.5
491.221	510.5
491.439	518.5
491.657	519.5
491.874	550.5
492.092	534.5
492.31	543.5
492.527	525.5
492.745	560.5
492.963	563.5
493.18	572.5
493.398	558.5
493.615	549.5
493.833	568.5
494.05	571.5
494.268	564.5
494.485	582.5
494.703	571.5
494.92	583.5
495.138	556.5
495.355	581.5
495.573	558.5
495.79	563.5
496.008	595.5
496.225	551.5
496.442	562.5
496.66	571.5
496.877	586.5
497.094	588.5
497.312	584.5
497.529	570.5
497.746	572.5
497.963	588.5
498.181	616.5
498.398	604.5
498.615	611.5
498.832	624.5
499.049	636.5
499.267	624.5
499.484	626.5
499.701	664.5
499.918	676.5
500.135	699.5
500.352	683.5
500.569	696.5
500.786	723.5
501.003	716.5
501.22	708.5
501.437	699.5
501.654	673.5
501.871	698.5
502.088	688.5
502.305	650.5
502.522	622.5
502.739	622.5
502.956	600.5
503.172	625.5
503.389	606.5
503.606	604.5
503.823	602.5
504.04	588.5
504.256	579.5
504.473	578.5
504.69	571.5
504.907	570.5
505.123	574.5
505.34	545.5
505.557	568.5
505.773	562.5
505.99	579.5
506.207	551.5
506.423	560.5
506.64	566.5
506.856	552.5
507.073	540.5
507.289	531.5
507.506	546.5
507.722	572.5
507.939	561.5
508.155	571.5
508.372	534.5
508.588	524.5
508.805	532.5
509.021	524.5
509.238	537.5
509.454	562.5
509.67	567.5
509.887	555.5
510.103	543.5
510.319	546.5
510.536	640.5
510.752	1084.5
510.968	850.5
511.184	589.5
511.401	528.5
511.617	518.5
511.833	544.5
512.049	503.5
512.265	504.5
512.481	518.5
512.698	518.5
512.914	518.5
513.13	496.5
513.346	498.5
513.562	502.5
513.778	521.5
513.994	513.5
514.21	528.5
514.426	556.5
514.642	613.5
514.858	615.5
515.074	662.5
515.29	809.5
515.506	1187.5
515.721	947.5
515.937	641.5
516.153	575.5
516.369	535.5
516.585	531.5
516.801	544.5
517.016	511.5
517.232	507.5
517.448	489.5
517.664	495.5
517.879	512.5
518.095	514.5
518.311	505.5
518.527	502.5
518.742	508.5
518.958	502.5
519.173	464.5
519.389	500.5
519.605	505.5
519.82	512.5
