Data from 1981.PennyLincolnUp.Lamp.En5.5.200Scan.071819.P1_HRD10591_16-43-26-961.txt Node
Date: Thu Jul 18 16:43:26 EDT 2019
User: cochatt
Spectrometer: HR+D1059
Trigger mode: 1
Integration Time (sec): 1.000000E-1
Scans to average: 1
Electric dark correction enabled: true
Nonlinearity correction enabled: false
Boxcar width: 0
XAxis mode: Wavelengths
Number of Pixels in Spectrum: 2048
>>>>>Begin Spectral Data<<<<<
223.165	-27.75
223.4	-27.75
223.635	-27.75
223.869	-16.75
224.104	-12.75
224.338	-17.75
224.573	-10.75
224.808	-14.75
225.042	-1.75
225.277	-3.75
225.511	3.25
225.746	0.25
225.98	-8.75
226.215	9.25
226.449	22.25
226.683	35.25
226.918	22.25
227.152	22.25
227.387	24.25
227.621	32.25
227.856	36.25
228.09	52.25
228.324	43.25
228.559	44.25
228.793	71.25
229.027	101.25
229.262	112.25
229.496	111.25
229.73	121.25
229.964	161.25
230.199	133.25
230.433	115.25
230.667	120.25
230.901	100.25
231.136	109.25
231.37	107.25
231.604	115.25
231.838	84.25
232.072	113.25
232.306	105.25
232.541	115.25
232.775	108.25
233.009	110.25
233.243	115.25
233.477	110.25
233.711	120.25
233.945	119.25
234.179	123.25
234.413	114.25
234.647	103.25
234.881	121.25
235.115	122.25
235.349	121.25
235.583	113.25
235.817	113.25
236.051	125.25
236.285	121.25
236.519	127.25
236.753	130.25
236.987	159.25
237.221	204.25
237.455	238.25
237.689	199.25
237.922	134.25
238.156	141.25
238.39	131.25
238.624	132.25
238.858	117.25
239.091	115.25
239.325	135.25
239.559	144.25
239.793	125.25
240.027	125.25
240.26	145.25
240.494	153.25
240.728	150.25
240.961	154.25
241.195	160.25
241.429	151.25
241.662	133.25
241.896	138.25
242.13	145.25
242.363	151.25
242.597	143.25
242.83	139.25
243.064	135.25
243.298	147.25
243.531	152.25
243.765	120.25
243.998	139.25
244.232	138.25
244.465	148.25
244.699	136.25
244.932	140.25
245.166	145.25
245.399	141.25
245.633	138.25
245.866	145.25
246.099	149.25
246.333	167.25
246.566	142.25
246.8	163.25
247.033	158.25
247.266	154.25
247.5	172.25
247.733	186.25
247.966	181.25
248.2	181.25
248.433	174.25
248.666	173.25
248.899	194.25
249.133	222.25
249.366	227.25
249.599	200.25
249.832	171.25
250.066	182.25
250.299	188.25
250.532	201.25
250.765	207.25
250.998	222.25
251.231	243.25
251.465	212.25
251.698	215.25
251.931	188.25
252.164	211.25
252.397	204.25
252.63	212.25
252.863	210.25
253.096	223.25
253.329	247.25
253.562	255.25
253.795	226.25
254.028	224.25
254.261	245.25
254.494	251.25
254.727	262.25
254.96	298.25
255.193	277.25
255.426	255.25
255.659	259.25
255.892	248.25
256.124	259.25
256.357	244.25
256.59	235.25
256.823	221.25
257.056	230.25
257.289	219.25
257.521	233.25
257.754	214.25
257.987	227.25
258.22	227.25
258.452	213.25
258.685	230.25
258.918	236.25
259.151	207.25
259.383	216.25
259.616	239.25
259.849	238.25
260.081	239.25
260.314	269.25
260.547	265.25
260.779	263.25
261.012	244.25
261.244	242.25
261.477	241.25
261.71	227.25
261.942	215.25
262.175	243.25
262.407	242.25
262.64	220.25
262.872	235.25
263.105	237.25
263.337	205.25
263.57	222.25
263.802	211.25
264.035	228.25
264.267	220.25
264.499	203.25
264.732	219.25
264.964	212.25
265.197	216.25
265.429	231.25
265.661	233.25
265.894	234.25
266.126	233.25
266.358	240.25
266.591	217.25
266.823	236.25
267.055	226.25
267.287	237.25
267.52	248.25
267.752	232.25
267.984	215.25
268.216	237.25
268.448	231.25
268.681	247.25
268.913	246.25
269.145	268.25
269.377	275.25
269.609	289.25
269.841	285.25
270.073	303.25
270.306	315.25
270.538	322.25
270.77	354.25
271.002	321.25
271.234	309.25
271.466	314.25
271.698	322.25
271.93	336.25
272.162	352.25
272.394	349.25
272.626	338.25
272.858	317.25
273.09	297.25
273.322	299.25
273.553	282.25
273.785	289.25
274.017	255.25
274.249	287.25
274.481	279.25
274.713	292.25
274.945	287.25
275.176	281.25
275.408	288.25
275.64	264.25
275.872	264.25
276.104	277.25
276.335	277.25
276.567	290.25
276.799	296.25
277.031	319.25
277.262	336.25
277.494	347.25
277.726	307.25
277.957	303.25
278.189	282.25
278.421	291.25
278.652	273.25
278.884	301.25
279.115	282.25
279.347	291.25
279.579	295.25
279.81	272.25
280.042	271.25
280.273	277.25
280.505	262.25
280.736	275.25
280.968	259.25
281.199	282.25
281.431	270.25
281.662	271.25
281.894	277.25
282.125	280.25
282.356	279.25
282.588	329.25
282.819	333.25
283.051	308.25
283.282	287.25
283.513	277.25
283.745	285.25
283.976	255.25
284.207	284.25
284.439	289.25
284.67	293.25
284.901	262.25
285.132	273.25
285.364	273.25
285.595	285.25
285.826	276.25
286.057	279.25
286.288	289.25
286.52	288.25
286.751	285.25
286.982	279.25
287.213	287.25
287.444	277.25
287.675	291.25
287.906	298.25
288.138	299.25
288.369	288.25
288.6	308.25
288.831	296.25
289.062	289.25
289.293	303.25
289.524	301.25
289.755	295.25
289.986	279.25
290.217	297.25
290.448	293.25
290.679	298.25
290.91	284.25
291.141	295.25
291.371	309.25
291.602	275.25
291.833	279.25
292.064	297.25
292.295	282.25
292.526	274.25
292.757	295.25
292.987	285.25
293.218	281.25
293.449	304.25
293.68	285.25
293.91	271.25
294.141	302.25
294.372	301.25
294.603	282.25
294.833	287.25
295.064	293.25
295.295	275.25
295.525	296.25
295.756	287.25
295.987	315.25
296.217	334.25
296.448	336.25
296.679	328.25
296.909	299.25
297.14	294.25
297.37	303.25
297.601	312.25
297.831	307.25
298.062	315.25
298.292	294.25
298.523	295.25
298.753	307.25
298.984	317.25
299.214	307.25
299.445	315.25
299.675	305.25
299.905	311.25
300.136	301.25
300.366	299.25
300.597	297.25
300.827	312.25
301.057	326.25
301.288	313.25
301.518	323.25
301.748	308.25
301.979	316.25
302.209	333.25
302.439	330.25
302.669	323.25
302.9	336.25
303.13	319.25
303.36	323.25
303.59	322.25
303.82	339.25
304.051	343.25
304.281	328.25
304.511	310.25
304.741	348.25
304.971	341.25
305.201	312.25
305.431	300.25
305.661	307.25
305.891	316.25
306.121	329.25
306.352	335.25
306.582	338.25
306.812	329.25
307.042	325.25
307.272	337.25
307.502	325.25
307.731	331.25
307.961	321.25
308.191	327.25
308.421	327.25
308.651	352.25
308.881	338.25
309.111	353.25
309.341	337.25
309.571	354.25
309.8	376.25
310.03	377.25
310.26	376.25
310.49	385.25
310.72	401.25
310.949	410.25
311.179	408.25
311.409	396.25
311.639	387.25
311.868	382.25
312.098	383.25
312.328	387.25
312.557	431.25
312.787	423.25
313.017	418.25
313.246	405.25
313.476	380.25
313.706	388.25
313.935	410.25
314.165	408.25
314.394	431.25
314.624	416.25
314.853	389.25
315.083	381.25
315.312	379.25
315.542	382.25
315.771	377.25
316.001	373.25
316.23	387.25
316.46	387.25
316.689	388.25
316.919	393.25
317.148	396.25
317.377	395.25
317.607	395.25
317.836	392.25
318.065	383.25
318.295	384.25
318.524	375.25
318.753	382.25
318.983	367.25
319.212	381.25
319.441	377.25
319.67	396.25
319.9	399.25
320.129	379.25
320.358	388.25
320.587	403.25
320.816	406.25
321.046	402.25
321.275	412.25
321.504	416.25
321.733	426.25
321.962	432.25
322.191	445.25
322.42	455.25
322.649	468.25
322.878	485.25
323.108	487.25
323.337	537.25
323.566	567.25
323.795	603.25
324.024	690.25
324.253	873.25
324.482	1201.25
324.71	1895.25
324.939	2538.25
325.168	2146.25
325.397	1132.25
325.626	748.25
325.855	641.25
326.084	584.25
326.313	548.25
326.542	570.25
326.77	635.25
326.999	752.25
327.228	1084.25
327.457	1577.25
327.686	1905.25
327.914	1261.25
328.143	806.25
328.372	720.25
328.6	663.25
328.829	617.25
329.058	649.25
329.287	641.25
329.515	619.25
329.744	578.25
329.972	545.25
330.201	565.25
330.43	624.25
330.658	637.25
330.887	688.25
331.115	642.25
331.344	573.25
331.572	538.25
331.801	517.25
332.03	513.25
332.258	504.25
332.486	470.25
332.715	469.25
332.943	458.25
333.172	468.25
333.4	473.25
333.629	440.25
333.857	462.25
334.085	485.25
334.314	518.25
334.542	547.25
334.771	547.25
334.999	489.25
335.227	485.25
335.455	436.25
335.684	452.25
335.912	457.25
336.14	441.25
336.369	426.25
336.597	459.25
336.825	427.25
337.053	452.25
337.281	424.25
337.51	443.25
337.738	449.25
337.966	423.25
338.194	416.25
338.422	431.25
338.65	431.25
338.878	425.25
339.106	411.25
339.334	403.25
339.562	408.25
339.79	407.25
340.018	417.25
340.246	425.25
340.474	441.25
340.702	406.25
340.93	410.25
341.158	417.25
341.386	403.25
341.614	441.25
341.842	416.25
342.07	411.25
342.298	416.25
342.526	387.25
342.754	417.25
342.981	409.25
343.209	392.25
343.437	406.25
343.665	406.25
343.893	419.25
344.12	420.25
344.348	390.25
344.576	401.25
344.804	423.25
345.031	445.25
345.259	449.25
345.487	438.25
345.714	426.25
345.942	422.25
346.17	434.25
346.397	402.25
346.625	415.25
346.853	427.25
347.08	412.25
347.308	421.25
347.535	433.25
347.763	435.25
347.99	423.25
348.218	441.25
348.445	423.25
348.673	426.25
348.9	449.25
349.128	399.25
349.355	393.25
349.583	378.25
349.81	364.25
350.037	375.25
350.265	387.25
350.492	403.25
350.72	393.25
350.947	388.25
351.174	412.25
351.402	407.25
351.629	441.25
351.856	425.25
352.083	428.25
352.311	434.25
352.538	429.25
352.765	429.25
352.992	420.25
353.22	408.25
353.447	406.25
353.674	383.25
353.901	403.25
354.128	375.25
354.355	373.25
354.583	375.25
354.81	384.25
355.037	358.25
355.264	379.25
355.491	343.25
355.718	381.25
355.945	351.25
356.172	355.25
356.399	353.25
356.626	364.25
356.853	370.25
357.08	361.25
357.307	387.25
357.534	357.25
357.761	368.25
357.988	383.25
358.215	351.25
358.441	379.25
358.668	379.25
358.895	375.25
359.122	398.25
359.349	391.25
359.576	395.25
359.802	419.25
360.029	476.25
360.256	474.25
360.483	444.25
360.709	432.25
360.936	405.25
361.163	401.25
361.39	403.25
361.616	402.25
361.843	389.25
362.07	403.25
362.296	411.25
362.523	409.25
362.749	387.25
362.976	379.25
363.203	402.25
363.429	380.25
363.656	368.25
363.882	363.25
364.109	373.25
364.335	372.25
364.562	363.25
364.788	373.25
365.015	371.25
365.241	371.25
365.468	404.25
365.694	383.25
365.92	379.25
366.147	381.25
366.373	376.25
366.599	381.25
366.826	359.25
367.052	363.25
367.278	362.25
367.505	356.25
367.731	357.25
367.957	373.25
368.184	360.25
368.41	348.25
368.636	374.25
368.862	393.25
369.089	378.25
369.315	354.25
369.541	352.25
369.767	357.25
369.993	367.25
370.219	381.25
370.445	368.25
370.672	349.25
370.898	355.25
371.124	352.25
371.35	371.25
371.576	353.25
371.802	343.25
372.028	357.25
372.254	356.25
372.48	357.25
372.706	360.25
372.932	354.25
373.158	348.25
373.384	355.25
373.61	372.25
373.835	352.25
374.061	356.25
374.287	370.25
374.513	373.25
374.739	358.25
374.965	366.25
375.191	351.25
375.416	373.25
375.642	359.25
375.868	374.25
376.094	367.25
376.319	347.25
376.545	356.25
376.771	332.25
376.997	340.25
377.222	338.25
377.448	348.25
377.674	356.25
377.899	340.25
378.125	341.25
378.35	337.25
378.576	333.25
378.802	350.25
379.027	359.25
379.253	333.25
379.478	328.25
379.704	348.25
379.929	336.25
380.155	343.25
380.38	351.25
380.606	343.25
380.831	355.25
381.057	365.25
381.282	346.25
381.507	348.25
381.733	329.25
381.958	351.25
382.184	346.25
382.409	374.25
382.634	361.25
382.86	321.25
383.085	351.25
383.31	362.25
383.535	338.25
383.761	356.25
383.986	371.25
384.211	354.25
384.436	346.25
384.662	361.25
384.887	361.25
385.112	344.25
385.337	360.25
385.562	363.25
385.787	384.25
386.013	376.25
386.238	383.25
386.463	371.25
386.688	358.25
386.913	371.25
387.138	369.25
387.363	376.25
387.588	333.25
387.813	361.25
388.038	368.25
388.263	359.25
388.488	365.25
388.713	367.25
388.938	363.25
389.163	354.25
389.387	380.25
389.612	351.25
389.837	356.25
390.062	373.25
390.287	372.25
390.512	354.25
390.736	359.25
390.961	367.25
391.186	355.25
391.411	364.25
391.636	362.25
391.86	364.25
392.085	365.25
392.31	360.25
392.534	372.25
392.759	373.25
392.984	374.25
393.208	360.25
393.433	342.25
393.658	350.25
393.882	353.25
394.107	356.25
394.331	344.25
394.556	361.25
394.78	347.25
395.005	363.25
395.229	364.25
395.454	367.25
395.678	359.25
395.903	367.25
396.127	394.25
396.352	388.25
396.576	386.25
396.801	358.25
397.025	365.25
397.249	370.25
397.474	385.25
397.698	370.25
397.922	388.25
398.147	394.25
398.371	419.25
398.595	393.25
398.82	387.25
399.044	410.25
399.268	411.25
399.492	420.25
399.717	428.25
399.941	455.25
400.165	479.25
400.389	497.25
400.613	446.25
400.837	424.25
401.062	403.25
401.286	410.25
401.51	398.25
401.734	403.25
401.958	401.25
402.182	400.25
402.406	415.25
402.63	421.25
402.854	424.25
403.078	407.25
403.302	419.25
403.526	430.25
403.75	418.25
403.974	433.25
404.198	399.25
404.422	411.25
404.645	387.25
404.869	433.25
405.093	452.25
405.317	479.25
405.541	511.25
405.765	456.25
405.988	448.25
406.212	474.25
406.436	479.25
406.66	469.25
406.883	472.25
407.107	465.25
407.331	506.25
407.555	563.25
407.778	569.25
408.002	514.25
408.226	479.25
408.449	456.25
408.673	489.25
408.896	481.25
409.12	534.25
409.344	502.25
409.567	442.25
409.791	429.25
410.014	415.25
410.238	411.25
410.461	428.25
410.685	434.25
410.908	455.25
411.132	466.25
411.355	491.25
411.578	470.25
411.802	443.25
412.025	406.25
412.249	418.25
412.472	470.25
412.695	490.25
412.919	493.25
413.142	428.25
413.365	416.25
413.589	386.25
413.812	383.25
414.035	399.25
414.258	396.25
414.482	397.25
414.705	372.25
414.928	396.25
415.151	366.25
415.374	389.25
415.597	385.25
415.821	396.25
416.044	396.25
416.267	385.25
416.49	385.25
416.713	404.25
416.936	401.25
417.159	386.25
417.382	379.25
417.605	396.25
417.828	411.25
418.051	412.25
418.274	406.25
418.497	417.25
418.72	397.25
418.943	405.25
419.166	409.25
419.389	424.25
419.611	421.25
419.834	432.25
420.057	412.25
420.28	428.25
420.503	422.25
420.726	408.25
420.948	434.25
421.171	456.25
421.394	526.25
421.617	466.25
421.839	437.25
422.062	427.25
422.285	453.25
422.507	481.25
422.73	571.25
422.953	535.25
423.175	468.25
423.398	429.25
423.621	453.25
423.843	446.25
424.066	498.25
424.288	456.25
424.511	471.25
424.733	532.25
424.956	586.25
425.178	565.25
425.401	593.25
425.623	585.25
425.846	512.25
426.068	474.25
426.291	460.25
426.513	453.25
426.735	477.25
426.958	523.25
427.18	576.25
427.402	699.25
427.625	803.25
427.847	683.25
428.069	627.25
428.292	537.25
428.514	483.25
428.736	469.25
428.958	435.25
429.181	429.25
429.403	446.25
429.625	453.25
429.847	463.25
430.069	511.25
430.292	517.25
430.514	451.25
430.736	449.25
430.958	406.25
431.18	391.25
431.402	402.25
431.624	400.25
431.846	389.25
432.068	396.25
432.29	403.25
432.512	409.25
432.734	403.25
432.956	408.25
433.178	413.25
433.4	412.25
433.622	404.25
433.844	405.25
434.066	396.25
434.287	393.25
434.509	410.25
434.731	394.25
434.953	400.25
435.175	432.25
435.397	459.25
435.618	449.25
435.84	538.25
436.062	586.25
436.284	671.25
436.505	575.25
436.727	476.25
436.949	466.25
437.17	460.25
437.392	431.25
437.614	449.25
437.835	479.25
438.057	596.25
438.278	672.25
438.5	651.25
438.721	731.25
438.943	698.25
439.165	552.25
439.386	480.25
439.608	490.25
439.829	485.25
440.05	547.25
440.272	565.25
440.493	529.25
440.715	465.25
440.936	438.25
441.158	445.25
441.379	409.25
441.6	445.25
441.822	459.25
442.043	496.25
442.264	588.25
442.486	626.25
442.707	498.25
442.928	507.25
443.149	491.25
443.371	507.25
443.592	565.25
443.813	617.25
444.034	690.25
444.255	552.25
444.476	488.25
444.698	472.25
444.919	452.25
445.14	539.25
445.361	522.25
445.582	520.25
445.803	551.25
446.024	668.25
446.245	697.25
446.466	628.25
446.687	519.25
446.908	481.25
447.129	449.25
447.35	456.25
447.571	427.25
447.792	420.25
448.013	422.25
448.234	471.25
448.455	517.25
448.675	611.25
448.896	713.25
449.117	615.25
449.338	573.25
449.559	670.25
449.779	752.25
450	604.25
450.221	510.25
450.442	471.25
450.662	408.25
450.883	447.25
451.104	440.25
451.324	455.25
451.545	429.25
451.766	389.25
451.986	371.25
452.207	396.25
452.428	387.25
452.648	382.25
452.869	387.25
453.089	401.25
453.31	414.25
453.53	393.25
453.751	403.25
453.971	405.25
454.192	418.25
454.412	393.25
454.633	402.25
454.853	400.25
455.073	385.25
455.294	408.25
455.514	489.25
455.734	452.25
455.955	389.25
456.175	375.25
456.395	371.25
456.616	367.25
456.836	355.25
457.056	341.25
457.276	347.25
457.497	347.25
457.717	371.25
457.937	362.25
458.157	362.25
458.377	364.25
458.598	420.25
458.818	458.25
459.038	560.25
459.258	547.25
459.478	459.25
459.698	410.25
459.918	391.25
460.138	392.25
460.358	395.25
460.578	392.25
460.798	392.25
461.018	388.25
461.238	392.25
461.458	396.25
461.678	396.25
461.898	380.25
462.118	357.25
462.338	401.25
462.558	411.25
462.777	390.25
462.997	379.25
463.217	406.25
463.437	409.25
463.657	409.25
463.876	405.25
464.096	403.25
464.316	389.25
464.536	418.25
464.755	423.25
464.975	394.25
465.195	484.25
465.414	561.25
465.634	483.25
465.854	424.25
466.073	425.25
466.293	418.25
466.512	408.25
466.732	407.25
466.951	382.25
467.171	383.25
467.391	390.25
467.61	425.25
467.829	373.25
468.049	397.25
468.268	385.25
468.488	379.25
468.707	374.25
468.927	383.25
469.146	371.25
469.365	377.25
469.585	369.25
469.804	380.25
470.023	402.25
470.243	399.25
470.462	401.25
470.681	410.25
470.901	387.25
471.12	377.25
471.339	391.25
471.558	415.25
471.777	404.25
471.997	402.25
472.216	400.25
472.435	435.25
472.654	424.25
472.873	403.25
473.092	381.25
473.311	407.25
473.53	396.25
473.749	399.25
473.968	448.25
474.187	576.25
474.406	561.25
474.625	477.25
474.844	404.25
475.063	399.25
475.282	368.25
475.501	408.25
475.72	383.25
475.939	405.25
476.158	403.25
476.377	417.25
476.596	409.25
476.814	388.25
477.033	413.25
477.252	417.25
477.471	405.25
477.69	413.25
477.908	437.25
478.127	410.25
478.346	414.25
478.564	420.25
478.783	427.25
479.002	437.25
479.22	443.25
479.439	445.25
479.658	463.25
479.876	447.25
480.095	482.25
480.313	501.25
480.532	491.25
480.751	481.25
480.969	496.25
481.188	544.25
481.406	575.25
481.624	506.25
481.843	475.25
482.061	456.25
482.28	461.25
482.498	459.25
482.717	447.25
482.935	466.25
483.153	455.25
483.372	472.25
483.59	454.25
483.808	448.25
484.027	463.25
484.245	455.25
484.463	447.25
484.681	479.25
484.9	460.25
485.118	503.25
485.336	477.25
485.554	484.25
485.772	460.25
485.99	484.25
486.209	489.25
486.427	483.25
486.645	484.25
486.863	500.25
487.081	490.25
487.299	508.25
487.517	496.25
487.735	508.25
487.953	491.25
488.171	494.25
488.389	500.25
488.607	481.25
488.825	485.25
489.043	483.25
489.261	497.25
489.479	508.25
489.696	498.25
489.914	520.25
490.132	507.25
490.35	508.25
490.568	514.25
490.786	511.25
491.003	536.25
491.221	552.25
491.439	575.25
491.657	541.25
491.874	534.25
492.092	560.25
492.31	572.25
492.527	561.25
492.745	598.25
492.963	575.25
493.18	584.25
493.398	596.25
493.615	591.25
493.833	589.25
494.05	591.25
494.268	579.25
494.485	596.25
494.703	609.25
494.92	584.25
495.138	588.25
495.355	588.25
495.573	588.25
495.79	604.25
496.008	615.25
496.225	593.25
496.442	569.25
496.66	604.25
496.877	579.25
497.094	603.25
497.312	591.25
497.529	628.25
497.746	589.25
497.963	610.25
498.181	637.25
498.398	617.25
498.615	610.25
498.832	613.25
499.049	640.25
499.267	627.25
499.484	656.25
499.701	691.25
499.918	679.25
500.135	699.25
500.352	719.25
500.569	703.25
500.786	690.25
501.003	696.25
501.22	705.25
501.437	705.25
501.654	704.25
501.871	695.25
