Data from 1981.PennyLincolnUp.Lamp.En5.5.200Scan.071819.P1_HRD10591_16-41-31-959.txt Node
Date: Thu Jul 18 16:41:31 EDT 2019
User: cochatt
Spectrometer: HR+D1059
Trigger mode: 1
Integration Time (sec): 1.000000E-1
Scans to average: 1
Electric dark correction enabled: true
Nonlinearity correction enabled: false
Boxcar width: 0
XAxis mode: Wavelengths
Number of Pixels in Spectrum: 2048
>>>>>Begin Spectral Data<<<<<
223.165	-23.5
223.4	-23.5
223.635	-23.5
223.869	0.5
224.104	-17.5
224.338	-21.5
224.573	-21.5
224.808	-22.5
225.042	-8.5
225.277	-7.5
225.511	-5.5
225.746	17.5
225.98	12.5
226.215	6.5
226.449	15.5
226.683	18.5
226.918	32.5
227.152	24.5
227.387	41.5
227.621	35.5
227.856	39.5
228.09	40.5
228.324	52.5
228.559	56.5
228.793	64.5
229.027	101.5
229.262	101.5
229.496	104.5
229.73	141.5
229.964	160.5
230.199	138.5
230.433	123.5
230.667	101.5
230.901	114.5
231.136	107.5
231.37	111.5
231.604	114.5
231.838	128.5
232.072	111.5
232.306	110.5
232.541	117.5
232.775	99.5
233.009	116.5
233.243	107.5
233.477	96.5
233.711	101.5
233.945	111.5
234.179	126.5
234.413	136.5
234.647	101.5
234.881	128.5
235.115	112.5
235.349	124.5
235.583	123.5
235.817	116.5
236.051	135.5
236.285	124.5
236.519	121.5
236.753	124.5
236.987	144.5
237.221	189.5
237.455	240.5
237.689	171.5
237.922	125.5
238.156	146.5
238.39	137.5
238.624	105.5
238.858	107.5
239.091	117.5
239.325	124.5
239.559	127.5
239.793	128.5
240.027	126.5
240.26	149.5
240.494	149.5
240.728	127.5
240.961	146.5
241.195	152.5
241.429	134.5
241.662	134.5
241.896	142.5
242.13	131.5
242.363	133.5
242.597	134.5
242.83	124.5
243.064	142.5
243.298	141.5
243.531	147.5
243.765	141.5
243.998	149.5
244.232	148.5
244.465	137.5
244.699	138.5
244.932	143.5
245.166	144.5
245.399	152.5
245.633	125.5
245.866	133.5
246.099	155.5
246.333	160.5
246.566	144.5
246.8	145.5
247.033	153.5
247.266	156.5
247.5	177.5
247.733	184.5
247.966	160.5
248.2	177.5
248.433	183.5
248.666	200.5
248.899	187.5
249.133	188.5
249.366	217.5
249.599	198.5
249.832	184.5
250.066	183.5
250.299	183.5
250.532	204.5
250.765	225.5
250.998	221.5
251.231	224.5
251.465	225.5
251.698	206.5
251.931	220.5
252.164	206.5
252.397	203.5
252.63	208.5
252.863	214.5
253.096	229.5
253.329	236.5
253.562	206.5
253.795	220.5
254.028	225.5
254.261	242.5
254.494	232.5
254.727	270.5
254.96	288.5
255.193	297.5
255.426	285.5
255.659	232.5
255.892	255.5
256.124	230.5
256.357	249.5
256.59	235.5
256.823	227.5
257.056	212.5
257.289	206.5
257.521	209.5
257.754	216.5
257.987	211.5
258.22	209.5
258.452	209.5
258.685	203.5
258.918	214.5
259.151	221.5
259.383	234.5
259.616	232.5
259.849	250.5
260.081	242.5
260.314	266.5
260.547	256.5
260.779	258.5
261.012	250.5
261.244	245.5
261.477	229.5
261.71	228.5
261.942	229.5
262.175	243.5
262.407	235.5
262.64	227.5
262.872	220.5
263.105	218.5
263.337	224.5
263.57	217.5
263.802	225.5
264.035	213.5
264.267	214.5
264.499	226.5
264.732	212.5
264.964	226.5
265.197	234.5
265.429	225.5
265.661	242.5
265.894	216.5
266.126	221.5
266.358	223.5
266.591	219.5
266.823	228.5
267.055	235.5
267.287	228.5
267.52	234.5
267.752	240.5
267.984	237.5
268.216	231.5
268.448	237.5
268.681	256.5
268.913	247.5
269.145	249.5
269.377	283.5
269.609	285.5
269.841	271.5
270.073	273.5
270.306	308.5
270.538	311.5
270.77	335.5
271.002	317.5
271.234	307.5
271.466	302.5
271.698	310.5
271.93	326.5
272.162	345.5
272.394	342.5
272.626	294.5
272.858	305.5
273.09	304.5
273.322	276.5
273.553	269.5
273.785	278.5
274.017	286.5
274.249	281.5
274.481	272.5
274.713	255.5
274.945	267.5
275.176	272.5
275.408	278.5
275.64	278.5
275.872	270.5
276.104	270.5
276.335	282.5
276.567	296.5
276.799	304.5
277.031	329.5
277.262	323.5
277.494	336.5
277.726	330.5
277.957	286.5
278.189	290.5
278.421	274.5
278.652	275.5
278.884	276.5
279.115	261.5
279.347	270.5
279.579	261.5
279.81	270.5
280.042	266.5
280.273	275.5
280.505	257.5
280.736	265.5
280.968	269.5
281.199	270.5
281.431	264.5
281.662	278.5
281.894	278.5
282.125	266.5
282.356	275.5
282.588	298.5
282.819	314.5
283.051	269.5
283.282	291.5
283.513	273.5
283.745	262.5
283.976	251.5
284.207	280.5
284.439	274.5
284.67	284.5
284.901	283.5
285.132	264.5
285.364	266.5
285.595	280.5
285.826	275.5
286.057	285.5
286.288	258.5
286.52	275.5
286.751	281.5
286.982	294.5
287.213	272.5
287.444	269.5
287.675	276.5
287.906	307.5
288.138	314.5
288.369	291.5
288.6	302.5
288.831	317.5
289.062	302.5
289.293	285.5
289.524	298.5
289.755	302.5
289.986	279.5
290.217	288.5
290.448	286.5
290.679	306.5
290.91	285.5
291.141	297.5
291.371	289.5
291.602	277.5
291.833	290.5
292.064	302.5
292.295	275.5
292.526	296.5
292.757	304.5
292.987	273.5
293.218	274.5
293.449	276.5
293.68	284.5
293.91	290.5
294.141	266.5
294.372	274.5
294.603	269.5
294.833	274.5
295.064	288.5
295.295	273.5
295.525	294.5
295.756	297.5
295.987	289.5
296.217	325.5
296.448	326.5
296.679	312.5
296.909	300.5
297.14	314.5
297.37	272.5
297.601	300.5
297.831	292.5
298.062	303.5
298.292	302.5
298.523	304.5
298.753	291.5
298.984	277.5
299.214	301.5
299.445	292.5
299.675	301.5
299.905	309.5
300.136	300.5
300.366	319.5
300.597	290.5
300.827	312.5
301.057	305.5
301.288	326.5
301.518	332.5
301.748	334.5
301.979	328.5
302.209	326.5
302.439	314.5
302.669	318.5
302.9	326.5
303.13	325.5
303.36	330.5
303.59	331.5
303.82	341.5
304.051	332.5
304.281	310.5
304.511	333.5
304.741	324.5
304.971	324.5
305.201	321.5
305.431	306.5
305.661	321.5
305.891	318.5
306.121	322.5
306.352	329.5
306.582	339.5
306.812	322.5
307.042	323.5
307.272	321.5
307.502	345.5
307.731	332.5
307.961	340.5
308.191	329.5
308.421	315.5
308.651	329.5
308.881	356.5
309.111	340.5
309.341	320.5
309.571	343.5
309.8	341.5
310.03	360.5
310.26	394.5
310.49	385.5
310.72	383.5
310.949	397.5
311.179	410.5
311.409	394.5
311.639	391.5
311.868	389.5
312.098	378.5
312.328	380.5
312.557	406.5
312.787	422.5
313.017	415.5
313.246	384.5
313.476	374.5
313.706	380.5
313.935	379.5
314.165	398.5
314.394	419.5
314.624	412.5
314.853	392.5
315.083	383.5
315.312	381.5
315.542	353.5
315.771	372.5
316.001	365.5
316.23	368.5
316.46	370.5
316.689	371.5
316.919	370.5
317.148	391.5
317.377	389.5
317.607	388.5
317.836	386.5
318.065	388.5
318.295	363.5
318.524	370.5
318.753	379.5
318.983	373.5
319.212	388.5
319.441	385.5
319.67	408.5
319.9	382.5
320.129	387.5
320.358	381.5
320.587	384.5
320.816	396.5
321.046	412.5
321.275	386.5
321.504	411.5
321.733	420.5
321.962	429.5
322.191	436.5
322.42	429.5
322.649	484.5
322.878	448.5
323.108	481.5
323.337	498.5
323.566	563.5
323.795	560.5
324.024	632.5
324.253	773.5
324.482	1130.5
324.71	1695.5
324.939	2381.5
325.168	2023.5
325.397	1042.5
325.626	708.5
325.855	612.5
326.084	558.5
326.313	535.5
326.542	545.5
326.77	599.5
326.999	711.5
327.228	974.5
327.457	1476.5
327.686	1758.5
327.914	1160.5
328.143	767.5
328.372	664.5
328.6	628.5
328.829	600.5
329.058	628.5
329.287	634.5
329.515	571.5
329.744	542.5
329.972	535.5
330.201	550.5
330.43	577.5
330.658	600.5
330.887	624.5
331.115	620.5
331.344	526.5
331.572	492.5
331.801	499.5
332.03	474.5
332.258	481.5
332.486	474.5
332.715	429.5
332.943	413.5
333.172	426.5
333.4	440.5
333.629	450.5
333.857	461.5
334.085	477.5
334.314	478.5
334.542	494.5
334.771	460.5
334.999	483.5
335.227	463.5
335.455	440.5
335.684	435.5
335.912	432.5
336.14	418.5
336.369	430.5
336.597	448.5
336.825	442.5
337.053	440.5
337.281	454.5
337.51	426.5
337.738	427.5
337.966	430.5
338.194	425.5
338.422	436.5
338.65	423.5
338.878	422.5
339.106	384.5
339.334	421.5
339.562	436.5
339.79	424.5
340.018	417.5
340.246	432.5
340.474	429.5
340.702	418.5
340.93	401.5
341.158	394.5
341.386	426.5
341.614	402.5
341.842	417.5
342.07	410.5
342.298	398.5
342.526	407.5
342.754	384.5
342.981	395.5
343.209	400.5
343.437	392.5
343.665	428.5
343.893	417.5
344.12	409.5
344.348	409.5
344.576	414.5
344.804	406.5
345.031	434.5
345.259	456.5
345.487	414.5
345.714	415.5
345.942	406.5
346.17	394.5
346.397	385.5
346.625	409.5
346.853	406.5
347.08	402.5
347.308	384.5
347.535	402.5
347.763	389.5
347.99	406.5
348.218	404.5
348.445	411.5
348.673	431.5
348.9	403.5
349.128	398.5
349.355	381.5
349.583	388.5
349.81	390.5
350.037	407.5
350.265	374.5
350.492	372.5
350.72	381.5
350.947	375.5
351.174	404.5
351.402	408.5
351.629	397.5
351.856	388.5
352.083	419.5
352.311	417.5
352.538	392.5
352.765	405.5
352.992	405.5
353.22	404.5
353.447	381.5
353.674	374.5
353.901	388.5
354.128	384.5
354.355	369.5
354.583	369.5
354.81	372.5
355.037	356.5
355.264	369.5
355.491	368.5
355.718	358.5
355.945	364.5
356.172	372.5
356.399	334.5
356.626	366.5
356.853	362.5
357.08	362.5
357.307	359.5
357.534	364.5
357.761	370.5
357.988	343.5
358.215	372.5
358.441	356.5
358.668	357.5
358.895	358.5
359.122	381.5
359.349	358.5
359.576	408.5
359.802	416.5
360.029	432.5
360.256	434.5
360.483	406.5
360.709	403.5
360.936	408.5
361.163	378.5
361.39	375.5
361.616	382.5
361.843	376.5
362.07	384.5
362.296	403.5
362.523	388.5
362.749	397.5
362.976	382.5
363.203	374.5
363.429	377.5
363.656	383.5
363.882	380.5
364.109	360.5
364.335	352.5
364.562	349.5
364.788	349.5
365.015	363.5
365.241	376.5
365.468	365.5
365.694	378.5
365.92	377.5
366.147	356.5
366.373	371.5
366.599	382.5
366.826	370.5
367.052	361.5
367.278	352.5
367.505	348.5
367.731	362.5
367.957	368.5
368.184	372.5
368.41	366.5
368.636	382.5
368.862	382.5
369.089	375.5
369.315	340.5
369.541	380.5
369.767	354.5
369.993	373.5
370.219	340.5
370.445	360.5
370.672	353.5
370.898	359.5
371.124	359.5
371.35	353.5
371.576	374.5
371.802	364.5
372.028	356.5
372.254	365.5
372.48	357.5
372.706	363.5
372.932	321.5
373.158	351.5
373.384	340.5
373.61	351.5
373.835	364.5
374.061	355.5
374.287	345.5
374.513	344.5
374.739	374.5
374.965	358.5
375.191	362.5
375.416	358.5
375.642	353.5
375.868	341.5
376.094	354.5
376.319	336.5
376.545	345.5
376.771	337.5
376.997	337.5
377.222	349.5
377.448	348.5
377.674	341.5
377.899	337.5
378.125	332.5
378.35	353.5
378.576	347.5
378.802	338.5
379.027	344.5
379.253	326.5
379.478	324.5
379.704	331.5
379.929	329.5
380.155	340.5
380.38	336.5
380.606	339.5
380.831	349.5
381.057	337.5
381.282	345.5
381.507	357.5
381.733	368.5
381.958	340.5
382.184	338.5
382.409	342.5
382.634	347.5
382.86	356.5
383.085	346.5
383.31	345.5
383.535	355.5
383.761	355.5
383.986	354.5
384.211	350.5
384.436	366.5
384.662	353.5
384.887	350.5
385.112	346.5
385.337	362.5
385.562	340.5
385.787	351.5
386.013	371.5
386.238	355.5
386.463	367.5
386.688	355.5
386.913	355.5
387.138	361.5
387.363	365.5
387.588	366.5
387.813	356.5
388.038	351.5
388.263	359.5
388.488	365.5
388.713	339.5
388.938	372.5
389.163	372.5
389.387	372.5
389.612	361.5
389.837	364.5
390.062	358.5
390.287	362.5
390.512	379.5
390.736	357.5
390.961	364.5
391.186	350.5
391.411	348.5
391.636	364.5
391.86	362.5
392.085	357.5
392.31	366.5
392.534	357.5
392.759	343.5
392.984	362.5
393.208	344.5
393.433	363.5
393.658	352.5
393.882	351.5
394.107	346.5
394.331	372.5
394.556	376.5
394.78	350.5
395.005	336.5
395.229	360.5
395.454	376.5
395.678	363.5
395.903	364.5
396.127	394.5
396.352	405.5
396.576	367.5
396.801	375.5
397.025	369.5
397.249	377.5
397.474	365.5
397.698	377.5
397.922	386.5
398.147	425.5
398.371	397.5
398.595	392.5
398.82	401.5
399.044	412.5
399.268	407.5
399.492	427.5
399.717	448.5
399.941	456.5
400.165	483.5
400.389	494.5
400.613	468.5
400.837	428.5
401.062	415.5
401.286	406.5
401.51	411.5
401.734	387.5
401.958	396.5
402.182	388.5
402.406	418.5
402.63	435.5
402.854	412.5
403.078	410.5
403.302	419.5
403.526	426.5
403.75	413.5
403.974	420.5
404.198	416.5
404.422	424.5
404.645	422.5
404.869	434.5
405.093	448.5
405.317	468.5
405.541	509.5
405.765	462.5
405.988	440.5
406.212	430.5
406.436	453.5
406.66	488.5
406.883	452.5
407.107	471.5
407.331	507.5
407.555	545.5
407.778	561.5
408.002	527.5
408.226	476.5
408.449	437.5
408.673	448.5
408.896	481.5
409.12	514.5
409.344	483.5
409.567	420.5
409.791	431.5
410.014	415.5
410.238	410.5
410.461	421.5
410.685	420.5
410.908	419.5
411.132	451.5
411.355	485.5
411.578	473.5
411.802	437.5
412.025	425.5
412.249	423.5
412.472	434.5
412.695	444.5
412.919	481.5
413.142	414.5
413.365	386.5
413.589	414.5
413.812	395.5
414.035	401.5
414.258	417.5
414.482	360.5
414.705	362.5
414.928	373.5
415.151	397.5
415.374	398.5
415.597	380.5
415.821	392.5
416.044	393.5
416.267	390.5
416.49	380.5
416.713	383.5
416.936	394.5
417.159	383.5
417.382	379.5
417.605	381.5
417.828	427.5
418.051	420.5
418.274	411.5
418.497	379.5
418.72	421.5
418.943	382.5
419.166	388.5
419.389	396.5
419.611	417.5
419.834	407.5
420.057	420.5
420.28	406.5
420.503	402.5
420.726	422.5
420.948	422.5
421.171	465.5
421.394	452.5
421.617	436.5
421.839	413.5
422.062	407.5
422.285	429.5
422.507	477.5
422.73	542.5
422.953	534.5
423.175	450.5
423.398	442.5
423.621	422.5
423.843	444.5
424.066	448.5
424.288	462.5
424.511	460.5
424.733	513.5
424.956	577.5
425.178	549.5
425.401	556.5
425.623	582.5
425.846	494.5
426.068	458.5
426.291	467.5
426.513	441.5
426.735	464.5
426.958	498.5
427.18	568.5
427.402	686.5
427.625	770.5
427.847	664.5
428.069	587.5
428.292	505.5
428.514	458.5
428.736	445.5
428.958	442.5
429.181	423.5
429.403	443.5
429.625	420.5
429.847	484.5
430.069	510.5
430.292	503.5
430.514	477.5
430.736	420.5
430.958	418.5
431.18	381.5
431.402	379.5
431.624	380.5
431.846	388.5
432.068	399.5
432.29	384.5
432.512	415.5
432.734	389.5
432.956	400.5
433.178	397.5
433.4	407.5
433.622	381.5
433.844	399.5
434.066	381.5
434.287	397.5
434.509	378.5
434.731	408.5
434.953	387.5
435.175	417.5
435.397	431.5
435.618	461.5
435.84	490.5
436.062	584.5
436.284	637.5
436.505	542.5
436.727	476.5
436.949	467.5
437.17	446.5
437.392	431.5
437.614	436.5
437.835	468.5
438.057	556.5
438.278	660.5
438.5	662.5
438.721	692.5
438.943	642.5
439.165	526.5
439.386	469.5
439.608	489.5
439.829	461.5
440.05	482.5
440.272	526.5
440.493	488.5
440.715	454.5
440.936	450.5
441.158	426.5
441.379	425.5
441.6	428.5
441.822	448.5
442.043	496.5
442.264	592.5
442.486	595.5
442.707	517.5
442.928	472.5
443.149	490.5
443.371	496.5
443.592	519.5
443.813	624.5
444.034	658.5
444.255	557.5
444.476	469.5
444.698	451.5
444.919	450.5
445.14	576.5
445.361	520.5
445.582	482.5
445.803	545.5
446.024	632.5
446.245	654.5
446.466	613.5
446.687	511.5
446.908	437.5
447.129	441.5
447.35	452.5
447.571	424.5
447.792	420.5
448.013	435.5
448.234	461.5
448.455	517.5
448.675	584.5
448.896	664.5
449.117	579.5
449.338	566.5
449.559	636.5
449.779	704.5
450	586.5
450.221	460.5
450.442	445.5
450.662	424.5
450.883	440.5
451.104	447.5
451.324	437.5
451.545	402.5
451.766	409.5
451.986	369.5
452.207	373.5
452.428	378.5
452.648	401.5
452.869	382.5
453.089	412.5
453.31	410.5
453.53	377.5
453.751	364.5
453.971	382.5
454.192	411.5
454.412	372.5
454.633	392.5
454.853	387.5
455.073	356.5
455.294	408.5
455.514	483.5
455.734	472.5
455.955	405.5
456.175	384.5
456.395	347.5
456.616	347.5
456.836	357.5
457.056	348.5
457.276	344.5
457.497	359.5
457.717	374.5
457.937	388.5
458.157	368.5
458.377	372.5
458.598	382.5
458.818	449.5
459.038	502.5
459.258	525.5
459.478	438.5
459.698	392.5
459.918	386.5
460.138	376.5
460.358	373.5
460.578	375.5
460.798	390.5
461.018	382.5
461.238	374.5
461.458	394.5
461.678	365.5
461.898	366.5
462.118	381.5
462.338	384.5
462.558	383.5
462.777	388.5
462.997	397.5
463.217	396.5
463.437	400.5
463.657	406.5
463.876	395.5
464.096	409.5
464.316	400.5
464.536	413.5
464.755	428.5
464.975	404.5
465.195	478.5
465.414	554.5
465.634	470.5
465.854	429.5
466.073	419.5
466.293	390.5
466.512	376.5
466.732	378.5
466.951	381.5
467.171	372.5
467.391	385.5
467.61	394.5
467.829	378.5
468.049	368.5
468.268	384.5
468.488	387.5
468.707	381.5
468.927	373.5
469.146	367.5
469.365	359.5
469.585	356.5
469.804	378.5
470.023	387.5
470.243	385.5
470.462	389.5
470.681	412.5
470.901	393.5
471.12	392.5
471.339	377.5
471.558	402.5
471.777	375.5
471.997	379.5
472.216	383.5
472.435	410.5
472.654	408.5
472.873	385.5
473.092	378.5
473.311	398.5
473.53	383.5
473.749	400.5
473.968	436.5
474.187	532.5
474.406	569.5
474.625	465.5
474.844	436.5
475.063	390.5
475.282	391.5
475.501	404.5
475.72	405.5
475.939	379.5
476.158	402.5
476.377	374.5
476.596	403.5
476.814	417.5
477.033	412.5
477.252	425.5
477.471	394.5
477.69	398.5
477.908	409.5
478.127	404.5
478.346	408.5
478.564	421.5
478.783	433.5
479.002	415.5
479.22	434.5
479.439	451.5
479.658	459.5
479.876	471.5
480.095	474.5
480.313	503.5
480.532	453.5
480.751	454.5
480.969	474.5
481.188	534.5
481.406	551.5
481.624	486.5
481.843	454.5
482.061	449.5
482.28	465.5
482.498	433.5
482.717	453.5
482.935	444.5
483.153	441.5
483.372	462.5
483.59	471.5
483.808	457.5
484.027	428.5
484.245	453.5
484.463	455.5
484.681	466.5
484.9	458.5
485.118	458.5
485.336	455.5
485.554	464.5
485.772	453.5
485.99	445.5
486.209	475.5
486.427	461.5
486.645	469.5
486.863	486.5
487.081	500.5
487.299	468.5
487.517	484.5
487.735	474.5
487.953	479.5
488.171	508.5
488.389	485.5
488.607	477.5
488.825	478.5
489.043	474.5
489.261	487.5
489.479	492.5
489.696	499.5
489.914	504.5
490.132	533.5
490.35	516.5
490.568	482.5
490.786	517.5
491.003	531.5
491.221	521.5
491.439	527.5
491.657	544.5
491.874	554.5
492.092	573.5
492.31	578.5
492.527	532.5
492.745	542.5
492.963	572.5
493.18	576.5
493.398	547.5
493.615	575.5
493.833	588.5
494.05	572.5
494.268	578.5
494.485	588.5
494.703	571.5
494.92	564.5
495.138	580.5
495.355	569.5
495.573	575.5
495.79	590.5
496.008	582.5
496.225	594.5
496.442	602.5
496.66	562.5
496.877	570.5
497.094	587.5
497.312	585.5
497.529	596.5
497.746	594.5
497.963	599.5
498.181	627.5
498.398	652.5
498.615	634.5
498.832	673.5
499.049	632.5
499.267	645.5
499.484	636.5
499.701	674.5
499.918	659.5
500.135	680.5
500.352	709.5
500.569	734.5
500.786	702.5
501.003	713.5
501.22	698.5
501.437	721.5
501.654	688.5
501.871	690.5
502.088	689.5
502.305	665.5
502.522	640.5
502.739	656.5
502.956	574.5
503.172	585.5
503.389	606.5
503.606	628.5
503.823	582.5
504.04	590.5
504.256	579.5
504.473	576.5
504.69	586.5
504.907	582.5
505.123	576.5
505.34	578.5
505.557	562.5
505.773	567.5
505.99	571.5
506.207	563.5
506.423	553.5
506.64	537.5
506.856	549.5
507.073	563.5
507.289	551.5
507.506	544.5
507.722	563.5
507.939	578.5
508.155	555.5
508.372	546.5
508.588	550.5
508.805	557.5
509.021	543.5
509.238	557.5
509.454	574.5
509.67	566.5
509.887	535.5
510.103	564.5
510.319	571.5
510.536	659.5
510.752	1098.5
510.968	856.5
511.184	594.5
511.401	549.5
511.617	526.5
511.833	542.5
512.049	517.5
512.265	488.5
512.481	516.5
512.698	512.5
512.914	520.5
513.13	514.5
513.346	526.5
513.562	538.5
513.778	523.5
513.994	544.5
514.21	572.5
514.426	564.5
514.642	614.5
514.858	635.5
515.074	683.5
515.29	835.5
515.506	1220.5
515.721	952.5
515.937	640.5
516.153	571.5
516.369	564.5
516.585	533.5
516.801	519.5
517.016	541.5
517.232	519.5
517.448	545.5
517.664	527.5
517.879	501.5
518.095	518.5
518.311	496.5
518.527	529.5
518.742	536.5
518.958	538.5
519.173	522.5
519.389	519.5
519.605	520.5
519.82	531.5
