Data from 1981.PennyLincolnUp.Lamp.En5.5.200Scan.071819.P1_HRD10591_16-40-56-959.txt Node
Date: Thu Jul 18 16:40:56 EDT 2019
User: cochatt
Spectrometer: HR+D1059
Trigger mode: 1
Integration Time (sec): 1.000000E-1
Scans to average: 1
Electric dark correction enabled: true
Nonlinearity correction enabled: false
Boxcar width: 0
XAxis mode: Wavelengths
Number of Pixels in Spectrum: 2048
>>>>>Begin Spectral Data<<<<<
223.165	-25.75
223.4	-25.75
223.635	-25.75
223.869	-17.75
224.104	-25.75
224.338	9.25
224.573	-9.75
224.808	-5.75
225.042	-12.75
225.277	-1.75
225.511	4.25
225.746	6.25
225.98	-11.75
226.215	10.25
226.449	14.25
226.683	13.25
226.918	24.25
227.152	29.25
227.387	45.25
227.621	39.25
227.856	41.25
228.09	42.25
228.324	53.25
228.559	66.25
228.793	67.25
229.027	93.25
229.262	107.25
229.496	111.25
229.73	129.25
229.964	151.25
230.199	123.25
230.433	113.25
230.667	89.25
230.901	103.25
231.136	100.25
231.37	114.25
231.604	117.25
231.838	102.25
232.072	114.25
232.306	117.25
232.541	105.25
232.775	127.25
233.009	94.25
233.243	119.25
233.477	109.25
233.711	113.25
233.945	113.25
234.179	117.25
234.413	116.25
234.647	101.25
234.881	129.25
235.115	125.25
235.349	108.25
235.583	115.25
235.817	109.25
236.051	125.25
236.285	129.25
236.519	121.25
236.753	140.25
236.987	143.25
237.221	187.25
237.455	226.25
237.689	171.25
237.922	131.25
238.156	130.25
238.39	147.25
238.624	120.25
238.858	116.25
239.091	133.25
239.325	116.25
239.559	115.25
239.793	126.25
240.027	128.25
240.26	137.25
240.494	140.25
240.728	157.25
240.961	136.25
241.195	145.25
241.429	125.25
241.662	144.25
241.896	118.25
242.13	124.25
242.363	126.25
242.597	133.25
242.83	131.25
243.064	136.25
243.298	151.25
243.531	141.25
243.765	143.25
243.998	122.25
244.232	137.25
244.465	137.25
244.699	144.25
244.932	148.25
245.166	146.25
245.399	136.25
245.633	142.25
245.866	136.25
246.099	161.25
246.333	150.25
246.566	141.25
246.8	142.25
247.033	177.25
247.266	166.25
247.5	161.25
247.733	166.25
247.966	142.25
248.2	173.25
248.433	164.25
248.666	181.25
248.899	187.25
249.133	182.25
249.366	204.25
249.599	199.25
249.832	186.25
250.066	172.25
250.299	185.25
250.532	179.25
250.765	188.25
250.998	222.25
251.231	209.25
251.465	214.25
251.698	219.25
251.931	189.25
252.164	205.25
252.397	205.25
252.63	202.25
252.863	201.25
253.096	213.25
253.329	218.25
253.562	221.25
253.795	222.25
254.028	212.25
254.261	234.25
254.494	222.25
254.727	248.25
254.96	261.25
255.193	260.25
255.426	261.25
255.659	211.25
255.892	236.25
256.124	222.25
256.357	224.25
256.59	215.25
256.823	208.25
257.056	212.25
257.289	203.25
257.521	195.25
257.754	210.25
257.987	210.25
258.22	199.25
258.452	206.25
258.685	210.25
258.918	205.25
259.151	216.25
259.383	214.25
259.616	221.25
259.849	225.25
260.081	225.25
260.314	241.25
260.547	255.25
260.779	236.25
261.012	251.25
261.244	215.25
261.477	217.25
261.71	220.25
261.942	222.25
262.175	221.25
262.407	229.25
262.64	211.25
262.872	216.25
263.105	197.25
263.337	197.25
263.57	211.25
263.802	202.25
264.035	213.25
264.267	218.25
264.499	212.25
264.732	214.25
264.964	199.25
265.197	219.25
265.429	193.25
265.661	196.25
265.894	199.25
266.126	221.25
266.358	209.25
266.591	194.25
266.823	216.25
267.055	203.25
267.287	211.25
267.52	218.25
267.752	208.25
267.984	226.25
268.216	219.25
268.448	221.25
268.681	233.25
268.913	247.25
269.145	233.25
269.377	253.25
269.609	248.25
269.841	266.25
270.073	254.25
270.306	265.25
270.538	297.25
270.77	297.25
271.002	284.25
271.234	280.25
271.466	292.25
271.698	301.25
271.93	309.25
272.162	302.25
272.394	297.25
272.626	292.25
272.858	284.25
273.09	291.25
273.322	257.25
273.553	253.25
273.785	263.25
274.017	258.25
274.249	265.25
274.481	261.25
274.713	266.25
274.945	270.25
275.176	266.25
275.408	266.25
275.64	251.25
275.872	265.25
276.104	253.25
276.335	252.25
276.567	262.25
276.799	274.25
277.031	302.25
277.262	294.25
277.494	292.25
277.726	309.25
277.957	293.25
278.189	277.25
278.421	271.25
278.652	244.25
278.884	259.25
279.115	264.25
279.347	256.25
279.579	257.25
279.81	244.25
280.042	257.25
280.273	231.25
280.505	262.25
280.736	271.25
280.968	246.25
281.199	255.25
281.431	250.25
281.662	251.25
281.894	230.25
282.125	278.25
282.356	280.25
282.588	293.25
282.819	295.25
283.051	268.25
283.282	252.25
283.513	243.25
283.745	254.25
283.976	267.25
284.207	278.25
284.439	263.25
284.67	281.25
284.901	250.25
285.132	253.25
285.364	242.25
285.595	265.25
285.826	269.25
286.057	265.25
286.288	250.25
286.52	266.25
286.751	255.25
286.982	257.25
287.213	266.25
287.444	272.25
287.675	295.25
287.906	274.25
288.138	263.25
288.369	277.25
288.6	300.25
288.831	296.25
289.062	286.25
289.293	275.25
289.524	262.25
289.755	263.25
289.986	278.25
290.217	251.25
290.448	249.25
290.679	269.25
290.91	272.25
291.141	259.25
291.371	264.25
291.602	285.25
291.833	265.25
292.064	270.25
292.295	260.25
292.526	271.25
292.757	273.25
292.987	275.25
293.218	271.25
293.449	264.25
293.68	268.25
293.91	258.25
294.141	265.25
294.372	277.25
294.603	275.25
294.833	278.25
295.064	272.25
295.295	275.25
295.525	281.25
295.756	283.25
295.987	284.25
296.217	300.25
296.448	310.25
296.679	308.25
296.909	286.25
297.14	287.25
297.37	261.25
297.601	292.25
297.831	270.25
298.062	279.25
298.292	284.25
298.523	289.25
298.753	278.25
298.984	302.25
299.214	297.25
299.445	291.25
299.675	302.25
299.905	286.25
300.136	291.25
300.366	287.25
300.597	294.25
300.827	288.25
301.057	308.25
301.288	307.25
301.518	301.25
301.748	304.25
301.979	284.25
302.209	301.25
302.439	313.25
302.669	303.25
302.9	307.25
303.13	302.25
303.36	301.25
303.59	292.25
303.82	304.25
304.051	297.25
304.281	303.25
304.511	305.25
304.741	322.25
304.971	283.25
305.201	302.25
305.431	306.25
305.661	317.25
305.891	299.25
306.121	295.25
306.352	311.25
306.582	317.25
306.812	288.25
307.042	321.25
307.272	305.25
307.502	308.25
307.731	317.25
307.961	332.25
308.191	322.25
308.421	295.25
308.651	311.25
308.881	297.25
309.111	323.25
309.341	311.25
309.571	340.25
309.8	338.25
310.03	342.25
310.26	370.25
310.49	358.25
310.72	349.25
310.949	404.25
311.179	388.25
311.409	359.25
311.639	337.25
311.868	356.25
312.098	358.25
312.328	362.25
312.557	377.25
312.787	409.25
313.017	372.25
313.246	377.25
313.476	358.25
313.706	368.25
313.935	334.25
314.165	367.25
314.394	397.25
314.624	368.25
314.853	372.25
315.083	374.25
315.312	351.25
315.542	352.25
315.771	346.25
316.001	344.25
316.23	353.25
316.46	341.25
316.689	355.25
316.919	343.25
317.148	379.25
317.377	366.25
317.607	375.25
317.836	364.25
318.065	353.25
318.295	369.25
318.524	349.25
318.753	358.25
318.983	362.25
319.212	349.25
319.441	370.25
319.67	345.25
319.9	359.25
320.129	334.25
320.358	353.25
320.587	358.25
320.816	365.25
321.046	377.25
321.275	369.25
321.504	393.25
321.733	380.25
321.962	393.25
322.191	402.25
322.42	398.25
322.649	418.25
322.878	440.25
323.108	452.25
323.337	470.25
323.566	481.25
323.795	513.25
324.024	576.25
324.253	694.25
324.482	1035.25
324.71	1557.25
324.939	2099.25
325.168	1761.25
325.397	943.25
325.626	636.25
325.855	547.25
326.084	503.25
326.313	492.25
326.542	494.25
326.77	567.25
326.999	644.25
327.228	892.25
327.457	1305.25
327.686	1518.25
327.914	1069.25
328.143	722.25
328.372	607.25
328.6	580.25
328.829	539.25
329.058	551.25
329.287	549.25
329.515	509.25
329.744	509.25
329.972	465.25
330.201	482.25
330.43	531.25
330.658	550.25
330.887	563.25
331.115	547.25
331.344	481.25
331.572	483.25
331.801	456.25
332.03	465.25
332.258	435.25
332.486	428.25
332.715	404.25
332.943	428.25
333.172	418.25
333.4	405.25
333.629	424.25
333.857	422.25
334.085	445.25
334.314	429.25
334.542	461.25
334.771	471.25
334.999	451.25
335.227	447.25
335.455	417.25
335.684	407.25
335.912	416.25
336.14	396.25
336.369	407.25
336.597	420.25
336.825	428.25
337.053	410.25
337.281	375.25
337.51	402.25
337.738	381.25
337.966	389.25
338.194	413.25
338.422	396.25
338.65	380.25
338.878	380.25
339.106	394.25
339.334	396.25
339.562	378.25
339.79	370.25
340.018	388.25
340.246	387.25
340.474	397.25
340.702	388.25
340.93	394.25
341.158	377.25
341.386	381.25
341.614	389.25
341.842	395.25
342.07	382.25
342.298	385.25
342.526	376.25
342.754	385.25
342.981	362.25
343.209	384.25
343.437	375.25
343.665	381.25
343.893	373.25
344.12	388.25
344.348	408.25
344.576	378.25
344.804	381.25
345.031	404.25
345.259	408.25
345.487	405.25
345.714	385.25
345.942	378.25
346.17	359.25
346.397	378.25
346.625	368.25
346.853	371.25
347.08	380.25
347.308	377.25
347.535	398.25
347.763	399.25
347.99	403.25
348.218	395.25
348.445	379.25
348.673	369.25
348.9	370.25
349.128	371.25
349.355	351.25
349.583	348.25
349.81	358.25
350.037	349.25
350.265	357.25
350.492	355.25
350.72	359.25
350.947	361.25
351.174	394.25
351.402	377.25
351.629	372.25
351.856	382.25
352.083	385.25
352.311	387.25
352.538	380.25
352.765	375.25
352.992	395.25
353.22	381.25
353.447	371.25
353.674	370.25
353.901	350.25
354.128	358.25
354.355	346.25
354.583	357.25
354.81	358.25
355.037	348.25
355.264	350.25
355.491	340.25
355.718	330.25
355.945	326.25
356.172	338.25
356.399	326.25
356.626	339.25
356.853	353.25
357.08	339.25
357.307	327.25
357.534	348.25
357.761	330.25
357.988	344.25
358.215	339.25
358.441	346.25
358.668	347.25
358.895	354.25
359.122	350.25
359.349	367.25
359.576	383.25
359.802	389.25
360.029	398.25
360.256	430.25
360.483	411.25
360.709	371.25
360.936	371.25
361.163	378.25
361.39	361.25
361.616	373.25
361.843	356.25
362.07	377.25
362.296	366.25
362.523	361.25
362.749	369.25
362.976	351.25
363.203	341.25
363.429	340.25
363.656	347.25
363.882	339.25
364.109	362.25
364.335	340.25
364.562	358.25
364.788	357.25
365.015	359.25
365.241	346.25
365.468	353.25
365.694	341.25
365.92	363.25
366.147	358.25
366.373	331.25
366.599	344.25
366.826	345.25
367.052	349.25
367.278	325.25
367.505	339.25
367.731	344.25
367.957	350.25
368.184	355.25
368.41	354.25
368.636	364.25
368.862	358.25
369.089	346.25
369.315	345.25
369.541	343.25
369.767	350.25
369.993	334.25
370.219	334.25
370.445	329.25
370.672	319.25
370.898	317.25
371.124	317.25
371.35	332.25
371.576	323.25
371.802	311.25
372.028	351.25
372.254	325.25
372.48	343.25
372.706	325.25
372.932	347.25
373.158	345.25
373.384	340.25
373.61	324.25
373.835	340.25
374.061	338.25
374.287	344.25
374.513	334.25
374.739	341.25
374.965	323.25
375.191	332.25
375.416	353.25
375.642	328.25
375.868	349.25
376.094	332.25
376.319	348.25
376.545	332.25
376.771	340.25
376.997	324.25
377.222	324.25
377.448	341.25
377.674	324.25
377.899	328.25
378.125	327.25
378.35	330.25
378.576	332.25
378.802	340.25
379.027	329.25
379.253	327.25
379.478	350.25
379.704	329.25
379.929	349.25
380.155	330.25
380.38	328.25
380.606	329.25
380.831	326.25
381.057	321.25
381.282	335.25
381.507	323.25
381.733	330.25
381.958	341.25
382.184	321.25
382.409	325.25
382.634	325.25
382.86	342.25
383.085	332.25
383.31	334.25
383.535	322.25
383.761	331.25
383.986	336.25
384.211	337.25
384.436	349.25
384.662	339.25
384.887	351.25
385.112	354.25
385.337	356.25
385.562	352.25
385.787	355.25
386.013	366.25
386.238	350.25
386.463	351.25
386.688	342.25
386.913	351.25
387.138	335.25
387.363	348.25
387.588	346.25
387.813	342.25
388.038	339.25
388.263	335.25
388.488	366.25
388.713	342.25
388.938	338.25
389.163	371.25
389.387	358.25
389.612	341.25
389.837	329.25
390.062	339.25
390.287	355.25
390.512	332.25
390.736	348.25
390.961	343.25
391.186	338.25
391.411	337.25
391.636	366.25
391.86	333.25
392.085	350.25
392.31	356.25
392.534	346.25
392.759	342.25
392.984	346.25
393.208	350.25
393.433	343.25
393.658	351.25
393.882	340.25
394.107	333.25
394.331	340.25
394.556	343.25
394.78	327.25
395.005	345.25
395.229	343.25
395.454	334.25
395.678	348.25
395.903	360.25
396.127	379.25
396.352	374.25
396.576	350.25
396.801	342.25
397.025	344.25
397.249	353.25
397.474	358.25
397.698	350.25
397.922	361.25
398.147	378.25
398.371	388.25
398.595	376.25
398.82	376.25
399.044	353.25
399.268	377.25
399.492	397.25
399.717	433.25
399.941	440.25
400.165	461.25
400.389	487.25
400.613	423.25
400.837	422.25
401.062	394.25
401.286	381.25
401.51	374.25
401.734	375.25
401.958	392.25
402.182	367.25
402.406	385.25
402.63	395.25
402.854	389.25
403.078	397.25
403.302	390.25
403.526	402.25
403.75	373.25
403.974	397.25
404.198	383.25
404.422	397.25
404.645	400.25
404.869	397.25
405.093	408.25
405.317	446.25
405.541	471.25
405.765	449.25
405.988	419.25
406.212	439.25
406.436	460.25
406.66	439.25
406.883	437.25
407.107	453.25
407.331	477.25
407.555	528.25
407.778	517.25
408.002	469.25
408.226	424.25
408.449	427.25
408.673	436.25
408.896	456.25
409.12	493.25
409.344	475.25
409.567	427.25
409.791	422.25
410.014	391.25
410.238	402.25
410.461	396.25
410.685	394.25
410.908	409.25
411.132	444.25
411.355	468.25
411.578	442.25
411.802	405.25
412.025	382.25
412.249	401.25
412.472	407.25
412.695	428.25
412.919	436.25
413.142	407.25
413.365	389.25
413.589	391.25
413.812	352.25
414.035	375.25
414.258	375.25
414.482	370.25
414.705	359.25
414.928	365.25
415.151	371.25
415.374	349.25
415.597	357.25
415.821	362.25
416.044	372.25
416.267	380.25
416.49	364.25
416.713	363.25
416.936	365.25
417.159	383.25
417.382	382.25
417.605	384.25
417.828	373.25
418.051	395.25
418.274	388.25
418.497	384.25
418.72	383.25
418.943	374.25
419.166	382.25
419.389	409.25
419.611	385.25
419.834	370.25
420.057	394.25
420.28	368.25
420.503	380.25
420.726	382.25
420.948	414.25
421.171	442.25
421.394	467.25
421.617	415.25
421.839	378.25
422.062	404.25
422.285	408.25
422.507	450.25
422.73	511.25
422.953	491.25
423.175	441.25
423.398	409.25
423.621	425.25
423.843	419.25
424.066	437.25
424.288	406.25
424.511	448.25
424.733	470.25
424.956	565.25
425.178	533.25
425.401	514.25
425.623	522.25
425.846	457.25
426.068	455.25
426.291	441.25
426.513	419.25
426.735	459.25
426.958	487.25
427.18	533.25
427.402	614.25
427.625	734.25
427.847	653.25
428.069	549.25
428.292	467.25
428.514	436.25
428.736	417.25
428.958	404.25
429.181	411.25
429.403	398.25
429.625	406.25
429.847	447.25
430.069	511.25
430.292	486.25
430.514	445.25
430.736	399.25
430.958	406.25
431.18	380.25
431.402	356.25
431.624	385.25
431.846	383.25
432.068	363.25
432.29	376.25
432.512	402.25
432.734	382.25
432.956	372.25
433.178	383.25
433.4	368.25
433.622	355.25
433.844	407.25
434.066	372.25
434.287	359.25
434.509	379.25
434.731	392.25
434.953	398.25
435.175	396.25
435.397	423.25
435.618	431.25
435.84	472.25
436.062	549.25
436.284	615.25
436.505	487.25
436.727	450.25
436.949	425.25
437.17	417.25
437.392	420.25
437.614	408.25
437.835	439.25
438.057	532.25
438.278	597.25
438.5	612.25
438.721	620.25
438.943	615.25
439.165	507.25
439.386	487.25
439.608	458.25
439.829	460.25
440.05	466.25
440.272	514.25
440.493	486.25
440.715	424.25
440.936	406.25
441.158	408.25
441.379	410.25
441.6	409.25
441.822	427.25
442.043	463.25
442.264	528.25
442.486	574.25
442.707	461.25
442.928	463.25
443.149	450.25
443.371	471.25
443.592	519.25
443.813	571.25
444.034	627.25
444.255	521.25
444.476	460.25
444.698	439.25
444.919	430.25
445.14	531.25
445.361	491.25
445.582	472.25
445.803	526.25
446.024	651.25
446.245	622.25
446.466	586.25
446.687	482.25
446.908	445.25
447.129	411.25
447.35	413.25
447.571	395.25
447.792	391.25
448.013	412.25
448.234	428.25
448.455	477.25
448.675	553.25
448.896	653.25
449.117	545.25
449.338	529.25
449.559	599.25
449.779	667.25
450	556.25
450.221	459.25
450.442	407.25
450.662	404.25
450.883	406.25
451.104	413.25
451.324	403.25
451.545	397.25
451.766	379.25
451.986	379.25
452.207	351.25
452.428	365.25
452.648	374.25
452.869	375.25
453.089	370.25
453.31	366.25
453.53	369.25
453.751	369.25
453.971	376.25
454.192	383.25
454.412	358.25
454.633	364.25
454.853	358.25
455.073	369.25
455.294	391.25
455.514	439.25
455.734	428.25
455.955	378.25
456.175	343.25
456.395	332.25
456.616	336.25
456.836	327.25
457.056	333.25
457.276	338.25
457.497	330.25
457.717	331.25
457.937	351.25
458.157	345.25
458.377	345.25
458.598	366.25
458.818	415.25
459.038	488.25
459.258	501.25
459.478	414.25
459.698	383.25
459.918	377.25
460.138	367.25
460.358	369.25
460.578	362.25
460.798	379.25
461.018	371.25
461.238	362.25
461.458	365.25
461.678	373.25
461.898	362.25
462.118	377.25
462.338	389.25
462.558	385.25
462.777	378.25
462.997	394.25
463.217	397.25
463.437	362.25
463.657	382.25
463.876	399.25
464.096	389.25
464.316	377.25
464.536	397.25
464.755	399.25
464.975	386.25
465.195	435.25
465.414	516.25
465.634	433.25
465.854	415.25
466.073	369.25
466.293	363.25
466.512	369.25
466.732	348.25
466.951	355.25
467.171	348.25
467.391	386.25
467.61	372.25
467.829	367.25
468.049	374.25
468.268	360.25
468.488	349.25
468.707	353.25
468.927	331.25
469.146	349.25
469.365	369.25
469.585	345.25
469.804	365.25
470.023	364.25
470.243	378.25
470.462	398.25
470.681	409.25
470.901	366.25
471.12	344.25
471.339	370.25
471.558	373.25
471.777	392.25
471.997	379.25
472.216	365.25
472.435	395.25
472.654	385.25
472.873	352.25
473.092	359.25
473.311	375.25
473.53	359.25
473.749	365.25
473.968	449.25
474.187	519.25
474.406	551.25
474.625	427.25
474.844	386.25
475.063	379.25
475.282	373.25
475.501	369.25
475.72	374.25
475.939	367.25
476.158	371.25
476.377	381.25
476.596	390.25
476.814	379.25
477.033	390.25
477.252	411.25
477.471	397.25
477.69	391.25
477.908	386.25
478.127	404.25
478.346	405.25
478.564	413.25
478.783	411.25
479.002	406.25
479.22	412.25
479.439	428.25
479.658	436.25
479.876	441.25
480.095	438.25
480.313	459.25
480.532	462.25
480.751	443.25
480.969	449.25
481.188	495.25
481.406	497.25
481.624	459.25
481.843	433.25
482.061	431.25
482.28	415.25
482.498	445.25
482.717	419.25
482.935	425.25
483.153	409.25
483.372	417.25
483.59	437.25
483.808	431.25
484.027	435.25
484.245	436.25
484.463	434.25
484.681	428.25
484.9	427.25
485.118	443.25
485.336	462.25
485.554	440.25
485.772	445.25
485.99	452.25
486.209	463.25
486.427	449.25
486.645	457.25
486.863	466.25
487.081	477.25
487.299	466.25
487.517	459.25
487.735	461.25
487.953	459.25
488.171	471.25
488.389	446.25
488.607	462.25
488.825	457.25
489.043	457.25
489.261	474.25
489.479	459.25
489.696	479.25
489.914	471.25
490.132	469.25
490.35	478.25
490.568	487.25
490.786	483.25
491.003	493.25
491.221	499.25
491.439	523.25
491.657	518.25
491.874	524.25
492.092	529.25
492.31	532.25
492.527	535.25
492.745	523.25
492.963	517.25
493.18	535.25
493.398	531.25
493.615	555.25
493.833	538.25
494.05	528.25
494.268	540.25
494.485	546.25
494.703	541.25
494.92	551.25
495.138	527.25
495.355	542.25
495.573	551.25
495.79	527.25
496.008	573.25
496.225	551.25
496.442	532.25
496.66	543.25
496.877	546.25
497.094	537.25
497.312	558.25
497.529	540.25
497.746	563.25
497.963	579.25
498.181	563.25
498.398	611.25
498.615	593.25
498.832	621.25
499.049	612.25
499.267	612.25
499.484	616.25
499.701	641.25
499.918	638.25
500.135	669.25
500.352	677.25
500.569	655.25
500.786	665.25
501.003	685.25
501.22	679.25
501.437	694.25
501.654	661.25
501.871	668.25
