Data from 1981.PennyLincolnUp.Lamp.En5.5.200Scan.071819.P1_HRD10591_16-40-45-958.txt Node
Date: Thu Jul 18 16:40:45 EDT 2019
User: cochatt
Spectrometer: HR+D1059
Trigger mode: 1
Integration Time (sec): 1.000000E-1
Scans to average: 1
Electric dark correction enabled: true
Nonlinearity correction enabled: false
Boxcar width: 0
XAxis mode: Wavelengths
Number of Pixels in Spectrum: 2048
>>>>>Begin Spectral Data<<<<<
223.165	-7.88
223.4	-7.88
223.635	-7.88
223.869	-13.88
224.104	-19.88
224.338	-9.88
224.573	-11.88
224.808	-19.88
225.042	-7.88
225.277	-1.88
225.511	1.12
225.746	10.12
225.98	-7.88
226.215	11.12
226.449	6.12
226.683	17.12
226.918	28.12
227.152	27.12
227.387	39.12
227.621	33.12
227.856	47.12
228.09	46.12
228.324	45.12
228.559	51.12
228.793	63.12
229.027	87.12
229.262	115.12
229.496	108.12
229.73	126.12
229.964	143.12
230.199	126.12
230.433	93.12
230.667	117.12
230.901	112.12
231.136	107.12
231.37	91.12
231.604	107.12
231.838	100.12
232.072	128.12
232.306	106.12
232.541	120.12
232.775	106.12
233.009	104.12
233.243	122.12
233.477	100.12
233.711	115.12
233.945	108.12
234.179	127.12
234.413	113.12
234.647	95.12
234.881	113.12
235.115	117.12
235.349	119.12
235.583	121.12
235.817	121.12
236.051	122.12
236.285	117.12
236.519	126.12
236.753	136.12
236.987	145.12
237.221	170.12
237.455	227.12
237.689	184.12
237.922	137.12
238.156	118.12
238.39	134.12
238.624	103.12
238.858	120.12
239.091	119.12
239.325	119.12
239.559	110.12
239.793	122.12
240.027	114.12
240.26	133.12
240.494	143.12
240.728	133.12
240.961	132.12
241.195	127.12
241.429	126.12
241.662	127.12
241.896	140.12
242.13	123.12
242.363	120.12
242.597	122.12
242.83	121.12
243.064	136.12
243.298	128.12
243.531	126.12
243.765	129.12
243.998	132.12
244.232	135.12
244.465	133.12
244.699	141.12
244.932	127.12
245.166	147.12
245.399	143.12
245.633	138.12
245.866	135.12
246.099	138.12
246.333	131.12
246.566	163.12
246.8	159.12
247.033	135.12
247.266	146.12
247.5	165.12
247.733	168.12
247.966	160.12
248.2	152.12
248.433	163.12
248.666	175.12
248.899	165.12
249.133	181.12
249.366	213.12
249.599	188.12
249.832	188.12
250.066	176.12
250.299	175.12
250.532	189.12
250.765	212.12
250.998	217.12
251.231	209.12
251.465	195.12
251.698	181.12
251.931	189.12
252.164	193.12
252.397	192.12
252.63	192.12
252.863	206.12
253.096	221.12
253.329	228.12
253.562	222.12
253.795	216.12
254.028	216.12
254.261	213.12
254.494	217.12
254.727	239.12
254.96	257.12
255.193	278.12
255.426	244.12
255.659	232.12
255.892	238.12
256.124	217.12
256.357	206.12
256.59	213.12
256.823	203.12
257.056	208.12
257.289	216.12
257.521	215.12
257.754	203.12
257.987	213.12
258.22	203.12
258.452	212.12
258.685	224.12
258.918	202.12
259.151	205.12
259.383	200.12
259.616	197.12
259.849	202.12
260.081	213.12
260.314	238.12
260.547	246.12
260.779	238.12
261.012	222.12
261.244	211.12
261.477	226.12
261.71	212.12
261.942	229.12
262.175	228.12
262.407	213.12
262.64	214.12
262.872	199.12
263.105	206.12
263.337	209.12
263.57	207.12
263.802	201.12
264.035	183.12
264.267	209.12
264.499	216.12
264.732	207.12
264.964	207.12
265.197	203.12
265.429	214.12
265.661	203.12
265.894	190.12
266.126	209.12
266.358	189.12
266.591	196.12
266.823	201.12
267.055	214.12
267.287	216.12
267.52	204.12
267.752	241.12
267.984	217.12
268.216	225.12
268.448	202.12
268.681	216.12
268.913	241.12
269.145	239.12
269.377	253.12
269.609	261.12
269.841	246.12
270.073	262.12
270.306	266.12
270.538	296.12
270.77	292.12
271.002	303.12
271.234	272.12
271.466	292.12
271.698	303.12
271.93	307.12
272.162	303.12
272.394	298.12
272.626	293.12
272.858	280.12
273.09	265.12
273.322	276.12
273.553	261.12
273.785	261.12
274.017	262.12
274.249	273.12
274.481	250.12
274.713	255.12
274.945	252.12
275.176	254.12
275.408	254.12
275.64	251.12
275.872	222.12
276.104	247.12
276.335	270.12
276.567	251.12
276.799	283.12
277.031	282.12
277.262	290.12
277.494	301.12
277.726	271.12
277.957	284.12
278.189	259.12
278.421	254.12
278.652	261.12
278.884	264.12
279.115	253.12
279.347	273.12
279.579	262.12
279.81	261.12
280.042	254.12
280.273	263.12
280.505	233.12
280.736	248.12
280.968	242.12
281.199	246.12
281.431	255.12
281.662	264.12
281.894	251.12
282.125	248.12
282.356	251.12
282.588	270.12
282.819	295.12
283.051	280.12
283.282	262.12
283.513	246.12
283.745	254.12
283.976	245.12
284.207	270.12
284.439	272.12
284.67	236.12
284.901	247.12
285.132	268.12
285.364	270.12
285.595	269.12
285.826	270.12
286.057	270.12
286.288	254.12
286.52	261.12
286.751	242.12
286.982	268.12
287.213	271.12
287.444	269.12
287.675	256.12
287.906	271.12
288.138	281.12
288.369	269.12
288.6	274.12
288.831	280.12
289.062	286.12
289.293	272.12
289.524	278.12
289.755	261.12
289.986	272.12
290.217	278.12
290.448	239.12
290.679	274.12
290.91	247.12
291.141	275.12
291.371	263.12
291.602	266.12
291.833	270.12
292.064	272.12
292.295	259.12
292.526	252.12
292.757	274.12
292.987	253.12
293.218	269.12
293.449	260.12
293.68	276.12
293.91	277.12
294.141	271.12
294.372	274.12
294.603	253.12
294.833	282.12
295.064	268.12
295.295	285.12
295.525	264.12
295.756	264.12
295.987	288.12
296.217	299.12
296.448	301.12
296.679	280.12
296.909	290.12
297.14	277.12
297.37	278.12
297.601	275.12
297.831	282.12
298.062	284.12
298.292	286.12
298.523	280.12
298.753	277.12
298.984	277.12
299.214	305.12
299.445	259.12
299.675	280.12
299.905	281.12
300.136	275.12
300.366	255.12
300.597	282.12
300.827	281.12
301.057	283.12
301.288	312.12
301.518	297.12
301.748	292.12
301.979	279.12
302.209	306.12
302.439	296.12
302.669	303.12
302.9	297.12
303.13	282.12
303.36	296.12
303.59	297.12
303.82	296.12
304.051	295.12
304.281	288.12
304.511	290.12
304.741	301.12
304.971	293.12
305.201	300.12
305.431	298.12
305.661	298.12
305.891	287.12
306.121	305.12
306.352	308.12
306.582	302.12
306.812	293.12
307.042	326.12
307.272	288.12
307.502	289.12
307.731	322.12
307.961	303.12
308.191	306.12
308.421	307.12
308.651	309.12
308.881	292.12
309.111	314.12
309.341	314.12
309.571	326.12
309.8	332.12
310.03	315.12
310.26	354.12
310.49	349.12
310.72	343.12
310.949	376.12
311.179	364.12
311.409	347.12
311.639	333.12
311.868	359.12
312.098	347.12
312.328	340.12
312.557	356.12
312.787	364.12
313.017	381.12
313.246	362.12
313.476	344.12
313.706	331.12
313.935	352.12
314.165	367.12
314.394	379.12
314.624	384.12
314.853	356.12
315.083	348.12
315.312	333.12
315.542	329.12
315.771	317.12
316.001	335.12
316.23	377.12
316.46	340.12
316.689	340.12
316.919	359.12
317.148	377.12
317.377	370.12
317.607	341.12
317.836	361.12
318.065	332.12
318.295	349.12
318.524	339.12
318.753	342.12
318.983	359.12
319.212	350.12
319.441	350.12
319.67	359.12
319.9	372.12
320.129	340.12
320.358	348.12
320.587	348.12
320.816	352.12
321.046	357.12
321.275	376.12
321.504	349.12
321.733	367.12
321.962	397.12
322.191	387.12
322.42	418.12
322.649	406.12
322.878	410.12
323.108	406.12
323.337	458.12
323.566	480.12
323.795	495.12
324.024	557.12
324.253	684.12
324.482	960.12
324.71	1460.12
324.939	1990.12
325.168	1650.12
325.397	889.12
325.626	621.12
325.855	527.12
326.084	486.12
326.313	482.12
326.542	471.12
326.77	509.12
326.999	618.12
327.228	867.12
327.457	1244.12
327.686	1488.12
327.914	991.12
328.143	657.12
328.372	588.12
328.6	554.12
328.829	520.12
329.058	518.12
329.287	551.12
329.515	503.12
329.744	471.12
329.972	476.12
330.201	472.12
330.43	506.12
330.658	526.12
330.887	570.12
331.115	535.12
331.344	493.12
331.572	462.12
331.801	448.12
332.03	446.12
332.258	412.12
332.486	396.12
332.715	385.12
332.943	418.12
333.172	413.12
333.4	405.12
333.629	422.12
333.857	405.12
334.085	414.12
334.314	432.12
334.542	434.12
334.771	446.12
334.999	429.12
335.227	412.12
335.455	410.12
335.684	409.12
335.912	407.12
336.14	387.12
336.369	379.12
336.597	380.12
336.825	400.12
337.053	390.12
337.281	415.12
337.51	410.12
337.738	389.12
337.966	385.12
338.194	393.12
338.422	388.12
338.65	392.12
338.878	373.12
339.106	391.12
339.334	396.12
339.562	361.12
339.79	379.12
340.018	373.12
340.246	370.12
340.474	382.12
340.702	389.12
340.93	369.12
341.158	398.12
341.386	375.12
341.614	375.12
341.842	363.12
342.07	389.12
342.298	374.12
342.526	387.12
342.754	364.12
342.981	366.12
343.209	361.12
343.437	378.12
343.665	370.12
343.893	391.12
344.12	392.12
344.348	381.12
344.576	390.12
344.804	379.12
345.031	398.12
345.259	406.12
345.487	378.12
345.714	372.12
345.942	375.12
346.17	380.12
346.397	371.12
346.625	380.12
346.853	366.12
347.08	358.12
347.308	372.12
347.535	404.12
347.763	392.12
347.99	384.12
348.218	384.12
348.445	389.12
348.673	384.12
348.9	390.12
349.128	355.12
349.355	348.12
349.583	351.12
349.81	360.12
350.037	359.12
350.265	363.12
350.492	343.12
350.72	346.12
350.947	365.12
351.174	376.12
351.402	379.12
351.629	373.12
351.856	374.12
352.083	358.12
352.311	382.12
352.538	383.12
352.765	384.12
352.992	361.12
353.22	359.12
353.447	365.12
353.674	362.12
353.901	336.12
354.128	366.12
354.355	351.12
354.583	348.12
354.81	343.12
355.037	333.12
355.264	328.12
355.491	350.12
355.718	319.12
355.945	328.12
356.172	334.12
356.399	324.12
356.626	357.12
356.853	341.12
357.08	327.12
357.307	340.12
357.534	344.12
357.761	350.12
357.988	342.12
358.215	341.12
358.441	341.12
358.668	346.12
358.895	344.12
359.122	335.12
359.349	367.12
359.576	374.12
359.802	384.12
360.029	408.12
360.256	407.12
360.483	411.12
360.709	367.12
360.936	354.12
361.163	344.12
361.39	355.12
361.616	388.12
361.843	349.12
362.07	352.12
362.296	366.12
362.523	355.12
362.749	342.12
362.976	350.12
363.203	341.12
363.429	337.12
363.656	347.12
363.882	346.12
364.109	351.12
364.335	334.12
364.562	353.12
364.788	354.12
365.015	348.12
365.241	345.12
365.468	339.12
365.694	379.12
365.92	368.12
366.147	354.12
366.373	356.12
366.599	334.12
366.826	356.12
367.052	349.12
367.278	336.12
367.505	337.12
367.731	327.12
367.957	326.12
368.184	340.12
368.41	348.12
368.636	355.12
368.862	347.12
369.089	342.12
369.315	337.12
369.541	332.12
369.767	336.12
369.993	323.12
370.219	331.12
370.445	338.12
370.672	325.12
370.898	344.12
371.124	338.12
371.35	338.12
371.576	333.12
371.802	318.12
372.028	329.12
372.254	348.12
372.48	341.12
372.706	328.12
372.932	336.12
373.158	317.12
373.384	323.12
373.61	322.12
373.835	322.12
374.061	346.12
374.287	348.12
374.513	333.12
374.739	336.12
374.965	338.12
375.191	324.12
375.416	340.12
375.642	320.12
375.868	320.12
376.094	327.12
376.319	320.12
376.545	337.12
376.771	308.12
376.997	330.12
377.222	323.12
377.448	334.12
377.674	310.12
377.899	332.12
378.125	347.12
378.35	335.12
378.576	319.12
378.802	333.12
379.027	339.12
379.253	335.12
379.478	302.12
379.704	330.12
379.929	317.12
380.155	349.12
380.38	340.12
380.606	324.12
380.831	332.12
381.057	330.12
381.282	327.12
381.507	334.12
381.733	333.12
381.958	344.12
382.184	346.12
382.409	349.12
382.634	331.12
382.86	333.12
383.085	325.12
383.31	335.12
383.535	335.12
383.761	338.12
383.986	328.12
384.211	338.12
384.436	329.12
384.662	340.12
384.887	333.12
385.112	339.12
385.337	329.12
385.562	343.12
385.787	339.12
386.013	325.12
386.238	351.12
386.463	394.12
386.688	363.12
386.913	335.12
387.138	350.12
387.363	355.12
387.588	357.12
387.813	331.12
388.038	344.12
388.263	350.12
388.488	356.12
388.713	352.12
388.938	354.12
389.163	341.12
389.387	336.12
389.612	340.12
389.837	361.12
390.062	344.12
390.287	337.12
390.512	332.12
390.736	349.12
390.961	335.12
391.186	346.12
391.411	343.12
391.636	342.12
391.86	349.12
392.085	356.12
392.31	354.12
392.534	345.12
392.759	344.12
392.984	341.12
393.208	348.12
393.433	355.12
393.658	341.12
393.882	347.12
394.107	340.12
394.331	343.12
394.556	346.12
394.78	350.12
395.005	347.12
395.229	345.12
395.454	357.12
395.678	360.12
395.903	360.12
396.127	358.12
396.352	373.12
396.576	354.12
396.801	331.12
397.025	351.12
397.249	354.12
397.474	360.12
397.698	356.12
397.922	363.12
398.147	375.12
398.371	385.12
398.595	378.12
398.82	374.12
399.044	383.12
399.268	387.12
399.492	404.12
399.717	406.12
399.941	435.12
400.165	438.12
400.389	472.12
400.613	416.12
400.837	397.12
401.062	391.12
401.286	375.12
401.51	379.12
401.734	378.12
401.958	361.12
402.182	378.12
402.406	384.12
402.63	380.12
402.854	381.12
403.078	375.12
403.302	383.12
403.526	400.12
403.75	381.12
403.974	388.12
404.198	377.12
404.422	389.12
404.645	397.12
404.869	406.12
405.093	413.12
405.317	434.12
405.541	452.12
405.765	447.12
405.988	422.12
406.212	445.12
406.436	430.12
406.66	455.12
406.883	431.12
407.107	440.12
407.331	482.12
407.555	536.12
407.778	519.12
408.002	464.12
408.226	424.12
408.449	442.12
408.673	440.12
408.896	461.12
409.12	502.12
409.344	474.12
409.567	403.12
409.791	407.12
410.014	398.12
410.238	400.12
410.461	392.12
410.685	384.12
410.908	404.12
411.132	438.12
411.355	475.12
411.578	443.12
411.802	400.12
412.025	382.12
412.249	430.12
412.472	390.12
412.695	432.12
412.919	417.12
413.142	396.12
413.365	387.12
413.589	388.12
413.812	382.12
414.035	373.12
414.258	369.12
414.482	357.12
414.705	378.12
414.928	343.12
415.151	374.12
415.374	374.12
415.597	368.12
415.821	344.12
416.044	366.12
416.267	390.12
416.49	372.12
416.713	374.12
416.936	372.12
417.159	370.12
417.382	387.12
417.605	380.12
417.828	378.12
418.051	396.12
418.274	399.12
418.497	387.12
418.72	362.12
418.943	372.12
419.166	388.12
419.389	396.12
419.611	362.12
419.834	385.12
420.057	390.12
420.28	394.12
420.503	382.12
420.726	389.12
420.948	396.12
421.171	419.12
421.394	449.12
421.617	407.12
421.839	402.12
422.062	414.12
422.285	400.12
422.507	460.12
422.73	522.12
422.953	502.12
423.175	437.12
423.398	409.12
423.621	407.12
423.843	420.12
424.066	438.12
424.288	429.12
424.511	408.12
424.733	480.12
424.956	555.12
425.178	521.12
425.401	536.12
425.623	526.12
425.846	451.12
426.068	431.12
426.291	419.12
426.513	410.12
426.735	440.12
426.958	482.12
427.18	544.12
427.402	638.12
427.625	686.12
427.847	606.12
428.069	547.12
428.292	488.12
428.514	435.12
428.736	427.12
428.958	395.12
429.181	390.12
429.403	407.12
429.625	428.12
429.847	430.12
430.069	476.12
430.292	491.12
430.514	429.12
430.736	392.12
430.958	391.12
431.18	378.12
431.402	376.12
431.624	366.12
431.846	355.12
432.068	363.12
432.29	371.12
432.512	359.12
432.734	382.12
432.956	376.12
433.178	385.12
433.4	388.12
433.622	370.12
433.844	376.12
434.066	365.12
434.287	390.12
434.509	355.12
434.731	375.12
434.953	384.12
435.175	384.12
435.397	426.12
435.618	428.12
435.84	456.12
436.062	530.12
436.284	587.12
436.505	476.12
436.727	446.12
436.949	398.12
437.17	383.12
437.392	420.12
437.614	413.12
437.835	449.12
438.057	500.12
438.278	598.12
438.5	600.12
438.721	629.12
438.943	634.12
439.165	510.12
439.386	460.12
439.608	456.12
439.829	442.12
440.05	470.12
440.272	480.12
440.493	477.12
440.715	426.12
440.936	396.12
441.158	392.12
441.379	408.12
441.6	410.12
441.822	423.12
442.043	441.12
442.264	508.12
442.486	548.12
442.707	475.12
442.928	441.12
443.149	452.12
443.371	470.12
443.592	485.12
443.813	541.12
444.034	600.12
444.255	501.12
444.476	442.12
444.698	409.12
444.919	417.12
445.14	538.12
445.361	464.12
445.582	470.12
445.803	510.12
446.024	613.12
446.245	606.12
446.466	532.12
446.687	484.12
446.908	440.12
447.129	420.12
447.35	404.12
447.571	418.12
447.792	394.12
448.013	403.12
448.234	418.12
448.455	462.12
448.675	558.12
448.896	630.12
449.117	563.12
449.338	518.12
449.559	595.12
449.779	662.12
450	548.12
450.221	453.12
450.442	394.12
450.662	416.12
450.883	400.12
451.104	429.12
451.324	398.12
451.545	398.12
451.766	347.12
451.986	367.12
452.207	342.12
452.428	346.12
452.648	357.12
452.869	379.12
453.089	367.12
453.31	372.12
453.53	379.12
453.751	368.12
453.971	366.12
454.192	389.12
454.412	376.12
454.633	367.12
454.853	341.12
455.073	357.12
455.294	379.12
455.514	434.12
455.734	418.12
455.955	360.12
456.175	347.12
456.395	342.12
456.616	325.12
456.836	318.12
457.056	328.12
457.276	334.12
457.497	353.12
457.717	342.12
457.937	343.12
458.157	346.12
458.377	358.12
458.598	351.12
458.818	414.12
459.038	464.12
459.258	482.12
459.478	412.12
459.698	394.12
459.918	385.12
460.138	357.12
460.358	368.12
460.578	346.12
460.798	356.12
461.018	340.12
461.238	371.12
461.458	364.12
461.678	370.12
461.898	363.12
462.118	356.12
462.338	378.12
462.558	372.12
462.777	368.12
462.997	391.12
463.217	379.12
463.437	390.12
463.657	387.12
463.876	384.12
464.096	380.12
464.316	393.12
464.536	390.12
464.755	396.12
464.975	397.12
465.195	450.12
465.414	491.12
465.634	438.12
465.854	379.12
466.073	367.12
466.293	377.12
466.512	392.12
466.732	359.12
466.951	370.12
467.171	357.12
467.391	359.12
467.61	362.12
467.829	356.12
468.049	368.12
468.268	363.12
468.488	344.12
468.707	354.12
468.927	340.12
469.146	339.12
469.365	341.12
469.585	355.12
469.804	357.12
470.023	376.12
470.243	353.12
470.462	352.12
470.681	374.12
470.901	365.12
471.12	362.12
471.339	344.12
471.558	358.12
471.777	373.12
471.997	346.12
472.216	367.12
472.435	383.12
472.654	390.12
472.873	355.12
473.092	367.12
473.311	379.12
473.53	380.12
473.749	379.12
473.968	427.12
474.187	497.12
474.406	518.12
474.625	424.12
474.844	374.12
475.063	354.12
475.282	360.12
475.501	375.12
475.72	358.12
475.939	378.12
476.158	380.12
476.377	368.12
476.596	384.12
476.814	389.12
477.033	404.12
477.252	363.12
477.471	384.12
477.69	390.12
477.908	413.12
478.127	404.12
478.346	403.12
478.564	397.12
478.783	387.12
479.002	404.12
479.22	412.12
479.439	416.12
479.658	421.12
479.876	434.12
480.095	423.12
480.313	459.12
480.532	446.12
480.751	459.12
480.969	420.12
481.188	478.12
481.406	483.12
481.624	454.12
481.843	430.12
482.061	421.12
482.28	436.12
482.498	409.12
482.717	432.12
482.935	432.12
483.153	407.12
483.372	415.12
483.59	412.12
483.808	416.12
484.027	438.12
484.245	432.12
484.463	446.12
484.681	417.12
484.9	416.12
485.118	447.12
485.336	482.12
485.554	445.12
485.772	415.12
485.99	439.12
486.209	447.12
486.427	458.12
486.645	444.12
486.863	458.12
487.081	463.12
487.299	454.12
487.517	445.12
487.735	448.12
487.953	465.12
488.171	458.12
488.389	470.12
488.607	457.12
488.825	447.12
489.043	493.12
489.261	459.12
489.479	471.12
489.696	462.12
489.914	459.12
490.132	473.12
490.35	476.12
490.568	467.12
490.786	484.12
491.003	499.12
491.221	487.12
491.439	528.12
491.657	503.12
491.874	530.12
492.092	493.12
492.31	509.12
492.527	518.12
492.745	516.12
492.963	561.12
493.18	493.12
493.398	539.12
493.615	524.12
493.833	526.12
494.05	532.12
494.268	534.12
494.485	524.12
494.703	526.12
494.92	539.12
495.138	516.12
495.355	542.12
495.573	546.12
495.79	539.12
496.008	534.12
496.225	543.12
496.442	527.12
496.66	541.12
496.877	548.12
497.094	537.12
497.312	539.12
497.529	548.12
497.746	566.12
497.963	557.12
498.181	581.12
498.398	569.12
498.615	573.12
498.832	567.12
499.049	587.12
499.267	605.12
499.484	602.12
499.701	644.12
499.918	647.12
500.135	651.12
500.352	642.12
500.569	684.12
500.786	686.12
501.003	683.12
501.22	663.12
501.437	679.12
501.654	654.12
501.871	663.12
502.088	638.12
