Data from 1981.PennyLincolnUp.Lamp.En5.5.200Scan.071819.P1_HRD10591_16-43-09-960.txt Node
Date: Thu Jul 18 16:43:09 EDT 2019
User: cochatt
Spectrometer: HR+D1059
Trigger mode: 1
Integration Time (sec): 1.000000E-1
Scans to average: 1
Electric dark correction enabled: true
Nonlinearity correction enabled: false
Boxcar width: 0
XAxis mode: Wavelengths
Number of Pixels in Spectrum: 2048
>>>>>Begin Spectral Data<<<<<
223.165	-21.88
223.4	-21.88
223.635	-21.88
223.869	-18.88
224.104	-13.88
224.338	-17.88
224.573	-10.88
224.808	-5.88
225.042	6.12
225.277	-0.88
225.511	0.12
225.746	-8.88
225.98	5.12
226.215	2.12
226.449	22.12
226.683	18.12
226.918	19.12
227.152	26.12
227.387	30.12
227.621	35.12
227.856	45.12
228.09	40.12
228.324	51.12
228.559	56.12
228.793	61.12
229.027	86.12
229.262	105.12
229.496	128.12
229.73	129.12
229.964	165.12
230.199	136.12
230.433	116.12
230.667	116.12
230.901	104.12
231.136	118.12
231.37	113.12
231.604	104.12
231.838	109.12
232.072	117.12
232.306	122.12
232.541	101.12
232.775	104.12
233.009	110.12
233.243	121.12
233.477	120.12
233.711	108.12
233.945	111.12
234.179	122.12
234.413	113.12
234.647	114.12
234.881	97.12
235.115	96.12
235.349	122.12
235.583	128.12
235.817	125.12
236.051	135.12
236.285	128.12
236.519	150.12
236.753	133.12
236.987	162.12
237.221	190.12
237.455	236.12
237.689	190.12
237.922	142.12
238.156	143.12
238.39	118.12
238.624	132.12
238.858	121.12
239.091	120.12
239.325	122.12
239.559	137.12
239.793	136.12
240.027	137.12
240.26	150.12
240.494	162.12
240.728	145.12
240.961	155.12
241.195	161.12
241.429	125.12
241.662	149.12
241.896	125.12
242.13	131.12
242.363	129.12
242.597	125.12
242.83	145.12
243.064	138.12
243.298	142.12
243.531	135.12
243.765	134.12
243.998	150.12
244.232	133.12
244.465	154.12
244.699	148.12
244.932	154.12
245.166	150.12
245.399	149.12
245.633	157.12
245.866	158.12
246.099	157.12
246.333	152.12
246.566	146.12
246.8	153.12
247.033	157.12
247.266	162.12
247.5	175.12
247.733	180.12
247.966	175.12
248.2	180.12
248.433	179.12
248.666	185.12
248.899	185.12
249.133	210.12
249.366	224.12
249.599	206.12
249.832	192.12
250.066	197.12
250.299	209.12
250.532	193.12
250.765	197.12
250.998	228.12
251.231	244.12
251.465	227.12
251.698	201.12
251.931	207.12
252.164	216.12
252.397	216.12
252.63	211.12
252.863	217.12
253.096	236.12
253.329	249.12
253.562	261.12
253.795	248.12
254.028	224.12
254.261	222.12
254.494	262.12
254.727	278.12
254.96	304.12
255.193	285.12
255.426	262.12
255.659	264.12
255.892	262.12
256.124	245.12
256.357	237.12
256.59	233.12
256.823	222.12
257.056	230.12
257.289	218.12
257.521	229.12
257.754	223.12
257.987	214.12
258.22	225.12
258.452	215.12
258.685	213.12
258.918	213.12
259.151	217.12
259.383	232.12
259.616	235.12
259.849	234.12
260.081	253.12
260.314	274.12
260.547	260.12
260.779	254.12
261.012	262.12
261.244	263.12
261.477	244.12
261.71	248.12
261.942	251.12
262.175	258.12
262.407	256.12
262.64	224.12
262.872	228.12
263.105	204.12
263.337	206.12
263.57	213.12
263.802	215.12
264.035	218.12
264.267	220.12
264.499	224.12
264.732	227.12
264.964	234.12
265.197	233.12
265.429	218.12
265.661	221.12
265.894	218.12
266.126	236.12
266.358	213.12
266.591	241.12
266.823	225.12
267.055	221.12
267.287	240.12
267.52	240.12
267.752	232.12
267.984	240.12
268.216	242.12
268.448	249.12
268.681	245.12
268.913	237.12
269.145	283.12
269.377	305.12
269.609	280.12
269.841	273.12
270.073	274.12
270.306	312.12
270.538	355.12
270.77	321.12
271.002	318.12
271.234	317.12
271.466	333.12
271.698	338.12
271.93	359.12
272.162	350.12
272.394	341.12
272.626	352.12
272.858	308.12
273.09	304.12
273.322	299.12
273.553	297.12
273.785	275.12
274.017	289.12
274.249	294.12
274.481	278.12
274.713	291.12
274.945	292.12
275.176	275.12
275.408	287.12
275.64	282.12
275.872	281.12
276.104	269.12
276.335	258.12
276.567	278.12
276.799	309.12
277.031	340.12
277.262	339.12
277.494	330.12
277.726	316.12
277.957	308.12
278.189	306.12
278.421	285.12
278.652	298.12
278.884	290.12
279.115	271.12
279.347	276.12
279.579	260.12
279.81	272.12
280.042	279.12
280.273	270.12
280.505	265.12
280.736	269.12
280.968	267.12
281.199	267.12
281.431	276.12
281.662	266.12
281.894	287.12
282.125	289.12
282.356	295.12
282.588	312.12
282.819	310.12
283.051	281.12
283.282	260.12
283.513	288.12
283.745	278.12
283.976	279.12
284.207	296.12
284.439	285.12
284.67	264.12
284.901	306.12
285.132	290.12
285.364	298.12
285.595	300.12
285.826	270.12
286.057	269.12
286.288	287.12
286.52	291.12
286.751	283.12
286.982	281.12
287.213	283.12
287.444	304.12
287.675	286.12
287.906	302.12
288.138	309.12
288.369	320.12
288.6	306.12
288.831	308.12
289.062	293.12
289.293	289.12
289.524	278.12
289.755	284.12
289.986	275.12
290.217	282.12
290.448	294.12
290.679	287.12
290.91	300.12
291.141	277.12
291.371	289.12
291.602	309.12
291.833	280.12
292.064	301.12
292.295	296.12
292.526	288.12
292.757	283.12
292.987	297.12
293.218	296.12
293.449	306.12
293.68	304.12
293.91	311.12
294.141	278.12
294.372	278.12
294.603	307.12
294.833	299.12
295.064	285.12
295.295	301.12
295.525	266.12
295.756	292.12
295.987	302.12
296.217	326.12
296.448	339.12
296.679	304.12
296.909	301.12
297.14	296.12
297.37	288.12
297.601	299.12
297.831	313.12
298.062	316.12
298.292	297.12
298.523	326.12
298.753	300.12
298.984	297.12
299.214	304.12
299.445	304.12
299.675	298.12
299.905	298.12
300.136	328.12
300.366	295.12
300.597	318.12
300.827	313.12
301.057	308.12
301.288	338.12
301.518	310.12
301.748	330.12
301.979	344.12
302.209	312.12
302.439	332.12
302.669	327.12
302.9	319.12
303.13	310.12
303.36	325.12
303.59	324.12
303.82	332.12
304.051	342.12
304.281	326.12
304.511	318.12
304.741	330.12
304.971	331.12
305.201	324.12
305.431	317.12
305.661	321.12
305.891	323.12
306.121	328.12
306.352	354.12
306.582	340.12
306.812	323.12
307.042	337.12
307.272	334.12
307.502	333.12
307.731	357.12
307.961	325.12
308.191	339.12
308.421	334.12
308.651	336.12
308.881	333.12
309.111	344.12
309.341	355.12
309.571	382.12
309.8	355.12
310.03	402.12
310.26	392.12
310.49	393.12
310.72	403.12
310.949	400.12
311.179	411.12
311.409	382.12
311.639	365.12
311.868	398.12
312.098	396.12
312.328	389.12
312.557	418.12
312.787	412.12
313.017	419.12
313.246	398.12
313.476	374.12
313.706	389.12
313.935	389.12
314.165	414.12
314.394	403.12
314.624	397.12
314.853	406.12
315.083	399.12
315.312	392.12
315.542	368.12
315.771	383.12
316.001	375.12
316.23	386.12
316.46	386.12
316.689	382.12
316.919	397.12
317.148	398.12
317.377	429.12
317.607	392.12
317.836	410.12
318.065	380.12
318.295	372.12
318.524	397.12
318.753	389.12
318.983	401.12
319.212	394.12
319.441	387.12
319.67	404.12
319.9	384.12
320.129	399.12
320.358	402.12
320.587	385.12
320.816	415.12
321.046	400.12
321.275	404.12
321.504	399.12
321.733	433.12
321.962	444.12
322.191	434.12
322.42	471.12
322.649	454.12
322.878	477.12
323.108	502.12
323.337	543.12
323.566	557.12
323.795	593.12
324.024	669.12
324.253	825.12
324.482	1201.12
324.71	1854.12
324.939	2502.12
325.168	2139.12
325.397	1115.12
325.626	781.12
325.855	633.12
326.084	562.12
326.313	556.12
326.542	576.12
326.77	648.12
326.999	763.12
327.228	1078.12
327.457	1557.12
327.686	1834.12
327.914	1221.12
328.143	828.12
328.372	718.12
328.6	650.12
328.829	638.12
329.058	636.12
329.287	637.12
329.515	608.12
329.744	560.12
329.972	538.12
330.201	569.12
330.43	623.12
330.658	645.12
330.887	658.12
331.115	648.12
331.344	586.12
331.572	545.12
331.801	521.12
332.03	518.12
332.258	482.12
332.486	463.12
332.715	452.12
332.943	467.12
333.172	454.12
333.4	473.12
333.629	466.12
333.857	483.12
334.085	486.12
334.314	523.12
334.542	548.12
334.771	546.12
334.999	513.12
335.227	469.12
335.455	448.12
335.684	434.12
335.912	426.12
336.14	448.12
336.369	445.12
336.597	474.12
336.825	441.12
337.053	438.12
337.281	421.12
337.51	434.12
337.738	429.12
337.966	438.12
338.194	436.12
338.422	449.12
338.65	437.12
338.878	424.12
339.106	424.12
339.334	414.12
339.562	414.12
339.79	418.12
340.018	429.12
340.246	424.12
340.474	461.12
340.702	428.12
340.93	418.12
341.158	438.12
341.386	428.12
341.614	424.12
341.842	422.12
342.07	435.12
342.298	397.12
342.526	386.12
342.754	420.12
342.981	405.12
343.209	392.12
343.437	409.12
343.665	403.12
343.893	417.12
344.12	406.12
344.348	424.12
344.576	435.12
344.804	426.12
345.031	432.12
345.259	438.12
345.487	435.12
345.714	425.12
345.942	427.12
346.17	386.12
346.397	415.12
346.625	412.12
346.853	410.12
347.08	421.12
347.308	411.12
347.535	417.12
347.763	427.12
347.99	419.12
348.218	434.12
348.445	420.12
348.673	425.12
348.9	417.12
349.128	408.12
349.355	406.12
349.583	388.12
349.81	394.12
350.037	370.12
350.265	397.12
350.492	412.12
350.72	384.12
350.947	418.12
351.174	410.12
351.402	402.12
351.629	421.12
351.856	413.12
352.083	437.12
352.311	424.12
352.538	417.12
352.765	412.12
352.992	429.12
353.22	432.12
353.447	404.12
353.674	393.12
353.901	390.12
354.128	378.12
354.355	376.12
354.583	381.12
354.81	380.12
355.037	390.12
355.264	371.12
355.491	378.12
355.718	388.12
355.945	384.12
356.172	369.12
356.399	366.12
356.626	361.12
356.853	361.12
357.08	362.12
357.307	362.12
357.534	348.12
357.761	357.12
357.988	369.12
358.215	382.12
358.441	357.12
358.668	384.12
358.895	389.12
359.122	386.12
359.349	389.12
359.576	382.12
359.802	422.12
360.029	466.12
360.256	455.12
360.483	432.12
360.709	413.12
360.936	402.12
361.163	402.12
361.39	390.12
361.616	403.12
361.843	408.12
362.07	391.12
362.296	391.12
362.523	397.12
362.749	393.12
362.976	398.12
363.203	386.12
363.429	363.12
363.656	372.12
363.882	398.12
364.109	362.12
364.335	354.12
364.562	363.12
364.788	375.12
365.015	377.12
365.241	355.12
365.468	386.12
365.694	362.12
365.92	376.12
366.147	376.12
366.373	371.12
366.599	374.12
366.826	391.12
367.052	370.12
367.278	373.12
367.505	378.12
367.731	379.12
367.957	380.12
368.184	350.12
368.41	372.12
368.636	387.12
368.862	392.12
369.089	374.12
369.315	377.12
369.541	364.12
369.767	360.12
369.993	376.12
370.219	366.12
370.445	368.12
370.672	374.12
370.898	361.12
371.124	357.12
371.35	368.12
371.576	362.12
371.802	340.12
372.028	357.12
372.254	348.12
372.48	356.12
372.706	349.12
372.932	358.12
373.158	350.12
373.384	377.12
373.61	355.12
373.835	371.12
374.061	357.12
374.287	362.12
374.513	365.12
374.739	371.12
374.965	376.12
375.191	371.12
375.416	363.12
375.642	362.12
375.868	348.12
376.094	352.12
376.319	356.12
376.545	323.12
376.771	348.12
376.997	348.12
377.222	340.12
377.448	341.12
377.674	336.12
377.899	355.12
378.125	356.12
378.35	347.12
378.576	349.12
378.802	343.12
379.027	345.12
379.253	337.12
379.478	341.12
379.704	353.12
379.929	351.12
380.155	334.12
380.38	341.12
380.606	353.12
380.831	346.12
381.057	354.12
381.282	344.12
381.507	368.12
381.733	352.12
381.958	338.12
382.184	352.12
382.409	356.12
382.634	345.12
382.86	361.12
383.085	357.12
383.31	359.12
383.535	348.12
383.761	359.12
383.986	371.12
384.211	358.12
384.436	368.12
384.662	354.12
384.887	380.12
385.112	366.12
385.337	332.12
385.562	345.12
385.787	372.12
386.013	404.12
386.238	392.12
386.463	379.12
386.688	370.12
386.913	363.12
387.138	366.12
387.363	361.12
387.588	348.12
387.813	352.12
388.038	359.12
388.263	364.12
388.488	365.12
388.713	375.12
388.938	355.12
389.163	380.12
389.387	370.12
389.612	347.12
389.837	353.12
390.062	342.12
390.287	366.12
390.512	353.12
390.736	363.12
390.961	351.12
391.186	354.12
391.411	376.12
391.636	346.12
391.86	368.12
392.085	354.12
392.31	362.12
392.534	369.12
392.759	367.12
392.984	371.12
393.208	350.12
393.433	358.12
393.658	365.12
393.882	354.12
394.107	363.12
394.331	365.12
394.556	350.12
394.78	351.12
395.005	358.12
395.229	380.12
395.454	355.12
395.678	381.12
395.903	378.12
396.127	404.12
396.352	398.12
396.576	373.12
396.801	364.12
397.025	353.12
397.249	376.12
397.474	378.12
397.698	393.12
397.922	378.12
398.147	424.12
398.371	395.12
398.595	390.12
398.82	383.12
399.044	399.12
399.268	413.12
399.492	417.12
399.717	438.12
399.941	456.12
400.165	487.12
400.389	505.12
400.613	463.12
400.837	410.12
401.062	406.12
401.286	424.12
401.51	410.12
401.734	406.12
401.958	415.12
402.182	424.12
402.406	408.12
402.63	420.12
402.854	399.12
403.078	421.12
403.302	397.12
403.526	414.12
403.75	414.12
403.974	418.12
404.198	404.12
404.422	419.12
404.645	429.12
404.869	416.12
405.093	438.12
405.317	512.12
405.541	522.12
405.765	472.12
405.988	416.12
406.212	457.12
406.436	485.12
406.66	504.12
406.883	456.12
407.107	473.12
407.331	504.12
407.555	557.12
407.778	549.12
408.002	502.12
408.226	477.12
408.449	476.12
408.673	465.12
408.896	484.12
409.12	521.12
409.344	492.12
409.567	437.12
409.791	420.12
410.014	424.12
410.238	427.12
410.461	434.12
410.685	426.12
410.908	459.12
411.132	474.12
411.355	496.12
411.578	476.12
411.802	451.12
412.025	425.12
412.249	435.12
412.472	441.12
412.695	491.12
412.919	484.12
413.142	442.12
413.365	409.12
413.589	418.12
413.812	398.12
414.035	380.12
414.258	405.12
414.482	409.12
414.705	377.12
414.928	373.12
415.151	380.12
415.374	376.12
415.597	394.12
415.821	391.12
416.044	402.12
416.267	401.12
416.49	394.12
416.713	376.12
416.936	388.12
417.159	375.12
417.382	406.12
417.605	408.12
417.828	411.12
418.051	429.12
418.274	418.12
418.497	394.12
418.72	401.12
418.943	379.12
419.166	397.12
419.389	427.12
419.611	404.12
419.834	402.12
420.057	424.12
420.28	403.12
420.503	433.12
420.726	427.12
420.948	429.12
421.171	454.12
421.394	494.12
421.617	447.12
421.839	423.12
422.062	429.12
422.285	449.12
422.507	491.12
422.73	550.12
422.953	526.12
423.175	483.12
423.398	449.12
423.621	445.12
423.843	465.12
424.066	467.12
424.288	469.12
424.511	471.12
424.733	525.12
424.956	612.12
425.178	592.12
425.401	570.12
425.623	608.12
425.846	500.12
426.068	485.12
426.291	469.12
426.513	441.12
426.735	477.12
426.958	502.12
427.18	595.12
427.402	677.12
427.625	770.12
427.847	669.12
428.069	586.12
428.292	530.12
428.514	468.12
428.736	456.12
428.958	454.12
429.181	426.12
429.403	437.12
429.625	434.12
429.847	488.12
430.069	551.12
430.292	524.12
430.514	452.12
430.736	432.12
430.958	432.12
431.18	404.12
431.402	386.12
431.624	409.12
431.846	401.12
432.068	405.12
432.29	398.12
432.512	394.12
432.734	410.12
432.956	434.12
433.178	404.12
433.4	426.12
433.622	411.12
433.844	400.12
434.066	384.12
434.287	405.12
434.509	396.12
434.731	407.12
434.953	432.12
435.175	421.12
435.397	441.12
435.618	458.12
435.84	492.12
436.062	585.12
436.284	648.12
436.505	532.12
436.727	483.12
436.949	448.12
437.17	430.12
437.392	443.12
437.614	466.12
437.835	477.12
438.057	586.12
438.278	654.12
438.5	649.12
438.721	697.12
438.943	678.12
439.165	540.12
439.386	518.12
439.608	522.12
439.829	467.12
440.05	514.12
440.272	548.12
440.493	536.12
440.715	455.12
440.936	421.12
441.158	454.12
441.379	429.12
441.6	450.12
441.822	469.12
442.043	522.12
442.264	564.12
442.486	602.12
442.707	520.12
442.928	467.12
443.149	492.12
443.371	481.12
443.592	552.12
443.813	618.12
444.034	678.12
444.255	562.12
444.476	480.12
444.698	462.12
444.919	465.12
445.14	561.12
445.361	498.12
445.582	511.12
445.803	591.12
446.024	651.12
446.245	668.12
446.466	612.12
446.687	534.12
446.908	478.12
447.129	449.12
447.35	450.12
447.571	432.12
447.792	428.12
448.013	438.12
448.234	466.12
448.455	513.12
448.675	630.12
448.896	689.12
449.117	615.12
449.338	561.12
449.559	665.12
449.779	731.12
450	605.12
450.221	497.12
450.442	459.12
450.662	452.12
450.883	434.12
451.104	459.12
451.324	429.12
451.545	419.12
451.766	403.12
451.986	389.12
452.207	378.12
452.428	390.12
452.648	393.12
452.869	402.12
453.089	391.12
453.31	401.12
453.53	398.12
453.751	403.12
453.971	379.12
454.192	412.12
454.412	396.12
454.633	377.12
454.853	410.12
455.073	384.12
455.294	426.12
455.514	487.12
455.734	474.12
455.955	389.12
456.175	368.12
456.395	369.12
456.616	362.12
456.836	377.12
457.056	352.12
457.276	352.12
457.497	347.12
457.717	361.12
457.937	358.12
458.157	357.12
458.377	389.12
458.598	410.12
458.818	454.12
459.038	557.12
459.258	572.12
459.478	468.12
459.698	412.12
459.918	389.12
460.138	403.12
460.358	408.12
460.578	378.12
460.798	408.12
461.018	389.12
461.238	410.12
461.458	377.12
461.678	384.12
461.898	371.12
462.118	382.12
462.338	384.12
462.558	376.12
462.777	401.12
462.997	423.12
463.217	423.12
463.437	426.12
463.657	401.12
463.876	398.12
464.096	413.12
464.316	393.12
464.536	425.12
464.755	407.12
464.975	406.12
465.195	477.12
465.414	546.12
465.634	467.12
465.854	426.12
466.073	402.12
466.293	414.12
466.512	404.12
466.732	374.12
466.951	392.12
467.171	392.12
467.391	380.12
467.61	397.12
467.829	397.12
468.049	391.12
468.268	398.12
468.488	396.12
468.707	384.12
468.927	375.12
469.146	375.12
469.365	381.12
469.585	385.12
469.804	385.12
470.023	398.12
470.243	412.12
470.462	401.12
470.681	410.12
470.901	405.12
471.12	392.12
471.339	388.12
471.558	405.12
471.777	390.12
471.997	386.12
472.216	393.12
472.435	445.12
472.654	420.12
472.873	386.12
473.092	385.12
473.311	407.12
473.53	423.12
473.749	426.12
473.968	473.12
474.187	573.12
474.406	587.12
474.625	446.12
474.844	424.12
475.063	408.12
475.282	405.12
475.501	397.12
475.72	401.12
475.939	388.12
476.158	396.12
476.377	421.12
476.596	403.12
476.814	409.12
477.033	414.12
477.252	415.12
477.471	395.12
477.69	425.12
477.908	421.12
478.127	416.12
478.346	420.12
478.564	412.12
478.783	421.12
479.002	440.12
479.22	429.12
479.439	445.12
479.658	468.12
479.876	469.12
480.095	486.12
480.313	514.12
480.532	470.12
480.751	472.12
480.969	509.12
481.188	565.12
481.406	594.12
481.624	494.12
481.843	465.12
482.061	456.12
482.28	437.12
482.498	450.12
482.717	470.12
482.935	478.12
483.153	465.12
483.372	428.12
483.59	456.12
483.808	445.12
484.027	446.12
484.245	450.12
484.463	459.12
484.681	466.12
484.9	459.12
485.118	467.12
485.336	478.12
485.554	456.12
485.772	448.12
485.99	489.12
486.209	461.12
486.427	481.12
486.645	504.12
486.863	488.12
487.081	516.12
487.299	496.12
487.517	486.12
487.735	504.12
487.953	489.12
488.171	494.12
488.389	498.12
488.607	500.12
488.825	493.12
489.043	475.12
489.261	499.12
489.479	490.12
489.696	512.12
489.914	517.12
490.132	502.12
490.35	522.12
490.568	539.12
490.786	525.12
491.003	516.12
491.221	540.12
491.439	539.12
491.657	572.12
491.874	562.12
492.092	583.12
492.31	560.12
492.527	551.12
492.745	589.12
492.963	577.12
493.18	564.12
493.398	581.12
493.615	590.12
493.833	586.12
494.05	588.12
494.268	575.12
494.485	571.12
494.703	582.12
494.92	584.12
495.138	574.12
495.355	606.12
495.573	603.12
495.79	593.12
496.008	593.12
496.225	598.12
496.442	582.12
496.66	625.12
496.877	610.12
497.094	595.12
497.312	581.12
497.529	604.12
497.746	613.12
497.963	612.12
498.181	636.12
498.398	621.12
498.615	642.12
498.832	651.12
499.049	622.12
499.267	640.12
499.484	655.12
499.701	663.12
499.918	678.12
500.135	690.12
500.352	726.12
500.569	718.12
500.786	720.12
501.003	696.12
501.22	702.12
501.437	698.12
501.654	697.12
501.871	707.12
