Data from 1981.PennyLincolnUp.Lamp.En5.5.200Scan.071819.P1_HRD10591_16-42-58-960.txt Node
Date: Thu Jul 18 16:42:58 EDT 2019
User: cochatt
Spectrometer: HR+D1059
Trigger mode: 1
Integration Time (sec): 1.000000E-1
Scans to average: 1
Electric dark correction enabled: true
Nonlinearity correction enabled: false
Boxcar width: 0
XAxis mode: Wavelengths
Number of Pixels in Spectrum: 2048
>>>>>Begin Spectral Data<<<<<
223.165	-14.19
223.4	-14.19
223.635	-14.19
223.869	-1.19
224.104	-22.19
224.338	-10.19
224.573	-10.19
224.808	-11.19
225.042	4.81
225.277	-17.19
225.511	-9.19
225.746	-9.19
225.98	-4.19
226.215	18.81
226.449	6.81
226.683	22.81
226.918	34.81
227.152	20.81
227.387	23.81
227.621	24.81
227.856	43.81
228.09	34.81
228.324	49.81
228.559	61.81
228.793	64.81
229.027	101.81
229.262	124.81
229.496	122.81
229.73	140.81
229.964	150.81
230.199	138.81
230.433	118.81
230.667	117.81
230.901	99.81
231.136	128.81
231.37	118.81
231.604	108.81
231.838	100.81
232.072	114.81
232.306	113.81
232.541	113.81
232.775	91.81
233.009	106.81
233.243	103.81
233.477	114.81
233.711	124.81
233.945	115.81
234.179	116.81
234.413	121.81
234.647	114.81
234.881	116.81
235.115	123.81
235.349	107.81
235.583	122.81
235.817	124.81
236.051	122.81
236.285	128.81
236.519	124.81
236.753	128.81
236.987	152.81
237.221	184.81
237.455	228.81
237.689	178.81
237.922	141.81
238.156	138.81
238.39	152.81
238.624	130.81
238.858	124.81
239.091	128.81
239.325	124.81
239.559	134.81
239.793	134.81
240.027	131.81
240.26	138.81
240.494	148.81
240.728	156.81
240.961	160.81
241.195	146.81
241.429	135.81
241.662	142.81
241.896	125.81
242.13	141.81
242.363	135.81
242.597	129.81
242.83	145.81
243.064	141.81
243.298	147.81
243.531	125.81
243.765	148.81
243.998	147.81
244.232	133.81
244.465	135.81
244.699	148.81
244.932	146.81
245.166	142.81
245.399	138.81
245.633	124.81
245.866	153.81
246.099	135.81
246.333	151.81
246.566	165.81
246.8	148.81
247.033	160.81
247.266	164.81
247.5	165.81
247.733	162.81
247.966	168.81
248.2	170.81
248.433	172.81
248.666	169.81
248.899	185.81
249.133	202.81
249.366	213.81
249.599	205.81
249.832	176.81
250.066	171.81
250.299	184.81
250.532	214.81
250.765	217.81
250.998	235.81
251.231	231.81
251.465	224.81
251.698	191.81
251.931	199.81
252.164	204.81
252.397	209.81
252.63	205.81
252.863	213.81
253.096	216.81
253.329	244.81
253.562	230.81
253.795	224.81
254.028	235.81
254.261	232.81
254.494	225.81
254.727	262.81
254.96	300.81
255.193	297.81
255.426	262.81
255.659	256.81
255.892	248.81
256.124	254.81
256.357	256.81
256.59	240.81
256.823	229.81
257.056	227.81
257.289	222.81
257.521	233.81
257.754	216.81
257.987	219.81
258.22	230.81
258.452	208.81
258.685	221.81
258.918	210.81
259.151	216.81
259.383	229.81
259.616	219.81
259.849	217.81
260.081	240.81
260.314	267.81
260.547	278.81
260.779	265.81
261.012	253.81
261.244	249.81
261.477	241.81
261.71	237.81
261.942	245.81
262.175	235.81
262.407	256.81
262.64	230.81
262.872	231.81
263.105	211.81
263.337	216.81
263.57	221.81
263.802	210.81
264.035	220.81
264.267	214.81
264.499	224.81
264.732	222.81
264.964	224.81
265.197	240.81
265.429	221.81
265.661	229.81
265.894	208.81
266.126	212.81
266.358	215.81
266.591	218.81
266.823	236.81
267.055	214.81
267.287	244.81
267.52	233.81
267.752	225.81
267.984	220.81
268.216	219.81
268.448	247.81
268.681	240.81
268.913	254.81
269.145	267.81
269.377	271.81
269.609	289.81
269.841	293.81
270.073	282.81
270.306	310.81
270.538	310.81
270.77	340.81
271.002	298.81
271.234	313.81
271.466	309.81
271.698	334.81
271.93	325.81
272.162	344.81
272.394	340.81
272.626	313.81
272.858	306.81
273.09	291.81
273.322	278.81
273.553	297.81
273.785	288.81
274.017	291.81
274.249	276.81
274.481	273.81
274.713	268.81
274.945	297.81
275.176	270.81
275.408	290.81
275.64	276.81
275.872	268.81
276.104	276.81
276.335	257.81
276.567	284.81
276.799	296.81
277.031	310.81
277.262	330.81
277.494	340.81
277.726	330.81
277.957	307.81
278.189	292.81
278.421	306.81
278.652	279.81
278.884	278.81
279.115	271.81
279.347	282.81
279.579	252.81
279.81	249.81
280.042	278.81
280.273	282.81
280.505	280.81
280.736	262.81
280.968	258.81
281.199	265.81
281.431	267.81
281.662	269.81
281.894	261.81
282.125	258.81
282.356	308.81
282.588	310.81
282.819	309.81
283.051	289.81
283.282	289.81
283.513	296.81
283.745	269.81
283.976	290.81
284.207	271.81
284.439	303.81
284.67	277.81
284.901	276.81
285.132	275.81
285.364	279.81
285.595	280.81
285.826	263.81
286.057	289.81
286.288	267.81
286.52	271.81
286.751	292.81
286.982	282.81
287.213	290.81
287.444	267.81
287.675	303.81
287.906	300.81
288.138	297.81
288.369	318.81
288.6	309.81
288.831	279.81
289.062	290.81
289.293	289.81
289.524	289.81
289.755	304.81
289.986	293.81
290.217	282.81
290.448	282.81
290.679	268.81
290.91	282.81
291.141	268.81
291.371	290.81
291.602	302.81
291.833	282.81
292.064	289.81
292.295	278.81
292.526	291.81
292.757	283.81
292.987	281.81
293.218	277.81
293.449	281.81
293.68	277.81
293.91	290.81
294.141	292.81
294.372	285.81
294.603	286.81
294.833	313.81
295.064	314.81
295.295	288.81
295.525	289.81
295.756	301.81
295.987	304.81
296.217	312.81
296.448	324.81
296.679	305.81
296.909	292.81
297.14	302.81
297.37	297.81
297.601	295.81
297.831	287.81
298.062	288.81
298.292	293.81
298.523	305.81
298.753	320.81
298.984	312.81
299.214	307.81
299.445	302.81
299.675	310.81
299.905	323.81
300.136	296.81
300.366	312.81
300.597	281.81
300.827	314.81
301.057	318.81
301.288	313.81
301.518	314.81
301.748	315.81
301.979	326.81
302.209	306.81
302.439	332.81
302.669	326.81
302.9	331.81
303.13	293.81
303.36	324.81
303.59	333.81
303.82	335.81
304.051	342.81
304.281	326.81
304.511	317.81
304.741	332.81
304.971	313.81
305.201	329.81
305.431	327.81
305.661	308.81
305.891	314.81
306.121	325.81
306.352	321.81
306.582	330.81
306.812	340.81
307.042	339.81
307.272	313.81
307.502	331.81
307.731	344.81
307.961	345.81
308.191	332.81
308.421	341.81
308.651	320.81
308.881	333.81
309.111	343.81
309.341	326.81
309.571	360.81
309.8	357.81
310.03	365.81
310.26	371.81
310.49	372.81
310.72	388.81
310.949	386.81
311.179	403.81
311.409	382.81
311.639	377.81
311.868	390.81
312.098	394.81
312.328	396.81
312.557	388.81
312.787	413.81
313.017	415.81
313.246	389.81
313.476	403.81
313.706	395.81
313.935	376.81
314.165	394.81
314.394	412.81
314.624	405.81
314.853	402.81
315.083	398.81
315.312	378.81
315.542	380.81
315.771	374.81
316.001	397.81
316.23	376.81
316.46	377.81
316.689	379.81
316.919	381.81
317.148	393.81
317.377	389.81
317.607	395.81
317.836	394.81
318.065	378.81
318.295	370.81
318.524	373.81
318.753	360.81
318.983	362.81
319.212	349.81
319.441	400.81
319.67	404.81
319.9	379.81
320.129	368.81
320.358	380.81
320.587	389.81
320.816	397.81
321.046	408.81
321.275	399.81
321.504	411.81
321.733	413.81
321.962	424.81
322.191	430.81
322.42	440.81
322.649	470.81
322.878	479.81
323.108	478.81
323.337	518.81
323.566	542.81
323.795	563.81
324.024	649.81
324.253	806.81
324.482	1166.81
324.71	1776.81
324.939	2452.81
325.168	2068.81
325.397	1056.81
325.626	746.81
325.855	599.81
326.084	578.81
326.313	561.81
326.542	567.81
326.77	621.81
326.999	744.81
327.228	1014.81
327.457	1522.81
327.686	1785.81
327.914	1191.81
328.143	816.81
328.372	672.81
328.6	642.81
328.829	626.81
329.058	658.81
329.287	627.81
329.515	590.81
329.744	560.81
329.972	550.81
330.201	550.81
330.43	596.81
330.658	633.81
330.887	648.81
331.115	609.81
331.344	540.81
331.572	524.81
331.801	540.81
332.03	517.81
332.258	468.81
332.486	473.81
332.715	463.81
332.943	425.81
333.172	456.81
333.4	461.81
333.629	448.81
333.857	465.81
334.085	474.81
334.314	506.81
334.542	538.81
334.771	539.81
334.999	496.81
335.227	480.81
335.455	459.81
335.684	446.81
335.912	440.81
336.14	424.81
336.369	412.81
336.597	431.81
336.825	452.81
337.053	448.81
337.281	439.81
337.51	432.81
337.738	413.81
337.966	428.81
338.194	429.81
338.422	424.81
338.65	415.81
338.878	427.81
339.106	401.81
339.334	433.81
339.562	432.81
339.79	419.81
340.018	410.81
340.246	415.81
340.474	433.81
340.702	441.81
340.93	420.81
341.158	400.81
341.386	420.81
341.614	435.81
341.842	412.81
342.07	401.81
342.298	385.81
342.526	402.81
342.754	392.81
342.981	401.81
343.209	382.81
343.437	403.81
343.665	404.81
343.893	402.81
344.12	406.81
344.348	430.81
344.576	418.81
344.804	439.81
345.031	455.81
345.259	425.81
345.487	403.81
345.714	435.81
345.942	410.81
346.17	400.81
346.397	405.81
346.625	417.81
346.853	401.81
347.08	398.81
347.308	405.81
347.535	424.81
347.763	407.81
347.99	401.81
348.218	405.81
348.445	422.81
348.673	402.81
348.9	401.81
349.128	406.81
349.355	390.81
349.583	396.81
349.81	397.81
350.037	370.81
350.265	384.81
350.492	382.81
350.72	399.81
350.947	378.81
351.174	388.81
351.402	424.81
351.629	416.81
351.856	405.81
352.083	415.81
352.311	409.81
352.538	420.81
352.765	391.81
352.992	421.81
353.22	398.81
353.447	409.81
353.674	364.81
353.901	380.81
354.128	395.81
354.355	392.81
354.583	362.81
354.81	362.81
355.037	369.81
355.264	371.81
355.491	370.81
355.718	349.81
355.945	362.81
356.172	363.81
356.399	376.81
356.626	366.81
356.853	368.81
357.08	364.81
357.307	378.81
357.534	379.81
357.761	356.81
357.988	366.81
358.215	369.81
358.441	363.81
358.668	353.81
358.895	365.81
359.122	393.81
359.349	394.81
359.576	384.81
359.802	423.81
360.029	426.81
360.256	460.81
360.483	427.81
360.709	390.81
360.936	410.81
361.163	398.81
361.39	405.81
361.616	398.81
361.843	388.81
362.07	404.81
362.296	381.81
362.523	382.81
362.749	380.81
362.976	401.81
363.203	358.81
363.429	386.81
363.656	382.81
363.882	375.81
364.109	382.81
364.335	374.81
364.562	357.81
364.788	349.81
365.015	374.81
365.241	363.81
365.468	384.81
365.694	390.81
365.92	384.81
366.147	372.81
366.373	378.81
366.599	349.81
366.826	349.81
367.052	355.81
367.278	362.81
367.505	368.81
367.731	380.81
367.957	370.81
368.184	361.81
368.41	358.81
368.636	388.81
368.862	382.81
369.089	385.81
369.315	346.81
369.541	352.81
369.767	343.81
369.993	361.81
370.219	357.81
370.445	355.81
370.672	351.81
370.898	348.81
371.124	357.81
371.35	349.81
371.576	361.81
371.802	338.81
372.028	353.81
372.254	348.81
372.48	350.81
372.706	339.81
372.932	356.81
373.158	341.81
373.384	352.81
373.61	359.81
373.835	351.81
374.061	349.81
374.287	362.81
374.513	348.81
374.739	356.81
374.965	350.81
375.191	365.81
375.416	365.81
375.642	349.81
375.868	357.81
376.094	349.81
376.319	365.81
376.545	354.81
376.771	365.81
376.997	352.81
377.222	359.81
377.448	338.81
377.674	324.81
377.899	316.81
378.125	353.81
378.35	325.81
378.576	333.81
378.802	323.81
379.027	338.81
379.253	358.81
379.478	346.81
379.704	342.81
379.929	360.81
380.155	359.81
380.38	348.81
380.606	353.81
380.831	363.81
381.057	354.81
381.282	357.81
381.507	361.81
381.733	356.81
381.958	354.81
382.184	330.81
382.409	360.81
382.634	352.81
382.86	368.81
383.085	347.81
383.31	334.81
383.535	358.81
383.761	328.81
383.986	348.81
384.211	346.81
384.436	361.81
384.662	362.81
384.887	357.81
385.112	357.81
385.337	361.81
385.562	359.81
385.787	365.81
386.013	378.81
386.238	388.81
386.463	365.81
386.688	378.81
386.913	350.81
387.138	368.81
387.363	372.81
387.588	343.81
387.813	351.81
388.038	357.81
388.263	361.81
388.488	373.81
388.713	350.81
388.938	342.81
389.163	361.81
389.387	381.81
389.612	375.81
389.837	356.81
390.062	363.81
390.287	362.81
390.512	361.81
390.736	343.81
390.961	348.81
391.186	355.81
391.411	347.81
391.636	393.81
391.86	362.81
392.085	368.81
392.31	341.81
392.534	376.81
392.759	346.81
392.984	368.81
393.208	373.81
393.433	349.81
393.658	340.81
393.882	357.81
394.107	364.81
394.331	357.81
394.556	346.81
394.78	374.81
395.005	376.81
395.229	356.81
395.454	348.81
395.678	375.81
395.903	362.81
396.127	392.81
396.352	386.81
396.576	375.81
396.801	371.81
397.025	375.81
397.249	375.81
397.474	378.81
397.698	380.81
397.922	390.81
398.147	408.81
398.371	390.81
398.595	396.81
398.82	391.81
399.044	395.81
399.268	412.81
399.492	410.81
399.717	414.81
399.941	464.81
400.165	475.81
400.389	496.81
400.613	444.81
400.837	428.81
401.062	412.81
401.286	409.81
401.51	398.81
401.734	415.81
401.958	420.81
402.182	409.81
402.406	432.81
402.63	394.81
402.854	395.81
403.078	411.81
403.302	406.81
403.526	437.81
403.75	407.81
403.974	416.81
404.198	420.81
404.422	428.81
404.645	448.81
404.869	428.81
405.093	457.81
405.317	469.81
405.541	508.81
405.765	446.81
405.988	444.81
406.212	446.81
406.436	474.81
406.66	474.81
406.883	451.81
407.107	474.81
407.331	508.81
407.555	581.81
407.778	565.81
408.002	515.81
408.226	481.81
408.449	466.81
408.673	456.81
408.896	485.81
409.12	533.81
409.344	478.81
409.567	447.81
409.791	434.81
410.014	419.81
410.238	414.81
410.461	400.81
410.685	432.81
410.908	422.81
411.132	452.81
411.355	500.81
411.578	479.81
411.802	456.81
412.025	428.81
412.249	427.81
412.472	450.81
412.695	460.81
412.919	462.81
413.142	427.81
413.365	443.81
413.589	411.81
413.812	394.81
414.035	405.81
414.258	415.81
414.482	394.81
414.705	385.81
414.928	378.81
415.151	393.81
415.374	379.81
415.597	399.81
415.821	387.81
416.044	383.81
416.267	385.81
416.49	383.81
416.713	378.81
416.936	384.81
417.159	370.81
417.382	394.81
417.605	388.81
417.828	405.81
418.051	416.81
418.274	403.81
418.497	384.81
418.72	386.81
418.943	391.81
419.166	410.81
419.389	409.81
419.611	437.81
419.834	416.81
420.057	415.81
420.28	407.81
420.503	414.81
420.726	432.81
420.948	450.81
421.171	475.81
421.394	500.81
421.617	436.81
421.839	416.81
422.062	421.81
422.285	440.81
422.507	480.81
422.73	544.81
422.953	540.81
423.175	474.81
423.398	431.81
423.621	442.81
423.843	473.81
424.066	463.81
424.288	441.81
424.511	477.81
424.733	509.81
424.956	603.81
425.178	553.81
425.401	548.81
425.623	568.81
425.846	493.81
426.068	455.81
426.291	463.81
426.513	462.81
426.735	480.81
426.958	508.81
427.18	575.81
427.402	722.81
427.625	763.81
427.847	690.81
428.069	588.81
428.292	502.81
428.514	488.81
428.736	444.81
428.958	429.81
429.181	438.81
429.403	442.81
429.625	424.81
429.847	475.81
430.069	539.81
430.292	524.81
430.514	438.81
430.736	441.81
430.958	427.81
431.18	391.81
431.402	384.81
431.624	391.81
431.846	389.81
432.068	409.81
432.29	386.81
432.512	398.81
432.734	411.81
432.956	420.81
433.178	418.81
433.4	389.81
433.622	383.81
433.844	394.81
434.066	393.81
434.287	393.81
434.509	381.81
434.731	402.81
434.953	403.81
435.175	422.81
435.397	442.81
435.618	441.81
435.84	517.81
436.062	576.81
436.284	646.81
436.505	545.81
436.727	488.81
436.949	443.81
437.17	437.81
437.392	448.81
437.614	433.81
437.835	493.81
438.057	584.81
438.278	673.81
438.5	648.81
438.721	713.81
438.943	678.81
439.165	564.81
439.386	481.81
439.608	468.81
439.829	479.81
440.05	504.81
440.272	534.81
440.493	494.81
440.715	458.81
440.936	454.81
441.158	440.81
441.379	419.81
441.6	443.81
441.822	455.81
442.043	492.81
442.264	557.81
442.486	620.81
442.707	526.81
442.928	486.81
443.149	496.81
443.371	470.81
443.592	550.81
443.813	611.81
444.034	633.81
444.255	550.81
444.476	462.81
444.698	464.81
444.919	443.81
445.14	539.81
445.361	516.81
445.582	505.81
445.803	590.81
446.024	680.81
446.245	660.81
446.466	625.81
446.687	516.81
446.908	475.81
447.129	449.81
447.35	440.81
447.571	412.81
447.792	441.81
448.013	434.81
448.234	456.81
448.455	533.81
448.675	598.81
448.896	689.81
449.117	577.81
449.338	558.81
449.559	655.81
449.779	726.81
450	598.81
450.221	500.81
450.442	465.81
450.662	449.81
450.883	420.81
451.104	434.81
451.324	426.81
451.545	416.81
451.766	390.81
451.986	382.81
452.207	379.81
452.428	393.81
452.648	401.81
452.869	394.81
453.089	387.81
453.31	387.81
453.53	373.81
453.751	394.81
453.971	376.81
454.192	410.81
454.412	404.81
454.633	386.81
454.853	384.81
455.073	388.81
455.294	412.81
455.514	475.81
455.734	466.81
455.955	386.81
456.175	380.81
456.395	338.81
456.616	361.81
456.836	368.81
457.056	345.81
457.276	341.81
457.497	348.81
457.717	360.81
457.937	376.81
458.157	370.81
458.377	381.81
458.598	393.81
458.818	461.81
459.038	540.81
459.258	540.81
459.478	460.81
459.698	398.81
459.918	403.81
460.138	372.81
460.358	402.81
460.578	397.81
460.798	397.81
461.018	384.81
461.238	388.81
461.458	397.81
461.678	381.81
461.898	401.81
462.118	386.81
462.338	376.81
462.558	400.81
462.777	390.81
462.997	396.81
463.217	399.81
463.437	429.81
463.657	385.81
463.876	408.81
464.096	406.81
464.316	405.81
464.536	407.81
464.755	398.81
464.975	422.81
465.195	455.81
465.414	544.81
465.634	468.81
465.854	426.81
466.073	417.81
466.293	410.81
466.512	387.81
466.732	402.81
466.951	382.81
467.171	361.81
467.391	400.81
467.61	385.81
467.829	411.81
468.049	397.81
468.268	397.81
468.488	381.81
468.707	388.81
468.927	377.81
469.146	365.81
469.365	395.81
469.585	376.81
469.804	375.81
470.023	396.81
470.243	380.81
470.462	392.81
470.681	413.81
470.901	387.81
471.12	400.81
471.339	403.81
471.558	380.81
471.777	393.81
471.997	392.81
472.216	397.81
472.435	431.81
472.654	436.81
472.873	397.81
473.092	409.81
473.311	398.81
473.53	398.81
473.749	413.81
473.968	435.81
474.187	537.81
474.406	564.81
474.625	461.81
474.844	391.81
475.063	410.81
475.282	385.81
475.501	413.81
475.72	414.81
475.939	405.81
476.158	388.81
476.377	393.81
476.596	398.81
476.814	409.81
477.033	410.81
477.252	412.81
477.471	425.81
477.69	406.81
477.908	421.81
478.127	446.81
478.346	427.81
478.564	417.81
478.783	406.81
479.002	414.81
479.22	437.81
479.439	454.81
479.658	449.81
479.876	440.81
480.095	482.81
480.313	501.81
480.532	475.81
480.751	472.81
480.969	474.81
481.188	538.81
481.406	581.81
481.624	524.81
481.843	492.81
482.061	457.81
482.28	456.81
482.498	436.81
482.717	440.81
482.935	441.81
483.153	450.81
483.372	472.81
483.59	417.81
483.808	453.81
484.027	461.81
484.245	453.81
484.463	452.81
484.681	441.81
484.9	434.81
485.118	468.81
485.336	460.81
485.554	476.81
485.772	452.81
485.99	462.81
486.209	483.81
486.427	482.81
486.645	484.81
486.863	494.81
487.081	505.81
487.299	503.81
487.517	489.81
487.735	476.81
487.953	492.81
488.171	512.81
488.389	492.81
488.607	485.81
488.825	504.81
489.043	515.81
489.261	508.81
489.479	500.81
489.696	492.81
489.914	520.81
490.132	473.81
490.35	514.81
490.568	514.81
490.786	537.81
491.003	523.81
491.221	548.81
491.439	545.81
491.657	537.81
491.874	562.81
492.092	552.81
492.31	562.81
492.527	564.81
492.745	546.81
492.963	570.81
493.18	568.81
493.398	609.81
493.615	591.81
493.833	579.81
494.05	600.81
494.268	592.81
494.485	564.81
494.703	564.81
494.92	583.81
495.138	586.81
495.355	594.81
495.573	622.81
495.79	555.81
496.008	577.81
496.225	592.81
496.442	595.81
496.66	596.81
496.877	603.81
497.094	598.81
497.312	593.81
497.529	583.81
497.746	606.81
497.963	619.81
498.181	628.81
498.398	634.81
498.615	639.81
498.832	620.81
499.049	644.81
499.267	642.81
499.484	647.81
499.701	668.81
499.918	665.81
500.135	700.81
500.352	696.81
500.569	713.81
500.786	717.81
501.003	721.81
501.22	669.81
501.437	694.81
501.654	688.81
501.871	704.81
