Data from 1981.PennyLincolnUp.Lamp.En5.5.200Scan.071819.P1_HRD10591_16-43-06-960.txt Node
Date: Thu Jul 18 16:43:06 EDT 2019
User: cochatt
Spectrometer: HR+D1059
Trigger mode: 1
Integration Time (sec): 1.000000E-1
Scans to average: 1
Electric dark correction enabled: true
Nonlinearity correction enabled: false
Boxcar width: 0
XAxis mode: Wavelengths
Number of Pixels in Spectrum: 2048
>>>>>Begin Spectral Data<<<<<
223.165	-18.69
223.4	-18.69
223.635	-18.69
223.869	-18.69
224.104	-13.69
224.338	-21.69
224.573	-12.69
224.808	-18.69
225.042	-19.69
225.277	0.31
225.511	-1.69
225.746	12.31
225.98	8.31
226.215	-1.69
226.449	30.31
226.683	22.31
226.918	27.31
227.152	26.31
227.387	34.31
227.621	33.31
227.856	50.31
228.09	46.31
228.324	61.31
228.559	67.31
228.793	69.31
229.027	84.31
229.262	116.31
229.496	120.31
229.73	140.31
229.964	156.31
230.199	125.31
230.433	122.31
230.667	109.31
230.901	122.31
231.136	117.31
231.37	124.31
231.604	92.31
231.838	120.31
232.072	115.31
232.306	126.31
232.541	118.31
232.775	114.31
233.009	104.31
233.243	116.31
233.477	118.31
233.711	134.31
233.945	121.31
234.179	116.31
234.413	91.31
234.647	114.31
234.881	120.31
235.115	113.31
235.349	126.31
235.583	107.31
235.817	123.31
236.051	132.31
236.285	126.31
236.519	131.31
236.753	126.31
236.987	148.31
237.221	186.31
237.455	226.31
237.689	194.31
237.922	140.31
238.156	140.31
238.39	132.31
238.624	139.31
238.858	135.31
239.091	123.31
239.325	143.31
239.559	142.31
239.793	127.31
240.027	128.31
240.26	154.31
240.494	148.31
240.728	158.31
240.961	153.31
241.195	148.31
241.429	128.31
241.662	127.31
241.896	137.31
242.13	119.31
242.363	124.31
242.597	136.31
242.83	147.31
243.064	128.31
243.298	135.31
243.531	156.31
243.765	134.31
243.998	148.31
244.232	132.31
244.465	146.31
244.699	147.31
244.932	142.31
245.166	140.31
245.399	137.31
245.633	156.31
245.866	148.31
246.099	142.31
246.333	152.31
246.566	146.31
246.8	151.31
247.033	150.31
247.266	167.31
247.5	154.31
247.733	162.31
247.966	168.31
248.2	174.31
248.433	182.31
248.666	194.31
248.899	193.31
249.133	211.31
249.366	213.31
249.599	213.31
249.832	192.31
250.066	195.31
250.299	183.31
250.532	200.31
250.765	213.31
250.998	234.31
251.231	252.31
251.465	236.31
251.698	210.31
251.931	221.31
252.164	216.31
252.397	205.31
252.63	206.31
252.863	216.31
253.096	236.31
253.329	253.31
253.562	236.31
253.795	216.31
254.028	244.31
254.261	235.31
254.494	236.31
254.727	255.31
254.96	304.31
255.193	291.31
255.426	256.31
255.659	245.31
255.892	263.31
256.124	260.31
256.357	235.31
256.59	252.31
256.823	218.31
257.056	214.31
257.289	230.31
257.521	218.31
257.754	242.31
257.987	219.31
258.22	234.31
258.452	234.31
258.685	220.31
258.918	225.31
259.151	221.31
259.383	220.31
259.616	222.31
259.849	258.31
260.081	261.31
260.314	266.31
260.547	276.31
260.779	276.31
261.012	246.31
261.244	242.31
261.477	230.31
261.71	226.31
261.942	248.31
262.175	247.31
262.407	254.31
262.64	242.31
262.872	219.31
263.105	219.31
263.337	223.31
263.57	221.31
263.802	221.31
264.035	209.31
264.267	209.31
264.499	231.31
264.732	227.31
264.964	210.31
265.197	219.31
265.429	214.31
265.661	232.31
265.894	219.31
266.126	211.31
266.358	220.31
266.591	234.31
266.823	233.31
267.055	252.31
267.287	241.31
267.52	245.31
267.752	226.31
267.984	248.31
268.216	230.31
268.448	245.31
268.681	236.31
268.913	264.31
269.145	264.31
269.377	292.31
269.609	310.31
269.841	284.31
270.073	282.31
270.306	320.31
270.538	342.31
270.77	333.31
271.002	322.31
271.234	338.31
271.466	312.31
271.698	332.31
271.93	354.31
272.162	347.31
272.394	346.31
272.626	310.31
272.858	311.31
273.09	284.31
273.322	306.31
273.553	286.31
273.785	292.31
274.017	289.31
274.249	273.31
274.481	266.31
274.713	291.31
274.945	299.31
275.176	293.31
275.408	285.31
275.64	261.31
275.872	256.31
276.104	270.31
276.335	273.31
276.567	278.31
276.799	306.31
277.031	324.31
277.262	324.31
277.494	321.31
277.726	319.31
277.957	318.31
278.189	294.31
278.421	281.31
278.652	293.31
278.884	268.31
279.115	283.31
279.347	298.31
279.579	273.31
279.81	278.31
280.042	282.31
280.273	289.31
280.505	293.31
280.736	279.31
280.968	270.31
281.199	258.31
281.431	281.31
281.662	264.31
281.894	277.31
282.125	273.31
282.356	291.31
282.588	312.31
282.819	320.31
283.051	310.31
283.282	291.31
283.513	275.31
283.745	297.31
283.976	299.31
284.207	287.31
284.439	298.31
284.67	286.31
284.901	287.31
285.132	277.31
285.364	289.31
285.595	280.31
285.826	276.31
286.057	289.31
286.288	287.31
286.52	271.31
286.751	267.31
286.982	299.31
287.213	308.31
287.444	309.31
287.675	304.31
287.906	291.31
288.138	316.31
288.369	311.31
288.6	315.31
288.831	297.31
289.062	289.31
289.293	300.31
289.524	294.31
289.755	276.31
289.986	278.31
290.217	288.31
290.448	280.31
290.679	305.31
290.91	290.31
291.141	275.31
291.371	284.31
291.602	302.31
291.833	276.31
292.064	283.31
292.295	312.31
292.526	297.31
292.757	290.31
292.987	291.31
293.218	293.31
293.449	287.31
293.68	310.31
293.91	276.31
294.141	286.31
294.372	291.31
294.603	281.31
294.833	289.31
295.064	291.31
295.295	301.31
295.525	290.31
295.756	321.31
295.987	316.31
296.217	340.31
296.448	330.31
296.679	302.31
296.909	299.31
297.14	295.31
297.37	311.31
297.601	285.31
297.831	296.31
298.062	304.31
298.292	322.31
298.523	308.31
298.753	304.31
298.984	317.31
299.214	318.31
299.445	330.31
299.675	338.31
299.905	320.31
300.136	317.31
300.366	308.31
300.597	316.31
300.827	330.31
301.057	351.31
301.288	352.31
301.518	322.31
301.748	340.31
301.979	335.31
302.209	329.31
302.439	330.31
302.669	329.31
302.9	325.31
303.13	334.31
303.36	346.31
303.59	329.31
303.82	336.31
304.051	358.31
304.281	345.31
304.511	332.31
304.741	333.31
304.971	318.31
305.201	325.31
305.431	315.31
305.661	344.31
305.891	328.31
306.121	329.31
306.352	330.31
306.582	337.31
306.812	345.31
307.042	326.31
307.272	342.31
307.502	342.31
307.731	339.31
307.961	332.31
308.191	337.31
308.421	341.31
308.651	323.31
308.881	351.31
309.111	369.31
309.341	351.31
309.571	368.31
309.8	370.31
310.03	369.31
310.26	392.31
310.49	390.31
310.72	409.31
310.949	398.31
311.179	422.31
311.409	396.31
311.639	385.31
311.868	376.31
312.098	404.31
312.328	404.31
312.557	426.31
312.787	425.31
313.017	452.31
313.246	402.31
313.476	398.31
313.706	412.31
313.935	409.31
314.165	412.31
314.394	420.31
314.624	402.31
314.853	415.31
315.083	398.31
315.312	393.31
315.542	378.31
315.771	393.31
316.001	393.31
316.23	390.31
316.46	379.31
316.689	379.31
316.919	402.31
317.148	391.31
317.377	402.31
317.607	402.31
317.836	381.31
318.065	388.31
318.295	397.31
318.524	384.31
318.753	382.31
318.983	384.31
319.212	379.31
319.441	388.31
319.67	415.31
319.9	389.31
320.129	389.31
320.358	409.31
320.587	405.31
320.816	428.31
321.046	443.31
321.275	402.31
321.504	419.31
321.733	435.31
321.962	427.31
322.191	426.31
322.42	456.31
322.649	477.31
322.878	494.31
323.108	519.31
323.337	541.31
323.566	574.31
323.795	595.31
324.024	660.31
324.253	827.31
324.482	1187.31
324.71	1786.31
324.939	2528.31
325.168	2109.31
325.397	1128.31
325.626	758.31
325.855	608.31
326.084	582.31
326.313	583.31
326.542	591.31
326.77	636.31
326.999	790.31
327.228	1064.31
327.457	1544.31
327.686	1824.31
327.914	1244.31
328.143	830.31
328.372	712.31
328.6	670.31
328.829	632.31
329.058	650.31
329.287	627.31
329.515	608.31
329.744	558.31
329.972	580.31
330.201	564.31
330.43	604.31
330.658	642.31
330.887	648.31
331.115	654.31
331.344	588.31
331.572	490.31
331.801	515.31
332.03	521.31
332.258	481.31
332.486	469.31
332.715	454.31
332.943	438.31
333.172	474.31
333.4	435.31
333.629	470.31
333.857	490.31
334.085	502.31
334.314	508.31
334.542	529.31
334.771	558.31
334.999	487.31
335.227	467.31
335.455	460.31
335.684	434.31
335.912	456.31
336.14	464.31
336.369	441.31
336.597	452.31
336.825	461.31
337.053	439.31
337.281	450.31
337.51	425.31
337.738	437.31
337.966	440.31
338.194	425.31
338.422	454.31
338.65	433.31
338.878	425.31
339.106	427.31
339.334	432.31
339.562	432.31
339.79	428.31
340.018	439.31
340.246	437.31
340.474	435.31
340.702	432.31
340.93	430.31
341.158	412.31
341.386	426.31
341.614	418.31
341.842	429.31
342.07	447.31
342.298	432.31
342.526	403.31
342.754	382.31
342.981	416.31
343.209	394.31
343.437	410.31
343.665	396.31
343.893	417.31
344.12	430.31
344.348	426.31
344.576	433.31
344.804	444.31
345.031	457.31
345.259	448.31
345.487	436.31
345.714	420.31
345.942	404.31
346.17	398.31
346.397	414.31
346.625	416.31
346.853	420.31
347.08	390.31
347.308	405.31
347.535	440.31
347.763	428.31
347.99	426.31
348.218	426.31
348.445	435.31
348.673	427.31
348.9	418.31
349.128	422.31
349.355	409.31
349.583	403.31
349.81	407.31
350.037	404.31
350.265	398.31
350.492	391.31
350.72	405.31
350.947	422.31
351.174	414.31
351.402	420.31
351.629	412.31
351.856	395.31
352.083	424.31
352.311	440.31
352.538	452.31
352.765	404.31
352.992	404.31
353.22	408.31
353.447	417.31
353.674	402.31
353.901	388.31
354.128	378.31
354.355	360.31
354.583	384.31
354.81	360.31
355.037	377.31
355.264	339.31
355.491	361.31
355.718	370.31
355.945	368.31
356.172	382.31
356.399	366.31
356.626	361.31
356.853	353.31
357.08	358.31
357.307	363.31
357.534	377.31
357.761	365.31
357.988	366.31
358.215	359.31
358.441	372.31
358.668	382.31
358.895	388.31
359.122	385.31
359.349	378.31
359.576	402.31
359.802	413.31
360.029	462.31
360.256	466.31
360.483	445.31
360.709	409.31
360.936	396.31
361.163	396.31
361.39	388.31
361.616	403.31
361.843	394.31
362.07	418.31
362.296	409.31
362.523	389.31
362.749	389.31
362.976	399.31
363.203	396.31
363.429	397.31
363.656	381.31
363.882	374.31
364.109	372.31
364.335	371.31
364.562	385.31
364.788	364.31
365.015	380.31
365.241	390.31
365.468	390.31
365.694	394.31
365.92	381.31
366.147	379.31
366.373	378.31
366.599	369.31
366.826	351.31
367.052	369.31
367.278	390.31
367.505	382.31
367.731	383.31
367.957	381.31
368.184	366.31
368.41	370.31
368.636	406.31
368.862	372.31
369.089	379.31
369.315	372.31
369.541	356.31
369.767	349.31
369.993	385.31
370.219	362.31
370.445	368.31
370.672	367.31
370.898	382.31
371.124	365.31
371.35	368.31
371.576	340.31
371.802	358.31
372.028	370.31
372.254	361.31
372.48	378.31
372.706	372.31
372.932	344.31
373.158	351.31
373.384	361.31
373.61	363.31
373.835	372.31
374.061	354.31
374.287	356.31
374.513	358.31
374.739	366.31
374.965	377.31
375.191	352.31
375.416	354.31
375.642	341.31
375.868	350.31
376.094	364.31
376.319	369.31
376.545	342.31
376.771	347.31
376.997	353.31
377.222	366.31
377.448	350.31
377.674	346.31
377.899	364.31
378.125	355.31
378.35	363.31
378.576	356.31
378.802	360.31
379.027	350.31
379.253	353.31
379.478	350.31
379.704	336.31
379.929	340.31
380.155	350.31
380.38	353.31
380.606	349.31
380.831	370.31
381.057	348.31
381.282	360.31
381.507	333.31
381.733	350.31
381.958	341.31
382.184	362.31
382.409	366.31
382.634	348.31
382.86	346.31
383.085	369.31
383.31	353.31
383.535	355.31
383.761	364.31
383.986	370.31
384.211	365.31
384.436	361.31
384.662	359.31
384.887	352.31
385.112	347.31
385.337	366.31
385.562	378.31
385.787	373.31
386.013	362.31
386.238	356.31
386.463	364.31
386.688	374.31
386.913	346.31
387.138	358.31
387.363	363.31
387.588	357.31
387.813	380.31
388.038	367.31
388.263	355.31
388.488	379.31
388.713	364.31
388.938	352.31
389.163	365.31
389.387	350.31
389.612	377.31
389.837	362.31
390.062	360.31
390.287	376.31
390.512	364.31
390.736	374.31
390.961	368.31
391.186	360.31
391.411	366.31
391.636	376.31
391.86	378.31
392.085	386.31
392.31	362.31
392.534	362.31
392.759	352.31
392.984	370.31
393.208	377.31
393.433	353.31
393.658	342.31
393.882	382.31
394.107	380.31
394.331	376.31
394.556	362.31
394.78	368.31
395.005	358.31
395.229	363.31
395.454	380.31
395.678	384.31
395.903	390.31
396.127	394.31
396.352	393.31
396.576	401.31
396.801	379.31
397.025	384.31
397.249	379.31
397.474	377.31
397.698	395.31
397.922	402.31
398.147	421.31
398.371	427.31
398.595	396.31
398.82	401.31
399.044	418.31
399.268	421.31
399.492	436.31
399.717	445.31
399.941	450.31
400.165	478.31
400.389	512.31
400.613	471.31
400.837	446.31
401.062	414.31
401.286	402.31
401.51	406.31
401.734	442.31
401.958	418.31
402.182	408.31
402.406	420.31
402.63	430.31
402.854	420.31
403.078	413.31
403.302	424.31
403.526	438.31
403.75	413.31
403.974	414.31
404.198	403.31
404.422	432.31
404.645	434.31
404.869	443.31
405.093	454.31
405.317	509.31
405.541	514.31
405.765	488.31
405.988	454.31
406.212	449.31
406.436	486.31
406.66	493.31
406.883	460.31
407.107	486.31
407.331	494.31
407.555	560.31
407.778	578.31
408.002	521.31
408.226	474.31
408.449	462.31
408.673	486.31
408.896	500.31
409.12	525.31
409.344	497.31
409.567	476.31
409.791	446.31
410.014	416.31
410.238	422.31
410.461	406.31
410.685	432.31
410.908	436.31
411.132	487.31
411.355	512.31
411.578	489.31
411.802	462.31
412.025	436.31
412.249	438.31
412.472	462.31
412.695	493.31
412.919	455.31
413.142	419.31
413.365	422.31
413.589	432.31
413.812	412.31
414.035	412.31
414.258	411.31
414.482	398.31
414.705	395.31
414.928	388.31
415.151	388.31
415.374	404.31
415.597	395.31
415.821	386.31
416.044	405.31
416.267	405.31
416.49	393.31
416.713	386.31
416.936	394.31
417.159	396.31
417.382	389.31
417.605	410.31
417.828	411.31
418.051	417.31
418.274	432.31
418.497	410.31
418.72	389.31
418.943	409.31
419.166	417.31
419.389	419.31
419.611	416.31
419.834	432.31
420.057	416.31
420.28	428.31
420.503	408.31
420.726	409.31
420.948	439.31
421.171	467.31
421.394	505.31
421.617	440.31
421.839	437.31
422.062	426.31
422.285	462.31
422.507	475.31
422.73	570.31
422.953	532.31
423.175	456.31
423.398	460.31
423.621	465.31
423.843	469.31
424.066	483.31
424.288	457.31
424.511	491.31
424.733	516.31
424.956	600.31
425.178	578.31
425.401	577.31
425.623	608.31
425.846	512.31
426.068	461.31
426.291	476.31
426.513	470.31
426.735	486.31
426.958	527.31
427.18	611.31
427.402	698.31
427.625	794.31
427.847	684.31
428.069	609.31
428.292	517.31
428.514	481.31
428.736	461.31
428.958	443.31
429.181	439.31
429.403	443.31
429.625	457.31
429.847	476.31
430.069	533.31
430.292	534.31
430.514	459.31
430.736	442.31
430.958	432.31
431.18	380.31
431.402	415.31
431.624	400.31
431.846	401.31
432.068	388.31
432.29	378.31
432.512	412.31
432.734	400.31
432.956	416.31
433.178	411.31
433.4	436.31
433.622	412.31
433.844	396.31
434.066	409.31
434.287	391.31
434.509	387.31
434.731	421.31
434.953	408.31
435.175	432.31
435.397	447.31
435.618	465.31
435.84	499.31
436.062	604.31
436.284	660.31
436.505	555.31
436.727	478.31
436.949	458.31
437.17	425.31
437.392	433.31
437.614	442.31
437.835	484.31
438.057	580.31
438.278	668.31
438.5	672.31
438.721	711.31
438.943	716.31
439.165	555.31
439.386	501.31
439.608	506.31
439.829	480.31
440.05	498.31
440.272	559.31
440.493	529.31
440.715	487.31
440.936	436.31
441.158	432.31
441.379	452.31
441.6	428.31
441.822	501.31
442.043	508.31
442.264	598.31
442.486	644.31
442.707	532.31
442.928	482.31
443.149	476.31
443.371	494.31
443.592	541.31
443.813	627.31
444.034	668.31
444.255	546.31
444.476	499.31
444.698	463.31
444.919	471.31
445.14	554.31
445.361	519.31
445.582	521.31
445.803	589.31
446.024	652.31
446.245	696.31
446.466	614.31
446.687	520.31
446.908	498.31
447.129	443.31
447.35	441.31
447.571	459.31
447.792	451.31
448.013	461.31
448.234	465.31
448.455	497.31
448.675	627.31
448.896	690.31
449.117	600.31
449.338	580.31
449.559	656.31
449.779	738.31
450	604.31
450.221	507.31
450.442	436.31
450.662	434.31
450.883	448.31
451.104	445.31
451.324	442.31
451.545	444.31
451.766	422.31
451.986	382.31
452.207	398.31
452.428	372.31
452.648	385.31
452.869	388.31
453.089	387.31
453.31	394.31
453.53	392.31
453.751	375.31
453.971	378.31
454.192	395.31
454.412	405.31
454.633	405.31
454.853	380.31
455.073	386.31
455.294	411.31
455.514	510.31
455.734	500.31
455.955	407.31
456.175	383.31
456.395	371.31
456.616	362.31
456.836	358.31
457.056	371.31
457.276	340.31
457.497	350.31
457.717	384.31
457.937	370.31
458.157	381.31
458.377	365.31
458.598	405.31
458.818	461.31
459.038	538.31
459.258	560.31
459.478	451.31
459.698	393.31
459.918	392.31
460.138	399.31
460.358	392.31
460.578	395.31
460.798	397.31
461.018	414.31
461.238	387.31
461.458	407.31
461.678	388.31
461.898	389.31
462.118	404.31
462.338	398.31
462.558	382.31
462.777	405.31
462.997	419.31
463.217	428.31
463.437	413.31
463.657	413.31
463.876	411.31
464.096	432.31
464.316	423.31
464.536	440.31
464.755	448.31
464.975	436.31
465.195	461.31
465.414	553.31
465.634	511.31
465.854	448.31
466.073	410.31
466.293	408.31
466.512	393.31
466.732	380.31
466.951	392.31
467.171	393.31
467.391	394.31
467.61	399.31
467.829	401.31
468.049	394.31
468.268	398.31
468.488	390.31
468.707	373.31
468.927	376.31
469.146	375.31
469.365	399.31
469.585	369.31
469.804	379.31
470.023	380.31
470.243	401.31
470.462	407.31
470.681	418.31
470.901	419.31
471.12	379.31
471.339	404.31
471.558	388.31
471.777	402.31
471.997	380.31
472.216	394.31
472.435	463.31
472.654	421.31
472.873	413.31
473.092	409.31
473.311	388.31
473.53	384.31
473.749	410.31
473.968	467.31
474.187	552.31
474.406	571.31
474.625	454.31
474.844	444.31
475.063	403.31
475.282	414.31
475.501	419.31
475.72	420.31
475.939	397.31
476.158	414.31
476.377	399.31
476.596	401.31
476.814	408.31
477.033	438.31
477.252	430.31
477.471	432.31
477.69	423.31
477.908	418.31
478.127	435.31
478.346	434.31
478.564	445.31
478.783	436.31
479.002	422.31
479.22	451.31
479.439	449.31
479.658	472.31
479.876	483.31
480.095	491.31
480.313	502.31
480.532	489.31
480.751	474.31
480.969	499.31
481.188	550.31
481.406	598.31
481.624	508.31
481.843	480.31
482.061	461.31
482.28	473.31
482.498	467.31
482.717	449.31
482.935	457.31
483.153	468.31
483.372	460.31
483.59	441.31
483.808	450.31
484.027	465.31
484.245	474.31
484.463	482.31
484.681	488.31
484.9	459.31
485.118	468.31
485.336	481.31
485.554	494.31
485.772	470.31
485.99	482.31
486.209	486.31
486.427	478.31
486.645	514.31
486.863	512.31
487.081	492.31
487.299	520.31
487.517	498.31
487.735	501.31
487.953	507.31
488.171	483.31
488.389	496.31
488.607	489.31
488.825	493.31
489.043	523.31
489.261	512.31
489.479	516.31
489.696	532.31
489.914	507.31
490.132	489.31
490.35	525.31
490.568	543.31
490.786	546.31
491.003	546.31
491.221	573.31
491.439	558.31
491.657	557.31
491.874	565.31
492.092	578.31
492.31	569.31
492.527	568.31
492.745	577.31
492.963	576.31
493.18	583.31
493.398	600.31
493.615	577.31
493.833	580.31
494.05	587.31
494.268	579.31
494.485	585.31
494.703	583.31
494.92	575.31
495.138	596.31
495.355	591.31
495.573	587.31
495.79	592.31
496.008	603.31
496.225	603.31
496.442	601.31
496.66	582.31
496.877	598.31
497.094	580.31
497.312	602.31
497.529	631.31
497.746	620.31
497.963	608.31
498.181	653.31
498.398	637.31
498.615	632.31
498.832	660.31
499.049	638.31
499.267	650.31
499.484	669.31
499.701	689.31
499.918	675.31
500.135	704.31
500.352	706.31
500.569	716.31
500.786	740.31
501.003	731.31
501.22	728.31
501.437	724.31
501.654	734.31
501.871	692.31
