Data from 1981.PennyLincolnUp.Lamp.En5.5.200Scan.071819.P1_HRD10591_16-40-27-959.txt Node
Date: Thu Jul 18 16:40:27 EDT 2019
User: cochatt
Spectrometer: HR+D1059
Trigger mode: 1
Integration Time (sec): 1.000000E-1
Scans to average: 1
Electric dark correction enabled: true
Nonlinearity correction enabled: false
Boxcar width: 0
XAxis mode: Wavelengths
Number of Pixels in Spectrum: 2048
>>>>>Begin Spectral Data<<<<<
223.165	-12.31
223.4	-12.31
223.635	-12.31
223.869	-5.31
224.104	-23.31
224.338	-18.31
224.573	-21.31
224.808	-4.31
225.042	-22.31
225.277	-14.31
225.511	3.69
225.746	3.69
225.98	14.69
226.215	5.69
226.449	7.69
226.683	19.69
226.918	34.69
227.152	31.69
227.387	42.69
227.621	33.69
227.856	40.69
228.09	40.69
228.324	46.69
228.559	50.69
228.793	65.69
229.027	73.69
229.262	107.69
229.496	110.69
229.73	85.69
229.964	102.69
230.199	104.69
230.433	99.69
230.667	87.69
230.901	98.69
231.136	102.69
231.37	105.69
231.604	88.69
231.838	90.69
232.072	89.69
232.306	91.69
232.541	103.69
232.775	123.69
233.009	103.69
233.243	112.69
233.477	108.69
233.711	117.69
233.945	121.69
234.179	115.69
234.413	105.69
234.647	103.69
234.881	93.69
235.115	103.69
235.349	110.69
235.583	108.69
235.817	107.69
236.051	123.69
236.285	111.69
236.519	113.69
236.753	107.69
236.987	118.69
237.221	156.69
237.455	159.69
237.689	152.69
237.922	128.69
238.156	107.69
238.39	115.69
238.624	119.69
238.858	111.69
239.091	118.69
239.325	115.69
239.559	110.69
239.793	106.69
240.027	121.69
240.26	123.69
240.494	137.69
240.728	121.69
240.961	117.69
241.195	122.69
241.429	117.69
241.662	122.69
241.896	115.69
242.13	123.69
242.363	118.69
242.597	115.69
242.83	126.69
243.064	110.69
243.298	98.69
243.531	133.69
243.765	106.69
243.998	125.69
244.232	133.69
244.465	111.69
244.699	135.69
244.932	126.69
245.166	122.69
245.399	130.69
245.633	130.69
245.866	114.69
246.099	131.69
246.333	147.69
246.566	133.69
246.8	123.69
247.033	137.69
247.266	133.69
247.5	143.69
247.733	134.69
247.966	139.69
248.2	146.69
248.433	150.69
248.666	144.69
248.899	142.69
249.133	161.69
249.366	177.69
249.599	165.69
249.832	153.69
250.066	162.69
250.299	153.69
250.532	164.69
250.765	155.69
250.998	181.69
251.231	168.69
251.465	172.69
251.698	180.69
251.931	155.69
252.164	187.69
252.397	169.69
252.63	161.69
252.863	166.69
253.096	175.69
253.329	174.69
253.562	182.69
253.795	189.69
254.028	190.69
254.261	169.69
254.494	170.69
254.727	212.69
254.96	200.69
255.193	212.69
255.426	207.69
255.659	188.69
255.892	204.69
256.124	198.69
256.357	183.69
256.59	205.69
256.823	197.69
257.056	162.69
257.289	168.69
257.521	184.69
257.754	173.69
257.987	170.69
258.22	166.69
258.452	168.69
258.685	185.69
258.918	191.69
259.151	185.69
259.383	191.69
259.616	158.69
259.849	182.69
260.081	180.69
260.314	200.69
260.547	221.69
260.779	206.69
261.012	200.69
261.244	185.69
261.477	189.69
261.71	212.69
261.942	185.69
262.175	198.69
262.407	192.69
262.64	195.69
262.872	177.69
263.105	182.69
263.337	191.69
263.57	178.69
263.802	202.69
264.035	167.69
264.267	179.69
264.499	161.69
264.732	167.69
264.964	185.69
265.197	183.69
265.429	167.69
265.661	208.69
265.894	184.69
266.126	171.69
266.358	171.69
266.591	193.69
266.823	182.69
267.055	178.69
267.287	198.69
267.52	182.69
267.752	186.69
267.984	194.69
268.216	188.69
268.448	203.69
268.681	198.69
268.913	188.69
269.145	201.69
269.377	214.69
269.609	196.69
269.841	213.69
270.073	217.69
270.306	230.69
270.538	238.69
270.77	236.69
271.002	244.69
271.234	222.69
271.466	234.69
271.698	240.69
271.93	230.69
272.162	212.69
272.394	223.69
272.626	245.69
272.858	243.69
273.09	232.69
273.322	227.69
273.553	244.69
273.785	213.69
274.017	214.69
274.249	225.69
274.481	210.69
274.713	225.69
274.945	216.69
275.176	241.69
275.408	204.69
275.64	214.69
275.872	215.69
276.104	225.69
276.335	221.69
276.567	215.69
276.799	235.69
277.031	248.69
277.262	238.69
277.494	237.69
277.726	226.69
277.957	216.69
278.189	227.69
278.421	211.69
278.652	228.69
278.884	233.69
279.115	212.69
279.347	214.69
279.579	225.69
279.81	201.69
280.042	230.69
280.273	228.69
280.505	224.69
280.736	219.69
280.968	243.69
281.199	208.69
281.431	229.69
281.662	226.69
281.894	222.69
282.125	225.69
282.356	213.69
282.588	248.69
282.819	237.69
283.051	217.69
283.282	220.69
283.513	204.69
283.745	225.69
283.976	218.69
284.207	241.69
284.439	221.69
284.67	230.69
284.901	234.69
285.132	222.69
285.364	222.69
285.595	228.69
285.826	237.69
286.057	228.69
286.288	205.69
286.52	216.69
286.751	241.69
286.982	233.69
287.213	231.69
287.444	247.69
287.675	231.69
287.906	237.69
288.138	240.69
288.369	241.69
288.6	235.69
288.831	237.69
289.062	243.69
289.293	239.69
289.524	232.69
289.755	228.69
289.986	241.69
290.217	245.69
290.448	238.69
290.679	223.69
290.91	230.69
291.141	234.69
291.371	220.69
291.602	232.69
291.833	205.69
292.064	212.69
292.295	241.69
292.526	221.69
292.757	243.69
292.987	243.69
293.218	231.69
293.449	238.69
293.68	226.69
293.91	224.69
294.141	222.69
294.372	237.69
294.603	232.69
294.833	228.69
295.064	245.69
295.295	266.69
295.525	233.69
295.756	231.69
295.987	239.69
296.217	246.69
296.448	246.69
296.679	242.69
296.909	252.69
297.14	237.69
297.37	247.69
297.601	240.69
297.831	246.69
298.062	231.69
298.292	257.69
298.523	244.69
298.753	246.69
298.984	251.69
299.214	251.69
299.445	259.69
299.675	258.69
299.905	258.69
300.136	250.69
300.366	249.69
300.597	242.69
300.827	262.69
301.057	241.69
301.288	263.69
301.518	263.69
301.748	262.69
301.979	272.69
302.209	257.69
302.439	246.69
302.669	262.69
302.9	265.69
303.13	253.69
303.36	276.69
303.59	260.69
303.82	253.69
304.051	268.69
304.281	274.69
304.511	262.69
304.741	256.69
304.971	246.69
305.201	275.69
305.431	239.69
305.661	262.69
305.891	275.69
306.121	246.69
306.352	263.69
306.582	278.69
306.812	265.69
307.042	264.69
307.272	258.69
307.502	269.69
307.731	267.69
307.961	258.69
308.191	272.69
308.421	257.69
308.651	276.69
308.881	272.69
309.111	285.69
309.341	278.69
309.571	281.69
309.8	283.69
310.03	282.69
310.26	274.69
310.49	298.69
310.72	278.69
310.949	316.69
311.179	313.69
311.409	301.69
311.639	281.69
311.868	276.69
312.098	309.69
312.328	303.69
312.557	316.69
312.787	307.69
313.017	294.69
313.246	316.69
313.476	299.69
313.706	295.69
313.935	293.69
314.165	297.69
314.394	306.69
314.624	302.69
314.853	301.69
315.083	283.69
315.312	294.69
315.542	298.69
315.771	301.69
316.001	316.69
316.23	309.69
316.46	293.69
316.689	277.69
316.919	289.69
317.148	304.69
317.377	306.69
317.607	313.69
317.836	309.69
318.065	307.69
318.295	275.69
318.524	307.69
318.753	295.69
318.983	300.69
319.212	318.69
319.441	297.69
319.67	331.69
319.9	290.69
320.129	298.69
320.358	319.69
320.587	308.69
320.816	322.69
321.046	301.69
321.275	309.69
321.504	314.69
321.733	316.69
321.962	325.69
322.191	331.69
322.42	349.69
322.649	357.69
322.878	358.69
323.108	355.69
323.337	362.69
323.566	379.69
323.795	380.69
324.024	410.69
324.253	532.69
324.482	713.69
324.71	1037.69
324.939	1454.69
325.168	1211.69
325.397	657.69
325.626	467.69
325.855	415.69
326.084	389.69
326.313	379.69
326.542	394.69
326.77	429.69
326.999	482.69
327.228	626.69
327.457	930.69
327.686	1079.69
327.914	710.69
328.143	499.69
328.372	469.69
328.6	433.69
328.829	403.69
329.058	421.69
329.287	426.69
329.515	402.69
329.744	374.69
329.972	358.69
330.201	383.69
330.43	403.69
330.658	407.69
330.887	442.69
331.115	399.69
331.344	381.69
331.572	363.69
331.801	375.69
332.03	364.69
332.258	371.69
332.486	354.69
332.715	355.69
332.943	334.69
333.172	339.69
333.4	345.69
333.629	352.69
333.857	369.69
334.085	351.69
334.314	363.69
334.542	346.69
334.771	383.69
334.999	355.69
335.227	330.69
335.455	347.69
335.684	346.69
335.912	335.69
336.14	349.69
336.369	355.69
336.597	361.69
336.825	342.69
337.053	315.69
337.281	344.69
337.51	325.69
337.738	327.69
337.966	321.69
338.194	334.69
338.422	339.69
338.65	320.69
338.878	338.69
339.106	325.69
339.334	323.69
339.562	345.69
339.79	315.69
340.018	344.69
340.246	327.69
340.474	346.69
340.702	335.69
340.93	339.69
341.158	326.69
341.386	339.69
341.614	329.69
341.842	330.69
342.07	310.69
342.298	322.69
342.526	318.69
342.754	332.69
342.981	327.69
343.209	310.69
343.437	322.69
343.665	322.69
343.893	334.69
344.12	354.69
344.348	337.69
344.576	342.69
344.804	330.69
345.031	314.69
345.259	358.69
345.487	333.69
345.714	317.69
345.942	338.69
346.17	302.69
346.397	301.69
346.625	319.69
346.853	321.69
347.08	315.69
347.308	341.69
347.535	319.69
347.763	321.69
347.99	324.69
348.218	326.69
348.445	329.69
348.673	316.69
348.9	311.69
349.128	333.69
349.355	323.69
349.583	306.69
349.81	330.69
350.037	315.69
350.265	316.69
350.492	289.69
350.72	306.69
350.947	317.69
351.174	323.69
351.402	325.69
351.629	307.69
351.856	333.69
352.083	321.69
352.311	327.69
352.538	334.69
352.765	319.69
352.992	302.69
353.22	337.69
353.447	329.69
353.674	302.69
353.901	298.69
354.128	315.69
354.355	305.69
354.583	303.69
354.81	302.69
355.037	305.69
355.264	313.69
355.491	300.69
355.718	298.69
355.945	325.69
356.172	292.69
356.399	301.69
356.626	293.69
356.853	290.69
357.08	293.69
357.307	285.69
357.534	308.69
357.761	300.69
357.988	307.69
358.215	307.69
358.441	287.69
358.668	296.69
358.895	287.69
359.122	310.69
359.349	316.69
359.576	309.69
359.802	329.69
360.029	330.69
360.256	358.69
360.483	319.69
360.709	326.69
360.936	317.69
361.163	317.69
361.39	327.69
361.616	316.69
361.843	321.69
362.07	330.69
362.296	317.69
362.523	314.69
362.749	300.69
362.976	292.69
363.203	314.69
363.429	301.69
363.656	313.69
363.882	290.69
364.109	311.69
364.335	295.69
364.562	312.69
364.788	317.69
365.015	288.69
365.241	286.69
365.468	296.69
365.694	300.69
365.92	310.69
366.147	303.69
366.373	298.69
366.599	301.69
366.826	289.69
367.052	310.69
367.278	298.69
367.505	302.69
367.731	257.69
367.957	295.69
368.184	298.69
368.41	305.69
368.636	311.69
368.862	322.69
369.089	301.69
369.315	284.69
369.541	300.69
369.767	311.69
369.993	286.69
370.219	298.69
370.445	292.69
370.672	282.69
370.898	288.69
371.124	290.69
371.35	289.69
371.576	307.69
371.802	293.69
372.028	291.69
372.254	299.69
372.48	298.69
372.706	317.69
372.932	305.69
373.158	315.69
373.384	309.69
373.61	309.69
373.835	299.69
374.061	299.69
374.287	292.69
374.513	294.69
374.739	302.69
374.965	290.69
375.191	314.69
375.416	298.69
375.642	309.69
375.868	290.69
376.094	294.69
376.319	293.69
376.545	292.69
376.771	303.69
376.997	293.69
377.222	302.69
377.448	291.69
377.674	302.69
377.899	289.69
378.125	303.69
378.35	277.69
378.576	270.69
378.802	285.69
379.027	295.69
379.253	310.69
379.478	305.69
379.704	290.69
379.929	303.69
380.155	316.69
380.38	306.69
380.606	309.69
380.831	308.69
381.057	309.69
381.282	293.69
381.507	300.69
381.733	295.69
381.958	303.69
382.184	294.69
382.409	298.69
382.634	295.69
382.86	315.69
383.085	303.69
383.31	297.69
383.535	298.69
383.761	320.69
383.986	315.69
384.211	311.69
384.436	279.69
384.662	294.69
384.887	303.69
385.112	300.69
385.337	318.69
385.562	301.69
385.787	307.69
386.013	305.69
386.238	339.69
386.463	321.69
386.688	332.69
386.913	329.69
387.138	314.69
387.363	302.69
387.588	318.69
387.813	327.69
388.038	302.69
388.263	305.69
388.488	319.69
388.713	303.69
388.938	318.69
389.163	311.69
389.387	313.69
389.612	314.69
389.837	311.69
390.062	302.69
390.287	311.69
390.512	324.69
390.736	312.69
390.961	301.69
391.186	309.69
391.411	326.69
391.636	300.69
391.86	319.69
392.085	302.69
392.31	309.69
392.534	315.69
392.759	306.69
392.984	302.69
393.208	307.69
393.433	334.69
393.658	315.69
393.882	320.69
394.107	312.69
394.331	303.69
394.556	297.69
394.78	305.69
395.005	306.69
395.229	311.69
395.454	320.69
395.678	333.69
395.903	328.69
396.127	348.69
396.352	330.69
396.576	338.69
396.801	309.69
397.025	322.69
397.249	314.69
397.474	315.69
397.698	319.69
397.922	325.69
398.147	341.69
398.371	364.69
398.595	350.69
398.82	341.69
399.044	337.69
399.268	345.69
399.492	366.69
399.717	381.69
399.941	391.69
400.165	391.69
400.389	400.69
400.613	374.69
400.837	370.69
401.062	345.69
401.286	357.69
401.51	333.69
401.734	342.69
401.958	346.69
402.182	338.69
402.406	344.69
402.63	347.69
402.854	347.69
403.078	337.69
403.302	371.69
403.526	360.69
403.75	339.69
403.974	334.69
404.198	329.69
404.422	349.69
404.645	355.69
404.869	344.69
405.093	376.69
405.317	402.69
405.541	420.69
405.765	395.69
405.988	377.69
406.212	365.69
406.436	385.69
406.66	378.69
406.883	397.69
407.107	386.69
407.331	413.69
407.555	463.69
407.778	461.69
408.002	405.69
408.226	411.69
408.449	386.69
408.673	399.69
408.896	392.69
409.12	408.69
409.344	410.69
409.567	374.69
409.791	350.69
410.014	369.69
410.238	361.69
410.461	354.69
410.685	351.69
410.908	383.69
411.132	367.69
411.355	403.69
411.578	375.69
411.802	363.69
412.025	333.69
412.249	350.69
412.472	357.69
412.695	363.69
412.919	351.69
413.142	353.69
413.365	325.69
413.589	341.69
413.812	341.69
414.035	341.69
414.258	331.69
414.482	313.69
414.705	340.69
414.928	315.69
415.151	317.69
415.374	325.69
415.597	326.69
415.821	320.69
416.044	303.69
416.267	332.69
416.49	336.69
416.713	315.69
416.936	335.69
417.159	333.69
417.382	335.69
417.605	315.69
417.828	329.69
418.051	328.69
418.274	327.69
418.497	325.69
418.72	326.69
418.943	332.69
419.166	344.69
419.389	338.69
419.611	351.69
419.834	347.69
420.057	351.69
420.28	352.69
420.503	324.69
420.726	336.69
420.948	347.69
421.171	373.69
421.394	390.69
421.617	347.69
421.839	328.69
422.062	361.69
422.285	344.69
422.507	376.69
422.73	429.69
422.953	433.69
423.175	383.69
423.398	353.69
423.621	364.69
423.843	360.69
424.066	365.69
424.288	364.69
424.511	395.69
424.733	423.69
424.956	482.69
425.178	461.69
425.401	458.69
425.623	443.69
425.846	400.69
426.068	379.69
426.291	385.69
426.513	365.69
426.735	371.69
426.958	391.69
427.18	455.69
427.402	545.69
427.625	571.69
427.847	515.69
428.069	422.69
428.292	383.69
428.514	383.69
428.736	357.69
428.958	353.69
429.181	341.69
429.403	349.69
429.625	345.69
429.847	372.69
430.069	410.69
430.292	403.69
430.514	364.69
430.736	319.69
430.958	355.69
431.18	358.69
431.402	328.69
431.624	318.69
431.846	326.69
432.068	319.69
432.29	305.69
432.512	322.69
432.734	330.69
432.956	326.69
433.178	347.69
433.4	323.69
433.622	335.69
433.844	319.69
434.066	335.69
434.287	325.69
434.509	342.69
434.731	345.69
434.953	327.69
435.175	353.69
435.397	362.69
435.618	368.69
435.84	403.69
436.062	438.69
436.284	501.69
436.505	424.69
436.727	399.69
436.949	371.69
437.17	357.69
437.392	349.69
437.614	341.69
437.835	380.69
438.057	449.69
438.278	493.69
438.5	511.69
438.721	553.69
438.943	537.69
439.165	430.69
439.386	386.69
439.608	382.69
439.829	353.69
440.05	387.69
440.272	396.69
440.493	395.69
440.715	358.69
440.936	345.69
441.158	363.69
441.379	329.69
441.6	348.69
441.822	369.69
442.043	379.69
442.264	422.69
442.486	471.69
442.707	405.69
442.928	385.69
443.149	387.69
443.371	379.69
443.592	426.69
443.813	490.69
444.034	510.69
444.255	427.69
444.476	381.69
444.698	372.69
444.919	354.69
445.14	429.69
445.361	423.69
445.582	412.69
445.803	445.69
446.024	493.69
446.245	473.69
446.466	472.69
446.687	398.69
446.908	375.69
447.129	350.69
447.35	345.69
447.571	341.69
447.792	330.69
448.013	377.69
448.234	357.69
448.455	385.69
448.675	479.69
448.896	533.69
449.117	458.69
449.338	414.69
449.559	492.69
449.779	553.69
450	452.69
450.221	393.69
450.442	357.69
450.662	326.69
450.883	333.69
451.104	354.69
451.324	337.69
451.545	313.69
451.766	306.69
451.986	318.69
452.207	316.69
452.428	298.69
452.648	311.69
452.869	314.69
453.089	293.69
453.31	316.69
453.53	312.69
453.751	292.69
453.971	321.69
454.192	311.69
454.412	319.69
454.633	310.69
454.853	323.69
455.073	328.69
455.294	326.69
455.514	369.69
455.734	350.69
455.955	316.69
456.175	296.69
456.395	284.69
456.616	294.69
456.836	299.69
457.056	304.69
457.276	302.69
457.497	279.69
457.717	275.69
457.937	307.69
458.157	308.69
458.377	324.69
458.598	318.69
458.818	351.69
459.038	375.69
459.258	401.69
459.478	360.69
459.698	304.69
459.918	305.69
460.138	326.69
460.358	331.69
460.578	330.69
460.798	331.69
461.018	319.69
461.238	314.69
461.458	314.69
461.678	318.69
461.898	317.69
462.118	327.69
462.338	332.69
462.558	339.69
462.777	355.69
462.997	343.69
463.217	341.69
463.437	351.69
463.657	352.69
463.876	333.69
464.096	334.69
464.316	337.69
464.536	337.69
464.755	339.69
464.975	343.69
465.195	373.69
465.414	387.69
465.634	374.69
465.854	348.69
466.073	344.69
466.293	317.69
466.512	309.69
466.732	317.69
466.951	303.69
467.171	308.69
467.391	321.69
467.61	301.69
467.829	339.69
468.049	315.69
468.268	315.69
468.488	314.69
468.707	307.69
468.927	306.69
469.146	314.69
469.365	326.69
469.585	303.69
469.804	332.69
470.023	317.69
470.243	325.69
470.462	325.69
470.681	323.69
470.901	343.69
471.12	311.69
471.339	322.69
471.558	311.69
471.777	329.69
471.997	312.69
472.216	327.69
472.435	342.69
472.654	298.69
472.873	314.69
473.092	321.69
473.311	314.69
473.53	323.69
473.749	330.69
473.968	359.69
474.187	410.69
474.406	433.69
474.625	363.69
474.844	363.69
475.063	307.69
475.282	328.69
475.501	330.69
475.72	341.69
475.939	337.69
476.158	327.69
476.377	325.69
476.596	336.69
476.814	328.69
477.033	347.69
477.252	361.69
477.471	327.69
477.69	354.69
477.908	342.69
478.127	345.69
478.346	361.69
478.564	355.69
478.783	358.69
479.002	352.69
479.22	359.69
479.439	355.69
479.658	377.69
479.876	364.69
480.095	370.69
480.313	382.69
480.532	390.69
480.751	385.69
480.969	374.69
481.188	389.69
481.406	409.69
481.624	391.69
481.843	394.69
482.061	359.69
482.28	379.69
482.498	391.69
482.717	367.69
482.935	396.69
483.153	383.69
483.372	371.69
483.59	373.69
483.808	361.69
484.027	380.69
484.245	368.69
484.463	385.69
484.681	381.69
484.9	394.69
485.118	377.69
485.336	383.69
485.554	379.69
485.772	384.69
485.99	392.69
486.209	379.69
486.427	372.69
486.645	380.69
486.863	403.69
487.081	382.69
487.299	400.69
487.517	416.69
487.735	400.69
487.953	399.69
488.171	392.69
488.389	394.69
488.607	403.69
488.825	411.69
489.043	410.69
489.261	399.69
489.479	381.69
489.696	391.69
489.914	409.69
490.132	413.69
490.35	407.69
490.568	399.69
490.786	415.69
491.003	433.69
491.221	437.69
491.439	426.69
491.657	428.69
491.874	451.69
492.092	440.69
492.31	434.69
492.527	438.69
492.745	438.69
492.963	463.69
493.18	453.69
493.398	452.69
493.615	460.69
493.833	462.69
494.05	464.69
494.268	466.69
494.485	472.69
494.703	451.69
494.92	469.69
495.138	465.69
495.355	455.69
495.573	467.69
495.79	460.69
496.008	451.69
496.225	459.69
496.442	434.69
496.66	461.69
496.877	465.69
497.094	469.69
497.312	482.69
497.529	498.69
497.746	489.69
497.963	475.69
498.181	499.69
498.398	514.69
498.615	518.69
498.832	517.69
499.049	530.69
499.267	511.69
499.484	556.69
499.701	543.69
499.918	568.69
500.135	589.69
500.352	582.69
500.569	618.69
500.786	600.69
501.003	604.69
501.22	580.69
501.437	595.69
501.654	591.69
501.871	571.69
502.088	548.69
