Data from 1981.PennyLincolnUp.Lamp.En5.5.200Scan.071819.P1_HRD10591_16-41-53-959.txt Node
Date: Thu Jul 18 16:41:53 EDT 2019
User: cochatt
Spectrometer: HR+D1059
Trigger mode: 1
Integration Time (sec): 1.000000E-1
Scans to average: 1
Electric dark correction enabled: true
Nonlinearity correction enabled: false
Boxcar width: 0
XAxis mode: Wavelengths
Number of Pixels in Spectrum: 2048
>>>>>Begin Spectral Data<<<<<
223.165	-21.44
223.4	-21.44
223.635	-21.44
223.869	-17.44
224.104	-22.44
224.338	-15.44
224.573	-20.44
224.808	-12.44
225.042	-17.44
225.277	-4.44
225.511	-11.44
225.746	9.56
225.98	1.56
226.215	11.56
226.449	16.56
226.683	26.56
226.918	40.56
227.152	36.56
227.387	38.56
227.621	47.56
227.856	35.56
228.09	33.56
228.324	52.56
228.559	45.56
228.793	64.56
229.027	114.56
229.262	114.56
229.496	112.56
229.73	133.56
229.964	153.56
230.199	133.56
230.433	107.56
230.667	121.56
230.901	102.56
231.136	118.56
231.37	102.56
231.604	91.56
231.838	100.56
232.072	106.56
232.306	110.56
232.541	104.56
232.775	116.56
233.009	105.56
233.243	114.56
233.477	117.56
233.711	124.56
233.945	108.56
234.179	103.56
234.413	113.56
234.647	101.56
234.881	132.56
235.115	122.56
235.349	103.56
235.583	110.56
235.817	122.56
236.051	124.56
236.285	117.56
236.519	100.56
236.753	117.56
236.987	146.56
237.221	184.56
237.455	227.56
237.689	185.56
237.922	129.56
238.156	112.56
238.39	126.56
238.624	128.56
238.858	119.56
239.091	124.56
239.325	113.56
239.559	122.56
239.793	125.56
240.027	124.56
240.26	136.56
240.494	165.56
240.728	144.56
240.961	129.56
241.195	138.56
241.429	141.56
241.662	122.56
241.896	132.56
242.13	134.56
242.363	131.56
242.597	117.56
242.83	130.56
243.064	131.56
243.298	133.56
243.531	133.56
243.765	132.56
243.998	144.56
244.232	130.56
244.465	141.56
244.699	138.56
244.932	137.56
245.166	139.56
245.399	139.56
245.633	154.56
245.866	136.56
246.099	142.56
246.333	138.56
246.566	136.56
246.8	144.56
247.033	136.56
247.266	149.56
247.5	176.56
247.733	166.56
247.966	174.56
248.2	180.56
248.433	162.56
248.666	157.56
248.899	171.56
249.133	192.56
249.366	205.56
249.599	202.56
249.832	177.56
250.066	173.56
250.299	176.56
250.532	191.56
250.765	209.56
250.998	214.56
251.231	225.56
251.465	212.56
251.698	202.56
251.931	183.56
252.164	206.56
252.397	219.56
252.63	206.56
252.863	191.56
253.096	212.56
253.329	231.56
253.562	234.56
253.795	208.56
254.028	227.56
254.261	210.56
254.494	250.56
254.727	264.56
254.96	289.56
255.193	271.56
255.426	252.56
255.659	243.56
255.892	228.56
256.124	241.56
256.357	241.56
256.59	226.56
256.823	252.56
257.056	211.56
257.289	220.56
257.521	217.56
257.754	220.56
257.987	208.56
258.22	216.56
258.452	211.56
258.685	203.56
258.918	207.56
259.151	192.56
259.383	210.56
259.616	222.56
259.849	248.56
260.081	233.56
260.314	245.56
260.547	274.56
260.779	250.56
261.012	236.56
261.244	224.56
261.477	228.56
261.71	242.56
261.942	226.56
262.175	226.56
262.407	234.56
262.64	222.56
262.872	198.56
263.105	211.56
263.337	235.56
263.57	214.56
263.802	224.56
264.035	225.56
264.267	218.56
264.499	211.56
264.732	234.56
264.964	210.56
265.197	210.56
265.429	209.56
265.661	213.56
265.894	218.56
266.126	217.56
266.358	218.56
266.591	218.56
266.823	226.56
267.055	223.56
267.287	240.56
267.52	213.56
267.752	225.56
267.984	231.56
268.216	230.56
268.448	254.56
268.681	240.56
268.913	264.56
269.145	260.56
269.377	280.56
269.609	282.56
269.841	272.56
270.073	262.56
270.306	316.56
270.538	340.56
270.77	314.56
271.002	327.56
271.234	316.56
271.466	299.56
271.698	316.56
271.93	333.56
272.162	340.56
272.394	336.56
272.626	327.56
272.858	300.56
273.09	297.56
273.322	272.56
273.553	272.56
273.785	273.56
274.017	272.56
274.249	284.56
274.481	272.56
274.713	268.56
274.945	295.56
275.176	300.56
275.408	258.56
275.64	274.56
275.872	272.56
276.104	276.56
276.335	258.56
276.567	277.56
276.799	282.56
277.031	291.56
277.262	315.56
277.494	319.56
277.726	291.56
277.957	309.56
278.189	288.56
278.421	288.56
278.652	267.56
278.884	274.56
279.115	263.56
279.347	274.56
279.579	268.56
279.81	254.56
280.042	276.56
280.273	280.56
280.505	272.56
280.736	262.56
280.968	278.56
281.199	263.56
281.431	269.56
281.662	258.56
281.894	279.56
282.125	256.56
282.356	288.56
282.588	300.56
282.819	292.56
283.051	276.56
283.282	266.56
283.513	259.56
283.745	283.56
283.976	268.56
284.207	254.56
284.439	264.56
284.67	266.56
284.901	256.56
285.132	257.56
285.364	280.56
285.595	282.56
285.826	261.56
286.057	266.56
286.288	282.56
286.52	273.56
286.751	264.56
286.982	287.56
287.213	274.56
287.444	274.56
287.675	276.56
287.906	291.56
288.138	285.56
288.369	287.56
288.6	297.56
288.831	292.56
289.062	287.56
289.293	289.56
289.524	290.56
289.755	289.56
289.986	279.56
290.217	300.56
290.448	291.56
290.679	285.56
290.91	268.56
291.141	271.56
291.371	278.56
291.602	275.56
291.833	276.56
292.064	266.56
292.295	294.56
292.526	288.56
292.757	290.56
292.987	299.56
293.218	284.56
293.449	280.56
293.68	282.56
293.91	277.56
294.141	281.56
294.372	274.56
294.603	302.56
294.833	287.56
295.064	272.56
295.295	271.56
295.525	297.56
295.756	302.56
295.987	293.56
296.217	312.56
296.448	339.56
296.679	296.56
296.909	291.56
297.14	298.56
297.37	280.56
297.601	293.56
297.831	283.56
298.062	295.56
298.292	285.56
298.523	307.56
298.753	282.56
298.984	291.56
299.214	298.56
299.445	296.56
299.675	306.56
299.905	278.56
300.136	308.56
300.366	303.56
300.597	278.56
300.827	313.56
301.057	322.56
301.288	324.56
301.518	312.56
301.748	300.56
301.979	315.56
302.209	326.56
302.439	309.56
302.669	331.56
302.9	310.56
303.13	314.56
303.36	317.56
303.59	346.56
303.82	319.56
304.051	320.56
304.281	328.56
304.511	316.56
304.741	303.56
304.971	321.56
305.201	316.56
305.431	318.56
305.661	319.56
305.891	308.56
306.121	303.56
306.352	311.56
306.582	313.56
306.812	319.56
307.042	330.56
307.272	312.56
307.502	327.56
307.731	311.56
307.961	321.56
308.191	317.56
308.421	320.56
308.651	329.56
308.881	330.56
309.111	343.56
309.341	319.56
309.571	342.56
309.8	355.56
310.03	363.56
310.26	358.56
310.49	380.56
310.72	382.56
310.949	398.56
311.179	393.56
311.409	378.56
311.639	374.56
311.868	395.56
312.098	383.56
312.328	375.56
312.557	397.56
312.787	406.56
313.017	407.56
313.246	377.56
313.476	370.56
313.706	382.56
313.935	384.56
314.165	397.56
314.394	416.56
314.624	402.56
314.853	377.56
315.083	382.56
315.312	376.56
315.542	376.56
315.771	370.56
316.001	372.56
316.23	369.56
316.46	361.56
316.689	379.56
316.919	388.56
317.148	410.56
317.377	377.56
317.607	401.56
317.836	369.56
318.065	380.56
318.295	371.56
318.524	360.56
318.753	378.56
318.983	376.56
319.212	379.56
319.441	399.56
319.67	381.56
319.9	382.56
320.129	392.56
320.358	376.56
320.587	394.56
320.816	390.56
321.046	397.56
321.275	403.56
321.504	390.56
321.733	398.56
321.962	405.56
322.191	416.56
322.42	449.56
322.649	450.56
322.878	481.56
323.108	480.56
323.337	539.56
323.566	530.56
323.795	564.56
324.024	645.56
324.253	770.56
324.482	1104.56
324.71	1712.56
324.939	2330.56
325.168	1988.56
325.397	1094.56
325.626	710.56
325.855	606.56
326.084	562.56
326.313	513.56
326.542	560.56
326.77	586.56
326.999	716.56
327.228	986.56
327.457	1467.56
327.686	1737.56
327.914	1135.56
328.143	774.56
328.372	684.56
328.6	616.56
328.829	589.56
329.058	603.56
329.287	625.56
329.515	555.56
329.744	527.56
329.972	515.56
330.201	560.56
330.43	601.56
330.658	607.56
330.887	619.56
331.115	589.56
331.344	520.56
331.572	487.56
331.801	487.56
332.03	477.56
332.258	473.56
332.486	457.56
332.715	455.56
332.943	439.56
333.172	439.56
333.4	436.56
333.629	430.56
333.857	456.56
334.085	487.56
334.314	480.56
334.542	514.56
334.771	517.56
334.999	485.56
335.227	458.56
335.455	430.56
335.684	431.56
335.912	415.56
336.14	418.56
336.369	427.56
336.597	435.56
336.825	430.56
337.053	443.56
337.281	409.56
337.51	412.56
337.738	418.56
337.966	421.56
338.194	405.56
338.422	405.56
338.65	417.56
338.878	414.56
339.106	400.56
339.334	404.56
339.562	415.56
339.79	415.56
340.018	404.56
340.246	408.56
340.474	421.56
340.702	417.56
340.93	400.56
341.158	395.56
341.386	412.56
341.614	422.56
341.842	402.56
342.07	403.56
342.298	412.56
342.526	401.56
342.754	392.56
342.981	394.56
343.209	378.56
343.437	405.56
343.665	403.56
343.893	391.56
344.12	419.56
344.348	402.56
344.576	400.56
344.804	437.56
345.031	438.56
345.259	418.56
345.487	405.56
345.714	416.56
345.942	398.56
346.17	395.56
346.397	394.56
346.625	413.56
346.853	416.56
347.08	385.56
347.308	421.56
347.535	414.56
347.763	405.56
347.99	416.56
348.218	424.56
348.445	424.56
348.673	402.56
348.9	390.56
349.128	386.56
349.355	381.56
349.583	374.56
349.81	392.56
350.037	380.56
350.265	389.56
350.492	377.56
350.72	385.56
350.947	379.56
351.174	396.56
351.402	427.56
351.629	412.56
351.856	401.56
352.083	406.56
352.311	410.56
352.538	435.56
352.765	406.56
352.992	393.56
353.22	394.56
353.447	392.56
353.674	391.56
353.901	386.56
354.128	372.56
354.355	348.56
354.583	370.56
354.81	346.56
355.037	363.56
355.264	374.56
355.491	363.56
355.718	354.56
355.945	362.56
356.172	355.56
356.399	359.56
356.626	355.56
356.853	359.56
357.08	359.56
357.307	358.56
357.534	360.56
357.761	367.56
357.988	349.56
358.215	355.56
358.441	343.56
358.668	349.56
358.895	364.56
359.122	371.56
359.349	368.56
359.576	390.56
359.802	382.56
360.029	428.56
360.256	450.56
360.483	426.56
360.709	402.56
360.936	387.56
361.163	393.56
361.39	399.56
361.616	410.56
361.843	388.56
362.07	373.56
362.296	382.56
362.523	384.56
362.749	369.56
362.976	356.56
363.203	362.56
363.429	377.56
363.656	393.56
363.882	361.56
364.109	357.56
364.335	361.56
364.562	361.56
364.788	348.56
365.015	347.56
365.241	350.56
365.468	366.56
365.694	390.56
365.92	380.56
366.147	337.56
366.373	362.56
366.599	360.56
366.826	364.56
367.052	356.56
367.278	387.56
367.505	349.56
367.731	368.56
367.957	353.56
368.184	351.56
368.41	381.56
368.636	388.56
368.862	371.56
369.089	353.56
369.315	367.56
369.541	344.56
369.767	363.56
369.993	344.56
370.219	359.56
370.445	342.56
370.672	361.56
370.898	358.56
371.124	342.56
371.35	351.56
371.576	347.56
371.802	351.56
372.028	358.56
372.254	351.56
372.48	346.56
372.706	370.56
372.932	345.56
373.158	357.56
373.384	361.56
373.61	364.56
373.835	367.56
374.061	342.56
374.287	325.56
374.513	347.56
374.739	348.56
374.965	348.56
375.191	343.56
375.416	332.56
375.642	348.56
375.868	340.56
376.094	346.56
376.319	359.56
376.545	333.56
376.771	332.56
376.997	340.56
377.222	355.56
377.448	365.56
377.674	353.56
377.899	350.56
378.125	353.56
378.35	341.56
378.576	347.56
378.802	332.56
379.027	326.56
379.253	347.56
379.478	330.56
379.704	329.56
379.929	362.56
380.155	336.56
380.38	341.56
380.606	347.56
380.831	341.56
381.057	336.56
381.282	339.56
381.507	341.56
381.733	342.56
381.958	343.56
382.184	336.56
382.409	336.56
382.634	344.56
382.86	325.56
383.085	329.56
383.31	371.56
383.535	350.56
383.761	358.56
383.986	359.56
384.211	338.56
384.436	336.56
384.662	339.56
384.887	356.56
385.112	334.56
385.337	358.56
385.562	337.56
385.787	366.56
386.013	360.56
386.238	352.56
386.463	371.56
386.688	350.56
386.913	364.56
387.138	345.56
387.363	366.56
387.588	360.56
387.813	358.56
388.038	362.56
388.263	368.56
388.488	360.56
388.713	351.56
388.938	350.56
389.163	351.56
389.387	347.56
389.612	347.56
389.837	351.56
390.062	351.56
390.287	350.56
390.512	377.56
390.736	342.56
390.961	357.56
391.186	354.56
391.411	339.56
391.636	345.56
391.86	361.56
392.085	356.56
392.31	375.56
392.534	369.56
392.759	377.56
392.984	361.56
393.208	365.56
393.433	362.56
393.658	360.56
393.882	367.56
394.107	343.56
394.331	362.56
394.556	347.56
394.78	342.56
395.005	371.56
395.229	378.56
395.454	354.56
395.678	374.56
395.903	378.56
396.127	383.56
396.352	396.56
396.576	386.56
396.801	354.56
397.025	346.56
397.249	357.56
397.474	372.56
397.698	374.56
397.922	379.56
398.147	408.56
398.371	371.56
398.595	375.56
398.82	366.56
399.044	401.56
399.268	392.56
399.492	421.56
399.717	422.56
399.941	465.56
400.165	474.56
400.389	479.56
400.613	464.56
400.837	445.56
401.062	409.56
401.286	409.56
401.51	413.56
401.734	386.56
401.958	376.56
402.182	425.56
402.406	392.56
402.63	393.56
402.854	404.56
403.078	388.56
403.302	414.56
403.526	427.56
403.75	407.56
403.974	405.56
404.198	418.56
404.422	425.56
404.645	406.56
404.869	407.56
405.093	437.56
405.317	472.56
405.541	500.56
405.765	474.56
405.988	432.56
406.212	430.56
406.436	471.56
406.66	472.56
406.883	463.56
407.107	467.56
407.331	516.56
407.555	576.56
407.778	534.56
408.002	482.56
408.226	456.56
408.449	449.56
408.673	460.56
408.896	497.56
409.12	534.56
409.344	473.56
409.567	452.56
409.791	423.56
410.014	426.56
410.238	429.56
410.461	438.56
410.685	415.56
410.908	435.56
411.132	472.56
411.355	481.56
411.578	453.56
411.802	437.56
412.025	429.56
412.249	414.56
412.472	449.56
412.695	458.56
412.919	452.56
413.142	417.56
413.365	405.56
413.589	396.56
413.812	382.56
414.035	372.56
414.258	394.56
414.482	388.56
414.705	368.56
414.928	388.56
415.151	368.56
415.374	378.56
415.597	390.56
415.821	393.56
416.044	374.56
416.267	392.56
416.49	381.56
416.713	391.56
416.936	383.56
417.159	396.56
417.382	375.56
417.605	393.56
417.828	408.56
418.051	406.56
418.274	402.56
418.497	391.56
418.72	370.56
418.943	374.56
419.166	402.56
419.389	390.56
419.611	407.56
419.834	390.56
420.057	397.56
420.28	402.56
420.503	395.56
420.726	405.56
420.948	422.56
421.171	464.56
421.394	452.56
421.617	439.56
421.839	419.56
422.062	430.56
422.285	425.56
422.507	491.56
422.73	539.56
422.953	522.56
423.175	451.56
423.398	443.56
423.621	441.56
423.843	427.56
424.066	437.56
424.288	435.56
424.511	463.56
424.733	514.56
424.956	579.56
425.178	553.56
425.401	579.56
425.623	562.56
425.846	492.56
426.068	466.56
426.291	455.56
426.513	450.56
426.735	452.56
426.958	498.56
427.18	576.56
427.402	664.56
427.625	760.56
427.847	670.56
428.069	568.56
428.292	506.56
428.514	451.56
428.736	441.56
428.958	438.56
429.181	410.56
429.403	427.56
429.625	438.56
429.847	450.56
430.069	522.56
430.292	484.56
430.514	441.56
430.736	437.56
430.958	429.56
431.18	404.56
431.402	386.56
431.624	378.56
431.846	387.56
432.068	391.56
432.29	379.56
432.512	412.56
432.734	417.56
432.956	380.56
433.178	403.56
433.4	410.56
433.622	378.56
433.844	406.56
434.066	388.56
434.287	403.56
434.509	395.56
434.731	396.56
434.953	423.56
435.175	406.56
435.397	438.56
435.618	450.56
435.84	489.56
436.062	572.56
436.284	639.56
436.505	545.56
436.727	464.56
436.949	451.56
437.17	416.56
437.392	436.56
437.614	440.56
437.835	481.56
438.057	548.56
438.278	643.56
438.5	643.56
438.721	692.56
438.943	654.56
439.165	534.56
439.386	475.56
439.608	480.56
439.829	482.56
440.05	514.56
440.272	546.56
440.493	500.56
440.715	448.56
440.936	440.56
441.158	427.56
441.379	404.56
441.6	418.56
441.822	452.56
442.043	490.56
442.264	554.56
442.486	591.56
442.707	517.56
442.928	467.56
443.149	457.56
443.371	474.56
443.592	563.56
443.813	604.56
444.034	648.56
444.255	542.56
444.476	458.56
444.698	459.56
444.919	437.56
445.14	564.56
445.361	512.56
445.582	494.56
445.803	554.56
446.024	634.56
446.245	660.56
446.466	591.56
446.687	508.56
446.908	455.56
447.129	437.56
447.35	459.56
447.571	439.56
447.792	447.56
448.013	427.56
448.234	458.56
448.455	490.56
448.675	588.56
448.896	679.56
449.117	571.56
449.338	561.56
449.559	640.56
449.779	700.56
450	580.56
450.221	478.56
450.442	458.56
450.662	434.56
450.883	421.56
451.104	458.56
451.324	446.56
451.545	407.56
451.766	401.56
451.986	386.56
452.207	375.56
452.428	360.56
452.648	401.56
452.869	384.56
453.089	378.56
453.31	397.56
453.53	382.56
453.751	378.56
453.971	384.56
454.192	415.56
454.412	394.56
454.633	374.56
454.853	380.56
455.073	378.56
455.294	404.56
455.514	463.56
455.734	454.56
455.955	387.56
456.175	377.56
456.395	342.56
456.616	366.56
456.836	354.56
457.056	348.56
457.276	360.56
457.497	338.56
457.717	356.56
457.937	370.56
458.157	355.56
458.377	362.56
458.598	410.56
458.818	443.56
459.038	529.56
459.258	535.56
459.478	452.56
459.698	400.56
459.918	396.56
460.138	372.56
460.358	374.56
460.578	386.56
460.798	388.56
461.018	375.56
461.238	374.56
461.458	392.56
461.678	374.56
461.898	379.56
462.118	366.56
462.338	379.56
462.558	380.56
462.777	361.56
462.997	400.56
463.217	396.56
463.437	403.56
463.657	394.56
463.876	382.56
464.096	420.56
464.316	400.56
464.536	419.56
464.755	401.56
464.975	394.56
465.195	460.56
465.414	541.56
465.634	469.56
465.854	417.56
466.073	392.56
466.293	392.56
466.512	370.56
466.732	369.56
466.951	387.56
467.171	379.56
467.391	384.56
467.61	375.56
467.829	379.56
468.049	377.56
468.268	380.56
468.488	372.56
468.707	349.56
468.927	359.56
469.146	371.56
469.365	353.56
469.585	370.56
469.804	367.56
470.023	369.56
470.243	379.56
470.462	377.56
470.681	403.56
470.901	379.56
471.12	364.56
471.339	392.56
471.558	377.56
471.777	382.56
471.997	384.56
472.216	391.56
472.435	408.56
472.654	415.56
472.873	382.56
473.092	387.56
473.311	380.56
473.53	356.56
473.749	400.56
473.968	444.56
474.187	558.56
474.406	564.56
474.625	438.56
474.844	411.56
475.063	411.56
475.282	402.56
475.501	380.56
475.72	400.56
475.939	381.56
476.158	391.56
476.377	406.56
476.596	402.56
476.814	406.56
477.033	407.56
477.252	404.56
477.471	397.56
477.69	414.56
477.908	391.56
478.127	394.56
478.346	417.56
478.564	386.56
478.783	412.56
479.002	430.56
479.22	420.56
479.439	430.56
479.658	438.56
479.876	449.56
480.095	452.56
480.313	480.56
480.532	468.56
480.751	466.56
480.969	475.56
481.188	521.56
481.406	568.56
481.624	501.56
481.843	491.56
482.061	475.56
482.28	442.56
482.498	446.56
482.717	434.56
482.935	443.56
483.153	444.56
483.372	464.56
483.59	446.56
483.808	459.56
484.027	446.56
484.245	449.56
484.463	451.56
484.681	460.56
484.9	448.56
485.118	447.56
485.336	456.56
485.554	463.56
485.772	465.56
485.99	464.56
486.209	468.56
486.427	466.56
486.645	506.56
486.863	504.56
487.081	499.56
487.299	479.56
487.517	502.56
487.735	477.56
487.953	462.56
488.171	483.56
488.389	479.56
488.607	470.56
488.825	486.56
489.043	479.56
489.261	486.56
489.479	495.56
489.696	498.56
489.914	491.56
490.132	498.56
490.35	500.56
490.568	491.56
490.786	533.56
491.003	518.56
491.221	525.56
491.439	522.56
491.657	536.56
491.874	544.56
492.092	545.56
492.31	577.56
492.527	558.56
492.745	554.56
492.963	574.56
493.18	564.56
493.398	583.56
493.615	550.56
493.833	553.56
494.05	560.56
494.268	568.56
494.485	570.56
494.703	564.56
494.92	575.56
495.138	560.56
495.355	587.56
495.573	574.56
495.79	579.56
496.008	596.56
496.225	563.56
496.442	568.56
496.66	569.56
496.877	552.56
497.094	557.56
497.312	574.56
497.529	555.56
497.746	587.56
497.963	588.56
498.181	618.56
498.398	606.56
498.615	630.56
498.832	623.56
499.049	632.56
499.267	651.56
499.484	641.56
499.701	666.56
499.918	657.56
500.135	666.56
500.352	725.56
500.569	693.56
500.786	711.56
501.003	701.56
501.22	700.56
501.437	697.56
501.654	693.56
501.871	697.56
