Data from 1981.PennyLincolnUp.Lamp.En5.5.200Scan.071819.P1_HRD10591_16-42-43-960.txt Node
Date: Thu Jul 18 16:42:43 EDT 2019
User: cochatt
Spectrometer: HR+D1059
Trigger mode: 1
Integration Time (sec): 1.000000E-1
Scans to average: 1
Electric dark correction enabled: true
Nonlinearity correction enabled: false
Boxcar width: 0
XAxis mode: Wavelengths
Number of Pixels in Spectrum: 2048
>>>>>Begin Spectral Data<<<<<
223.165	-16.5
223.4	-16.5
223.635	-16.5
223.869	-14.5
224.104	-26.5
224.338	-27.5
224.573	-13.5
224.808	-17.5
225.042	-6.5
225.277	4.5
225.511	-11.5
225.746	-9.5
225.98	10.5
226.215	25.5
226.449	26.5
226.683	28.5
226.918	20.5
227.152	27.5
227.387	38.5
227.621	29.5
227.856	30.5
228.09	41.5
228.324	44.5
228.559	36.5
228.793	63.5
229.027	102.5
229.262	108.5
229.496	112.5
229.73	116.5
229.964	146.5
230.199	120.5
230.433	109.5
230.667	100.5
230.901	107.5
231.136	94.5
231.37	97.5
231.604	113.5
231.838	116.5
232.072	112.5
232.306	97.5
232.541	102.5
232.775	117.5
233.009	102.5
233.243	101.5
233.477	102.5
233.711	117.5
233.945	119.5
234.179	117.5
234.413	126.5
234.647	122.5
234.881	130.5
235.115	116.5
235.349	120.5
235.583	109.5
235.817	112.5
236.051	136.5
236.285	109.5
236.519	135.5
236.753	136.5
236.987	160.5
237.221	181.5
237.455	232.5
237.689	197.5
237.922	136.5
238.156	145.5
238.39	122.5
238.624	117.5
238.858	130.5
239.091	124.5
239.325	134.5
239.559	132.5
239.793	124.5
240.027	140.5
240.26	157.5
240.494	164.5
240.728	158.5
240.961	144.5
241.195	127.5
241.429	158.5
241.662	143.5
241.896	144.5
242.13	132.5
242.363	129.5
242.597	131.5
242.83	138.5
243.064	149.5
243.298	149.5
243.531	127.5
243.765	145.5
243.998	128.5
244.232	152.5
244.465	142.5
244.699	144.5
244.932	139.5
245.166	136.5
245.399	161.5
245.633	132.5
245.866	136.5
246.099	140.5
246.333	145.5
246.566	151.5
246.8	144.5
247.033	154.5
247.266	166.5
247.5	159.5
247.733	181.5
247.966	184.5
248.2	173.5
248.433	165.5
248.666	180.5
248.899	200.5
249.133	213.5
249.366	225.5
249.599	206.5
249.832	200.5
250.066	200.5
250.299	197.5
250.532	199.5
250.765	208.5
250.998	221.5
251.231	232.5
251.465	221.5
251.698	208.5
251.931	224.5
252.164	186.5
252.397	202.5
252.63	222.5
252.863	223.5
253.096	220.5
253.329	244.5
253.562	214.5
253.795	221.5
254.028	234.5
254.261	249.5
254.494	240.5
254.727	267.5
254.96	304.5
255.193	286.5
255.426	264.5
255.659	258.5
255.892	243.5
256.124	240.5
256.357	253.5
256.59	244.5
256.823	246.5
257.056	228.5
257.289	226.5
257.521	225.5
257.754	235.5
257.987	230.5
258.22	221.5
258.452	224.5
258.685	218.5
258.918	224.5
259.151	217.5
259.383	221.5
259.616	251.5
259.849	224.5
260.081	254.5
260.314	257.5
260.547	280.5
260.779	252.5
261.012	278.5
261.244	236.5
261.477	248.5
261.71	238.5
261.942	252.5
262.175	237.5
262.407	239.5
262.64	220.5
262.872	226.5
263.105	231.5
263.337	232.5
263.57	209.5
263.802	213.5
264.035	216.5
264.267	217.5
264.499	202.5
264.732	226.5
264.964	230.5
265.197	222.5
265.429	229.5
265.661	208.5
265.894	231.5
266.126	216.5
266.358	221.5
266.591	220.5
266.823	225.5
267.055	252.5
267.287	237.5
267.52	221.5
267.752	229.5
267.984	231.5
268.216	237.5
268.448	257.5
268.681	263.5
268.913	244.5
269.145	292.5
269.377	290.5
269.609	285.5
269.841	301.5
270.073	280.5
270.306	309.5
270.538	323.5
270.77	326.5
271.002	317.5
271.234	318.5
271.466	316.5
271.698	334.5
271.93	343.5
272.162	327.5
272.394	346.5
272.626	330.5
272.858	312.5
273.09	304.5
273.322	301.5
273.553	282.5
273.785	280.5
274.017	295.5
274.249	289.5
274.481	281.5
274.713	272.5
274.945	297.5
275.176	289.5
275.408	297.5
275.64	278.5
275.872	291.5
276.104	263.5
276.335	286.5
276.567	289.5
276.799	288.5
277.031	330.5
277.262	349.5
277.494	358.5
277.726	313.5
277.957	294.5
278.189	285.5
278.421	276.5
278.652	285.5
278.884	277.5
279.115	279.5
279.347	272.5
279.579	271.5
279.81	277.5
280.042	280.5
280.273	273.5
280.505	272.5
280.736	270.5
280.968	268.5
281.199	275.5
281.431	270.5
281.662	291.5
281.894	269.5
282.125	281.5
282.356	304.5
282.588	338.5
282.819	312.5
283.051	285.5
283.282	271.5
283.513	298.5
283.745	284.5
283.976	298.5
284.207	281.5
284.439	280.5
284.67	301.5
284.901	281.5
285.132	287.5
285.364	282.5
285.595	287.5
285.826	279.5
286.057	291.5
286.288	267.5
286.52	279.5
286.751	284.5
286.982	283.5
287.213	303.5
287.444	300.5
287.675	291.5
287.906	314.5
288.138	302.5
288.369	318.5
288.6	308.5
288.831	288.5
289.062	292.5
289.293	276.5
289.524	310.5
289.755	262.5
289.986	268.5
290.217	283.5
290.448	303.5
290.679	285.5
290.91	292.5
291.141	281.5
291.371	289.5
291.602	292.5
291.833	284.5
292.064	282.5
292.295	290.5
292.526	284.5
292.757	290.5
292.987	296.5
293.218	287.5
293.449	278.5
293.68	316.5
293.91	286.5
294.141	300.5
294.372	300.5
294.603	296.5
294.833	310.5
295.064	295.5
295.295	302.5
295.525	303.5
295.756	311.5
295.987	311.5
296.217	332.5
296.448	337.5
296.679	326.5
296.909	308.5
297.14	287.5
297.37	294.5
297.601	277.5
297.831	296.5
298.062	302.5
298.292	293.5
298.523	308.5
298.753	321.5
298.984	312.5
299.214	319.5
299.445	297.5
299.675	317.5
299.905	306.5
300.136	302.5
300.366	325.5
300.597	312.5
300.827	325.5
301.057	320.5
301.288	335.5
301.518	333.5
301.748	324.5
301.979	343.5
302.209	321.5
302.439	324.5
302.669	332.5
302.9	337.5
303.13	324.5
303.36	329.5
303.59	332.5
303.82	330.5
304.051	344.5
304.281	353.5
304.511	320.5
304.741	334.5
304.971	329.5
305.201	338.5
305.431	322.5
305.661	320.5
305.891	339.5
306.121	329.5
306.352	337.5
306.582	342.5
306.812	348.5
307.042	326.5
307.272	347.5
307.502	343.5
307.731	355.5
307.961	352.5
308.191	333.5
308.421	347.5
308.651	329.5
308.881	332.5
309.111	352.5
309.341	357.5
309.571	368.5
309.8	374.5
310.03	390.5
310.26	406.5
310.49	361.5
310.72	394.5
310.949	432.5
311.179	408.5
311.409	398.5
311.639	419.5
311.868	394.5
312.098	407.5
312.328	413.5
312.557	424.5
312.787	440.5
313.017	406.5
313.246	394.5
313.476	428.5
313.706	398.5
313.935	386.5
314.165	401.5
314.394	416.5
314.624	408.5
314.853	372.5
315.083	395.5
315.312	382.5
315.542	392.5
315.771	356.5
316.001	393.5
316.23	394.5
316.46	376.5
316.689	391.5
316.919	402.5
317.148	398.5
317.377	419.5
317.607	403.5
317.836	385.5
318.065	401.5
318.295	386.5
318.524	392.5
318.753	375.5
318.983	372.5
319.212	392.5
319.441	387.5
319.67	388.5
319.9	397.5
320.129	398.5
320.358	414.5
320.587	413.5
320.816	414.5
321.046	441.5
321.275	420.5
321.504	432.5
321.733	424.5
321.962	418.5
322.191	443.5
322.42	463.5
322.649	472.5
322.878	485.5
323.108	510.5
323.337	537.5
323.566	546.5
323.795	622.5
324.024	677.5
324.253	842.5
324.482	1235.5
324.71	1884.5
324.939	2595.5
325.168	2251.5
325.397	1144.5
325.626	776.5
325.855	637.5
326.084	592.5
326.313	563.5
326.542	585.5
326.77	629.5
326.999	767.5
327.228	1084.5
327.457	1654.5
327.686	1914.5
327.914	1267.5
328.143	843.5
328.372	729.5
328.6	692.5
328.829	634.5
329.058	640.5
329.287	654.5
329.515	604.5
329.744	565.5
329.972	565.5
330.201	584.5
330.43	612.5
330.658	660.5
330.887	680.5
331.115	666.5
331.344	565.5
331.572	552.5
331.801	524.5
332.03	529.5
332.258	499.5
332.486	484.5
332.715	469.5
332.943	472.5
333.172	453.5
333.4	470.5
333.629	463.5
333.857	483.5
334.085	495.5
334.314	513.5
334.542	529.5
334.771	552.5
334.999	504.5
335.227	476.5
335.455	468.5
335.684	457.5
335.912	439.5
336.14	433.5
336.369	444.5
336.597	464.5
336.825	461.5
337.053	457.5
337.281	443.5
337.51	426.5
337.738	448.5
337.966	440.5
338.194	444.5
338.422	437.5
338.65	434.5
338.878	429.5
339.106	431.5
339.334	441.5
339.562	410.5
339.79	420.5
340.018	417.5
340.246	440.5
340.474	456.5
340.702	430.5
340.93	416.5
341.158	428.5
341.386	423.5
341.614	435.5
341.842	427.5
342.07	432.5
342.298	429.5
342.526	418.5
342.754	398.5
342.981	402.5
343.209	406.5
343.437	421.5
343.665	409.5
343.893	435.5
344.12	419.5
344.348	426.5
344.576	442.5
344.804	416.5
345.031	448.5
345.259	453.5
345.487	439.5
345.714	430.5
345.942	423.5
346.17	399.5
346.397	404.5
346.625	408.5
346.853	401.5
347.08	393.5
347.308	401.5
347.535	420.5
347.763	432.5
347.99	417.5
348.218	432.5
348.445	428.5
348.673	425.5
348.9	440.5
349.128	392.5
349.355	399.5
349.583	401.5
349.81	405.5
350.037	406.5
350.265	398.5
350.492	392.5
350.72	401.5
350.947	407.5
351.174	425.5
351.402	436.5
351.629	416.5
351.856	424.5
352.083	438.5
352.311	443.5
352.538	436.5
352.765	438.5
352.992	427.5
353.22	423.5
353.447	413.5
353.674	409.5
353.901	359.5
354.128	364.5
354.355	392.5
354.583	384.5
354.81	391.5
355.037	365.5
355.264	350.5
355.491	380.5
355.718	357.5
355.945	370.5
356.172	382.5
356.399	367.5
356.626	345.5
356.853	358.5
357.08	364.5
357.307	358.5
357.534	375.5
357.761	374.5
357.988	400.5
358.215	389.5
358.441	367.5
358.668	389.5
358.895	387.5
359.122	413.5
359.349	387.5
359.576	431.5
359.802	425.5
360.029	459.5
360.256	468.5
360.483	445.5
360.709	397.5
360.936	402.5
361.163	375.5
361.39	412.5
361.616	404.5
361.843	392.5
362.07	382.5
362.296	388.5
362.523	400.5
362.749	404.5
362.976	389.5
363.203	374.5
363.429	380.5
363.656	372.5
363.882	374.5
364.109	380.5
364.335	373.5
364.562	387.5
364.788	389.5
365.015	374.5
365.241	382.5
365.468	389.5
365.694	388.5
365.92	376.5
366.147	368.5
366.373	385.5
366.599	362.5
366.826	371.5
367.052	374.5
367.278	368.5
367.505	372.5
367.731	360.5
367.957	360.5
368.184	364.5
368.41	371.5
368.636	376.5
368.862	403.5
369.089	385.5
369.315	352.5
369.541	352.5
369.767	385.5
369.993	357.5
370.219	369.5
370.445	369.5
370.672	351.5
370.898	384.5
371.124	373.5
371.35	355.5
371.576	348.5
371.802	348.5
372.028	341.5
372.254	369.5
372.48	360.5
372.706	346.5
372.932	356.5
373.158	361.5
373.384	368.5
373.61	373.5
373.835	359.5
374.061	372.5
374.287	380.5
374.513	345.5
374.739	364.5
374.965	367.5
375.191	362.5
375.416	364.5
375.642	371.5
375.868	365.5
376.094	342.5
376.319	362.5
376.545	367.5
376.771	360.5
376.997	362.5
377.222	346.5
377.448	348.5
377.674	352.5
377.899	344.5
378.125	365.5
378.35	349.5
378.576	352.5
378.802	351.5
379.027	367.5
379.253	354.5
379.478	339.5
379.704	342.5
379.929	342.5
380.155	351.5
380.38	352.5
380.606	351.5
380.831	349.5
381.057	372.5
381.282	353.5
381.507	348.5
381.733	369.5
381.958	354.5
382.184	364.5
382.409	361.5
382.634	360.5
382.86	373.5
383.085	370.5
383.31	354.5
383.535	353.5
383.761	371.5
383.986	348.5
384.211	360.5
384.436	368.5
384.662	369.5
384.887	358.5
385.112	361.5
385.337	345.5
385.562	369.5
385.787	376.5
386.013	373.5
386.238	380.5
386.463	372.5
386.688	399.5
386.913	370.5
387.138	376.5
387.363	371.5
387.588	353.5
387.813	367.5
388.038	370.5
388.263	356.5
388.488	382.5
388.713	372.5
388.938	373.5
389.163	382.5
389.387	373.5
389.612	364.5
389.837	368.5
390.062	354.5
390.287	364.5
390.512	353.5
390.736	354.5
390.961	377.5
391.186	372.5
391.411	376.5
391.636	373.5
391.86	360.5
392.085	380.5
392.31	378.5
392.534	364.5
392.759	373.5
392.984	355.5
393.208	370.5
393.433	334.5
393.658	376.5
393.882	367.5
394.107	358.5
394.331	365.5
394.556	347.5
394.78	353.5
395.005	358.5
395.229	375.5
395.454	385.5
395.678	386.5
395.903	403.5
396.127	422.5
396.352	426.5
396.576	402.5
396.801	369.5
397.025	360.5
397.249	364.5
397.474	388.5
397.698	392.5
397.922	400.5
398.147	388.5
398.371	412.5
398.595	402.5
398.82	406.5
399.044	393.5
399.268	412.5
399.492	439.5
399.717	438.5
399.941	480.5
400.165	513.5
400.389	496.5
400.613	468.5
400.837	433.5
401.062	412.5
401.286	408.5
401.51	417.5
401.734	403.5
401.958	424.5
402.182	417.5
402.406	442.5
402.63	442.5
402.854	420.5
403.078	421.5
403.302	418.5
403.526	433.5
403.75	450.5
403.974	425.5
404.198	432.5
404.422	400.5
404.645	462.5
404.869	441.5
405.093	472.5
405.317	502.5
405.541	533.5
405.765	489.5
405.988	467.5
406.212	463.5
406.436	496.5
406.66	492.5
406.883	492.5
407.107	482.5
407.331	528.5
407.555	567.5
407.778	582.5
408.002	526.5
408.226	470.5
408.449	490.5
408.673	491.5
408.896	508.5
409.12	552.5
409.344	509.5
409.567	435.5
409.791	467.5
410.014	433.5
410.238	420.5
410.461	405.5
410.685	429.5
410.908	438.5
411.132	478.5
411.355	515.5
411.578	480.5
411.802	457.5
412.025	435.5
412.249	439.5
412.472	464.5
412.695	467.5
412.919	494.5
413.142	448.5
413.365	419.5
413.589	424.5
413.812	402.5
414.035	388.5
414.258	395.5
414.482	416.5
414.705	398.5
414.928	389.5
415.151	407.5
415.374	399.5
415.597	393.5
415.821	394.5
416.044	397.5
416.267	413.5
416.49	406.5
416.713	401.5
416.936	402.5
417.159	422.5
417.382	406.5
417.605	419.5
417.828	408.5
418.051	441.5
418.274	416.5
418.497	407.5
418.72	416.5
418.943	397.5
419.166	416.5
419.389	437.5
419.611	426.5
419.834	423.5
420.057	445.5
420.28	432.5
420.503	420.5
420.726	410.5
420.948	427.5
421.171	475.5
421.394	501.5
421.617	444.5
421.839	442.5
422.062	459.5
422.285	434.5
422.507	486.5
422.73	570.5
422.953	543.5
423.175	469.5
423.398	465.5
423.621	423.5
423.843	473.5
424.066	477.5
424.288	469.5
424.511	481.5
424.733	527.5
424.956	584.5
425.178	594.5
425.401	578.5
425.623	604.5
425.846	520.5
426.068	471.5
426.291	471.5
426.513	487.5
426.735	476.5
426.958	517.5
427.18	590.5
427.402	680.5
427.625	809.5
427.847	704.5
428.069	604.5
428.292	528.5
428.514	492.5
428.736	453.5
428.958	436.5
429.181	448.5
429.403	437.5
429.625	426.5
429.847	481.5
430.069	540.5
430.292	528.5
430.514	452.5
430.736	432.5
430.958	424.5
431.18	405.5
431.402	411.5
431.624	383.5
431.846	397.5
432.068	398.5
432.29	418.5
432.512	416.5
432.734	433.5
432.956	428.5
433.178	415.5
433.4	430.5
433.622	412.5
433.844	409.5
434.066	359.5
434.287	375.5
434.509	412.5
434.731	403.5
434.953	420.5
435.175	457.5
435.397	477.5
435.618	466.5
435.84	510.5
436.062	602.5
436.284	664.5
436.505	546.5
436.727	520.5
436.949	443.5
437.17	418.5
437.392	434.5
437.614	467.5
437.835	489.5
438.057	604.5
438.278	661.5
438.5	653.5
438.721	732.5
438.943	697.5
439.165	578.5
439.386	509.5
439.608	508.5
439.829	487.5
440.05	544.5
440.272	576.5
440.493	557.5
440.715	492.5
440.936	464.5
441.158	449.5
441.379	438.5
441.6	462.5
441.822	481.5
442.043	541.5
442.264	606.5
442.486	637.5
442.707	549.5
442.928	524.5
443.149	498.5
443.371	529.5
443.592	569.5
443.813	646.5
444.034	678.5
444.255	562.5
444.476	512.5
444.698	469.5
444.919	482.5
445.14	577.5
445.361	542.5
445.582	511.5
445.803	597.5
446.024	698.5
446.245	708.5
446.466	646.5
446.687	523.5
446.908	481.5
447.129	458.5
447.35	447.5
447.571	432.5
447.792	424.5
448.013	434.5
448.234	471.5
448.455	499.5
448.675	602.5
448.896	706.5
449.117	608.5
449.338	578.5
449.559	686.5
449.779	753.5
450	610.5
450.221	502.5
450.442	442.5
450.662	470.5
450.883	449.5
451.104	467.5
451.324	447.5
451.545	438.5
451.766	404.5
451.986	388.5
452.207	367.5
452.428	396.5
452.648	393.5
452.869	380.5
453.089	397.5
453.31	393.5
453.53	405.5
453.751	398.5
453.971	404.5
454.192	420.5
454.412	412.5
454.633	400.5
454.853	381.5
455.073	385.5
455.294	402.5
455.514	467.5
455.734	478.5
455.955	404.5
456.175	367.5
456.395	365.5
456.616	363.5
456.836	363.5
457.056	367.5
457.276	356.5
457.497	372.5
457.717	354.5
457.937	388.5
458.157	368.5
458.377	400.5
458.598	398.5
458.818	464.5
459.038	538.5
459.258	585.5
459.478	493.5
459.698	442.5
459.918	397.5
460.138	398.5
460.358	376.5
460.578	391.5
460.798	389.5
461.018	391.5
461.238	405.5
461.458	373.5
461.678	370.5
461.898	384.5
462.118	397.5
462.338	404.5
462.558	411.5
462.777	388.5
462.997	411.5
463.217	410.5
463.437	419.5
463.657	406.5
463.876	426.5
464.096	422.5
464.316	407.5
464.536	438.5
464.755	428.5
464.975	433.5
465.195	502.5
465.414	554.5
465.634	491.5
465.854	424.5
466.073	432.5
466.293	414.5
466.512	397.5
466.732	386.5
466.951	395.5
467.171	382.5
467.391	386.5
467.61	426.5
467.829	412.5
468.049	420.5
468.268	401.5
468.488	373.5
468.707	384.5
468.927	370.5
469.146	382.5
469.365	377.5
469.585	388.5
469.804	389.5
470.023	402.5
470.243	403.5
470.462	389.5
470.681	394.5
470.901	425.5
471.12	394.5
471.339	393.5
471.558	399.5
471.777	400.5
471.997	379.5
472.216	409.5
472.435	440.5
472.654	423.5
472.873	390.5
473.092	409.5
473.311	394.5
473.53	383.5
473.749	428.5
473.968	465.5
474.187	573.5
474.406	589.5
474.625	462.5
474.844	422.5
475.063	396.5
475.282	416.5
475.501	409.5
475.72	404.5
475.939	411.5
476.158	423.5
476.377	405.5
476.596	390.5
476.814	423.5
477.033	431.5
477.252	430.5
477.471	432.5
477.69	400.5
477.908	450.5
478.127	417.5
478.346	428.5
478.564	451.5
478.783	430.5
479.002	438.5
479.22	452.5
479.439	447.5
479.658	463.5
479.876	504.5
480.095	478.5
480.313	511.5
480.532	507.5
480.751	482.5
480.969	523.5
481.188	560.5
481.406	610.5
481.624	530.5
481.843	509.5
482.061	498.5
482.28	466.5
482.498	462.5
482.717	455.5
482.935	458.5
483.153	488.5
483.372	471.5
483.59	465.5
483.808	468.5
484.027	469.5
484.245	494.5
484.463	479.5
484.681	485.5
484.9	461.5
485.118	463.5
485.336	462.5
485.554	510.5
485.772	477.5
485.99	473.5
486.209	463.5
486.427	468.5
486.645	505.5
486.863	504.5
487.081	517.5
487.299	496.5
487.517	498.5
487.735	519.5
487.953	518.5
488.171	497.5
488.389	483.5
488.607	498.5
488.825	517.5
489.043	522.5
489.261	521.5
489.479	501.5
489.696	495.5
489.914	511.5
490.132	532.5
490.35	523.5
490.568	532.5
490.786	543.5
491.003	548.5
491.221	544.5
491.439	578.5
491.657	567.5
491.874	571.5
492.092	564.5
492.31	575.5
492.527	612.5
492.745	590.5
492.963	581.5
493.18	615.5
493.398	606.5
493.615	601.5
493.833	607.5
494.05	584.5
494.268	592.5
494.485	564.5
494.703	571.5
494.92	599.5
495.138	587.5
495.355	610.5
495.573	608.5
495.79	588.5
496.008	598.5
496.225	599.5
496.442	613.5
496.66	600.5
496.877	603.5
497.094	600.5
497.312	600.5
497.529	636.5
497.746	614.5
497.963	617.5
498.181	653.5
498.398	604.5
498.615	631.5
498.832	656.5
499.049	650.5
499.267	666.5
499.484	685.5
499.701	680.5
499.918	714.5
500.135	704.5
500.352	715.5
500.569	730.5
500.786	713.5
501.003	738.5
501.22	755.5
501.437	703.5
501.654	712.5
501.871	723.5
502.088	696.5
502.305	693.5
502.522	662.5
502.739	638.5
502.956	631.5
503.172	640.5
503.389	609.5
503.606	620.5
503.823	631.5
504.04	604.5
504.256	614.5
504.473	595.5
504.69	600.5
504.907	585.5
505.123	608.5
505.34	566.5
505.557	580.5
505.773	588.5
505.99	590.5
506.207	596.5
506.423	583.5
506.64	591.5
506.856	568.5
507.073	588.5
507.289	580.5
507.506	582.5
507.722	567.5
507.939	584.5
508.155	581.5
508.372	578.5
508.588	558.5
508.805	583.5
509.021	582.5
509.238	599.5
509.454	589.5
509.67	586.5
509.887	566.5
510.103	565.5
510.319	591.5
510.536	710.5
510.752	1144.5
510.968	931.5
511.184	612.5
511.401	558.5
511.617	578.5
511.833	535.5
512.049	569.5
512.265	549.5
512.481	549.5
512.698	544.5
512.914	520.5
513.13	531.5
513.346	544.5
513.562	528.5
513.778	537.5
513.994	547.5
514.21	568.5
514.426	581.5
514.642	631.5
514.858	648.5
515.074	711.5
515.29	871.5
515.506	1302.5
515.721	1036.5
515.937	706.5
516.153	630.5
516.369	572.5
516.585	566.5
516.801	548.5
517.016	549.5
517.232	530.5
517.448	529.5
517.664	561.5
517.879	538.5
518.095	525.5
518.311	542.5
518.527	553.5
518.742	533.5
518.958	527.5
519.173	525.5
519.389	526.5
519.605	573.5
519.82	553.5
