Data from 1981.PennyLincolnUp.Lamp.En5.5.200Scan.071819.P1_HRD10591_16-40-33-958.txt Node
Date: Thu Jul 18 16:40:33 EDT 2019
User: cochatt
Spectrometer: HR+D1059
Trigger mode: 1
Integration Time (sec): 1.000000E-1
Scans to average: 1
Electric dark correction enabled: true
Nonlinearity correction enabled: false
Boxcar width: 0
XAxis mode: Wavelengths
Number of Pixels in Spectrum: 2048
>>>>>Begin Spectral Data<<<<<
223.165	-12.88
223.4	-12.88
223.635	-12.88
223.869	-19.88
224.104	-9.88
224.338	-24.88
224.573	-16.88
224.808	-7.88
225.042	3.12
225.277	-15.88
225.511	2.12
225.746	3.12
225.98	-6.88
226.215	10.12
226.449	17.12
226.683	18.12
226.918	28.12
227.152	33.12
227.387	44.12
227.621	46.12
227.856	47.12
228.09	53.12
228.324	43.12
228.559	67.12
228.793	67.12
229.027	92.12
229.262	97.12
229.496	90.12
229.73	112.12
229.964	126.12
230.199	122.12
230.433	110.12
230.667	122.12
230.901	116.12
231.136	101.12
231.37	114.12
231.604	108.12
231.838	122.12
232.072	106.12
232.306	111.12
232.541	116.12
232.775	95.12
233.009	98.12
233.243	100.12
233.477	107.12
233.711	124.12
233.945	117.12
234.179	98.12
234.413	111.12
234.647	121.12
234.881	123.12
235.115	104.12
235.349	100.12
235.583	99.12
235.817	110.12
236.051	112.12
236.285	111.12
236.519	119.12
236.753	121.12
236.987	128.12
237.221	152.12
237.455	195.12
237.689	162.12
237.922	125.12
238.156	118.12
238.39	123.12
238.624	121.12
238.858	123.12
239.091	120.12
239.325	121.12
239.559	107.12
239.793	122.12
240.027	128.12
240.26	130.12
240.494	132.12
240.728	125.12
240.961	125.12
241.195	120.12
241.429	122.12
241.662	149.12
241.896	126.12
242.13	124.12
242.363	112.12
242.597	130.12
242.83	114.12
243.064	133.12
243.298	114.12
243.531	125.12
243.765	140.12
243.998	138.12
244.232	124.12
244.465	137.12
244.699	105.12
244.932	123.12
245.166	136.12
245.399	142.12
245.633	141.12
245.866	131.12
246.099	118.12
246.333	131.12
246.566	138.12
246.8	143.12
247.033	159.12
247.266	147.12
247.5	141.12
247.733	158.12
247.966	148.12
248.2	155.12
248.433	168.12
248.666	165.12
248.899	176.12
249.133	171.12
249.366	169.12
249.599	182.12
249.832	164.12
250.066	159.12
250.299	157.12
250.532	186.12
250.765	180.12
250.998	204.12
251.231	199.12
251.465	187.12
251.698	184.12
251.931	187.12
252.164	182.12
252.397	185.12
252.63	176.12
252.863	186.12
253.096	190.12
253.329	201.12
253.562	212.12
253.795	204.12
254.028	199.12
254.261	208.12
254.494	202.12
254.727	205.12
254.96	243.12
255.193	225.12
255.426	217.12
255.659	200.12
255.892	214.12
256.124	192.12
256.357	226.12
256.59	214.12
256.823	186.12
257.056	194.12
257.289	201.12
257.521	186.12
257.754	198.12
257.987	190.12
258.22	190.12
258.452	188.12
258.685	192.12
258.918	181.12
259.151	190.12
259.383	180.12
259.616	206.12
259.849	204.12
260.081	214.12
260.314	208.12
260.547	216.12
260.779	206.12
261.012	206.12
261.244	195.12
261.477	214.12
261.71	195.12
261.942	191.12
262.175	208.12
262.407	212.12
262.64	197.12
262.872	188.12
263.105	190.12
263.337	204.12
263.57	188.12
263.802	188.12
264.035	196.12
264.267	204.12
264.499	199.12
264.732	181.12
264.964	197.12
265.197	195.12
265.429	190.12
265.661	212.12
265.894	194.12
266.126	202.12
266.358	198.12
266.591	197.12
266.823	207.12
267.055	214.12
267.287	192.12
267.52	211.12
267.752	202.12
267.984	203.12
268.216	197.12
268.448	207.12
268.681	216.12
268.913	218.12
269.145	230.12
269.377	228.12
269.609	238.12
269.841	246.12
270.073	224.12
270.306	251.12
270.538	260.12
270.77	278.12
271.002	261.12
271.234	248.12
271.466	266.12
271.698	281.12
271.93	266.12
272.162	259.12
272.394	263.12
272.626	263.12
272.858	266.12
273.09	248.12
273.322	253.12
273.553	237.12
273.785	218.12
274.017	225.12
274.249	221.12
274.481	235.12
274.713	230.12
274.945	235.12
275.176	235.12
275.408	224.12
275.64	232.12
275.872	220.12
276.104	246.12
276.335	231.12
276.567	235.12
276.799	241.12
277.031	256.12
277.262	271.12
277.494	274.12
277.726	244.12
277.957	237.12
278.189	253.12
278.421	236.12
278.652	229.12
278.884	233.12
279.115	253.12
279.347	235.12
279.579	231.12
279.81	230.12
280.042	235.12
280.273	221.12
280.505	230.12
280.736	216.12
280.968	220.12
281.199	215.12
281.431	239.12
281.662	240.12
281.894	237.12
282.125	237.12
282.356	270.12
282.588	262.12
282.819	270.12
283.051	250.12
283.282	243.12
283.513	240.12
283.745	233.12
283.976	238.12
284.207	243.12
284.439	233.12
284.67	248.12
284.901	258.12
285.132	248.12
285.364	237.12
285.595	232.12
285.826	240.12
286.057	248.12
286.288	241.12
286.52	254.12
286.751	245.12
286.982	233.12
287.213	250.12
287.444	233.12
287.675	244.12
287.906	243.12
288.138	256.12
288.369	276.12
288.6	258.12
288.831	276.12
289.062	262.12
289.293	246.12
289.524	269.12
289.755	264.12
289.986	258.12
290.217	256.12
290.448	244.12
290.679	233.12
290.91	235.12
291.141	260.12
291.371	251.12
291.602	255.12
291.833	255.12
292.064	248.12
292.295	258.12
292.526	243.12
292.757	264.12
292.987	279.12
293.218	245.12
293.449	255.12
293.68	254.12
293.91	244.12
294.141	252.12
294.372	253.12
294.603	266.12
294.833	269.12
295.064	268.12
295.295	253.12
295.525	257.12
295.756	260.12
295.987	275.12
296.217	266.12
296.448	298.12
296.679	262.12
296.909	275.12
297.14	270.12
297.37	256.12
297.601	273.12
297.831	242.12
298.062	256.12
298.292	255.12
298.523	278.12
298.753	269.12
298.984	269.12
299.214	262.12
299.445	277.12
299.675	263.12
299.905	283.12
300.136	268.12
300.366	258.12
300.597	274.12
300.827	291.12
301.057	264.12
301.288	308.12
301.518	258.12
301.748	269.12
301.979	270.12
302.209	290.12
302.439	271.12
302.669	280.12
302.9	290.12
303.13	282.12
303.36	291.12
303.59	289.12
303.82	288.12
304.051	282.12
304.281	271.12
304.511	280.12
304.741	291.12
304.971	276.12
305.201	277.12
305.431	279.12
305.661	265.12
305.891	280.12
306.121	280.12
306.352	300.12
306.582	284.12
306.812	279.12
307.042	291.12
307.272	287.12
307.502	278.12
307.731	281.12
307.961	292.12
308.191	294.12
308.421	289.12
308.651	295.12
308.881	268.12
309.111	308.12
309.341	297.12
309.571	300.12
309.8	296.12
310.03	320.12
310.26	315.12
310.49	307.12
310.72	317.12
310.949	324.12
311.179	334.12
311.409	328.12
311.639	303.12
311.868	338.12
312.098	322.12
312.328	310.12
312.557	335.12
312.787	349.12
313.017	366.12
313.246	328.12
313.476	298.12
313.706	317.12
313.935	351.12
314.165	342.12
314.394	352.12
314.624	342.12
314.853	327.12
315.083	316.12
315.312	324.12
315.542	312.12
315.771	310.12
316.001	325.12
316.23	326.12
316.46	329.12
316.689	311.12
316.919	329.12
317.148	334.12
317.377	302.12
317.607	326.12
317.836	332.12
318.065	334.12
318.295	315.12
318.524	326.12
318.753	336.12
318.983	319.12
319.212	324.12
319.441	332.12
319.67	341.12
319.9	324.12
320.129	347.12
320.358	315.12
320.587	327.12
320.816	342.12
321.046	325.12
321.275	349.12
321.504	334.12
321.733	340.12
321.962	342.12
322.191	350.12
322.42	352.12
322.649	369.12
322.878	389.12
323.108	395.12
323.337	422.12
323.566	431.12
323.795	455.12
324.024	480.12
324.253	574.12
324.482	830.12
324.71	1246.12
324.939	1676.12
325.168	1422.12
325.397	781.12
325.626	544.12
325.855	459.12
326.084	436.12
326.313	431.12
326.542	436.12
326.77	460.12
326.999	553.12
327.228	720.12
327.457	1082.12
327.686	1255.12
327.914	837.12
328.143	590.12
328.372	509.12
328.6	492.12
328.829	436.12
329.058	461.12
329.287	469.12
329.515	439.12
329.744	423.12
329.972	416.12
330.201	420.12
330.43	427.12
330.658	466.12
330.887	479.12
331.115	482.12
331.344	411.12
331.572	430.12
331.801	405.12
332.03	400.12
332.258	378.12
332.486	381.12
332.715	390.12
332.943	370.12
333.172	381.12
333.4	390.12
333.629	379.12
333.857	384.12
334.085	375.12
334.314	394.12
334.542	403.12
334.771	415.12
334.999	383.12
335.227	381.12
335.455	401.12
335.684	366.12
335.912	382.12
336.14	370.12
336.369	382.12
336.597	381.12
336.825	383.12
337.053	365.12
337.281	378.12
337.51	352.12
337.738	378.12
337.966	389.12
338.194	362.12
338.422	366.12
338.65	362.12
338.878	373.12
339.106	352.12
339.334	362.12
339.562	368.12
339.79	353.12
340.018	357.12
340.246	362.12
340.474	372.12
340.702	359.12
340.93	354.12
341.158	342.12
341.386	345.12
341.614	380.12
341.842	371.12
342.07	356.12
342.298	365.12
342.526	368.12
342.754	348.12
342.981	352.12
343.209	340.12
343.437	362.12
343.665	364.12
343.893	365.12
344.12	373.12
344.348	363.12
344.576	363.12
344.804	355.12
345.031	368.12
345.259	363.12
345.487	361.12
345.714	353.12
345.942	336.12
346.17	351.12
346.397	362.12
346.625	343.12
346.853	346.12
347.08	344.12
347.308	345.12
347.535	357.12
347.763	347.12
347.99	349.12
348.218	338.12
348.445	363.12
348.673	358.12
348.9	355.12
349.128	328.12
349.355	330.12
349.583	325.12
349.81	347.12
350.037	341.12
350.265	365.12
350.492	333.12
350.72	356.12
350.947	330.12
351.174	339.12
351.402	363.12
351.629	346.12
351.856	334.12
352.083	364.12
352.311	365.12
352.538	363.12
352.765	353.12
352.992	359.12
353.22	350.12
353.447	349.12
353.674	354.12
353.901	333.12
354.128	320.12
354.355	328.12
354.583	326.12
354.81	327.12
355.037	318.12
355.264	316.12
355.491	312.12
355.718	316.12
355.945	331.12
356.172	334.12
356.399	326.12
356.626	322.12
356.853	299.12
357.08	329.12
357.307	334.12
357.534	324.12
357.761	313.12
357.988	334.12
358.215	314.12
358.441	320.12
358.668	320.12
358.895	338.12
359.122	335.12
359.349	336.12
359.576	336.12
359.802	351.12
360.029	378.12
360.256	375.12
360.483	342.12
360.709	349.12
360.936	336.12
361.163	324.12
361.39	341.12
361.616	349.12
361.843	334.12
362.07	349.12
362.296	342.12
362.523	334.12
362.749	364.12
362.976	333.12
363.203	331.12
363.429	334.12
363.656	328.12
363.882	323.12
364.109	335.12
364.335	337.12
364.562	340.12
364.788	338.12
365.015	323.12
365.241	338.12
365.468	344.12
365.694	321.12
365.92	337.12
366.147	324.12
366.373	352.12
366.599	328.12
366.826	322.12
367.052	324.12
367.278	320.12
367.505	314.12
367.731	342.12
367.957	315.12
368.184	346.12
368.41	340.12
368.636	338.12
368.862	333.12
369.089	343.12
369.315	309.12
369.541	326.12
369.767	334.12
369.993	324.12
370.219	323.12
370.445	309.12
370.672	326.12
370.898	315.12
371.124	316.12
371.35	340.12
371.576	338.12
371.802	322.12
372.028	319.12
372.254	303.12
372.48	312.12
372.706	325.12
372.932	322.12
373.158	317.12
373.384	308.12
373.61	320.12
373.835	334.12
374.061	323.12
374.287	305.12
374.513	308.12
374.739	323.12
374.965	314.12
375.191	331.12
375.416	324.12
375.642	345.12
375.868	355.12
376.094	320.12
376.319	324.12
376.545	314.12
376.771	306.12
376.997	322.12
377.222	317.12
377.448	308.12
377.674	305.12
377.899	318.12
378.125	328.12
378.35	314.12
378.576	310.12
378.802	332.12
379.027	316.12
379.253	342.12
379.478	316.12
379.704	310.12
379.929	327.12
380.155	318.12
380.38	327.12
380.606	327.12
380.831	303.12
381.057	324.12
381.282	312.12
381.507	307.12
381.733	333.12
381.958	330.12
382.184	310.12
382.409	320.12
382.634	337.12
382.86	326.12
383.085	323.12
383.31	324.12
383.535	327.12
383.761	330.12
383.986	328.12
384.211	329.12
384.436	314.12
384.662	326.12
384.887	338.12
385.112	329.12
385.337	310.12
385.562	346.12
385.787	324.12
386.013	340.12
386.238	348.12
386.463	334.12
386.688	341.12
386.913	319.12
387.138	340.12
387.363	350.12
387.588	330.12
387.813	340.12
388.038	342.12
388.263	327.12
388.488	325.12
388.713	317.12
388.938	328.12
389.163	336.12
389.387	350.12
389.612	332.12
389.837	340.12
390.062	344.12
390.287	312.12
390.512	339.12
390.736	326.12
390.961	327.12
391.186	310.12
391.411	315.12
391.636	348.12
391.86	346.12
392.085	336.12
392.31	336.12
392.534	334.12
392.759	338.12
392.984	326.12
393.208	324.12
393.433	320.12
393.658	341.12
393.882	339.12
394.107	333.12
394.331	346.12
394.556	326.12
394.78	326.12
395.005	338.12
395.229	348.12
395.454	354.12
395.678	340.12
395.903	343.12
396.127	368.12
396.352	376.12
396.576	335.12
396.801	332.12
397.025	335.12
397.249	335.12
397.474	333.12
397.698	358.12
397.922	377.12
398.147	376.12
398.371	376.12
398.595	371.12
398.82	374.12
399.044	380.12
399.268	380.12
399.492	391.12
399.717	408.12
399.941	408.12
400.165	448.12
400.389	458.12
400.613	415.12
400.837	394.12
401.062	378.12
401.286	358.12
401.51	377.12
401.734	374.12
401.958	352.12
402.182	367.12
402.406	380.12
402.63	394.12
402.854	376.12
403.078	386.12
403.302	374.12
403.526	367.12
403.75	380.12
403.974	379.12
404.198	380.12
404.422	381.12
404.645	382.12
404.869	372.12
405.093	401.12
405.317	437.12
405.541	438.12
405.765	412.12
405.988	384.12
406.212	410.12
406.436	411.12
406.66	421.12
406.883	411.12
407.107	422.12
407.331	466.12
407.555	502.12
407.778	486.12
408.002	453.12
408.226	430.12
408.449	399.12
408.673	422.12
408.896	428.12
409.12	451.12
409.344	430.12
409.567	379.12
409.791	396.12
410.014	373.12
410.238	372.12
410.461	368.12
410.685	382.12
410.908	388.12
411.132	414.12
411.355	424.12
411.578	440.12
411.802	379.12
412.025	386.12
412.249	388.12
412.472	386.12
412.695	405.12
412.919	406.12
413.142	382.12
413.365	373.12
413.589	375.12
413.812	362.12
414.035	362.12
414.258	375.12
414.482	376.12
414.705	352.12
414.928	357.12
415.151	367.12
415.374	353.12
415.597	353.12
415.821	368.12
416.044	376.12
416.267	363.12
416.49	352.12
416.713	347.12
416.936	343.12
417.159	359.12
417.382	362.12
417.605	349.12
417.828	372.12
418.051	396.12
418.274	362.12
418.497	328.12
418.72	351.12
418.943	334.12
419.166	374.12
419.389	378.12
419.611	375.12
419.834	367.12
420.057	371.12
420.28	394.12
420.503	352.12
420.726	372.12
420.948	378.12
421.171	401.12
421.394	408.12
421.617	392.12
421.839	375.12
422.062	368.12
422.285	394.12
422.507	443.12
422.73	479.12
422.953	467.12
423.175	423.12
423.398	383.12
423.621	378.12
423.843	391.12
424.066	377.12
424.288	378.12
424.511	427.12
424.733	453.12
424.956	518.12
425.178	486.12
425.401	491.12
425.623	517.12
425.846	464.12
426.068	398.12
426.291	398.12
426.513	405.12
426.735	399.12
426.958	427.12
427.18	504.12
427.402	612.12
427.625	638.12
427.847	564.12
428.069	484.12
428.292	444.12
428.514	420.12
428.736	376.12
428.958	367.12
429.181	379.12
429.403	381.12
429.625	404.12
429.847	398.12
430.069	450.12
430.292	436.12
430.514	393.12
430.736	386.12
430.958	368.12
431.18	377.12
431.402	366.12
431.624	380.12
431.846	348.12
432.068	354.12
432.29	349.12
432.512	359.12
432.734	341.12
432.956	359.12
433.178	356.12
433.4	374.12
433.622	346.12
433.844	360.12
434.066	355.12
434.287	342.12
434.509	350.12
434.731	360.12
434.953	370.12
435.175	359.12
435.397	401.12
435.618	420.12
435.84	439.12
436.062	512.12
436.284	554.12
436.505	481.12
436.727	420.12
436.949	391.12
437.17	372.12
437.392	384.12
437.614	379.12
437.835	414.12
438.057	499.12
438.278	557.12
438.5	547.12
438.721	596.12
438.943	588.12
439.165	439.12
439.386	412.12
439.608	418.12
439.829	405.12
440.05	427.12
440.272	450.12
440.493	436.12
440.715	393.12
440.936	399.12
441.158	367.12
441.379	384.12
441.6	396.12
441.822	383.12
442.043	438.12
442.264	498.12
442.486	510.12
442.707	458.12
442.928	388.12
443.149	419.12
443.371	431.12
443.592	469.12
443.813	544.12
444.034	560.12
444.255	466.12
444.476	422.12
444.698	396.12
444.919	396.12
445.14	481.12
445.361	428.12
445.582	438.12
445.803	504.12
446.024	553.12
446.245	545.12
446.466	501.12
446.687	422.12
446.908	400.12
447.129	405.12
447.35	389.12
447.571	363.12
447.792	377.12
448.013	377.12
448.234	394.12
448.455	432.12
448.675	503.12
448.896	572.12
449.117	528.12
449.338	491.12
449.559	568.12
449.779	632.12
450	509.12
450.221	424.12
450.442	398.12
450.662	387.12
450.883	392.12
451.104	366.12
451.324	361.12
451.545	354.12
451.766	360.12
451.986	346.12
452.207	330.12
452.428	352.12
452.648	343.12
452.869	336.12
453.089	343.12
453.31	344.12
453.53	352.12
453.751	332.12
453.971	317.12
454.192	352.12
454.412	343.12
454.633	331.12
454.853	323.12
455.073	337.12
455.294	345.12
455.514	407.12
455.734	388.12
455.955	355.12
456.175	339.12
456.395	320.12
456.616	303.12
456.836	332.12
457.056	311.12
457.276	314.12
457.497	327.12
457.717	336.12
457.937	321.12
458.157	324.12
458.377	315.12
458.598	346.12
458.818	370.12
459.038	431.12
459.258	442.12
459.478	376.12
459.698	357.12
459.918	346.12
460.138	341.12
460.358	346.12
460.578	360.12
460.798	351.12
461.018	372.12
461.238	346.12
461.458	362.12
461.678	335.12
461.898	363.12
462.118	356.12
462.338	355.12
462.558	359.12
462.777	365.12
462.997	358.12
463.217	373.12
463.437	360.12
463.657	354.12
463.876	371.12
464.096	372.12
464.316	356.12
464.536	376.12
464.755	372.12
464.975	379.12
465.195	409.12
465.414	423.12
465.634	421.12
465.854	368.12
466.073	367.12
466.293	336.12
466.512	350.12
466.732	327.12
466.951	354.12
467.171	310.12
467.391	343.12
467.61	347.12
467.829	373.12
468.049	358.12
468.268	336.12
468.488	338.12
468.707	334.12
468.927	347.12
469.146	323.12
469.365	319.12
469.585	318.12
469.804	330.12
470.023	339.12
470.243	336.12
470.462	330.12
470.681	367.12
470.901	363.12
471.12	344.12
471.339	339.12
471.558	344.12
471.777	355.12
471.997	337.12
472.216	352.12
472.435	357.12
472.654	380.12
472.873	362.12
473.092	342.12
473.311	337.12
473.53	371.12
473.749	351.12
473.968	382.12
474.187	469.12
474.406	468.12
474.625	391.12
474.844	366.12
475.063	339.12
475.282	344.12
475.501	357.12
475.72	363.12
475.939	356.12
476.158	358.12
476.377	377.12
476.596	356.12
476.814	379.12
477.033	372.12
477.252	357.12
477.471	382.12
477.69	364.12
477.908	366.12
478.127	382.12
478.346	380.12
478.564	384.12
478.783	386.12
479.002	393.12
479.22	399.12
479.439	407.12
479.658	405.12
479.876	414.12
480.095	418.12
480.313	429.12
480.532	446.12
480.751	428.12
480.969	414.12
481.188	438.12
481.406	446.12
481.624	417.12
481.843	413.12
482.061	397.12
482.28	397.12
482.498	390.12
482.717	400.12
482.935	397.12
483.153	392.12
483.372	398.12
483.59	405.12
483.808	406.12
484.027	423.12
484.245	400.12
484.463	410.12
484.681	406.12
484.9	417.12
485.118	417.12
485.336	401.12
485.554	411.12
485.772	425.12
485.99	414.12
486.209	418.12
486.427	419.12
486.645	431.12
486.863	437.12
487.081	437.12
487.299	423.12
487.517	416.12
487.735	437.12
487.953	425.12
488.171	427.12
488.389	426.12
488.607	442.12
488.825	428.12
489.043	457.12
489.261	448.12
489.479	421.12
489.696	431.12
489.914	433.12
490.132	425.12
490.35	468.12
490.568	457.12
490.786	452.12
491.003	446.12
491.221	462.12
491.439	478.12
491.657	448.12
491.874	485.12
492.092	480.12
492.31	484.12
492.527	493.12
492.745	485.12
492.963	509.12
493.18	491.12
493.398	503.12
493.615	506.12
493.833	505.12
494.05	492.12
494.268	508.12
494.485	487.12
494.703	479.12
494.92	486.12
495.138	504.12
495.355	487.12
495.573	524.12
495.79	507.12
496.008	494.12
496.225	494.12
496.442	523.12
496.66	530.12
496.877	496.12
497.094	520.12
497.312	513.12
497.529	532.12
497.746	522.12
497.963	539.12
498.181	557.12
498.398	550.12
498.615	543.12
498.832	567.12
499.049	578.12
499.267	574.12
499.484	574.12
499.701	590.12
499.918	627.12
500.135	660.12
500.352	659.12
500.569	678.12
500.786	686.12
501.003	676.12
501.22	644.12
501.437	643.12
501.654	594.12
501.871	623.12
502.088	605.12
