Data from 1981.PennyLincolnUp.Lamp.En5.5.200Scan.071819.P1_HRD10591_16-42-11-959.txt Node
Date: Thu Jul 18 16:42:11 EDT 2019
User: cochatt
Spectrometer: HR+D1059
Trigger mode: 1
Integration Time (sec): 1.000000E-1
Scans to average: 1
Electric dark correction enabled: true
Nonlinearity correction enabled: false
Boxcar width: 0
XAxis mode: Wavelengths
Number of Pixels in Spectrum: 2048
>>>>>Begin Spectral Data<<<<<
223.165	-6.19
223.4	-6.19
223.635	-6.19
223.869	-19.19
224.104	-20.19
224.338	-17.19
224.573	-11.19
224.808	-18.19
225.042	-8.19
225.277	-8.19
225.511	1.81
225.746	5.81
225.98	3.81
226.215	16.81
226.449	16.81
226.683	29.81
226.918	19.81
227.152	13.81
227.387	47.81
227.621	37.81
227.856	40.81
228.09	46.81
228.324	40.81
228.559	41.81
228.793	65.81
229.027	93.81
229.262	126.81
229.496	119.81
229.73	138.81
229.964	155.81
230.199	122.81
230.433	115.81
230.667	103.81
230.901	120.81
231.136	119.81
231.37	110.81
231.604	102.81
231.838	117.81
232.072	111.81
232.306	117.81
232.541	119.81
232.775	115.81
233.009	120.81
233.243	110.81
233.477	123.81
233.711	137.81
233.945	117.81
234.179	122.81
234.413	124.81
234.647	126.81
234.881	119.81
235.115	121.81
235.349	136.81
235.583	133.81
235.817	128.81
236.051	134.81
236.285	136.81
236.519	133.81
236.753	134.81
236.987	151.81
237.221	198.81
237.455	229.81
237.689	184.81
237.922	156.81
238.156	131.81
238.39	152.81
238.624	146.81
238.858	120.81
239.091	120.81
239.325	121.81
239.559	141.81
239.793	128.81
240.027	152.81
240.26	157.81
240.494	157.81
240.728	165.81
240.961	146.81
241.195	150.81
241.429	138.81
241.662	137.81
241.896	145.81
242.13	152.81
242.363	126.81
242.597	112.81
242.83	127.81
243.064	129.81
243.298	145.81
243.531	138.81
243.765	145.81
243.998	137.81
244.232	144.81
244.465	147.81
244.699	136.81
244.932	144.81
245.166	145.81
245.399	151.81
245.633	143.81
245.866	157.81
246.099	159.81
246.333	146.81
246.566	157.81
246.8	168.81
247.033	154.81
247.266	169.81
247.5	156.81
247.733	175.81
247.966	186.81
248.2	193.81
248.433	176.81
248.666	173.81
248.899	189.81
249.133	209.81
249.366	219.81
249.599	212.81
249.832	199.81
250.066	184.81
250.299	196.81
250.532	192.81
250.765	207.81
250.998	222.81
251.231	239.81
251.465	223.81
251.698	198.81
251.931	211.81
252.164	198.81
252.397	213.81
252.63	201.81
252.863	215.81
253.096	230.81
253.329	240.81
253.562	240.81
253.795	234.81
254.028	220.81
254.261	223.81
254.494	240.81
254.727	287.81
254.96	267.81
255.193	291.81
255.426	275.81
255.659	239.81
255.892	250.81
256.124	238.81
256.357	236.81
256.59	242.81
256.823	211.81
257.056	218.81
257.289	227.81
257.521	220.81
257.754	224.81
257.987	224.81
258.22	218.81
258.452	223.81
258.685	213.81
258.918	210.81
259.151	233.81
259.383	241.81
259.616	223.81
259.849	237.81
260.081	265.81
260.314	268.81
260.547	280.81
260.779	250.81
261.012	231.81
261.244	243.81
261.477	228.81
261.71	227.81
261.942	220.81
262.175	257.81
262.407	238.81
262.64	227.81
262.872	223.81
263.105	222.81
263.337	220.81
263.57	226.81
263.802	211.81
264.035	219.81
264.267	227.81
264.499	209.81
264.732	222.81
264.964	231.81
265.197	230.81
265.429	218.81
265.661	220.81
265.894	222.81
266.126	235.81
266.358	230.81
266.591	209.81
266.823	228.81
267.055	237.81
267.287	224.81
267.52	218.81
267.752	231.81
267.984	210.81
268.216	239.81
268.448	239.81
268.681	266.81
268.913	271.81
269.145	268.81
269.377	301.81
269.609	293.81
269.841	278.81
270.073	288.81
270.306	307.81
270.538	326.81
270.77	305.81
271.002	307.81
271.234	325.81
271.466	320.81
271.698	335.81
271.93	349.81
272.162	333.81
272.394	330.81
272.626	324.81
272.858	318.81
273.09	311.81
273.322	279.81
273.553	280.81
273.785	294.81
274.017	267.81
274.249	264.81
274.481	279.81
274.713	303.81
274.945	291.81
275.176	269.81
275.408	270.81
275.64	282.81
275.872	293.81
276.104	294.81
276.335	279.81
276.567	284.81
276.799	318.81
277.031	325.81
277.262	340.81
277.494	328.81
277.726	317.81
277.957	294.81
278.189	291.81
278.421	293.81
278.652	294.81
278.884	271.81
279.115	290.81
279.347	267.81
279.579	255.81
279.81	273.81
280.042	269.81
280.273	266.81
280.505	270.81
280.736	280.81
280.968	281.81
281.199	266.81
281.431	277.81
281.662	277.81
281.894	272.81
282.125	268.81
282.356	285.81
282.588	310.81
282.819	300.81
283.051	277.81
283.282	267.81
283.513	285.81
283.745	261.81
283.976	281.81
284.207	263.81
284.439	276.81
284.67	287.81
284.901	271.81
285.132	281.81
285.364	277.81
285.595	290.81
285.826	281.81
286.057	281.81
286.288	272.81
286.52	278.81
286.751	289.81
286.982	298.81
287.213	292.81
287.444	295.81
287.675	302.81
287.906	290.81
288.138	299.81
288.369	314.81
288.6	309.81
288.831	289.81
289.062	292.81
289.293	303.81
289.524	277.81
289.755	286.81
289.986	289.81
290.217	294.81
290.448	287.81
290.679	290.81
290.91	294.81
291.141	296.81
291.371	286.81
291.602	286.81
291.833	277.81
292.064	292.81
292.295	287.81
292.526	295.81
292.757	280.81
292.987	289.81
293.218	287.81
293.449	281.81
293.68	283.81
293.91	289.81
294.141	292.81
294.372	299.81
294.603	290.81
294.833	296.81
295.064	293.81
295.295	288.81
295.525	287.81
295.756	310.81
295.987	323.81
296.217	340.81
296.448	348.81
296.679	301.81
296.909	288.81
297.14	297.81
297.37	300.81
297.601	307.81
297.831	297.81
298.062	304.81
298.292	315.81
298.523	299.81
298.753	319.81
298.984	303.81
299.214	310.81
299.445	310.81
299.675	331.81
299.905	315.81
300.136	321.81
300.366	338.81
300.597	314.81
300.827	312.81
301.057	328.81
301.288	326.81
301.518	333.81
301.748	326.81
301.979	315.81
302.209	317.81
302.439	333.81
302.669	336.81
302.9	323.81
303.13	318.81
303.36	317.81
303.59	326.81
303.82	342.81
304.051	329.81
304.281	331.81
304.511	314.81
304.741	319.81
304.971	324.81
305.201	321.81
305.431	327.81
305.661	332.81
305.891	332.81
306.121	328.81
306.352	333.81
306.582	342.81
306.812	325.81
307.042	336.81
307.272	326.81
307.502	326.81
307.731	328.81
307.961	332.81
308.191	324.81
308.421	325.81
308.651	333.81
308.881	328.81
309.111	375.81
309.341	362.81
309.571	351.81
309.8	381.81
310.03	384.81
310.26	389.81
310.49	396.81
310.72	380.81
310.949	416.81
311.179	397.81
311.409	398.81
311.639	403.81
311.868	403.81
312.098	381.81
312.328	412.81
312.557	420.81
312.787	417.81
313.017	421.81
313.246	387.81
313.476	363.81
313.706	383.81
313.935	394.81
314.165	419.81
314.394	405.81
314.624	400.81
314.853	381.81
315.083	404.81
315.312	365.81
315.542	389.81
315.771	383.81
316.001	377.81
316.23	375.81
316.46	395.81
316.689	393.81
316.919	393.81
317.148	407.81
317.377	389.81
317.607	407.81
317.836	399.81
318.065	379.81
318.295	404.81
318.524	375.81
318.753	372.81
318.983	373.81
319.212	374.81
319.441	385.81
319.67	381.81
319.9	392.81
320.129	396.81
320.358	395.81
320.587	388.81
320.816	423.81
321.046	431.81
321.275	426.81
321.504	407.81
321.733	421.81
321.962	432.81
322.191	439.81
322.42	456.81
322.649	471.81
322.878	488.81
323.108	491.81
323.337	527.81
323.566	540.81
323.795	588.81
324.024	643.81
324.253	822.81
324.482	1175.81
324.71	1808.81
324.939	2457.81
325.168	2047.81
325.397	1085.81
325.626	700.81
325.855	620.81
326.084	566.81
326.313	550.81
326.542	566.81
326.77	600.81
326.999	740.81
327.228	1031.81
327.457	1533.81
327.686	1807.81
327.914	1233.81
328.143	826.81
328.372	697.81
328.6	645.81
328.829	620.81
329.058	615.81
329.287	645.81
329.515	595.81
329.744	529.81
329.972	543.81
330.201	545.81
330.43	591.81
330.658	628.81
330.887	658.81
331.115	636.81
331.344	542.81
331.572	531.81
331.801	485.81
332.03	505.81
332.258	486.81
332.486	467.81
332.715	453.81
332.943	459.81
333.172	439.81
333.4	464.81
333.629	470.81
333.857	465.81
334.085	495.81
334.314	503.81
334.542	540.81
334.771	521.81
334.999	493.81
335.227	487.81
335.455	463.81
335.684	445.81
335.912	449.81
336.14	432.81
336.369	446.81
336.597	441.81
336.825	445.81
337.053	470.81
337.281	433.81
337.51	437.81
337.738	451.81
337.966	437.81
338.194	435.81
338.422	443.81
338.65	427.81
338.878	407.81
339.106	422.81
339.334	420.81
339.562	419.81
339.79	423.81
340.018	428.81
340.246	428.81
340.474	419.81
340.702	410.81
340.93	408.81
341.158	406.81
341.386	431.81
341.614	410.81
341.842	435.81
342.07	407.81
342.298	401.81
342.526	399.81
342.754	389.81
342.981	396.81
343.209	392.81
343.437	415.81
343.665	419.81
343.893	420.81
344.12	420.81
344.348	421.81
344.576	413.81
344.804	427.81
345.031	429.81
345.259	431.81
345.487	445.81
345.714	427.81
345.942	432.81
346.17	407.81
346.397	416.81
346.625	413.81
346.853	401.81
347.08	397.81
347.308	416.81
347.535	413.81
347.763	413.81
347.99	421.81
348.218	432.81
348.445	443.81
348.673	415.81
348.9	430.81
349.128	420.81
349.355	391.81
349.583	386.81
349.81	396.81
350.037	391.81
350.265	389.81
350.492	403.81
350.72	397.81
350.947	406.81
351.174	395.81
351.402	397.81
351.629	416.81
351.856	419.81
352.083	407.81
352.311	444.81
352.538	425.81
352.765	426.81
352.992	411.81
353.22	398.81
353.447	409.81
353.674	391.81
353.901	389.81
354.128	365.81
354.355	387.81
354.583	374.81
354.81	383.81
355.037	371.81
355.264	355.81
355.491	349.81
355.718	362.81
355.945	373.81
356.172	365.81
356.399	365.81
356.626	369.81
356.853	378.81
357.08	374.81
357.307	355.81
357.534	353.81
357.761	360.81
357.988	361.81
358.215	369.81
358.441	360.81
358.668	363.81
358.895	386.81
359.122	350.81
359.349	377.81
359.576	399.81
359.802	416.81
360.029	468.81
360.256	469.81
360.483	406.81
360.709	396.81
360.936	409.81
361.163	399.81
361.39	411.81
361.616	414.81
361.843	404.81
362.07	389.81
362.296	395.81
362.523	395.81
362.749	387.81
362.976	373.81
363.203	383.81
363.429	387.81
363.656	378.81
363.882	368.81
364.109	367.81
364.335	350.81
364.562	366.81
364.788	370.81
365.015	379.81
365.241	383.81
365.468	378.81
365.694	361.81
365.92	369.81
366.147	365.81
366.373	375.81
366.599	367.81
366.826	359.81
367.052	357.81
367.278	373.81
367.505	382.81
367.731	387.81
367.957	377.81
368.184	385.81
368.41	392.81
368.636	386.81
368.862	388.81
369.089	381.81
369.315	374.81
369.541	350.81
369.767	371.81
369.993	366.81
370.219	347.81
370.445	356.81
370.672	366.81
370.898	355.81
371.124	369.81
371.35	359.81
371.576	371.81
371.802	346.81
372.028	351.81
372.254	368.81
372.48	350.81
372.706	361.81
372.932	377.81
373.158	350.81
373.384	379.81
373.61	371.81
373.835	344.81
374.061	365.81
374.287	343.81
374.513	352.81
374.739	344.81
374.965	357.81
375.191	360.81
375.416	358.81
375.642	367.81
375.868	368.81
376.094	350.81
376.319	342.81
376.545	355.81
376.771	366.81
376.997	349.81
377.222	349.81
377.448	341.81
377.674	367.81
377.899	356.81
378.125	365.81
378.35	349.81
378.576	354.81
378.802	361.81
379.027	361.81
379.253	347.81
379.478	326.81
379.704	339.81
379.929	353.81
380.155	354.81
380.38	341.81
380.606	365.81
380.831	351.81
381.057	350.81
381.282	353.81
381.507	360.81
381.733	353.81
381.958	360.81
382.184	337.81
382.409	347.81
382.634	350.81
382.86	349.81
383.085	363.81
383.31	367.81
383.535	363.81
383.761	360.81
383.986	357.81
384.211	361.81
384.436	372.81
384.662	361.81
384.887	360.81
385.112	340.81
385.337	358.81
385.562	359.81
385.787	343.81
386.013	387.81
386.238	378.81
386.463	380.81
386.688	387.81
386.913	372.81
387.138	373.81
387.363	386.81
387.588	354.81
387.813	380.81
388.038	369.81
388.263	362.81
388.488	371.81
388.713	371.81
388.938	368.81
389.163	366.81
389.387	388.81
389.612	369.81
389.837	355.81
390.062	350.81
390.287	347.81
390.512	338.81
390.736	360.81
390.961	344.81
391.186	383.81
391.411	385.81
391.636	359.81
391.86	368.81
392.085	365.81
392.31	377.81
392.534	378.81
392.759	379.81
392.984	356.81
393.208	375.81
393.433	373.81
393.658	372.81
393.882	374.81
394.107	365.81
394.331	373.81
394.556	378.81
394.78	370.81
395.005	363.81
395.229	348.81
395.454	362.81
395.678	383.81
395.903	373.81
396.127	390.81
396.352	402.81
396.576	365.81
396.801	385.81
397.025	354.81
397.249	377.81
397.474	387.81
397.698	393.81
397.922	380.81
398.147	421.81
398.371	417.81
398.595	399.81
398.82	399.81
399.044	385.81
399.268	403.81
399.492	424.81
399.717	439.81
399.941	470.81
400.165	469.81
400.389	493.81
400.613	444.81
400.837	441.81
401.062	407.81
401.286	405.81
401.51	419.81
401.734	393.81
401.958	409.81
402.182	429.81
402.406	426.81
402.63	429.81
402.854	415.81
403.078	422.81
403.302	407.81
403.526	418.81
403.75	431.81
403.974	404.81
404.198	406.81
404.422	421.81
404.645	419.81
404.869	444.81
405.093	449.81
405.317	487.81
405.541	510.81
405.765	486.81
405.988	455.81
406.212	470.81
406.436	459.81
406.66	485.81
406.883	457.81
407.107	473.81
407.331	495.81
407.555	573.81
407.778	551.81
408.002	523.81
408.226	470.81
408.449	469.81
408.673	465.81
408.896	495.81
409.12	545.81
409.344	493.81
409.567	429.81
409.791	414.81
410.014	425.81
410.238	422.81
410.461	422.81
410.685	423.81
410.908	435.81
411.132	478.81
411.355	520.81
411.578	487.81
411.802	430.81
412.025	421.81
412.249	422.81
412.472	445.81
412.695	495.81
412.919	474.81
413.142	416.81
413.365	405.81
413.589	413.81
413.812	404.81
414.035	412.81
414.258	393.81
414.482	396.81
414.705	387.81
414.928	391.81
415.151	393.81
415.374	396.81
415.597	407.81
415.821	411.81
416.044	388.81
416.267	364.81
416.49	376.81
416.713	390.81
416.936	383.81
417.159	381.81
417.382	378.81
417.605	411.81
417.828	409.81
418.051	423.81
418.274	413.81
418.497	395.81
418.72	399.81
418.943	400.81
419.166	376.81
419.389	428.81
419.611	420.81
419.834	405.81
420.057	420.81
420.28	422.81
420.503	430.81
420.726	408.81
420.948	452.81
421.171	472.81
421.394	472.81
421.617	451.81
421.839	401.81
422.062	433.81
422.285	427.81
422.507	474.81
422.73	565.81
422.953	548.81
423.175	484.81
423.398	448.81
423.621	436.81
423.843	445.81
424.066	459.81
424.288	471.81
424.511	484.81
424.733	528.81
424.956	599.81
425.178	579.81
425.401	587.81
425.623	584.81
425.846	495.81
426.068	469.81
426.291	455.81
426.513	460.81
426.735	476.81
426.958	523.81
427.18	581.81
427.402	705.81
427.625	783.81
427.847	713.81
428.069	595.81
428.292	500.81
428.514	477.81
428.736	443.81
428.958	450.81
429.181	445.81
429.403	454.81
429.625	448.81
429.847	483.81
430.069	544.81
430.292	549.81
430.514	450.81
430.736	421.81
430.958	419.81
431.18	399.81
431.402	409.81
431.624	403.81
431.846	401.81
432.068	377.81
432.29	396.81
432.512	404.81
432.734	416.81
432.956	399.81
433.178	413.81
433.4	426.81
433.622	398.81
433.844	398.81
434.066	388.81
434.287	400.81
434.509	401.81
434.731	400.81
434.953	416.81
435.175	428.81
435.397	455.81
435.618	474.81
435.84	499.81
436.062	573.81
436.284	635.81
436.505	549.81
436.727	462.81
436.949	428.81
437.17	461.81
437.392	453.81
437.614	469.81
437.835	509.81
438.057	565.81
438.278	669.81
438.5	663.81
438.721	728.81
438.943	685.81
439.165	534.81
439.386	488.81
439.608	493.81
439.829	508.81
440.05	517.81
440.272	556.81
440.493	499.81
440.715	461.81
440.936	457.81
441.158	444.81
441.379	449.81
441.6	445.81
441.822	457.81
442.043	500.81
442.264	597.81
442.486	635.81
442.707	517.81
442.928	493.81
443.149	493.81
443.371	501.81
443.592	547.81
443.813	605.81
444.034	672.81
444.255	554.81
444.476	492.81
444.698	448.81
444.919	457.81
445.14	597.81
445.361	528.81
445.582	524.81
445.803	555.81
446.024	663.81
446.245	671.81
446.466	610.81
446.687	518.81
446.908	499.81
447.129	479.81
447.35	438.81
447.571	447.81
447.792	425.81
448.013	430.81
448.234	469.81
448.455	495.81
448.675	605.81
448.896	702.81
449.117	589.81
449.338	582.81
449.559	669.81
449.779	717.81
450	589.81
450.221	487.81
450.442	440.81
450.662	431.81
450.883	460.81
451.104	451.81
451.324	435.81
451.545	417.81
451.766	395.81
451.986	378.81
452.207	398.81
452.428	387.81
452.648	380.81
452.869	379.81
453.089	410.81
453.31	408.81
453.53	416.81
453.751	388.81
453.971	380.81
454.192	414.81
454.412	396.81
454.633	387.81
454.853	405.81
455.073	415.81
455.294	433.81
455.514	476.81
455.734	466.81
455.955	383.81
456.175	377.81
456.395	371.81
456.616	358.81
456.836	352.81
457.056	367.81
457.276	352.81
457.497	375.81
457.717	336.81
457.937	373.81
458.157	381.81
458.377	378.81
458.598	393.81
458.818	456.81
459.038	522.81
459.258	546.81
459.478	450.81
459.698	402.81
459.918	405.81
460.138	393.81
460.358	396.81
460.578	395.81
460.798	405.81
461.018	384.81
461.238	387.81
461.458	389.81
461.678	375.81
461.898	396.81
462.118	381.81
462.338	379.81
462.558	377.81
462.777	400.81
462.997	413.81
463.217	417.81
463.437	393.81
463.657	395.81
463.876	407.81
464.096	400.81
464.316	414.81
464.536	415.81
464.755	411.81
464.975	387.81
465.195	480.81
465.414	531.81
465.634	455.81
465.854	430.81
466.073	419.81
466.293	395.81
466.512	400.81
466.732	366.81
466.951	383.81
467.171	395.81
467.391	393.81
467.61	396.81
467.829	424.81
468.049	399.81
468.268	390.81
468.488	375.81
468.707	382.81
468.927	374.81
469.146	390.81
469.365	355.81
469.585	385.81
469.804	387.81
470.023	389.81
470.243	395.81
470.462	401.81
470.681	425.81
470.901	416.81
471.12	391.81
471.339	383.81
471.558	401.81
471.777	381.81
471.997	380.81
472.216	392.81
472.435	443.81
472.654	409.81
472.873	389.81
473.092	391.81
473.311	386.81
473.53	396.81
473.749	407.81
473.968	436.81
474.187	551.81
474.406	552.81
474.625	471.81
474.844	419.81
475.063	400.81
475.282	393.81
475.501	398.81
475.72	395.81
475.939	408.81
476.158	403.81
476.377	385.81
476.596	411.81
476.814	415.81
477.033	424.81
477.252	429.81
477.471	419.81
477.69	403.81
477.908	388.81
478.127	413.81
478.346	419.81
478.564	423.81
478.783	424.81
479.002	441.81
479.22	448.81
479.439	451.81
479.658	461.81
479.876	474.81
480.095	480.81
480.313	494.81
480.532	485.81
480.751	461.81
480.969	488.81
481.188	539.81
481.406	534.81
481.624	511.81
481.843	481.81
482.061	471.81
482.28	463.81
482.498	457.81
482.717	451.81
482.935	477.81
483.153	461.81
483.372	466.81
483.59	475.81
483.808	445.81
484.027	469.81
484.245	467.81
484.463	481.81
484.681	468.81
484.9	478.81
485.118	453.81
485.336	477.81
485.554	469.81
485.772	463.81
485.99	465.81
486.209	499.81
486.427	487.81
486.645	482.81
486.863	517.81
487.081	507.81
487.299	496.81
487.517	508.81
487.735	491.81
487.953	487.81
488.171	483.81
488.389	477.81
488.607	502.81
488.825	512.81
489.043	506.81
489.261	508.81
489.479	518.81
489.696	502.81
489.914	504.81
490.132	496.81
490.35	497.81
490.568	521.81
490.786	528.81
491.003	543.81
491.221	521.81
491.439	560.81
491.657	564.81
491.874	567.81
492.092	570.81
492.31	568.81
492.527	584.81
492.745	579.81
492.963	570.81
493.18	581.81
493.398	597.81
493.615	599.81
493.833	570.81
494.05	601.81
494.268	607.81
494.485	585.81
494.703	597.81
494.92	588.81
495.138	587.81
495.355	594.81
495.573	613.81
495.79	589.81
496.008	606.81
496.225	590.81
496.442	596.81
496.66	611.81
496.877	602.81
497.094	581.81
497.312	604.81
497.529	584.81
497.746	603.81
497.963	599.81
498.181	651.81
498.398	617.81
498.615	651.81
498.832	648.81
499.049	632.81
499.267	645.81
499.484	679.81
499.701	667.81
499.918	665.81
500.135	697.81
500.352	737.81
500.569	711.81
500.786	726.81
501.003	708.81
501.22	708.81
501.437	709.81
501.654	687.81
501.871	688.81
