Data from 1981.PennyLincolnUp.Lamp.En5.5.200Scan.071819.P1_HRD10591_16-41-04-958.txt Node
Date: Thu Jul 18 16:41:04 EDT 2019
User: cochatt
Spectrometer: HR+D1059
Trigger mode: 1
Integration Time (sec): 1.000000E-1
Scans to average: 1
Electric dark correction enabled: true
Nonlinearity correction enabled: false
Boxcar width: 0
XAxis mode: Wavelengths
Number of Pixels in Spectrum: 2048
>>>>>Begin Spectral Data<<<<<
223.165	-11.62
223.4	-11.62
223.635	-11.62
223.869	-8.62
224.104	-21.62
224.338	-19.62
224.573	3.38
224.808	-20.62
225.042	-15.62
225.277	-2.62
225.511	2.38
225.746	4.38
225.98	3.38
226.215	14.38
226.449	8.38
226.683	25.38
226.918	20.38
227.152	18.38
227.387	39.38
227.621	35.38
227.856	45.38
228.09	51.38
228.324	47.38
228.559	47.38
228.793	67.38
229.027	90.38
229.262	104.38
229.496	113.38
229.73	139.38
229.964	142.38
230.199	119.38
230.433	101.38
230.667	109.38
230.901	116.38
231.136	106.38
231.37	93.38
231.604	110.38
231.838	107.38
232.072	102.38
232.306	108.38
232.541	96.38
232.775	115.38
233.009	111.38
233.243	118.38
233.477	116.38
233.711	107.38
233.945	104.38
234.179	110.38
234.413	116.38
234.647	98.38
234.881	112.38
235.115	93.38
235.349	123.38
235.583	124.38
235.817	121.38
236.051	110.38
236.285	111.38
236.519	119.38
236.753	134.38
236.987	137.38
237.221	179.38
237.455	213.38
237.689	180.38
237.922	158.38
238.156	134.38
238.39	126.38
238.624	142.38
238.858	122.38
239.091	120.38
239.325	134.38
239.559	117.38
239.793	116.38
240.027	142.38
240.26	138.38
240.494	149.38
240.728	152.38
240.961	129.38
241.195	135.38
241.429	154.38
241.662	146.38
241.896	133.38
242.13	139.38
242.363	137.38
242.597	141.38
242.83	128.38
243.064	131.38
243.298	129.38
243.531	132.38
243.765	120.38
243.998	140.38
244.232	131.38
244.465	128.38
244.699	146.38
244.932	133.38
245.166	133.38
245.399	134.38
245.633	143.38
245.866	143.38
246.099	156.38
246.333	149.38
246.566	151.38
246.8	143.38
247.033	144.38
247.266	155.38
247.5	162.38
247.733	155.38
247.966	166.38
248.2	172.38
248.433	163.38
248.666	173.38
248.899	166.38
249.133	201.38
249.366	224.38
249.599	194.38
249.832	180.38
250.066	163.38
250.299	186.38
250.532	176.38
250.765	196.38
250.998	207.38
251.231	213.38
251.465	203.38
251.698	215.38
251.931	202.38
252.164	213.38
252.397	202.38
252.63	185.38
252.863	198.38
253.096	215.38
253.329	226.38
253.562	233.38
253.795	224.38
254.028	214.38
254.261	237.38
254.494	243.38
254.727	251.38
254.96	262.38
255.193	258.38
255.426	270.38
255.659	235.38
255.892	231.38
256.124	226.38
256.357	222.38
256.59	220.38
256.823	205.38
257.056	190.38
257.289	186.38
257.521	214.38
257.754	213.38
257.987	204.38
258.22	211.38
258.452	218.38
258.685	220.38
258.918	204.38
259.151	204.38
259.383	224.38
259.616	206.38
259.849	208.38
260.081	225.38
260.314	227.38
260.547	250.38
260.779	235.38
261.012	226.38
261.244	230.38
261.477	232.38
261.71	235.38
261.942	229.38
262.175	238.38
262.407	238.38
262.64	225.38
262.872	214.38
263.105	205.38
263.337	193.38
263.57	204.38
263.802	214.38
264.035	206.38
264.267	203.38
264.499	195.38
264.732	203.38
264.964	211.38
265.197	212.38
265.429	199.38
265.661	218.38
265.894	200.38
266.126	230.38
266.358	218.38
266.591	198.38
266.823	227.38
267.055	222.38
267.287	216.38
267.52	222.38
267.752	216.38
267.984	211.38
268.216	208.38
268.448	230.38
268.681	228.38
268.913	231.38
269.145	265.38
269.377	264.38
269.609	264.38
269.841	252.38
270.073	276.38
270.306	286.38
270.538	303.38
270.77	302.38
271.002	298.38
271.234	281.38
271.466	283.38
271.698	306.38
271.93	294.38
272.162	308.38
272.394	305.38
272.626	289.38
272.858	266.38
273.09	281.38
273.322	256.38
273.553	260.38
273.785	255.38
274.017	245.38
274.249	279.38
274.481	260.38
274.713	269.38
274.945	261.38
275.176	263.38
275.408	254.38
275.64	247.38
275.872	260.38
276.104	247.38
276.335	234.38
276.567	256.38
276.799	272.38
277.031	295.38
277.262	304.38
277.494	297.38
277.726	280.38
277.957	282.38
278.189	269.38
278.421	271.38
278.652	251.38
278.884	256.38
279.115	238.38
279.347	267.38
279.579	264.38
279.81	242.38
280.042	246.38
280.273	260.38
280.505	242.38
280.736	265.38
280.968	258.38
281.199	266.38
281.431	251.38
281.662	275.38
281.894	256.38
282.125	269.38
282.356	275.38
282.588	284.38
282.819	300.38
283.051	240.38
283.282	256.38
283.513	254.38
283.745	249.38
283.976	258.38
284.207	268.38
284.439	266.38
284.67	257.38
284.901	261.38
285.132	272.38
285.364	268.38
285.595	260.38
285.826	265.38
286.057	269.38
286.288	274.38
286.52	270.38
286.751	251.38
286.982	276.38
287.213	272.38
287.444	268.38
287.675	263.38
287.906	280.38
288.138	286.38
288.369	272.38
288.6	306.38
288.831	271.38
289.062	285.38
289.293	276.38
289.524	294.38
289.755	258.38
289.986	261.38
290.217	281.38
290.448	265.38
290.679	273.38
290.91	260.38
291.141	254.38
291.371	246.38
291.602	276.38
291.833	296.38
292.064	269.38
292.295	262.38
292.526	257.38
292.757	260.38
292.987	282.38
293.218	266.38
293.449	286.38
293.68	287.38
293.91	264.38
294.141	276.38
294.372	256.38
294.603	264.38
294.833	266.38
295.064	294.38
295.295	287.38
295.525	276.38
295.756	289.38
295.987	275.38
296.217	272.38
296.448	314.38
296.679	296.38
296.909	287.38
297.14	287.38
297.37	280.38
297.601	285.38
297.831	285.38
298.062	284.38
298.292	262.38
298.523	284.38
298.753	280.38
298.984	284.38
299.214	270.38
299.445	272.38
299.675	290.38
299.905	282.38
300.136	280.38
300.366	312.38
300.597	296.38
300.827	291.38
301.057	306.38
301.288	322.38
301.518	306.38
301.748	283.38
301.979	318.38
302.209	312.38
302.439	301.38
302.669	317.38
302.9	316.38
303.13	300.38
303.36	314.38
303.59	306.38
303.82	304.38
304.051	304.38
304.281	296.38
304.511	309.38
304.741	296.38
304.971	313.38
305.201	286.38
305.431	307.38
305.661	296.38
305.891	310.38
306.121	301.38
306.352	304.38
306.582	332.38
306.812	319.38
307.042	323.38
307.272	311.38
307.502	304.38
307.731	313.38
307.961	324.38
308.191	308.38
308.421	315.38
308.651	307.38
308.881	328.38
309.111	326.38
309.341	342.38
309.571	336.38
309.8	314.38
310.03	351.38
310.26	347.38
310.49	359.38
310.72	352.38
310.949	381.38
311.179	378.38
311.409	366.38
311.639	370.38
311.868	378.38
312.098	373.38
312.328	377.38
312.557	383.38
312.787	383.38
313.017	390.38
313.246	366.38
313.476	350.38
313.706	357.38
313.935	384.38
314.165	374.38
314.394	384.38
314.624	388.38
314.853	364.38
315.083	366.38
315.312	369.38
315.542	344.38
315.771	343.38
316.001	348.38
316.23	362.38
316.46	347.38
316.689	388.38
316.919	354.38
317.148	364.38
317.377	348.38
317.607	366.38
317.836	375.38
318.065	354.38
318.295	359.38
318.524	329.38
318.753	331.38
318.983	348.38
319.212	373.38
319.441	358.38
319.67	361.38
319.9	364.38
320.129	359.38
320.358	353.38
320.587	359.38
320.816	367.38
321.046	387.38
321.275	385.38
321.504	375.38
321.733	383.38
321.962	383.38
322.191	401.38
322.42	410.38
322.649	417.38
322.878	445.38
323.108	455.38
323.337	460.38
323.566	486.38
323.795	524.38
324.024	599.38
324.253	736.38
324.482	1016.38
324.71	1517.38
324.939	2077.38
325.168	1774.38
325.397	950.38
325.626	632.38
325.855	549.38
326.084	508.38
326.313	517.38
326.542	506.38
326.77	541.38
326.999	659.38
327.228	906.38
327.457	1312.38
327.686	1551.38
327.914	1042.38
328.143	708.38
328.372	622.38
328.6	596.38
328.829	546.38
329.058	542.38
329.287	590.38
329.515	515.38
329.744	483.38
329.972	488.38
330.201	494.38
330.43	551.38
330.658	546.38
330.887	581.38
331.115	557.38
331.344	498.38
331.572	471.38
331.801	461.38
332.03	438.38
332.258	451.38
332.486	437.38
332.715	408.38
332.943	415.38
333.172	404.38
333.4	407.38
333.629	429.38
333.857	429.38
334.085	438.38
334.314	436.38
334.542	454.38
334.771	462.38
334.999	431.38
335.227	402.38
335.455	415.38
335.684	399.38
335.912	401.38
336.14	415.38
336.369	406.38
336.597	390.38
336.825	392.38
337.053	398.38
337.281	403.38
337.51	399.38
337.738	416.38
337.966	400.38
338.194	393.38
338.422	415.38
338.65	400.38
338.878	391.38
339.106	389.38
339.334	404.38
339.562	399.38
339.79	374.38
340.018	400.38
340.246	382.38
340.474	398.38
340.702	399.38
340.93	407.38
341.158	390.38
341.386	413.38
341.614	392.38
341.842	389.38
342.07	395.38
342.298	368.38
342.526	368.38
342.754	370.38
342.981	382.38
343.209	358.38
343.437	379.38
343.665	378.38
343.893	399.38
344.12	370.38
344.348	374.38
344.576	385.38
344.804	395.38
345.031	404.38
345.259	427.38
345.487	408.38
345.714	379.38
345.942	382.38
346.17	370.38
346.397	381.38
346.625	371.38
346.853	369.38
347.08	379.38
347.308	367.38
347.535	396.38
347.763	400.38
347.99	386.38
348.218	374.38
348.445	403.38
348.673	383.38
348.9	374.38
349.128	358.38
349.355	372.38
349.583	372.38
349.81	368.38
350.037	380.38
350.265	351.38
350.492	358.38
350.72	367.38
350.947	359.38
351.174	385.38
351.402	399.38
351.629	389.38
351.856	378.38
352.083	384.38
352.311	402.38
352.538	412.38
352.765	398.38
352.992	374.38
353.22	367.38
353.447	380.38
353.674	363.38
353.901	366.38
354.128	351.38
354.355	348.38
354.583	352.38
354.81	341.38
355.037	341.38
355.264	346.38
355.491	333.38
355.718	345.38
355.945	337.38
356.172	318.38
356.399	343.38
356.626	342.38
356.853	331.38
357.08	357.38
357.307	342.38
357.534	340.38
357.761	350.38
357.988	338.38
358.215	338.38
358.441	350.38
358.668	349.38
358.895	346.38
359.122	364.38
359.349	365.38
359.576	363.38
359.802	398.38
360.029	395.38
360.256	425.38
360.483	399.38
360.709	359.38
360.936	378.38
361.163	370.38
361.39	373.38
361.616	382.38
361.843	363.38
362.07	373.38
362.296	380.38
362.523	377.38
362.749	378.38
362.976	355.38
363.203	356.38
363.429	341.38
363.656	358.38
363.882	366.38
364.109	347.38
364.335	341.38
364.562	364.38
364.788	328.38
365.015	363.38
365.241	342.38
365.468	351.38
365.694	354.38
365.92	347.38
366.147	345.38
366.373	359.38
366.599	347.38
366.826	353.38
367.052	346.38
367.278	342.38
367.505	348.38
367.731	364.38
367.957	347.38
368.184	356.38
368.41	358.38
368.636	346.38
368.862	361.38
369.089	349.38
369.315	350.38
369.541	359.38
369.767	338.38
369.993	361.38
370.219	358.38
370.445	344.38
370.672	332.38
370.898	344.38
371.124	338.38
371.35	327.38
371.576	336.38
371.802	349.38
372.028	347.38
372.254	329.38
372.48	330.38
372.706	354.38
372.932	348.38
373.158	336.38
373.384	337.38
373.61	339.38
373.835	332.38
374.061	346.38
374.287	358.38
374.513	338.38
374.739	345.38
374.965	348.38
375.191	326.38
375.416	345.38
375.642	334.38
375.868	351.38
376.094	350.38
376.319	339.38
376.545	330.38
376.771	338.38
376.997	335.38
377.222	335.38
377.448	333.38
377.674	320.38
377.899	328.38
378.125	327.38
378.35	332.38
378.576	328.38
378.802	319.38
379.027	330.38
379.253	320.38
379.478	322.38
379.704	335.38
379.929	320.38
380.155	336.38
380.38	330.38
380.606	342.38
380.831	326.38
381.057	346.38
381.282	345.38
381.507	326.38
381.733	318.38
381.958	347.38
382.184	353.38
382.409	338.38
382.634	326.38
382.86	347.38
383.085	345.38
383.31	331.38
383.535	325.38
383.761	344.38
383.986	336.38
384.211	338.38
384.436	347.38
384.662	368.38
384.887	338.38
385.112	342.38
385.337	335.38
385.562	352.38
385.787	360.38
386.013	363.38
386.238	367.38
386.463	359.38
386.688	350.38
386.913	345.38
387.138	353.38
387.363	346.38
387.588	347.38
387.813	340.38
388.038	336.38
388.263	348.38
388.488	363.38
388.713	355.38
388.938	350.38
389.163	335.38
389.387	353.38
389.612	333.38
389.837	349.38
390.062	355.38
390.287	345.38
390.512	361.38
390.736	356.38
390.961	342.38
391.186	347.38
391.411	324.38
391.636	342.38
391.86	374.38
392.085	367.38
392.31	364.38
392.534	344.38
392.759	370.38
392.984	342.38
393.208	338.38
393.433	343.38
393.658	343.38
393.882	344.38
394.107	329.38
394.331	353.38
394.556	342.38
394.78	361.38
395.005	330.38
395.229	353.38
395.454	361.38
395.678	355.38
395.903	367.38
396.127	384.38
396.352	378.38
396.576	351.38
396.801	356.38
397.025	359.38
397.249	355.38
397.474	363.38
397.698	376.38
397.922	378.38
398.147	386.38
398.371	400.38
398.595	389.38
398.82	375.38
399.044	382.38
399.268	378.38
399.492	393.38
399.717	432.38
399.941	448.38
400.165	455.38
400.389	467.38
400.613	435.38
400.837	398.38
401.062	406.38
401.286	414.38
401.51	397.38
401.734	394.38
401.958	378.38
402.182	382.38
402.406	400.38
402.63	377.38
402.854	385.38
403.078	404.38
403.302	400.38
403.526	415.38
403.75	388.38
403.974	402.38
404.198	405.38
404.422	402.38
404.645	398.38
404.869	414.38
405.093	416.38
405.317	451.38
405.541	485.38
405.765	447.38
405.988	421.38
406.212	426.38
406.436	438.38
406.66	463.38
406.883	432.38
407.107	459.38
407.331	471.38
407.555	529.38
407.778	532.38
408.002	459.38
408.226	451.38
408.449	431.38
408.673	454.38
408.896	467.38
409.12	486.38
409.344	476.38
409.567	422.38
409.791	420.38
410.014	395.38
410.238	392.38
410.461	399.38
410.685	391.38
410.908	432.38
411.132	428.38
411.355	463.38
411.578	444.38
411.802	422.38
412.025	394.38
412.249	396.38
412.472	419.38
412.695	452.38
412.919	430.38
413.142	417.38
413.365	400.38
413.589	379.38
413.812	391.38
414.035	374.38
414.258	356.38
414.482	395.38
414.705	360.38
414.928	378.38
415.151	364.38
415.374	384.38
415.597	347.38
415.821	370.38
416.044	372.38
416.267	365.38
416.49	363.38
416.713	359.38
416.936	375.38
417.159	368.38
417.382	386.38
417.605	382.38
417.828	390.38
418.051	391.38
418.274	385.38
418.497	382.38
418.72	372.38
418.943	361.38
419.166	404.38
419.389	410.38
419.611	405.38
419.834	406.38
420.057	403.38
420.28	394.38
420.503	387.38
420.726	394.38
420.948	415.38
421.171	450.38
421.394	460.38
421.617	421.38
421.839	401.38
422.062	405.38
422.285	409.38
422.507	461.38
422.73	508.38
422.953	490.38
423.175	452.38
423.398	437.38
423.621	421.38
423.843	419.38
424.066	454.38
424.288	440.38
424.511	436.38
424.733	486.38
424.956	556.38
425.178	532.38
425.401	524.38
425.623	543.38
425.846	455.38
426.068	434.38
426.291	446.38
426.513	436.38
426.735	456.38
426.958	486.38
427.18	561.38
427.402	654.38
427.625	716.38
427.847	641.38
428.069	554.38
428.292	482.38
428.514	457.38
428.736	431.38
428.958	412.38
429.181	410.38
429.403	410.38
429.625	403.38
429.847	428.38
430.069	491.38
430.292	496.38
430.514	411.38
430.736	398.38
430.958	394.38
431.18	398.38
431.402	375.38
431.624	368.38
431.846	385.38
432.068	362.38
432.29	398.38
432.512	384.38
432.734	382.38
432.956	378.38
433.178	403.38
433.4	406.38
433.622	384.38
433.844	373.38
434.066	367.38
434.287	356.38
434.509	371.38
434.731	380.38
434.953	398.38
435.175	386.38
435.397	420.38
435.618	429.38
435.84	490.38
436.062	546.38
436.284	598.38
436.505	522.38
436.727	450.38
436.949	426.38
437.17	392.38
437.392	400.38
437.614	428.38
437.835	451.38
438.057	547.38
438.278	606.38
438.5	615.38
438.721	655.38
438.943	640.38
439.165	514.38
439.386	470.38
439.608	468.38
439.829	460.38
440.05	465.38
440.272	511.38
440.493	469.38
440.715	442.38
440.936	437.38
441.158	434.38
441.379	429.38
441.6	423.38
441.822	439.38
442.043	475.38
442.264	529.38
442.486	563.38
442.707	494.38
442.928	455.38
443.149	463.38
443.371	468.38
443.592	499.38
443.813	575.38
444.034	623.38
444.255	514.38
444.476	432.38
444.698	452.38
444.919	437.38
445.14	549.38
445.361	501.38
445.582	464.38
445.803	511.38
446.024	607.38
446.245	590.38
446.466	557.38
446.687	471.38
446.908	450.38
447.129	434.38
447.35	428.38
447.571	394.38
447.792	384.38
448.013	395.38
448.234	443.38
448.455	454.38
448.675	589.38
448.896	644.38
449.117	571.38
449.338	533.38
449.559	621.38
449.779	671.38
450	560.38
450.221	478.38
450.442	447.38
450.662	421.38
450.883	423.38
451.104	408.38
451.324	390.38
451.545	386.38
451.766	370.38
451.986	366.38
452.207	365.38
452.428	346.38
452.648	379.38
452.869	382.38
453.089	371.38
453.31	384.38
453.53	382.38
453.751	363.38
453.971	360.38
454.192	405.38
454.412	373.38
454.633	361.38
454.853	354.38
455.073	367.38
455.294	386.38
455.514	430.38
455.734	429.38
455.955	379.38
456.175	355.38
456.395	336.38
456.616	353.38
456.836	330.38
457.056	338.38
457.276	345.38
457.497	342.38
457.717	328.38
457.937	335.38
458.157	347.38
458.377	347.38
458.598	367.38
458.818	424.38
459.038	488.38
459.258	498.38
459.478	428.38
459.698	378.38
459.918	372.38
460.138	342.38
460.358	388.38
460.578	363.38
460.798	377.38
461.018	384.38
461.238	363.38
461.458	336.38
461.678	349.38
461.898	367.38
462.118	365.38
462.338	374.38
462.558	380.38
462.777	371.38
462.997	390.38
463.217	398.38
463.437	399.38
463.657	387.38
463.876	389.38
464.096	404.38
464.316	393.38
464.536	415.38
464.755	388.38
464.975	371.38
465.195	455.38
465.414	500.38
465.634	450.38
465.854	396.38
466.073	380.38
466.293	382.38
466.512	361.38
466.732	368.38
466.951	374.38
467.171	378.38
467.391	354.38
467.61	392.38
467.829	386.38
468.049	394.38
468.268	371.38
468.488	360.38
468.707	351.38
468.927	348.38
469.146	328.38
469.365	367.38
469.585	355.38
469.804	378.38
470.023	372.38
470.243	363.38
470.462	376.38
470.681	400.38
470.901	384.38
471.12	377.38
471.339	367.38
471.558	368.38
471.777	376.38
471.997	368.38
472.216	356.38
472.435	393.38
472.654	374.38
472.873	373.38
473.092	364.38
473.311	378.38
473.53	352.38
473.749	382.38
473.968	440.38
474.187	514.38
474.406	520.38
474.625	406.38
474.844	382.38
475.063	361.38
475.282	382.38
475.501	392.38
475.72	394.38
475.939	392.38
476.158	382.38
476.377	407.38
476.596	382.38
476.814	382.38
477.033	389.38
477.252	379.38
477.471	409.38
477.69	399.38
477.908	381.38
478.127	411.38
478.346	402.38
478.564	401.38
478.783	392.38
479.002	404.38
479.22	422.38
479.439	395.38
479.658	439.38
479.876	442.38
480.095	461.38
480.313	463.38
480.532	450.38
480.751	446.38
480.969	448.38
481.188	491.38
481.406	501.38
481.624	464.38
481.843	441.38
482.061	427.38
482.28	427.38
482.498	424.38
482.717	425.38
482.935	424.38
483.153	430.38
483.372	439.38
483.59	413.38
483.808	427.38
484.027	434.38
484.245	428.38
484.463	445.38
484.681	447.38
484.9	435.38
485.118	423.38
485.336	454.38
485.554	464.38
485.772	435.38
485.99	429.38
486.209	440.38
486.427	436.38
486.645	466.38
486.863	475.38
487.081	486.38
487.299	471.38
487.517	471.38
487.735	471.38
487.953	438.38
488.171	464.38
488.389	474.38
488.607	453.38
488.825	480.38
489.043	505.38
489.261	480.38
489.479	502.38
489.696	466.38
489.914	454.38
490.132	490.38
490.35	511.38
490.568	478.38
490.786	474.38
491.003	489.38
491.221	495.38
491.439	530.38
491.657	512.38
491.874	516.38
492.092	518.38
492.31	530.38
492.527	536.38
492.745	518.38
492.963	541.38
493.18	512.38
493.398	518.38
493.615	532.38
493.833	536.38
494.05	542.38
494.268	557.38
494.485	550.38
494.703	561.38
494.92	538.38
495.138	524.38
495.355	552.38
495.573	571.38
495.79	570.38
496.008	545.38
496.225	538.38
496.442	503.38
496.66	552.38
496.877	539.38
497.094	570.38
497.312	557.38
497.529	552.38
497.746	559.38
497.963	585.38
498.181	604.38
498.398	577.38
498.615	596.38
498.832	578.38
499.049	598.38
499.267	602.38
499.484	592.38
499.701	638.38
499.918	648.38
500.135	670.38
500.352	660.38
500.569	649.38
500.786	674.38
501.003	687.38
501.22	658.38
501.437	664.38
501.654	639.38
501.871	667.38
502.088	632.38
