Data from 1981.PennyLincolnUp.Lamp.En5.5.200Scan.071819.P1_HRD10591_16-43-00-960.txt Node
Date: Thu Jul 18 16:43:00 EDT 2019
User: cochatt
Spectrometer: HR+D1059
Trigger mode: 1
Integration Time (sec): 1.000000E-1
Scans to average: 1
Electric dark correction enabled: true
Nonlinearity correction enabled: false
Boxcar width: 0
XAxis mode: Wavelengths
Number of Pixels in Spectrum: 2048
>>>>>Begin Spectral Data<<<<<
223.165	-21.06
223.4	-21.06
223.635	-21.06
223.869	-14.06
224.104	-7.06
224.338	-17.06
224.573	-17.06
224.808	-9.06
225.042	6.94
225.277	-4.06
225.511	-4.06
225.746	-9.06
225.98	-2.06
226.215	5.94
226.449	13.94
226.683	18.94
226.918	16.94
227.152	41.94
227.387	37.94
227.621	39.94
227.856	58.94
228.09	63.94
228.324	48.94
228.559	60.94
228.793	88.94
229.027	109.94
229.262	104.94
229.496	117.94
229.73	121.94
229.964	154.94
230.199	135.94
230.433	125.94
230.667	126.94
230.901	119.94
231.136	115.94
231.37	129.94
231.604	109.94
231.838	126.94
232.072	98.94
232.306	118.94
232.541	133.94
232.775	124.94
233.009	126.94
233.243	123.94
233.477	118.94
233.711	125.94
233.945	110.94
234.179	106.94
234.413	130.94
234.647	116.94
234.881	124.94
235.115	114.94
235.349	112.94
235.583	126.94
235.817	127.94
236.051	133.94
236.285	129.94
236.519	129.94
236.753	145.94
236.987	152.94
237.221	212.94
237.455	258.94
237.689	201.94
237.922	169.94
238.156	150.94
238.39	145.94
238.624	125.94
238.858	139.94
239.091	127.94
239.325	127.94
239.559	126.94
239.793	129.94
240.027	119.94
240.26	152.94
240.494	178.94
240.728	146.94
240.961	170.94
241.195	151.94
241.429	150.94
241.662	129.94
241.896	142.94
242.13	131.94
242.363	150.94
242.597	141.94
242.83	142.94
243.064	144.94
243.298	146.94
243.531	152.94
243.765	160.94
243.998	137.94
244.232	150.94
244.465	167.94
244.699	160.94
244.932	165.94
245.166	156.94
245.399	142.94
245.633	143.94
245.866	156.94
246.099	142.94
246.333	157.94
246.566	161.94
246.8	170.94
247.033	183.94
247.266	166.94
247.5	178.94
247.733	187.94
247.966	184.94
248.2	174.94
248.433	185.94
248.666	181.94
248.899	195.94
249.133	206.94
249.366	206.94
249.599	222.94
249.832	203.94
250.066	191.94
250.299	199.94
250.532	195.94
250.765	218.94
250.998	235.94
251.231	239.94
251.465	224.94
251.698	216.94
251.931	223.94
252.164	210.94
252.397	225.94
252.63	219.94
252.863	218.94
253.096	246.94
253.329	266.94
253.562	248.94
253.795	240.94
254.028	237.94
254.261	233.94
254.494	233.94
254.727	269.94
254.96	313.94
255.193	303.94
255.426	283.94
255.659	265.94
255.892	254.94
256.124	261.94
256.357	238.94
256.59	263.94
256.823	237.94
257.056	243.94
257.289	232.94
257.521	247.94
257.754	226.94
257.987	226.94
258.22	236.94
258.452	227.94
258.685	236.94
258.918	238.94
259.151	237.94
259.383	253.94
259.616	250.94
259.849	239.94
260.081	247.94
260.314	283.94
260.547	269.94
260.779	267.94
261.012	274.94
261.244	254.94
261.477	243.94
261.71	255.94
261.942	251.94
262.175	274.94
262.407	235.94
262.64	227.94
262.872	248.94
263.105	238.94
263.337	223.94
263.57	234.94
263.802	210.94
264.035	229.94
264.267	221.94
264.499	221.94
264.732	212.94
264.964	220.94
265.197	217.94
265.429	225.94
265.661	226.94
265.894	228.94
266.126	234.94
266.358	223.94
266.591	234.94
266.823	233.94
267.055	250.94
267.287	259.94
267.52	237.94
267.752	252.94
267.984	249.94
268.216	232.94
268.448	246.94
268.681	253.94
268.913	275.94
269.145	295.94
269.377	296.94
269.609	289.94
269.841	310.94
270.073	290.94
270.306	306.94
270.538	353.94
270.77	342.94
271.002	333.94
271.234	314.94
271.466	311.94
271.698	353.94
271.93	359.94
272.162	365.94
272.394	345.94
272.626	342.94
272.858	332.94
273.09	314.94
273.322	311.94
273.553	304.94
273.785	297.94
274.017	302.94
274.249	297.94
274.481	279.94
274.713	285.94
274.945	299.94
275.176	302.94
275.408	290.94
275.64	279.94
275.872	282.94
276.104	281.94
276.335	283.94
276.567	288.94
276.799	318.94
277.031	348.94
277.262	361.94
277.494	347.94
277.726	347.94
277.957	302.94
278.189	313.94
278.421	305.94
278.652	284.94
278.884	283.94
279.115	303.94
279.347	293.94
279.579	286.94
279.81	288.94
280.042	285.94
280.273	293.94
280.505	283.94
280.736	290.94
280.968	294.94
281.199	277.94
281.431	280.94
281.662	299.94
281.894	287.94
282.125	297.94
282.356	315.94
282.588	322.94
282.819	323.94
283.051	295.94
283.282	294.94
283.513	291.94
283.745	294.94
283.976	307.94
284.207	329.94
284.439	300.94
284.67	285.94
284.901	300.94
285.132	283.94
285.364	281.94
285.595	289.94
285.826	287.94
286.057	307.94
286.288	282.94
286.52	289.94
286.751	276.94
286.982	311.94
287.213	298.94
287.444	294.94
287.675	310.94
287.906	301.94
288.138	313.94
288.369	315.94
288.6	310.94
288.831	338.94
289.062	315.94
289.293	304.94
289.524	310.94
289.755	292.94
289.986	304.94
290.217	301.94
290.448	283.94
290.679	305.94
290.91	288.94
291.141	312.94
291.371	305.94
291.602	306.94
291.833	289.94
292.064	293.94
292.295	300.94
292.526	303.94
292.757	310.94
292.987	309.94
293.218	301.94
293.449	316.94
293.68	310.94
293.91	299.94
294.141	303.94
294.372	296.94
294.603	293.94
294.833	293.94
295.064	300.94
295.295	322.94
295.525	321.94
295.756	314.94
295.987	310.94
296.217	340.94
296.448	370.94
296.679	332.94
296.909	321.94
297.14	311.94
297.37	319.94
297.601	319.94
297.831	310.94
298.062	314.94
298.292	309.94
298.523	319.94
298.753	296.94
298.984	314.94
299.214	322.94
299.445	329.94
299.675	341.94
299.905	310.94
300.136	322.94
300.366	327.94
300.597	333.94
300.827	315.94
301.057	337.94
301.288	353.94
301.518	337.94
301.748	326.94
301.979	341.94
302.209	356.94
302.439	347.94
302.669	340.94
302.9	315.94
303.13	326.94
303.36	335.94
303.59	360.94
303.82	344.94
304.051	348.94
304.281	346.94
304.511	330.94
304.741	347.94
304.971	335.94
305.201	346.94
305.431	326.94
305.661	337.94
305.891	348.94
306.121	331.94
306.352	349.94
306.582	348.94
306.812	358.94
307.042	344.94
307.272	338.94
307.502	338.94
307.731	347.94
307.961	339.94
308.191	343.94
308.421	357.94
308.651	357.94
308.881	352.94
309.111	356.94
309.341	355.94
309.571	358.94
309.8	389.94
310.03	381.94
310.26	396.94
310.49	394.94
310.72	408.94
310.949	421.94
311.179	438.94
311.409	413.94
311.639	387.94
311.868	399.94
312.098	424.94
312.328	416.94
312.557	449.94
312.787	446.94
313.017	415.94
313.246	412.94
313.476	398.94
313.706	411.94
313.935	386.94
314.165	436.94
314.394	454.94
314.624	426.94
314.853	409.94
315.083	404.94
315.312	392.94
315.542	413.94
315.771	381.94
316.001	381.94
316.23	406.94
316.46	402.94
316.689	389.94
316.919	421.94
317.148	419.94
317.377	409.94
317.607	415.94
317.836	401.94
318.065	395.94
318.295	393.94
318.524	393.94
318.753	380.94
318.983	414.94
319.212	415.94
319.441	397.94
319.67	433.94
319.9	419.94
320.129	398.94
320.358	424.94
320.587	412.94
320.816	415.94
321.046	432.94
321.275	438.94
321.504	447.94
321.733	459.94
321.962	447.94
322.191	456.94
322.42	488.94
322.649	498.94
322.878	524.94
323.108	511.94
323.337	530.94
323.566	559.94
323.795	607.94
324.024	689.94
324.253	857.94
324.482	1237.94
324.71	1889.94
324.939	2590.94
325.168	2187.94
325.397	1161.94
325.626	781.94
325.855	629.94
326.084	589.94
326.313	577.94
326.542	580.94
326.77	645.94
326.999	760.94
327.228	1069.94
327.457	1601.94
327.686	1901.94
327.914	1260.94
328.143	829.94
328.372	729.94
328.6	667.94
328.829	659.94
329.058	652.94
329.287	660.94
329.515	613.94
329.744	582.94
329.972	563.94
330.201	572.94
330.43	635.94
330.658	655.94
330.887	664.94
331.115	659.94
331.344	570.94
331.572	520.94
331.801	552.94
332.03	543.94
332.258	507.94
332.486	483.94
332.715	475.94
332.943	488.94
333.172	488.94
333.4	459.94
333.629	472.94
333.857	503.94
334.085	519.94
334.314	520.94
334.542	553.94
334.771	575.94
334.999	499.94
335.227	478.94
335.455	466.94
335.684	440.94
335.912	448.94
336.14	430.94
336.369	444.94
336.597	475.94
336.825	447.94
337.053	456.94
337.281	428.94
337.51	441.94
337.738	455.94
337.966	466.94
338.194	450.94
338.422	453.94
338.65	453.94
338.878	435.94
339.106	434.94
339.334	431.94
339.562	429.94
339.79	416.94
340.018	461.94
340.246	457.94
340.474	445.94
340.702	462.94
340.93	437.94
341.158	429.94
341.386	442.94
341.614	442.94
341.842	459.94
342.07	445.94
342.298	422.94
342.526	428.94
342.754	418.94
342.981	418.94
343.209	432.94
343.437	425.94
343.665	430.94
343.893	421.94
344.12	444.94
344.348	429.94
344.576	448.94
344.804	447.94
345.031	461.94
345.259	432.94
345.487	463.94
345.714	436.94
345.942	433.94
346.17	445.94
346.397	419.94
346.625	437.94
346.853	414.94
347.08	437.94
347.308	449.94
347.535	452.94
347.763	450.94
347.99	441.94
348.218	438.94
348.445	446.94
348.673	432.94
348.9	429.94
349.128	439.94
349.355	411.94
349.583	416.94
349.81	416.94
350.037	399.94
350.265	397.94
350.492	398.94
350.72	422.94
350.947	396.94
351.174	427.94
351.402	435.94
351.629	419.94
351.856	435.94
352.083	448.94
352.311	464.94
352.538	440.94
352.765	451.94
352.992	431.94
353.22	420.94
353.447	415.94
353.674	413.94
353.901	385.94
354.128	392.94
354.355	386.94
354.583	384.94
354.81	387.94
355.037	384.94
355.264	365.94
355.491	385.94
355.718	382.94
355.945	385.94
356.172	364.94
356.399	370.94
356.626	390.94
356.853	377.94
357.08	386.94
357.307	384.94
357.534	381.94
357.761	395.94
357.988	389.94
358.215	404.94
358.441	379.94
358.668	384.94
358.895	398.94
359.122	391.94
359.349	404.94
359.576	419.94
359.802	442.94
360.029	474.94
360.256	482.94
360.483	462.94
360.709	438.94
360.936	429.94
361.163	439.94
361.39	411.94
361.616	412.94
361.843	414.94
362.07	414.94
362.296	417.94
362.523	407.94
362.749	416.94
362.976	405.94
363.203	385.94
363.429	383.94
363.656	397.94
363.882	404.94
364.109	391.94
364.335	404.94
364.562	383.94
364.788	381.94
365.015	391.94
365.241	373.94
365.468	395.94
365.694	401.94
365.92	398.94
366.147	371.94
366.373	385.94
366.599	370.94
366.826	369.94
367.052	379.94
367.278	373.94
367.505	368.94
367.731	374.94
367.957	387.94
368.184	387.94
368.41	380.94
368.636	413.94
368.862	398.94
369.089	410.94
369.315	386.94
369.541	389.94
369.767	372.94
369.993	379.94
370.219	362.94
370.445	366.94
370.672	362.94
370.898	363.94
371.124	372.94
371.35	385.94
371.576	382.94
371.802	359.94
372.028	366.94
372.254	357.94
372.48	369.94
372.706	366.94
372.932	365.94
373.158	368.94
373.384	364.94
373.61	370.94
373.835	351.94
374.061	379.94
374.287	382.94
374.513	354.94
374.739	375.94
374.965	405.94
375.191	366.94
375.416	363.94
375.642	361.94
375.868	363.94
376.094	377.94
376.319	387.94
376.545	375.94
376.771	353.94
376.997	369.94
377.222	377.94
377.448	367.94
377.674	358.94
377.899	354.94
378.125	344.94
378.35	355.94
378.576	384.94
378.802	356.94
379.027	359.94
379.253	367.94
379.478	363.94
379.704	351.94
379.929	353.94
380.155	361.94
380.38	353.94
380.606	358.94
380.831	381.94
381.057	369.94
381.282	355.94
381.507	359.94
381.733	358.94
381.958	358.94
382.184	381.94
382.409	360.94
382.634	359.94
382.86	367.94
383.085	382.94
383.31	383.94
383.535	378.94
383.761	374.94
383.986	358.94
384.211	345.94
384.436	397.94
384.662	364.94
384.887	373.94
385.112	366.94
385.337	359.94
385.562	381.94
385.787	386.94
386.013	400.94
386.238	384.94
386.463	390.94
386.688	379.94
386.913	376.94
387.138	377.94
387.363	385.94
387.588	381.94
387.813	390.94
388.038	369.94
388.263	373.94
388.488	391.94
388.713	397.94
388.938	370.94
389.163	391.94
389.387	385.94
389.612	387.94
389.837	380.94
390.062	377.94
390.287	369.94
390.512	385.94
390.736	361.94
390.961	384.94
391.186	383.94
391.411	384.94
391.636	381.94
391.86	402.94
392.085	383.94
392.31	386.94
392.534	374.94
392.759	405.94
392.984	373.94
393.208	375.94
393.433	399.94
393.658	375.94
393.882	361.94
394.107	402.94
394.331	389.94
394.556	393.94
394.78	368.94
395.005	385.94
395.229	374.94
395.454	390.94
395.678	395.94
395.903	374.94
396.127	417.94
396.352	407.94
396.576	394.94
396.801	384.94
397.025	371.94
397.249	376.94
397.474	383.94
397.698	411.94
397.922	410.94
398.147	408.94
398.371	415.94
398.595	425.94
398.82	389.94
399.044	400.94
399.268	407.94
399.492	466.94
399.717	438.94
399.941	486.94
400.165	526.94
400.389	504.94
400.613	460.94
400.837	425.94
401.062	448.94
401.286	424.94
401.51	423.94
401.734	407.94
401.958	421.94
402.182	427.94
402.406	422.94
402.63	431.94
402.854	431.94
403.078	445.94
403.302	442.94
403.526	441.94
403.75	440.94
403.974	442.94
404.198	415.94
404.422	444.94
404.645	464.94
404.869	458.94
405.093	488.94
405.317	503.94
405.541	551.94
405.765	487.94
405.988	470.94
406.212	466.94
406.436	490.94
406.66	487.94
406.883	491.94
407.107	505.94
407.331	551.94
407.555	599.94
407.778	572.94
408.002	501.94
408.226	495.94
408.449	495.94
408.673	471.94
408.896	525.94
409.12	546.94
409.344	533.94
409.567	457.94
409.791	429.94
410.014	433.94
410.238	442.94
410.461	419.94
410.685	431.94
410.908	484.94
411.132	498.94
411.355	513.94
411.578	483.94
411.802	474.94
412.025	449.94
412.249	462.94
412.472	454.94
412.695	498.94
412.919	491.94
413.142	443.94
413.365	456.94
413.589	415.94
413.812	425.94
414.035	423.94
414.258	413.94
414.482	421.94
414.705	421.94
414.928	420.94
415.151	408.94
415.374	400.94
415.597	402.94
415.821	423.94
416.044	430.94
416.267	403.94
416.49	432.94
416.713	410.94
416.936	403.94
417.159	411.94
417.382	425.94
417.605	430.94
417.828	419.94
418.051	433.94
418.274	425.94
418.497	391.94
418.72	412.94
418.943	419.94
419.166	427.94
419.389	448.94
419.611	440.94
419.834	453.94
420.057	429.94
420.28	444.94
420.503	432.94
420.726	429.94
420.948	453.94
421.171	486.94
421.394	527.94
421.617	451.94
421.839	440.94
422.062	442.94
422.285	448.94
422.507	506.94
422.73	569.94
422.953	546.94
423.175	474.94
423.398	467.94
423.621	448.94
423.843	466.94
424.066	462.94
424.288	477.94
424.511	492.94
424.733	539.94
424.956	614.94
425.178	589.94
425.401	585.94
425.623	609.94
425.846	535.94
426.068	490.94
426.291	490.94
426.513	495.94
426.735	496.94
426.958	539.94
427.18	613.94
427.402	729.94
427.625	847.94
427.847	721.94
428.069	605.94
428.292	535.94
428.514	501.94
428.736	467.94
428.958	454.94
429.181	443.94
429.403	467.94
429.625	466.94
429.847	475.94
430.069	557.94
430.292	555.94
430.514	477.94
430.736	449.94
430.958	456.94
431.18	424.94
431.402	412.94
431.624	412.94
431.846	411.94
432.068	425.94
432.29	423.94
432.512	414.94
432.734	414.94
432.956	412.94
433.178	456.94
433.4	434.94
433.622	435.94
433.844	428.94
434.066	439.94
434.287	407.94
434.509	409.94
434.731	415.94
434.953	416.94
435.175	456.94
435.397	480.94
435.618	506.94
435.84	517.94
436.062	616.94
436.284	688.94
436.505	562.94
436.727	505.94
436.949	477.94
437.17	431.94
437.392	457.94
437.614	466.94
437.835	506.94
438.057	608.94
438.278	655.94
438.5	677.94
438.721	709.94
438.943	697.94
439.165	553.94
439.386	525.94
439.608	526.94
439.829	502.94
440.05	533.94
440.272	593.94
440.493	552.94
440.715	495.94
440.936	453.94
441.158	475.94
441.379	458.94
441.6	449.94
441.822	482.94
442.043	521.94
442.264	595.94
442.486	630.94
442.707	516.94
442.928	503.94
443.149	491.94
443.371	531.94
443.592	584.94
443.813	651.94
444.034	701.94
444.255	582.94
444.476	517.94
444.698	490.94
444.919	474.94
445.14	591.94
445.361	547.94
445.582	526.94
445.803	603.94
446.024	720.94
446.245	705.94
446.466	625.94
446.687	527.94
446.908	495.94
447.129	472.94
447.35	466.94
447.571	444.94
447.792	445.94
448.013	459.94
448.234	453.94
448.455	520.94
448.675	650.94
448.896	749.94
449.117	627.94
449.338	585.94
449.559	693.94
449.779	781.94
450	624.94
450.221	507.94
450.442	482.94
450.662	452.94
450.883	455.94
451.104	477.94
451.324	470.94
451.545	449.94
451.766	418.94
451.986	410.94
452.207	402.94
452.428	389.94
452.648	395.94
452.869	398.94
453.089	405.94
453.31	425.94
453.53	401.94
453.751	416.94
453.971	414.94
454.192	417.94
454.412	411.94
454.633	413.94
454.853	407.94
455.073	418.94
455.294	437.94
455.514	501.94
455.734	466.94
455.955	398.94
456.175	389.94
456.395	373.94
456.616	390.94
456.836	371.94
457.056	368.94
457.276	382.94
457.497	377.94
457.717	367.94
457.937	373.94
458.157	387.94
458.377	393.94
458.598	434.94
458.818	462.94
459.038	567.94
459.258	570.94
459.478	482.94
459.698	430.94
459.918	424.94
460.138	398.94
460.358	425.94
460.578	395.94
460.798	387.94
461.018	383.94
461.238	394.94
461.458	382.94
461.678	395.94
461.898	420.94
462.118	406.94
462.338	434.94
462.558	417.94
462.777	404.94
462.997	438.94
463.217	429.94
463.437	414.94
463.657	406.94
463.876	422.94
464.096	419.94
464.316	410.94
464.536	438.94
464.755	432.94
464.975	438.94
465.195	487.94
465.414	571.94
465.634	508.94
465.854	461.94
466.073	433.94
466.293	427.94
466.512	417.94
466.732	383.94
466.951	395.94
467.171	389.94
467.391	403.94
467.61	394.94
467.829	430.94
468.049	430.94
468.268	413.94
468.488	395.94
468.707	384.94
468.927	393.94
469.146	376.94
469.365	397.94
469.585	374.94
469.804	400.94
470.023	412.94
470.243	416.94
470.462	416.94
470.681	408.94
470.901	418.94
471.12	424.94
471.339	422.94
471.558	425.94
471.777	408.94
471.997	386.94
472.216	416.94
472.435	422.94
472.654	431.94
472.873	413.94
473.092	413.94
473.311	390.94
473.53	418.94
473.749	461.94
473.968	477.94
474.187	562.94
474.406	602.94
474.625	490.94
474.844	428.94
475.063	439.94
475.282	407.94
475.501	434.94
475.72	442.94
475.939	441.94
476.158	419.94
476.377	424.94
476.596	407.94
476.814	427.94
477.033	446.94
477.252	433.94
477.471	440.94
477.69	446.94
477.908	459.94
478.127	464.94
478.346	447.94
478.564	440.94
478.783	439.94
479.002	464.94
479.22	467.94
479.439	470.94
479.658	479.94
479.876	469.94
480.095	503.94
480.313	540.94
480.532	506.94
480.751	507.94
480.969	510.94
481.188	577.94
481.406	593.94
481.624	529.94
481.843	492.94
482.061	498.94
482.28	471.94
482.498	469.94
482.717	449.94
482.935	484.94
483.153	477.94
483.372	485.94
483.59	487.94
483.808	476.94
484.027	465.94
484.245	476.94
484.463	479.94
484.681	478.94
484.9	480.94
485.118	493.94
485.336	497.94
485.554	494.94
485.772	495.94
485.99	481.94
486.209	490.94
486.427	518.94
486.645	506.94
486.863	518.94
487.081	523.94
487.299	501.94
487.517	498.94
487.735	518.94
487.953	503.94
488.171	537.94
488.389	535.94
488.607	517.94
488.825	506.94
489.043	498.94
489.261	527.94
489.479	543.94
489.696	539.94
489.914	544.94
490.132	547.94
490.35	527.94
490.568	535.94
490.786	552.94
491.003	542.94
491.221	574.94
491.439	578.94
491.657	574.94
491.874	580.94
492.092	581.94
492.31	589.94
492.527	597.94
492.745	602.94
492.963	594.94
493.18	605.94
493.398	605.94
493.615	606.94
493.833	629.94
494.05	608.94
494.268	608.94
494.485	607.94
494.703	592.94
494.92	607.94
495.138	605.94
495.355	600.94
495.573	605.94
495.79	607.94
496.008	593.94
496.225	617.94
496.442	619.94
496.66	606.94
496.877	619.94
497.094	622.94
497.312	601.94
497.529	617.94
497.746	632.94
497.963	636.94
498.181	642.94
498.398	641.94
498.615	651.94
498.832	659.94
499.049	669.94
499.267	657.94
499.484	670.94
499.701	695.94
499.918	699.94
500.135	721.94
500.352	741.94
500.569	759.94
500.786	752.94
501.003	775.94
501.22	770.94
501.437	747.94
501.654	720.94
501.871	712.94
