Data from 1981.PennyLincolnUp.Lamp.En5.5.200Scan.071819.P1_HRD10591_16-43-29-960.txt Node
Date: Thu Jul 18 16:43:29 EDT 2019
User: cochatt
Spectrometer: HR+D1059
Trigger mode: 1
Integration Time (sec): 1.000000E-1
Scans to average: 1
Electric dark correction enabled: true
Nonlinearity correction enabled: false
Boxcar width: 0
XAxis mode: Wavelengths
Number of Pixels in Spectrum: 2048
>>>>>Begin Spectral Data<<<<<
223.165	-16.06
223.4	-16.06
223.635	-16.06
223.869	-12.06
224.104	-3.06
224.338	-20.06
224.573	-14.06
224.808	-18.06
225.042	-0.06
225.277	-14.06
225.511	7.94
225.746	9.94
225.98	13.94
226.215	-9.06
226.449	7.94
226.683	12.94
226.918	22.94
227.152	30.94
227.387	26.94
227.621	43.94
227.856	45.94
228.09	53.94
228.324	59.94
228.559	43.94
228.793	73.94
229.027	101.94
229.262	115.94
229.496	126.94
229.73	142.94
229.964	156.94
230.199	155.94
230.433	122.94
230.667	120.94
230.901	124.94
231.136	113.94
231.37	103.94
231.604	115.94
231.838	96.94
232.072	117.94
232.306	111.94
232.541	125.94
232.775	121.94
233.009	131.94
233.243	119.94
233.477	117.94
233.711	115.94
233.945	119.94
234.179	126.94
234.413	125.94
234.647	115.94
234.881	129.94
235.115	125.94
235.349	127.94
235.583	126.94
235.817	130.94
236.051	126.94
236.285	120.94
236.519	132.94
236.753	122.94
236.987	152.94
237.221	201.94
237.455	231.94
237.689	193.94
237.922	148.94
238.156	141.94
238.39	120.94
238.624	130.94
238.858	143.94
239.091	135.94
239.325	135.94
239.559	125.94
239.793	131.94
240.027	135.94
240.26	148.94
240.494	179.94
240.728	155.94
240.961	156.94
241.195	159.94
241.429	148.94
241.662	141.94
241.896	146.94
242.13	141.94
242.363	137.94
242.597	134.94
242.83	147.94
243.064	142.94
243.298	153.94
243.531	141.94
243.765	144.94
243.998	155.94
244.232	144.94
244.465	149.94
244.699	149.94
244.932	163.94
245.166	131.94
245.399	139.94
245.633	138.94
245.866	165.94
246.099	160.94
246.333	161.94
246.566	156.94
246.8	160.94
247.033	155.94
247.266	167.94
247.5	162.94
247.733	165.94
247.966	164.94
248.2	168.94
248.433	172.94
248.666	179.94
248.899	206.94
249.133	199.94
249.366	224.94
249.599	215.94
249.832	206.94
250.066	196.94
250.299	199.94
250.532	207.94
250.765	217.94
250.998	252.94
251.231	249.94
251.465	238.94
251.698	213.94
251.931	207.94
252.164	195.94
252.397	209.94
252.63	215.94
252.863	207.94
253.096	227.94
253.329	244.94
253.562	263.94
253.795	238.94
254.028	221.94
254.261	223.94
254.494	259.94
254.727	279.94
254.96	309.94
255.193	296.94
255.426	260.94
255.659	251.94
255.892	261.94
256.124	254.94
256.357	268.94
256.59	242.94
256.823	230.94
257.056	235.94
257.289	241.94
257.521	239.94
257.754	226.94
257.987	219.94
258.22	219.94
258.452	230.94
258.685	220.94
258.918	225.94
259.151	218.94
259.383	225.94
259.616	231.94
259.849	246.94
260.081	251.94
260.314	267.94
260.547	286.94
260.779	250.94
261.012	272.94
261.244	260.94
261.477	249.94
261.71	222.94
261.942	226.94
262.175	229.94
262.407	245.94
262.64	227.94
262.872	224.94
263.105	238.94
263.337	227.94
263.57	221.94
263.802	238.94
264.035	212.94
264.267	222.94
264.499	225.94
264.732	217.94
264.964	223.94
265.197	230.94
265.429	231.94
265.661	215.94
265.894	222.94
266.126	211.94
266.358	219.94
266.591	213.94
266.823	227.94
267.055	247.94
267.287	239.94
267.52	226.94
267.752	233.94
267.984	244.94
268.216	255.94
268.448	243.94
268.681	247.94
268.913	260.94
269.145	284.94
269.377	313.94
269.609	292.94
269.841	300.94
270.073	272.94
270.306	288.94
270.538	335.94
270.77	349.94
271.002	331.94
271.234	324.94
271.466	331.94
271.698	341.94
271.93	351.94
272.162	361.94
272.394	373.94
272.626	337.94
272.858	305.94
273.09	290.94
273.322	293.94
273.553	278.94
273.785	291.94
274.017	278.94
274.249	275.94
274.481	301.94
274.713	308.94
274.945	286.94
275.176	279.94
275.408	293.94
275.64	292.94
275.872	276.94
276.104	286.94
276.335	283.94
276.567	299.94
276.799	312.94
277.031	336.94
277.262	350.94
277.494	343.94
277.726	341.94
277.957	311.94
278.189	284.94
278.421	293.94
278.652	301.94
278.884	276.94
279.115	277.94
279.347	283.94
279.579	282.94
279.81	277.94
280.042	279.94
280.273	277.94
280.505	279.94
280.736	278.94
280.968	276.94
281.199	268.94
281.431	257.94
281.662	256.94
281.894	282.94
282.125	297.94
282.356	312.94
282.588	303.94
282.819	341.94
283.051	306.94
283.282	285.94
283.513	296.94
283.745	297.94
283.976	285.94
284.207	291.94
284.439	290.94
284.67	292.94
284.901	285.94
285.132	293.94
285.364	283.94
285.595	287.94
285.826	291.94
286.057	291.94
286.288	273.94
286.52	285.94
286.751	305.94
286.982	294.94
287.213	294.94
287.444	273.94
287.675	280.94
287.906	311.94
288.138	321.94
288.369	303.94
288.6	304.94
288.831	301.94
289.062	303.94
289.293	300.94
289.524	292.94
289.755	292.94
289.986	285.94
290.217	280.94
290.448	302.94
290.679	283.94
290.91	307.94
291.141	309.94
291.371	272.94
291.602	277.94
291.833	301.94
292.064	288.94
292.295	287.94
292.526	289.94
292.757	305.94
292.987	304.94
293.218	292.94
293.449	311.94
293.68	287.94
293.91	287.94
294.141	287.94
294.372	271.94
294.603	310.94
294.833	294.94
295.064	301.94
295.295	292.94
295.525	310.94
295.756	315.94
295.987	331.94
296.217	342.94
296.448	329.94
296.679	315.94
296.909	322.94
297.14	283.94
297.37	294.94
297.601	307.94
297.831	309.94
298.062	312.94
298.292	308.94
298.523	288.94
298.753	295.94
298.984	306.94
299.214	313.94
299.445	296.94
299.675	317.94
299.905	313.94
300.136	333.94
300.366	320.94
300.597	289.94
300.827	316.94
301.057	336.94
301.288	336.94
301.518	337.94
301.748	325.94
301.979	328.94
302.209	325.94
302.439	340.94
302.669	329.94
302.9	329.94
303.13	333.94
303.36	317.94
303.59	334.94
303.82	350.94
304.051	326.94
304.281	337.94
304.511	328.94
304.741	336.94
304.971	343.94
305.201	317.94
305.431	344.94
305.661	323.94
305.891	320.94
306.121	331.94
306.352	337.94
306.582	325.94
306.812	337.94
307.042	340.94
307.272	340.94
307.502	339.94
307.731	334.94
307.961	341.94
308.191	349.94
308.421	362.94
308.651	335.94
308.881	349.94
309.111	351.94
309.341	352.94
309.571	381.94
309.8	373.94
310.03	398.94
310.26	410.94
310.49	393.94
310.72	416.94
310.949	437.94
311.179	414.94
311.409	383.94
311.639	387.94
311.868	383.94
312.098	405.94
312.328	396.94
312.557	398.94
312.787	416.94
313.017	425.94
313.246	410.94
313.476	385.94
313.706	393.94
313.935	380.94
314.165	431.94
314.394	424.94
314.624	428.94
314.853	406.94
315.083	406.94
315.312	392.94
315.542	383.94
315.771	369.94
316.001	373.94
316.23	378.94
316.46	398.94
316.689	381.94
316.919	387.94
317.148	389.94
317.377	412.94
317.607	410.94
317.836	409.94
318.065	395.94
318.295	400.94
318.524	409.94
318.753	381.94
318.983	393.94
319.212	389.94
319.441	409.94
319.67	414.94
319.9	402.94
320.129	412.94
320.358	412.94
320.587	415.94
320.816	399.94
321.046	415.94
321.275	421.94
321.504	412.94
321.733	410.94
321.962	428.94
322.191	443.94
322.42	480.94
322.649	456.94
322.878	508.94
323.108	521.94
323.337	531.94
323.566	561.94
323.795	598.94
324.024	684.94
324.253	808.94
324.482	1235.94
324.71	1875.94
324.939	2510.94
325.168	2180.94
325.397	1152.94
325.626	790.94
325.855	635.94
326.084	581.94
326.313	559.94
326.542	583.94
326.77	645.94
326.999	743.94
327.228	1073.94
327.457	1582.94
327.686	1847.94
327.914	1266.94
328.143	844.94
328.372	706.94
328.6	651.94
328.829	644.94
329.058	640.94
329.287	638.94
329.515	614.94
329.744	533.94
329.972	575.94
330.201	572.94
330.43	616.94
330.658	652.94
330.887	671.94
331.115	649.94
331.344	577.94
331.572	533.94
331.801	547.94
332.03	517.94
332.258	504.94
332.486	465.94
332.715	455.94
332.943	473.94
333.172	469.94
333.4	461.94
333.629	448.94
333.857	478.94
334.085	493.94
334.314	524.94
334.542	540.94
334.771	546.94
334.999	503.94
335.227	481.94
335.455	483.94
335.684	453.94
335.912	456.94
336.14	445.94
336.369	435.94
336.597	444.94
336.825	446.94
337.053	462.94
337.281	440.94
337.51	428.94
337.738	450.94
337.966	447.94
338.194	456.94
338.422	445.94
338.65	424.94
338.878	431.94
339.106	425.94
339.334	433.94
339.562	432.94
339.79	430.94
340.018	422.94
340.246	422.94
340.474	423.94
340.702	429.94
340.93	424.94
341.158	442.94
341.386	419.94
341.614	437.94
341.842	415.94
342.07	428.94
342.298	408.94
342.526	418.94
342.754	412.94
342.981	387.94
343.209	409.94
343.437	432.94
343.665	424.94
343.893	416.94
344.12	422.94
344.348	403.94
344.576	433.94
344.804	423.94
345.031	440.94
345.259	446.94
345.487	442.94
345.714	422.94
345.942	411.94
346.17	425.94
346.397	406.94
346.625	407.94
346.853	397.94
347.08	388.94
347.308	429.94
347.535	425.94
347.763	453.94
347.99	419.94
348.218	409.94
348.445	429.94
348.673	435.94
348.9	412.94
349.128	409.94
349.355	386.94
349.583	389.94
349.81	404.94
350.037	399.94
350.265	397.94
350.492	410.94
350.72	395.94
350.947	403.94
351.174	420.94
351.402	402.94
351.629	436.94
351.856	427.94
352.083	428.94
352.311	444.94
352.538	440.94
352.765	450.94
352.992	423.94
353.22	395.94
353.447	406.94
353.674	398.94
353.901	385.94
354.128	374.94
354.355	385.94
354.583	376.94
354.81	374.94
355.037	390.94
355.264	358.94
355.491	374.94
355.718	352.94
355.945	364.94
356.172	356.94
356.399	364.94
356.626	357.94
356.853	356.94
357.08	353.94
357.307	373.94
357.534	360.94
357.761	379.94
357.988	371.94
358.215	387.94
358.441	366.94
358.668	365.94
358.895	391.94
359.122	387.94
359.349	406.94
359.576	391.94
359.802	416.94
360.029	453.94
360.256	459.94
360.483	443.94
360.709	396.94
360.936	419.94
361.163	368.94
361.39	406.94
361.616	398.94
361.843	391.94
362.07	409.94
362.296	397.94
362.523	398.94
362.749	383.94
362.976	371.94
363.203	402.94
363.429	396.94
363.656	390.94
363.882	363.94
364.109	375.94
364.335	377.94
364.562	378.94
364.788	365.94
365.015	375.94
365.241	382.94
365.468	380.94
365.694	380.94
365.92	396.94
366.147	373.94
366.373	365.94
366.599	363.94
366.826	355.94
367.052	367.94
367.278	351.94
367.505	359.94
367.731	385.94
367.957	389.94
368.184	367.94
368.41	397.94
368.636	383.94
368.862	393.94
369.089	384.94
369.315	369.94
369.541	376.94
369.767	364.94
369.993	366.94
370.219	365.94
370.445	373.94
370.672	345.94
370.898	379.94
371.124	356.94
371.35	359.94
371.576	347.94
371.802	364.94
372.028	344.94
372.254	367.94
372.48	370.94
372.706	369.94
372.932	358.94
373.158	361.94
373.384	364.94
373.61	372.94
373.835	379.94
374.061	345.94
374.287	365.94
374.513	347.94
374.739	372.94
374.965	375.94
375.191	341.94
375.416	366.94
375.642	341.94
375.868	369.94
376.094	363.94
376.319	361.94
376.545	342.94
376.771	368.94
376.997	359.94
377.222	361.94
377.448	352.94
377.674	356.94
377.899	355.94
378.125	351.94
378.35	362.94
378.576	359.94
378.802	334.94
379.027	369.94
379.253	366.94
379.478	343.94
379.704	343.94
379.929	342.94
380.155	370.94
380.38	359.94
380.606	389.94
380.831	351.94
381.057	351.94
381.282	356.94
381.507	347.94
381.733	353.94
381.958	361.94
382.184	356.94
382.409	355.94
382.634	364.94
382.86	369.94
383.085	366.94
383.31	360.94
383.535	365.94
383.761	356.94
383.986	339.94
384.211	357.94
384.436	371.94
384.662	371.94
384.887	376.94
385.112	355.94
385.337	371.94
385.562	359.94
385.787	368.94
386.013	401.94
386.238	381.94
386.463	380.94
386.688	380.94
386.913	348.94
387.138	359.94
387.363	371.94
387.588	368.94
387.813	371.94
388.038	368.94
388.263	358.94
388.488	374.94
388.713	355.94
388.938	381.94
389.163	385.94
389.387	389.94
389.612	363.94
389.837	361.94
390.062	355.94
390.287	363.94
390.512	364.94
390.736	359.94
390.961	371.94
391.186	367.94
391.411	373.94
391.636	357.94
391.86	373.94
392.085	368.94
392.31	385.94
392.534	368.94
392.759	379.94
392.984	353.94
393.208	350.94
393.433	381.94
393.658	374.94
393.882	345.94
394.107	362.94
394.331	352.94
394.556	364.94
394.78	368.94
395.005	358.94
395.229	360.94
395.454	368.94
395.678	392.94
395.903	403.94
396.127	405.94
396.352	406.94
396.576	392.94
396.801	381.94
397.025	381.94
397.249	392.94
397.474	393.94
397.698	403.94
397.922	380.94
398.147	412.94
398.371	408.94
398.595	413.94
398.82	393.94
399.044	396.94
399.268	424.94
399.492	439.94
399.717	453.94
399.941	464.94
400.165	496.94
400.389	493.94
400.613	454.94
400.837	421.94
401.062	409.94
401.286	411.94
401.51	425.94
401.734	433.94
401.958	411.94
402.182	421.94
402.406	420.94
402.63	427.94
402.854	420.94
403.078	414.94
403.302	424.94
403.526	433.94
403.75	421.94
403.974	414.94
404.198	416.94
404.422	432.94
404.645	432.94
404.869	433.94
405.093	482.94
405.317	490.94
405.541	532.94
405.765	478.94
405.988	447.94
406.212	478.94
406.436	474.94
406.66	494.94
406.883	473.94
407.107	495.94
407.331	516.94
407.555	563.94
407.778	568.94
408.002	527.94
408.226	490.94
408.449	461.94
408.673	460.94
408.896	490.94
409.12	531.94
409.344	525.94
409.567	446.94
409.791	417.94
410.014	411.94
410.238	424.94
410.461	449.94
410.685	447.94
410.908	452.94
411.132	473.94
411.355	500.94
411.578	484.94
411.802	469.94
412.025	438.94
412.249	455.94
412.472	466.94
412.695	504.94
412.919	479.94
413.142	448.94
413.365	425.94
413.589	417.94
413.812	398.94
414.035	382.94
414.258	419.94
414.482	387.94
414.705	393.94
414.928	402.94
415.151	407.94
415.374	389.94
415.597	389.94
415.821	404.94
416.044	402.94
416.267	401.94
416.49	398.94
416.713	401.94
416.936	387.94
417.159	390.94
417.382	413.94
417.605	421.94
417.828	422.94
418.051	437.94
418.274	413.94
418.497	395.94
418.72	402.94
418.943	415.94
419.166	409.94
419.389	411.94
419.611	409.94
419.834	414.94
420.057	430.94
420.28	427.94
420.503	424.94
420.726	421.94
420.948	445.94
421.171	469.94
421.394	521.94
421.617	469.94
421.839	437.94
422.062	444.94
422.285	432.94
422.507	503.94
422.73	555.94
422.953	528.94
423.175	478.94
423.398	451.94
423.621	461.94
423.843	458.94
424.066	462.94
424.288	479.94
424.511	486.94
424.733	529.94
424.956	587.94
425.178	598.94
425.401	571.94
425.623	573.94
425.846	496.94
426.068	471.94
426.291	470.94
426.513	478.94
426.735	463.94
426.958	520.94
427.18	590.94
427.402	687.94
427.625	775.94
427.847	706.94
428.069	617.94
428.292	531.94
428.514	478.94
428.736	455.94
428.958	460.94
429.181	432.94
429.403	438.94
429.625	465.94
429.847	472.94
430.069	537.94
430.292	528.94
430.514	436.94
430.736	439.94
430.958	439.94
431.18	400.94
431.402	424.94
431.624	392.94
431.846	398.94
432.068	384.94
432.29	399.94
432.512	407.94
432.734	422.94
432.956	411.94
433.178	423.94
433.4	420.94
433.622	396.94
433.844	410.94
434.066	406.94
434.287	412.94
434.509	394.94
434.731	409.94
434.953	412.94
435.175	423.94
435.397	448.94
435.618	470.94
435.84	523.94
436.062	586.94
436.284	660.94
436.505	559.94
436.727	483.94
436.949	438.94
437.17	452.94
437.392	422.94
437.614	477.94
437.835	497.94
438.057	585.94
438.278	686.94
438.5	640.94
438.721	715.94
438.943	679.94
439.165	557.94
439.386	507.94
439.608	486.94
439.829	493.94
440.05	526.94
440.272	559.94
440.493	513.94
440.715	482.94
440.936	455.94
441.158	448.94
441.379	455.94
441.6	446.94
441.822	481.94
442.043	515.94
442.264	595.94
442.486	633.94
442.707	525.94
442.928	492.94
443.149	478.94
443.371	511.94
443.592	572.94
443.813	621.94
444.034	665.94
444.255	571.94
444.476	493.94
444.698	465.94
444.919	461.94
445.14	565.94
445.361	535.94
445.582	535.94
445.803	570.94
446.024	678.94
446.245	690.94
446.466	604.94
446.687	520.94
446.908	503.94
447.129	447.94
447.35	445.94
447.571	446.94
447.792	419.94
448.013	453.94
448.234	476.94
448.455	502.94
448.675	623.94
448.896	722.94
449.117	587.94
449.338	574.94
449.559	651.94
449.779	702.94
450	612.94
450.221	496.94
450.442	460.94
450.662	439.94
450.883	423.94
451.104	465.94
451.324	437.94
451.545	437.94
451.766	405.94
451.986	404.94
452.207	405.94
452.428	387.94
452.648	385.94
452.869	395.94
453.089	405.94
453.31	428.94
453.53	401.94
453.751	404.94
453.971	404.94
454.192	418.94
454.412	407.94
454.633	391.94
454.853	380.94
455.073	383.94
455.294	410.94
455.514	499.94
455.734	444.94
455.955	391.94
456.175	362.94
456.395	366.94
456.616	364.94
456.836	371.94
457.056	343.94
457.276	366.94
457.497	369.94
457.717	358.94
457.937	359.94
458.157	387.94
458.377	379.94
458.598	420.94
458.818	457.94
459.038	518.94
459.258	565.94
459.478	430.94
459.698	391.94
459.918	411.94
460.138	397.94
460.358	380.94
460.578	388.94
460.798	406.94
461.018	399.94
461.238	379.94
461.458	359.94
461.678	373.94
461.898	401.94
462.118	392.94
462.338	391.94
462.558	393.94
462.777	409.94
462.997	394.94
463.217	415.94
463.437	425.94
463.657	406.94
463.876	410.94
464.096	399.94
464.316	414.94
464.536	411.94
464.755	414.94
464.975	444.94
465.195	471.94
465.414	552.94
465.634	479.94
465.854	443.94
466.073	407.94
466.293	396.94
466.512	413.94
466.732	392.94
466.951	382.94
467.171	396.94
467.391	399.94
467.61	397.94
467.829	408.94
468.049	401.94
468.268	410.94
468.488	379.94
468.707	374.94
468.927	386.94
469.146	383.94
469.365	376.94
469.585	384.94
469.804	364.94
470.023	428.94
470.243	385.94
470.462	408.94
470.681	412.94
470.901	417.94
471.12	399.94
471.339	395.94
471.558	412.94
471.777	403.94
471.997	403.94
472.216	389.94
472.435	431.94
472.654	420.94
472.873	386.94
473.092	401.94
473.311	390.94
473.53	403.94
473.749	411.94
473.968	463.94
474.187	565.94
474.406	562.94
474.625	453.94
474.844	422.94
475.063	407.94
475.282	400.94
475.501	408.94
475.72	410.94
475.939	394.94
476.158	389.94
476.377	405.94
476.596	408.94
476.814	408.94
477.033	422.94
477.252	441.94
477.471	452.94
477.69	422.94
477.908	412.94
478.127	427.94
478.346	419.94
478.564	427.94
478.783	430.94
479.002	430.94
479.22	446.94
479.439	469.94
479.658	485.94
479.876	474.94
480.095	500.94
480.313	503.94
480.532	481.94
480.751	502.94
480.969	499.94
481.188	553.94
481.406	609.94
481.624	513.94
481.843	473.94
482.061	480.94
482.28	484.94
482.498	459.94
482.717	469.94
482.935	458.94
483.153	472.94
483.372	454.94
483.59	441.94
483.808	458.94
484.027	471.94
484.245	459.94
484.463	473.94
484.681	462.94
484.9	458.94
485.118	480.94
485.336	464.94
485.554	478.94
485.772	469.94
485.99	473.94
486.209	500.94
486.427	471.94
486.645	504.94
486.863	514.94
487.081	527.94
487.299	476.94
487.517	509.94
487.735	483.94
487.953	480.94
488.171	492.94
488.389	495.94
488.607	503.94
488.825	486.94
489.043	512.94
489.261	527.94
489.479	517.94
489.696	503.94
489.914	526.94
490.132	519.94
490.35	501.94
490.568	507.94
490.786	526.94
491.003	560.94
491.221	545.94
491.439	534.94
491.657	537.94
491.874	549.94
492.092	583.94
492.31	572.94
492.527	579.94
492.745	567.94
492.963	603.94
493.18	569.94
493.398	568.94
493.615	600.94
493.833	593.94
494.05	588.94
494.268	548.94
494.485	584.94
494.703	595.94
494.92	573.94
495.138	580.94
495.355	612.94
495.573	590.94
495.79	581.94
496.008	599.94
496.225	589.94
496.442	607.94
496.66	588.94
496.877	597.94
497.094	582.94
497.312	592.94
497.529	599.94
497.746	612.94
497.963	592.94
498.181	632.94
498.398	643.94
498.615	618.94
498.832	638.94
499.049	631.94
499.267	663.94
499.484	650.94
499.701	648.94
499.918	684.94
500.135	692.94
500.352	721.94
500.569	705.94
500.786	716.94
501.003	726.94
501.22	699.94
501.437	687.94
501.654	715.94
501.871	726.94
