Data from 1981.PennyLincolnUp.Lamp.En5.5.200Scan.071819.P1_HRD10591_16-40-50-958.txt Node
Date: Thu Jul 18 16:40:50 EDT 2019
User: cochatt
Spectrometer: HR+D1059
Trigger mode: 1
Integration Time (sec): 1.000000E-1
Scans to average: 1
Electric dark correction enabled: true
Nonlinearity correction enabled: false
Boxcar width: 0
XAxis mode: Wavelengths
Number of Pixels in Spectrum: 2048
>>>>>Begin Spectral Data<<<<<
223.165	-12.62
223.4	-12.62
223.635	-12.62
223.869	-18.62
224.104	-22.62
224.338	-1.62
224.573	-16.62
224.808	-6.62
225.042	-2.62
225.277	-8.62
225.511	-1.62
225.746	-6.62
225.98	9.38
226.215	13.38
226.449	10.38
226.683	35.38
226.918	20.38
227.152	9.38
227.387	36.38
227.621	44.38
227.856	43.38
228.09	31.38
228.324	51.38
228.559	65.38
228.793	66.38
229.027	89.38
229.262	98.38
229.496	106.38
229.73	126.38
229.964	150.38
230.199	114.38
230.433	113.38
230.667	108.38
230.901	108.38
231.136	104.38
231.37	96.38
231.604	101.38
231.838	107.38
232.072	109.38
232.306	116.38
232.541	120.38
232.775	104.38
233.009	118.38
233.243	96.38
233.477	102.38
233.711	123.38
233.945	118.38
234.179	112.38
234.413	116.38
234.647	105.38
234.881	105.38
235.115	93.38
235.349	107.38
235.583	123.38
235.817	125.38
236.051	117.38
236.285	113.38
236.519	108.38
236.753	118.38
236.987	144.38
237.221	166.38
237.455	219.38
237.689	164.38
237.922	128.38
238.156	126.38
238.39	140.38
238.624	104.38
238.858	124.38
239.091	112.38
239.325	120.38
239.559	116.38
239.793	131.38
240.027	123.38
240.26	136.38
240.494	144.38
240.728	140.38
240.961	149.38
241.195	150.38
241.429	150.38
241.662	143.38
241.896	129.38
242.13	126.38
242.363	129.38
242.597	121.38
242.83	138.38
243.064	135.38
243.298	152.38
243.531	132.38
243.765	121.38
243.998	133.38
244.232	131.38
244.465	141.38
244.699	137.38
244.932	146.38
245.166	136.38
245.399	142.38
245.633	152.38
245.866	149.38
246.099	144.38
246.333	144.38
246.566	162.38
246.8	142.38
247.033	155.38
247.266	154.38
247.5	157.38
247.733	154.38
247.966	169.38
248.2	159.38
248.433	154.38
248.666	172.38
248.899	173.38
249.133	157.38
249.366	211.38
249.599	183.38
249.832	178.38
250.066	177.38
250.299	166.38
250.532	197.38
250.765	184.38
250.998	215.38
251.231	235.38
251.465	212.38
251.698	201.38
251.931	215.38
252.164	196.38
252.397	192.38
252.63	189.38
252.863	198.38
253.096	214.38
253.329	224.38
253.562	204.38
253.795	210.38
254.028	212.38
254.261	216.38
254.494	233.38
254.727	248.38
254.96	260.38
255.193	276.38
255.426	242.38
255.659	212.38
255.892	222.38
256.124	212.38
256.357	217.38
256.59	220.38
256.823	217.38
257.056	204.38
257.289	200.38
257.521	213.38
257.754	204.38
257.987	199.38
258.22	202.38
258.452	213.38
258.685	212.38
258.918	207.38
259.151	229.38
259.383	214.38
259.616	194.38
259.849	231.38
260.081	225.38
260.314	243.38
260.547	251.38
260.779	247.38
261.012	229.38
261.244	217.38
261.477	240.38
261.71	207.38
261.942	233.38
262.175	240.38
262.407	218.38
262.64	200.38
262.872	196.38
263.105	213.38
263.337	209.38
263.57	221.38
263.802	214.38
264.035	192.38
264.267	183.38
264.499	191.38
264.732	215.38
264.964	205.38
265.197	208.38
265.429	208.38
265.661	197.38
265.894	207.38
266.126	210.38
266.358	216.38
266.591	210.38
266.823	223.38
267.055	231.38
267.287	213.38
267.52	217.38
267.752	209.38
267.984	206.38
268.216	208.38
268.448	218.38
268.681	225.38
268.913	229.38
269.145	255.38
269.377	248.38
269.609	274.38
269.841	254.38
270.073	256.38
270.306	279.38
270.538	308.38
270.77	302.38
271.002	287.38
271.234	278.38
271.466	295.38
271.698	296.38
271.93	295.38
272.162	306.38
272.394	290.38
272.626	294.38
272.858	284.38
273.09	289.38
273.322	264.38
273.553	270.38
273.785	246.38
274.017	264.38
274.249	257.38
274.481	270.38
274.713	258.38
274.945	256.38
275.176	265.38
275.408	249.38
275.64	253.38
275.872	249.38
276.104	268.38
276.335	267.38
276.567	263.38
276.799	266.38
277.031	285.38
277.262	301.38
277.494	280.38
277.726	276.38
277.957	264.38
278.189	264.38
278.421	273.38
278.652	267.38
278.884	271.38
279.115	254.38
279.347	269.38
279.579	246.38
279.81	275.38
280.042	258.38
280.273	248.38
280.505	237.38
280.736	274.38
280.968	262.38
281.199	253.38
281.431	224.38
281.662	266.38
281.894	255.38
282.125	247.38
282.356	285.38
282.588	277.38
282.819	283.38
283.051	253.38
283.282	257.38
283.513	261.38
283.745	276.38
283.976	266.38
284.207	274.38
284.439	265.38
284.67	262.38
284.901	262.38
285.132	270.38
285.364	268.38
285.595	274.38
285.826	275.38
286.057	256.38
286.288	277.38
286.52	271.38
286.751	272.38
286.982	281.38
287.213	253.38
287.444	257.38
287.675	283.38
287.906	280.38
288.138	282.38
288.369	269.38
288.6	274.38
288.831	274.38
289.062	269.38
289.293	287.38
289.524	264.38
289.755	271.38
289.986	281.38
290.217	255.38
290.448	276.38
290.679	266.38
290.91	272.38
291.141	277.38
291.371	273.38
291.602	258.38
291.833	273.38
292.064	280.38
292.295	281.38
292.526	260.38
292.757	264.38
292.987	263.38
293.218	300.38
293.449	286.38
293.68	273.38
293.91	296.38
294.141	281.38
294.372	265.38
294.603	291.38
294.833	256.38
295.064	266.38
295.295	271.38
295.525	283.38
295.756	285.38
295.987	287.38
296.217	293.38
296.448	301.38
296.679	299.38
296.909	274.38
297.14	256.38
297.37	282.38
297.601	270.38
297.831	268.38
298.062	276.38
298.292	270.38
298.523	287.38
298.753	284.38
298.984	286.38
299.214	287.38
299.445	293.38
299.675	291.38
299.905	290.38
300.136	295.38
300.366	290.38
300.597	294.38
300.827	288.38
301.057	297.38
301.288	309.38
301.518	319.38
301.748	292.38
301.979	304.38
302.209	283.38
302.439	304.38
302.669	305.38
302.9	289.38
303.13	304.38
303.36	304.38
303.59	311.38
303.82	321.38
304.051	298.38
304.281	298.38
304.511	301.38
304.741	311.38
304.971	284.38
305.201	297.38
305.431	306.38
305.661	304.38
305.891	302.38
306.121	307.38
306.352	301.38
306.582	300.38
306.812	309.38
307.042	296.38
307.272	321.38
307.502	316.38
307.731	328.38
307.961	297.38
308.191	288.38
308.421	318.38
308.651	318.38
308.881	327.38
309.111	324.38
309.341	327.38
309.571	334.38
309.8	339.38
310.03	354.38
310.26	354.38
310.49	341.38
310.72	357.38
310.949	361.38
311.179	372.38
311.409	382.38
311.639	349.38
311.868	362.38
312.098	344.38
312.328	368.38
312.557	381.38
312.787	370.38
313.017	380.38
313.246	363.38
313.476	347.38
313.706	349.38
313.935	360.38
314.165	352.38
314.394	377.38
314.624	366.38
314.853	362.38
315.083	360.38
315.312	348.38
315.542	352.38
315.771	350.38
316.001	356.38
316.23	353.38
316.46	364.38
316.689	355.38
316.919	368.38
317.148	340.38
317.377	376.38
317.607	371.38
317.836	346.38
318.065	356.38
318.295	374.38
318.524	353.38
318.753	340.38
318.983	344.38
319.212	338.38
319.441	365.38
319.67	356.38
319.9	364.38
320.129	338.38
320.358	363.38
320.587	352.38
320.816	376.38
321.046	373.38
321.275	378.38
321.504	377.38
321.733	389.38
321.962	383.38
322.191	380.38
322.42	409.38
322.649	390.38
322.878	425.38
323.108	437.38
323.337	465.38
323.566	495.38
323.795	537.38
324.024	572.38
324.253	683.38
324.482	986.38
324.71	1501.38
324.939	2060.38
325.168	1751.38
325.397	932.38
325.626	632.38
325.855	528.38
326.084	512.38
326.313	485.38
326.542	490.38
326.77	513.38
326.999	620.38
327.228	843.38
327.457	1260.38
327.686	1475.38
327.914	1003.38
328.143	676.38
328.372	615.38
328.6	568.38
328.829	540.38
329.058	519.38
329.287	540.38
329.515	524.38
329.744	477.38
329.972	483.38
330.201	472.38
330.43	509.38
330.658	526.38
330.887	547.38
331.115	555.38
331.344	490.38
331.572	463.38
331.801	444.38
332.03	450.38
332.258	420.38
332.486	425.38
332.715	442.38
332.943	445.38
333.172	404.38
333.4	410.38
333.629	416.38
333.857	429.38
334.085	439.38
334.314	434.38
334.542	473.38
334.771	472.38
334.999	429.38
335.227	410.38
335.455	412.38
335.684	413.38
335.912	384.38
336.14	424.38
336.369	387.38
336.597	422.38
336.825	419.38
337.053	381.38
337.281	394.38
337.51	380.38
337.738	396.38
337.966	385.38
338.194	395.38
338.422	398.38
338.65	409.38
338.878	396.38
339.106	399.38
339.334	416.38
339.562	392.38
339.79	368.38
340.018	396.38
340.246	386.38
340.474	390.38
340.702	414.38
340.93	398.38
341.158	370.38
341.386	376.38
341.614	389.38
341.842	396.38
342.07	400.38
342.298	364.38
342.526	380.38
342.754	368.38
342.981	388.38
343.209	392.38
343.437	362.38
343.665	380.38
343.893	394.38
344.12	389.38
344.348	416.38
344.576	386.38
344.804	389.38
345.031	394.38
345.259	392.38
345.487	416.38
345.714	409.38
345.942	370.38
346.17	391.38
346.397	376.38
346.625	377.38
346.853	355.38
347.08	372.38
347.308	392.38
347.535	384.38
347.763	381.38
347.99	388.38
348.218	373.38
348.445	398.38
348.673	397.38
348.9	396.38
349.128	376.38
349.355	358.38
349.583	368.38
349.81	364.38
350.037	368.38
350.265	363.38
350.492	338.38
350.72	352.38
350.947	370.38
351.174	364.38
351.402	374.38
351.629	393.38
351.856	370.38
352.083	368.38
352.311	369.38
352.538	380.38
352.765	388.38
352.992	384.38
353.22	377.38
353.447	358.38
353.674	364.38
353.901	338.38
354.128	349.38
354.355	350.38
354.583	363.38
354.81	342.38
355.037	345.38
355.264	337.38
355.491	356.38
355.718	338.38
355.945	348.38
356.172	352.38
356.399	340.38
356.626	354.38
356.853	343.38
357.08	360.38
357.307	348.38
357.534	334.38
357.761	350.38
357.988	346.38
358.215	371.38
358.441	347.38
358.668	347.38
358.895	331.38
359.122	359.38
359.349	361.38
359.576	378.38
359.802	374.38
360.029	397.38
360.256	422.38
360.483	390.38
360.709	378.38
360.936	398.38
361.163	362.38
361.39	378.38
361.616	376.38
361.843	377.38
362.07	371.38
362.296	372.38
362.523	356.38
362.749	364.38
362.976	339.38
363.203	360.38
363.429	348.38
363.656	347.38
363.882	356.38
364.109	342.38
364.335	332.38
364.562	341.38
364.788	364.38
365.015	360.38
365.241	339.38
365.468	346.38
365.694	360.38
365.92	348.38
366.147	351.38
366.373	352.38
366.599	355.38
366.826	338.38
367.052	338.38
367.278	340.38
367.505	362.38
367.731	359.38
367.957	346.38
368.184	354.38
368.41	344.38
368.636	344.38
368.862	364.38
369.089	358.38
369.315	341.38
369.541	352.38
369.767	340.38
369.993	363.38
370.219	334.38
370.445	350.38
370.672	325.38
370.898	340.38
371.124	345.38
371.35	336.38
371.576	344.38
371.802	340.38
372.028	344.38
372.254	349.38
372.48	344.38
372.706	333.38
372.932	337.38
373.158	362.38
373.384	334.38
373.61	345.38
373.835	345.38
374.061	346.38
374.287	353.38
374.513	342.38
374.739	345.38
374.965	361.38
375.191	352.38
375.416	338.38
375.642	337.38
375.868	334.38
376.094	337.38
376.319	331.38
376.545	329.38
376.771	334.38
376.997	339.38
377.222	357.38
377.448	343.38
377.674	346.38
377.899	344.38
378.125	326.38
378.35	335.38
378.576	333.38
378.802	317.38
379.027	337.38
379.253	331.38
379.478	347.38
379.704	327.38
379.929	334.38
380.155	344.38
380.38	350.38
380.606	351.38
380.831	338.38
381.057	341.38
381.282	330.38
381.507	331.38
381.733	341.38
381.958	332.38
382.184	323.38
382.409	338.38
382.634	330.38
382.86	345.38
383.085	366.38
383.31	345.38
383.535	331.38
383.761	352.38
383.986	334.38
384.211	336.38
384.436	340.38
384.662	355.38
384.887	339.38
385.112	350.38
385.337	353.38
385.562	335.38
385.787	345.38
386.013	376.38
386.238	353.38
386.463	371.38
386.688	361.38
386.913	334.38
387.138	351.38
387.363	348.38
387.588	342.38
387.813	348.38
388.038	344.38
388.263	367.38
388.488	348.38
388.713	355.38
388.938	341.38
389.163	366.38
389.387	375.38
389.612	331.38
389.837	349.38
390.062	358.38
390.287	360.38
390.512	338.38
390.736	361.38
390.961	330.38
391.186	342.38
391.411	349.38
391.636	352.38
391.86	340.38
392.085	341.38
392.31	341.38
392.534	363.38
392.759	350.38
392.984	331.38
393.208	362.38
393.433	367.38
393.658	344.38
393.882	333.38
394.107	360.38
394.331	333.38
394.556	346.38
394.78	354.38
395.005	342.38
395.229	361.38
395.454	372.38
395.678	364.38
395.903	380.38
396.127	377.38
396.352	386.38
396.576	380.38
396.801	353.38
397.025	359.38
397.249	373.38
397.474	362.38
397.698	372.38
397.922	366.38
398.147	385.38
398.371	390.38
398.595	373.38
398.82	389.38
399.044	383.38
399.268	406.38
399.492	429.38
399.717	421.38
399.941	443.38
400.165	454.38
400.389	478.38
400.613	425.38
400.837	415.38
401.062	408.38
401.286	409.38
401.51	392.38
401.734	386.38
401.958	376.38
402.182	409.38
402.406	378.38
402.63	397.38
402.854	396.38
403.078	381.38
403.302	406.38
403.526	400.38
403.75	399.38
403.974	406.38
404.198	387.38
404.422	403.38
404.645	425.38
404.869	420.38
405.093	435.38
405.317	449.38
405.541	479.38
405.765	429.38
405.988	412.38
406.212	423.38
406.436	429.38
406.66	469.38
406.883	427.38
407.107	442.38
407.331	481.38
407.555	519.38
407.778	530.38
408.002	484.38
408.226	478.38
408.449	438.38
408.673	441.38
408.896	459.38
409.12	504.38
409.344	477.38
409.567	429.38
409.791	421.38
410.014	398.38
410.238	402.38
410.461	411.38
410.685	412.38
410.908	408.38
411.132	422.38
411.355	476.38
411.578	451.38
411.802	421.38
412.025	415.38
412.249	388.38
412.472	401.38
412.695	437.38
412.919	428.38
413.142	421.38
413.365	395.38
413.589	398.38
413.812	382.38
414.035	382.38
414.258	392.38
414.482	376.38
414.705	369.38
414.928	384.38
415.151	366.38
415.374	380.38
415.597	387.38
415.821	376.38
416.044	388.38
416.267	355.38
416.49	378.38
416.713	356.38
416.936	361.38
417.159	366.38
417.382	377.38
417.605	382.38
417.828	402.38
418.051	406.38
418.274	392.38
418.497	378.38
418.72	384.38
418.943	358.38
419.166	372.38
419.389	402.38
419.611	396.38
419.834	398.38
420.057	409.38
420.28	397.38
420.503	376.38
420.726	403.38
420.948	407.38
421.171	452.38
421.394	478.38
421.617	415.38
421.839	388.38
422.062	400.38
422.285	403.38
422.507	461.38
422.73	529.38
422.953	501.38
423.175	433.38
423.398	419.38
423.621	412.38
423.843	428.38
424.066	427.38
424.288	413.38
424.511	455.38
424.733	493.38
424.956	560.38
425.178	515.38
425.401	512.38
425.623	540.38
425.846	470.38
426.068	438.38
426.291	442.38
426.513	458.38
426.735	466.38
426.958	497.38
427.18	549.38
427.402	653.38
427.625	711.38
427.847	618.38
428.069	536.38
428.292	488.38
428.514	449.38
428.736	422.38
428.958	420.38
429.181	405.38
429.403	396.38
429.625	424.38
429.847	445.38
430.069	494.38
430.292	478.38
430.514	433.38
430.736	414.38
430.958	412.38
431.18	401.38
431.402	401.38
431.624	379.38
431.846	362.38
432.068	365.38
432.29	374.38
432.512	388.38
432.734	370.38
432.956	390.38
433.178	403.38
433.4	399.38
433.622	401.38
433.844	369.38
434.066	389.38
434.287	377.38
434.509	365.38
434.731	385.38
434.953	388.38
435.175	404.38
435.397	430.38
435.618	442.38
435.84	488.38
436.062	553.38
436.284	596.38
436.505	516.38
436.727	461.38
436.949	410.38
437.17	417.38
437.392	423.38
437.614	413.38
437.835	444.38
438.057	524.38
438.278	600.38
438.5	612.38
438.721	677.38
438.943	629.38
439.165	530.38
439.386	457.38
439.608	442.38
439.829	455.38
440.05	477.38
440.272	516.38
440.493	470.38
440.715	448.38
440.936	427.38
441.158	413.38
441.379	410.38
441.6	413.38
441.822	418.38
442.043	478.38
442.264	540.38
442.486	564.38
442.707	465.38
442.928	430.38
443.149	449.38
443.371	498.38
443.592	522.38
443.813	560.38
444.034	634.38
444.255	514.38
444.476	444.38
444.698	444.38
444.919	436.38
445.14	518.38
445.361	495.38
445.582	473.38
445.803	527.38
446.024	587.38
446.245	612.38
446.466	570.38
446.687	484.38
446.908	442.38
447.129	429.38
447.35	414.38
447.571	408.38
447.792	397.38
448.013	429.38
448.234	446.38
448.455	473.38
448.675	558.38
448.896	652.38
449.117	548.38
449.338	532.38
449.559	618.38
449.779	677.38
450	542.38
450.221	466.38
450.442	427.38
450.662	434.38
450.883	405.38
451.104	420.38
451.324	406.38
451.545	390.38
451.766	380.38
451.986	346.38
452.207	368.38
452.428	368.38
452.648	363.38
452.869	358.38
453.089	370.38
453.31	357.38
453.53	373.38
453.751	354.38
453.971	377.38
454.192	392.38
454.412	380.38
454.633	374.38
454.853	373.38
455.073	380.38
455.294	386.38
455.514	449.38
455.734	441.38
455.955	356.38
456.175	358.38
456.395	350.38
456.616	350.38
456.836	328.38
457.056	346.38
457.276	333.38
457.497	338.38
457.717	334.38
457.937	350.38
458.157	338.38
458.377	368.38
458.598	386.38
458.818	418.38
459.038	502.38
459.258	491.38
459.478	408.38
459.698	388.38
459.918	393.38
460.138	370.38
460.358	389.38
460.578	374.38
460.798	372.38
461.018	356.38
461.238	370.38
461.458	361.38
461.678	380.38
461.898	384.38
462.118	349.38
462.338	403.38
462.558	398.38
462.777	396.38
462.997	404.38
463.217	405.38
463.437	397.38
463.657	393.38
463.876	383.38
464.096	391.38
464.316	385.38
464.536	397.38
464.755	398.38
464.975	408.38
465.195	431.38
465.414	481.38
465.634	442.38
465.854	404.38
466.073	389.38
466.293	368.38
466.512	375.38
466.732	335.38
466.951	363.38
467.171	357.38
467.391	361.38
467.61	368.38
467.829	371.38
468.049	361.38
468.268	372.38
468.488	376.38
468.707	349.38
468.927	370.38
469.146	348.38
469.365	359.38
469.585	375.38
469.804	374.38
470.023	378.38
470.243	373.38
470.462	356.38
470.681	388.38
470.901	379.38
471.12	365.38
471.339	368.38
471.558	392.38
471.777	370.38
471.997	371.38
472.216	379.38
472.435	382.38
472.654	371.38
472.873	358.38
473.092	359.38
473.311	384.38
473.53	384.38
473.749	377.38
473.968	410.38
474.187	503.38
474.406	510.38
474.625	436.38
474.844	380.38
475.063	380.38
475.282	383.38
475.501	387.38
475.72	370.38
475.939	388.38
476.158	376.38
476.377	378.38
476.596	384.38
476.814	389.38
477.033	387.38
477.252	384.38
477.471	402.38
477.69	390.38
477.908	394.38
478.127	404.38
478.346	408.38
478.564	410.38
478.783	417.38
479.002	414.38
479.22	424.38
479.439	419.38
479.658	430.38
479.876	434.38
480.095	444.38
480.313	440.38
480.532	445.38
480.751	466.38
480.969	461.38
481.188	456.38
481.406	499.38
481.624	457.38
481.843	432.38
482.061	445.38
482.28	442.38
482.498	445.38
482.717	435.38
482.935	446.38
483.153	443.38
483.372	456.38
483.59	428.38
483.808	433.38
484.027	425.38
484.245	451.38
484.463	446.38
484.681	434.38
484.9	445.38
485.118	456.38
485.336	438.38
485.554	445.38
485.772	457.38
485.99	449.38
486.209	447.38
486.427	468.38
486.645	468.38
486.863	499.38
487.081	488.38
487.299	464.38
487.517	454.38
487.735	466.38
487.953	477.38
488.171	466.38
488.389	471.38
488.607	468.38
488.825	458.38
489.043	488.38
489.261	502.38
489.479	484.38
489.696	484.38
489.914	472.38
490.132	463.38
490.35	495.38
490.568	473.38
490.786	510.38
491.003	533.38
491.221	529.38
491.439	523.38
491.657	538.38
491.874	517.38
492.092	538.38
492.31	541.38
492.527	534.38
492.745	545.38
492.963	528.38
493.18	543.38
493.398	529.38
493.615	551.38
493.833	544.38
494.05	545.38
494.268	563.38
494.485	553.38
494.703	532.38
494.92	540.38
495.138	536.38
495.355	530.38
495.573	567.38
495.79	555.38
496.008	571.38
496.225	548.38
496.442	536.38
496.66	556.38
496.877	552.38
497.094	557.38
497.312	550.38
497.529	578.38
497.746	574.38
497.963	599.38
498.181	591.38
498.398	589.38
498.615	599.38
498.832	602.38
499.049	614.38
499.267	612.38
499.484	609.38
499.701	637.38
499.918	639.38
500.135	660.38
500.352	659.38
500.569	695.38
500.786	696.38
501.003	695.38
501.22	684.38
501.437	686.38
501.654	675.38
501.871	694.38
502.088	669.38
