Data from 1981.PennyLincolnUp.Lamp.En5.5.200Scan.071819.P1_HRD10591_16-41-55-959.txt Node
Date: Thu Jul 18 16:41:55 EDT 2019
User: cochatt
Spectrometer: HR+D1059
Trigger mode: 1
Integration Time (sec): 1.000000E-1
Scans to average: 1
Electric dark correction enabled: true
Nonlinearity correction enabled: false
Boxcar width: 0
XAxis mode: Wavelengths
Number of Pixels in Spectrum: 2048
>>>>>Begin Spectral Data<<<<<
223.165	-20.81
223.4	-20.81
223.635	-20.81
223.869	-16.81
224.104	-17.81
224.338	-12.81
224.573	-12.81
224.808	-13.81
225.042	5.19
225.277	5.19
225.511	-12.81
225.746	-5.81
225.98	8.19
226.215	20.19
226.449	8.19
226.683	23.19
226.918	20.19
227.152	23.19
227.387	20.19
227.621	34.19
227.856	40.19
228.09	31.19
228.324	40.19
228.559	61.19
228.793	69.19
229.027	102.19
229.262	101.19
229.496	108.19
229.73	135.19
229.964	155.19
230.199	140.19
230.433	115.19
230.667	110.19
230.901	101.19
231.136	124.19
231.37	109.19
231.604	94.19
231.838	113.19
232.072	118.19
232.306	115.19
232.541	108.19
232.775	115.19
233.009	104.19
233.243	107.19
233.477	124.19
233.711	103.19
233.945	123.19
234.179	121.19
234.413	118.19
234.647	117.19
234.881	127.19
235.115	107.19
235.349	117.19
235.583	118.19
235.817	120.19
236.051	122.19
236.285	130.19
236.519	124.19
236.753	137.19
236.987	161.19
237.221	189.19
237.455	225.19
237.689	190.19
237.922	146.19
238.156	149.19
238.39	126.19
238.624	114.19
238.858	139.19
239.091	123.19
239.325	126.19
239.559	143.19
239.793	127.19
240.027	144.19
240.26	148.19
240.494	152.19
240.728	167.19
240.961	147.19
241.195	156.19
241.429	133.19
241.662	137.19
241.896	125.19
242.13	144.19
242.363	142.19
242.597	139.19
242.83	134.19
243.064	133.19
243.298	145.19
243.531	141.19
243.765	147.19
243.998	143.19
244.232	137.19
244.465	146.19
244.699	149.19
244.932	139.19
245.166	135.19
245.399	147.19
245.633	142.19
245.866	157.19
246.099	143.19
246.333	154.19
246.566	166.19
246.8	158.19
247.033	167.19
247.266	153.19
247.5	186.19
247.733	182.19
247.966	162.19
248.2	188.19
248.433	181.19
248.666	192.19
248.899	184.19
249.133	188.19
249.366	206.19
249.599	216.19
249.832	196.19
250.066	197.19
250.299	186.19
250.532	198.19
250.765	209.19
250.998	219.19
251.231	230.19
251.465	233.19
251.698	210.19
251.931	199.19
252.164	214.19
252.397	203.19
252.63	193.19
252.863	220.19
253.096	219.19
253.329	251.19
253.562	222.19
253.795	226.19
254.028	225.19
254.261	235.19
254.494	246.19
254.727	261.19
254.96	286.19
255.193	284.19
255.426	278.19
255.659	255.19
255.892	257.19
256.124	253.19
256.357	247.19
256.59	226.19
256.823	203.19
257.056	230.19
257.289	227.19
257.521	222.19
257.754	220.19
257.987	230.19
258.22	207.19
258.452	222.19
258.685	217.19
258.918	217.19
259.151	202.19
259.383	231.19
259.616	244.19
259.849	243.19
260.081	248.19
260.314	262.19
260.547	261.19
260.779	250.19
261.012	257.19
261.244	245.19
261.477	231.19
261.71	240.19
261.942	252.19
262.175	260.19
262.407	239.19
262.64	242.19
262.872	227.19
263.105	225.19
263.337	226.19
263.57	205.19
263.802	213.19
264.035	232.19
264.267	229.19
264.499	240.19
264.732	228.19
264.964	225.19
265.197	217.19
265.429	205.19
265.661	233.19
265.894	216.19
266.126	234.19
266.358	219.19
266.591	221.19
266.823	230.19
267.055	248.19
267.287	249.19
267.52	223.19
267.752	233.19
267.984	234.19
268.216	251.19
268.448	263.19
268.681	227.19
268.913	245.19
269.145	274.19
269.377	292.19
269.609	276.19
269.841	263.19
270.073	297.19
270.306	292.19
270.538	328.19
270.77	322.19
271.002	323.19
271.234	300.19
271.466	317.19
271.698	329.19
271.93	343.19
272.162	317.19
272.394	333.19
272.626	314.19
272.858	318.19
273.09	309.19
273.322	301.19
273.553	271.19
273.785	274.19
274.017	271.19
274.249	263.19
274.481	270.19
274.713	291.19
274.945	286.19
275.176	297.19
275.408	270.19
275.64	267.19
275.872	267.19
276.104	277.19
276.335	286.19
276.567	283.19
276.799	299.19
277.031	339.19
277.262	341.19
277.494	330.19
277.726	323.19
277.957	298.19
278.189	285.19
278.421	279.19
278.652	277.19
278.884	284.19
279.115	267.19
279.347	282.19
279.579	279.19
279.81	269.19
280.042	267.19
280.273	281.19
280.505	263.19
280.736	286.19
280.968	268.19
281.199	266.19
281.431	265.19
281.662	282.19
281.894	289.19
282.125	275.19
282.356	289.19
282.588	297.19
282.819	327.19
283.051	283.19
283.282	284.19
283.513	287.19
283.745	278.19
283.976	278.19
284.207	289.19
284.439	276.19
284.67	283.19
284.901	285.19
285.132	286.19
285.364	279.19
285.595	280.19
285.826	273.19
286.057	306.19
286.288	277.19
286.52	284.19
286.751	286.19
286.982	281.19
287.213	277.19
287.444	300.19
287.675	294.19
287.906	288.19
288.138	309.19
288.369	294.19
288.6	322.19
288.831	313.19
289.062	305.19
289.293	312.19
289.524	300.19
289.755	302.19
289.986	279.19
290.217	285.19
290.448	278.19
290.679	310.19
290.91	288.19
291.141	277.19
291.371	291.19
291.602	286.19
291.833	299.19
292.064	292.19
292.295	286.19
292.526	295.19
292.757	274.19
292.987	286.19
293.218	287.19
293.449	284.19
293.68	292.19
293.91	291.19
294.141	303.19
294.372	279.19
294.603	283.19
294.833	294.19
295.064	279.19
295.295	282.19
295.525	274.19
295.756	289.19
295.987	307.19
296.217	332.19
296.448	330.19
296.679	302.19
296.909	291.19
297.14	303.19
297.37	317.19
297.601	298.19
297.831	313.19
298.062	307.19
298.292	302.19
298.523	307.19
298.753	297.19
298.984	314.19
299.214	317.19
299.445	302.19
299.675	298.19
299.905	307.19
300.136	298.19
300.366	289.19
300.597	310.19
300.827	329.19
301.057	314.19
301.288	309.19
301.518	318.19
301.748	311.19
301.979	317.19
302.209	329.19
302.439	323.19
302.669	310.19
302.9	327.19
303.13	322.19
303.36	325.19
303.59	317.19
303.82	317.19
304.051	332.19
304.281	325.19
304.511	318.19
304.741	328.19
304.971	335.19
305.201	342.19
305.431	331.19
305.661	333.19
305.891	327.19
306.121	321.19
306.352	337.19
306.582	350.19
306.812	339.19
307.042	336.19
307.272	349.19
307.502	321.19
307.731	339.19
307.961	351.19
308.191	351.19
308.421	327.19
308.651	342.19
308.881	329.19
309.111	335.19
309.341	336.19
309.571	362.19
309.8	353.19
310.03	360.19
310.26	381.19
310.49	393.19
310.72	366.19
310.949	391.19
311.179	419.19
311.409	390.19
311.639	392.19
311.868	387.19
312.098	398.19
312.328	411.19
312.557	410.19
312.787	436.19
313.017	421.19
313.246	421.19
313.476	388.19
313.706	397.19
313.935	401.19
314.165	407.19
314.394	417.19
314.624	401.19
314.853	386.19
315.083	403.19
315.312	389.19
315.542	405.19
315.771	376.19
316.001	369.19
316.23	385.19
316.46	371.19
316.689	398.19
316.919	393.19
317.148	415.19
317.377	421.19
317.607	393.19
317.836	395.19
318.065	402.19
318.295	385.19
318.524	374.19
318.753	384.19
318.983	382.19
319.212	387.19
319.441	397.19
319.67	397.19
319.9	386.19
320.129	371.19
320.358	389.19
320.587	388.19
320.816	415.19
321.046	405.19
321.275	418.19
321.504	417.19
321.733	407.19
321.962	413.19
322.191	437.19
322.42	454.19
322.649	485.19
322.878	483.19
323.108	484.19
323.337	527.19
323.566	541.19
323.795	608.19
324.024	645.19
324.253	811.19
324.482	1187.19
324.71	1793.19
324.939	2411.19
325.168	2058.19
325.397	1068.19
325.626	747.19
325.855	601.19
326.084	558.19
326.313	554.19
326.542	557.19
326.77	627.19
326.999	750.19
327.228	1037.19
327.457	1503.19
327.686	1822.19
327.914	1229.19
328.143	783.19
328.372	676.19
328.6	661.19
328.829	612.19
329.058	638.19
329.287	625.19
329.515	584.19
329.744	553.19
329.972	561.19
330.201	583.19
330.43	601.19
330.658	594.19
330.887	634.19
331.115	622.19
331.344	539.19
331.572	515.19
331.801	507.19
332.03	506.19
332.258	476.19
332.486	461.19
332.715	434.19
332.943	436.19
333.172	460.19
333.4	445.19
333.629	465.19
333.857	463.19
334.085	501.19
334.314	514.19
334.542	505.19
334.771	541.19
334.999	505.19
335.227	460.19
335.455	431.19
335.684	457.19
335.912	451.19
336.14	451.19
336.369	426.19
336.597	450.19
336.825	441.19
337.053	431.19
337.281	409.19
337.51	416.19
337.738	427.19
337.966	417.19
338.194	444.19
338.422	429.19
338.65	450.19
338.878	433.19
339.106	420.19
339.334	430.19
339.562	436.19
339.79	423.19
340.018	407.19
340.246	418.19
340.474	404.19
340.702	427.19
340.93	441.19
341.158	420.19
341.386	441.19
341.614	427.19
341.842	433.19
342.07	417.19
342.298	415.19
342.526	395.19
342.754	400.19
342.981	420.19
343.209	400.19
343.437	394.19
343.665	395.19
343.893	409.19
344.12	419.19
344.348	407.19
344.576	417.19
344.804	426.19
345.031	423.19
345.259	447.19
345.487	446.19
345.714	428.19
345.942	422.19
346.17	421.19
346.397	406.19
346.625	413.19
346.853	403.19
347.08	409.19
347.308	406.19
347.535	418.19
347.763	437.19
347.99	413.19
348.218	412.19
348.445	423.19
348.673	411.19
348.9	398.19
349.128	393.19
349.355	391.19
349.583	395.19
349.81	400.19
350.037	413.19
350.265	418.19
350.492	381.19
350.72	380.19
350.947	413.19
351.174	409.19
351.402	406.19
351.629	413.19
351.856	405.19
352.083	435.19
352.311	427.19
352.538	416.19
352.765	428.19
352.992	406.19
353.22	412.19
353.447	397.19
353.674	402.19
353.901	381.19
354.128	393.19
354.355	379.19
354.583	369.19
354.81	373.19
355.037	382.19
355.264	372.19
355.491	365.19
355.718	366.19
355.945	365.19
356.172	367.19
356.399	364.19
356.626	365.19
356.853	359.19
357.08	365.19
357.307	373.19
357.534	373.19
357.761	381.19
357.988	362.19
358.215	377.19
358.441	366.19
358.668	374.19
358.895	385.19
359.122	388.19
359.349	376.19
359.576	407.19
359.802	415.19
360.029	458.19
360.256	460.19
360.483	433.19
360.709	394.19
360.936	392.19
361.163	393.19
361.39	414.19
361.616	398.19
361.843	396.19
362.07	381.19
362.296	402.19
362.523	384.19
362.749	376.19
362.976	398.19
363.203	392.19
363.429	372.19
363.656	389.19
363.882	361.19
364.109	385.19
364.335	372.19
364.562	361.19
364.788	374.19
365.015	381.19
365.241	366.19
365.468	371.19
365.694	373.19
365.92	372.19
366.147	404.19
366.373	364.19
366.599	363.19
366.826	366.19
367.052	375.19
367.278	378.19
367.505	361.19
367.731	373.19
367.957	373.19
368.184	377.19
368.41	391.19
368.636	392.19
368.862	390.19
369.089	384.19
369.315	359.19
369.541	355.19
369.767	359.19
369.993	374.19
370.219	363.19
370.445	349.19
370.672	342.19
370.898	343.19
371.124	362.19
371.35	348.19
371.576	361.19
371.802	364.19
372.028	372.19
372.254	367.19
372.48	377.19
372.706	353.19
372.932	349.19
373.158	342.19
373.384	364.19
373.61	345.19
373.835	370.19
374.061	366.19
374.287	365.19
374.513	346.19
374.739	354.19
374.965	364.19
375.191	367.19
375.416	358.19
375.642	355.19
375.868	369.19
376.094	352.19
376.319	336.19
376.545	372.19
376.771	338.19
376.997	350.19
377.222	351.19
377.448	345.19
377.674	348.19
377.899	355.19
378.125	360.19
378.35	356.19
378.576	346.19
378.802	353.19
379.027	349.19
379.253	347.19
379.478	352.19
379.704	356.19
379.929	358.19
380.155	343.19
380.38	351.19
380.606	358.19
380.831	352.19
381.057	359.19
381.282	344.19
381.507	341.19
381.733	359.19
381.958	354.19
382.184	345.19
382.409	350.19
382.634	343.19
382.86	350.19
383.085	351.19
383.31	357.19
383.535	380.19
383.761	368.19
383.986	362.19
384.211	345.19
384.436	361.19
384.662	370.19
384.887	347.19
385.112	362.19
385.337	372.19
385.562	344.19
385.787	349.19
386.013	381.19
386.238	374.19
386.463	392.19
386.688	378.19
386.913	350.19
387.138	356.19
387.363	364.19
387.588	371.19
387.813	360.19
388.038	371.19
388.263	369.19
388.488	372.19
388.713	371.19
388.938	383.19
389.163	370.19
389.387	370.19
389.612	372.19
389.837	380.19
390.062	363.19
390.287	379.19
390.512	360.19
390.736	351.19
390.961	365.19
391.186	363.19
391.411	367.19
391.636	376.19
391.86	374.19
392.085	360.19
392.31	359.19
392.534	374.19
392.759	397.19
392.984	376.19
393.208	358.19
393.433	369.19
393.658	371.19
393.882	372.19
394.107	353.19
394.331	352.19
394.556	363.19
394.78	386.19
395.005	369.19
395.229	354.19
395.454	381.19
395.678	379.19
395.903	388.19
396.127	391.19
396.352	398.19
396.576	384.19
396.801	361.19
397.025	383.19
397.249	370.19
397.474	384.19
397.698	393.19
397.922	400.19
398.147	391.19
398.371	395.19
398.595	395.19
398.82	409.19
399.044	405.19
399.268	412.19
399.492	419.19
399.717	447.19
399.941	471.19
400.165	515.19
400.389	498.19
400.613	452.19
400.837	443.19
401.062	410.19
401.286	415.19
401.51	408.19
401.734	421.19
401.958	403.19
402.182	416.19
402.406	426.19
402.63	410.19
402.854	417.19
403.078	440.19
403.302	419.19
403.526	429.19
403.75	421.19
403.974	428.19
404.198	409.19
404.422	418.19
404.645	413.19
404.869	426.19
405.093	464.19
405.317	502.19
405.541	497.19
405.765	486.19
405.988	457.19
406.212	451.19
406.436	487.19
406.66	505.19
406.883	452.19
407.107	488.19
407.331	500.19
407.555	563.19
407.778	578.19
408.002	533.19
408.226	455.19
408.449	476.19
408.673	461.19
408.896	494.19
409.12	510.19
409.344	510.19
409.567	450.19
409.791	441.19
410.014	427.19
410.238	416.19
410.461	422.19
410.685	423.19
410.908	435.19
411.132	484.19
411.355	497.19
411.578	489.19
411.802	425.19
412.025	448.19
412.249	423.19
412.472	449.19
412.695	463.19
412.919	457.19
413.142	403.19
413.365	441.19
413.589	405.19
413.812	407.19
414.035	404.19
414.258	390.19
414.482	399.19
414.705	400.19
414.928	384.19
415.151	398.19
415.374	396.19
415.597	389.19
415.821	393.19
416.044	384.19
416.267	418.19
416.49	384.19
416.713	407.19
416.936	419.19
417.159	393.19
417.382	400.19
417.605	394.19
417.828	415.19
418.051	415.19
418.274	403.19
418.497	395.19
418.72	380.19
418.943	391.19
419.166	389.19
419.389	409.19
419.611	413.19
419.834	438.19
420.057	445.19
420.28	430.19
420.503	414.19
420.726	405.19
420.948	444.19
421.171	462.19
421.394	453.19
421.617	451.19
421.839	436.19
422.062	408.19
422.285	435.19
422.507	497.19
422.73	538.19
422.953	529.19
423.175	461.19
423.398	443.19
423.621	447.19
423.843	458.19
424.066	459.19
424.288	466.19
424.511	479.19
424.733	543.19
424.956	586.19
425.178	572.19
425.401	573.19
425.623	588.19
425.846	525.19
426.068	462.19
426.291	454.19
426.513	472.19
426.735	492.19
426.958	490.19
427.18	588.19
427.402	702.19
427.625	755.19
427.847	673.19
428.069	595.19
428.292	544.19
428.514	498.19
428.736	444.19
428.958	457.19
429.181	427.19
429.403	431.19
429.625	422.19
429.847	467.19
430.069	529.19
430.292	507.19
430.514	486.19
430.736	442.19
430.958	425.19
431.18	406.19
431.402	389.19
431.624	381.19
431.846	392.19
432.068	391.19
432.29	398.19
432.512	410.19
432.734	418.19
432.956	417.19
433.178	414.19
433.4	410.19
433.622	418.19
433.844	398.19
434.066	409.19
434.287	393.19
434.509	401.19
434.731	405.19
434.953	422.19
435.175	416.19
435.397	443.19
435.618	462.19
435.84	502.19
436.062	613.19
436.284	647.19
436.505	542.19
436.727	491.19
436.949	460.19
437.17	433.19
437.392	435.19
437.614	434.19
437.835	502.19
438.057	575.19
438.278	678.19
438.5	653.19
438.721	732.19
438.943	665.19
439.165	547.19
439.386	486.19
439.608	475.19
439.829	502.19
440.05	517.19
440.272	549.19
440.493	500.19
440.715	473.19
440.936	437.19
441.158	417.19
441.379	427.19
441.6	433.19
441.822	454.19
442.043	523.19
442.264	604.19
442.486	622.19
442.707	533.19
442.928	478.19
443.149	486.19
443.371	517.19
443.592	566.19
443.813	611.19
444.034	681.19
444.255	533.19
444.476	485.19
444.698	459.19
444.919	443.19
445.14	592.19
445.361	525.19
445.582	523.19
445.803	574.19
446.024	682.19
446.245	683.19
446.466	603.19
446.687	511.19
446.908	465.19
447.129	450.19
447.35	422.19
447.571	445.19
447.792	420.19
448.013	451.19
448.234	462.19
448.455	516.19
448.675	581.19
448.896	701.19
449.117	604.19
449.338	583.19
449.559	652.19
449.779	741.19
450	615.19
450.221	490.19
450.442	459.19
450.662	449.19
450.883	456.19
451.104	465.19
451.324	450.19
451.545	420.19
451.766	393.19
451.986	385.19
452.207	383.19
452.428	382.19
452.648	403.19
452.869	393.19
453.089	395.19
453.31	412.19
453.53	397.19
453.751	394.19
453.971	394.19
454.192	413.19
454.412	400.19
454.633	393.19
454.853	395.19
455.073	379.19
455.294	427.19
455.514	482.19
455.734	446.19
455.955	389.19
456.175	377.19
456.395	354.19
456.616	373.19
456.836	366.19
457.056	355.19
457.276	351.19
457.497	386.19
457.717	366.19
457.937	350.19
458.157	363.19
458.377	370.19
458.598	419.19
458.818	461.19
459.038	542.19
459.258	528.19
459.478	458.19
459.698	418.19
459.918	402.19
460.138	372.19
460.358	393.19
460.578	367.19
460.798	397.19
461.018	409.19
461.238	394.19
461.458	399.19
461.678	390.19
461.898	395.19
462.118	395.19
462.338	404.19
462.558	400.19
462.777	398.19
462.997	396.19
463.217	416.19
463.437	415.19
463.657	390.19
463.876	407.19
464.096	437.19
464.316	419.19
464.536	422.19
464.755	415.19
464.975	427.19
465.195	461.19
465.414	558.19
465.634	471.19
465.854	426.19
466.073	417.19
466.293	398.19
466.512	381.19
466.732	366.19
466.951	400.19
467.171	381.19
467.391	378.19
467.61	403.19
467.829	403.19
468.049	423.19
468.268	418.19
468.488	372.19
468.707	385.19
468.927	379.19
469.146	358.19
469.365	375.19
469.585	381.19
469.804	401.19
470.023	390.19
470.243	386.19
470.462	396.19
470.681	423.19
470.901	404.19
471.12	387.19
471.339	383.19
471.558	403.19
471.777	395.19
471.997	386.19
472.216	414.19
472.435	437.19
472.654	403.19
472.873	386.19
473.092	385.19
473.311	383.19
473.53	400.19
473.749	411.19
473.968	447.19
474.187	567.19
474.406	586.19
474.625	468.19
474.844	431.19
475.063	413.19
475.282	409.19
475.501	406.19
475.72	412.19
475.939	415.19
476.158	385.19
476.377	415.19
476.596	403.19
476.814	398.19
477.033	411.19
477.252	425.19
477.471	434.19
477.69	417.19
477.908	415.19
478.127	429.19
478.346	413.19
478.564	441.19
478.783	455.19
479.002	443.19
479.22	430.19
479.439	437.19
479.658	478.19
479.876	470.19
480.095	462.19
480.313	507.19
480.532	483.19
480.751	485.19
480.969	481.19
481.188	563.19
481.406	571.19
481.624	490.19
481.843	492.19
482.061	454.19
482.28	455.19
482.498	457.19
482.717	457.19
482.935	456.19
483.153	467.19
483.372	485.19
483.59	465.19
483.808	464.19
484.027	476.19
484.245	472.19
484.463	466.19
484.681	460.19
484.9	481.19
485.118	478.19
485.336	465.19
485.554	459.19
485.772	477.19
485.99	473.19
486.209	465.19
486.427	460.19
486.645	477.19
486.863	507.19
487.081	500.19
487.299	500.19
487.517	491.19
487.735	502.19
487.953	507.19
488.171	502.19
488.389	465.19
488.607	499.19
488.825	519.19
489.043	517.19
489.261	514.19
489.479	501.19
489.696	494.19
489.914	509.19
490.132	509.19
490.35	511.19
490.568	524.19
490.786	521.19
491.003	553.19
491.221	540.19
491.439	543.19
491.657	566.19
491.874	564.19
492.092	568.19
492.31	563.19
492.527	586.19
492.745	582.19
492.963	577.19
493.18	587.19
493.398	581.19
493.615	605.19
493.833	579.19
494.05	582.19
494.268	571.19
494.485	576.19
494.703	571.19
494.92	576.19
495.138	576.19
495.355	594.19
495.573	592.19
495.79	583.19
496.008	600.19
496.225	576.19
496.442	591.19
496.66	603.19
496.877	590.19
497.094	597.19
497.312	586.19
497.529	613.19
497.746	588.19
497.963	603.19
498.181	647.19
498.398	620.19
498.615	675.19
498.832	645.19
499.049	654.19
499.267	642.19
499.484	659.19
499.701	677.19
499.918	689.19
500.135	713.19
500.352	690.19
500.569	719.19
500.786	707.19
501.003	729.19
501.22	717.19
501.437	721.19
501.654	689.19
501.871	712.19
