Data from 1981.PennyLincolnUp.Lamp.En5.5.200Scan.071819.P1_HRD10591_16-41-59-958.txt Node
Date: Thu Jul 18 16:41:59 EDT 2019
User: cochatt
Spectrometer: HR+D1059
Trigger mode: 1
Integration Time (sec): 1.000000E-1
Scans to average: 1
Electric dark correction enabled: true
Nonlinearity correction enabled: false
Boxcar width: 0
XAxis mode: Wavelengths
Number of Pixels in Spectrum: 2048
>>>>>Begin Spectral Data<<<<<
223.165	-3.25
223.4	-3.25
223.635	-3.25
223.869	-22.25
224.104	-28.25
224.338	-17.25
224.573	-7.25
224.808	-11.25
225.042	-7.25
225.277	-7.25
225.511	2.75
225.746	5.75
225.98	-2.25
226.215	15.75
226.449	3.75
226.683	16.75
226.918	29.75
227.152	31.75
227.387	35.75
227.621	34.75
227.856	56.75
228.09	55.75
228.324	43.75
228.559	54.75
228.793	61.75
229.027	103.75
229.262	113.75
229.496	109.75
229.73	143.75
229.964	168.75
230.199	125.75
230.433	113.75
230.667	107.75
230.901	106.75
231.136	112.75
231.37	105.75
231.604	92.75
231.838	116.75
232.072	116.75
232.306	105.75
232.541	112.75
232.775	114.75
233.009	124.75
233.243	118.75
233.477	127.75
233.711	124.75
233.945	119.75
234.179	105.75
234.413	111.75
234.647	116.75
234.881	117.75
235.115	109.75
235.349	113.75
235.583	108.75
235.817	114.75
236.051	122.75
236.285	115.75
236.519	128.75
236.753	132.75
236.987	164.75
237.221	190.75
237.455	249.75
237.689	205.75
237.922	136.75
238.156	132.75
238.39	136.75
238.624	120.75
238.858	116.75
239.091	132.75
239.325	139.75
239.559	130.75
239.793	134.75
240.027	137.75
240.26	127.75
240.494	162.75
240.728	154.75
240.961	157.75
241.195	146.75
241.429	128.75
241.662	130.75
241.896	132.75
242.13	122.75
242.363	129.75
242.597	139.75
242.83	142.75
243.064	142.75
243.298	147.75
243.531	133.75
243.765	149.75
243.998	150.75
244.232	155.75
244.465	139.75
244.699	133.75
244.932	130.75
245.166	138.75
245.399	145.75
245.633	158.75
245.866	144.75
246.099	148.75
246.333	155.75
246.566	156.75
246.8	143.75
247.033	141.75
247.266	172.75
247.5	161.75
247.733	164.75
247.966	178.75
248.2	180.75
248.433	180.75
248.666	183.75
248.899	171.75
249.133	211.75
249.366	210.75
249.599	195.75
249.832	185.75
250.066	180.75
250.299	192.75
250.532	189.75
250.765	205.75
250.998	213.75
251.231	235.75
251.465	218.75
251.698	205.75
251.931	206.75
252.164	206.75
252.397	220.75
252.63	205.75
252.863	224.75
253.096	219.75
253.329	230.75
253.562	215.75
253.795	252.75
254.028	231.75
254.261	229.75
254.494	236.75
254.727	260.75
254.96	290.75
255.193	290.75
255.426	257.75
255.659	244.75
255.892	246.75
256.124	231.75
256.357	236.75
256.59	236.75
256.823	221.75
257.056	207.75
257.289	226.75
257.521	209.75
257.754	213.75
257.987	234.75
258.22	229.75
258.452	222.75
258.685	227.75
258.918	212.75
259.151	228.75
259.383	233.75
259.616	221.75
259.849	231.75
260.081	247.75
260.314	285.75
260.547	270.75
260.779	269.75
261.012	246.75
261.244	237.75
261.477	252.75
261.71	245.75
261.942	239.75
262.175	237.75
262.407	235.75
262.64	212.75
262.872	224.75
263.105	221.75
263.337	222.75
263.57	229.75
263.802	216.75
264.035	227.75
264.267	224.75
264.499	218.75
264.732	237.75
264.964	218.75
265.197	240.75
265.429	236.75
265.661	208.75
265.894	213.75
266.126	240.75
266.358	215.75
266.591	213.75
266.823	241.75
267.055	218.75
267.287	241.75
267.52	232.75
267.752	234.75
267.984	235.75
268.216	235.75
268.448	249.75
268.681	233.75
268.913	244.75
269.145	276.75
269.377	296.75
269.609	292.75
269.841	290.75
270.073	278.75
270.306	304.75
270.538	326.75
270.77	344.75
271.002	342.75
271.234	324.75
271.466	325.75
271.698	319.75
271.93	350.75
272.162	338.75
272.394	341.75
272.626	345.75
272.858	303.75
273.09	287.75
273.322	302.75
273.553	274.75
273.785	294.75
274.017	274.75
274.249	270.75
274.481	269.75
274.713	276.75
274.945	274.75
275.176	273.75
275.408	268.75
275.64	296.75
275.872	278.75
276.104	269.75
276.335	286.75
276.567	291.75
276.799	287.75
277.031	310.75
277.262	337.75
277.494	324.75
277.726	310.75
277.957	316.75
278.189	277.75
278.421	283.75
278.652	283.75
278.884	266.75
279.115	274.75
279.347	276.75
279.579	284.75
279.81	274.75
280.042	284.75
280.273	268.75
280.505	288.75
280.736	282.75
280.968	271.75
281.199	285.75
281.431	276.75
281.662	268.75
281.894	269.75
282.125	276.75
282.356	292.75
282.588	315.75
282.819	317.75
283.051	278.75
283.282	275.75
283.513	260.75
283.745	268.75
283.976	284.75
284.207	289.75
284.439	286.75
284.67	292.75
284.901	294.75
285.132	273.75
285.364	275.75
285.595	282.75
285.826	285.75
286.057	280.75
286.288	282.75
286.52	278.75
286.751	272.75
286.982	273.75
287.213	278.75
287.444	276.75
287.675	299.75
287.906	298.75
288.138	299.75
288.369	318.75
288.6	322.75
288.831	286.75
289.062	309.75
289.293	279.75
289.524	290.75
289.755	280.75
289.986	288.75
290.217	276.75
290.448	296.75
290.679	296.75
290.91	291.75
291.141	276.75
291.371	278.75
291.602	285.75
291.833	272.75
292.064	290.75
292.295	296.75
292.526	296.75
292.757	302.75
292.987	278.75
293.218	297.75
293.449	283.75
293.68	295.75
293.91	266.75
294.141	279.75
294.372	303.75
294.603	288.75
294.833	276.75
295.064	289.75
295.295	296.75
295.525	292.75
295.756	316.75
295.987	315.75
296.217	330.75
296.448	342.75
296.679	288.75
296.909	309.75
297.14	302.75
297.37	305.75
297.601	279.75
297.831	301.75
298.062	325.75
298.292	317.75
298.523	285.75
298.753	309.75
298.984	298.75
299.214	307.75
299.445	313.75
299.675	283.75
299.905	306.75
300.136	306.75
300.366	301.75
300.597	321.75
300.827	295.75
301.057	305.75
301.288	321.75
301.518	322.75
301.748	310.75
301.979	326.75
302.209	324.75
302.439	323.75
302.669	312.75
302.9	337.75
303.13	329.75
303.36	351.75
303.59	357.75
303.82	337.75
304.051	335.75
304.281	315.75
304.511	328.75
304.741	309.75
304.971	328.75
305.201	325.75
305.431	320.75
305.661	305.75
305.891	321.75
306.121	320.75
306.352	333.75
306.582	346.75
306.812	326.75
307.042	348.75
307.272	352.75
307.502	331.75
307.731	333.75
307.961	350.75
308.191	315.75
308.421	344.75
308.651	339.75
308.881	341.75
309.111	336.75
309.341	357.75
309.571	363.75
309.8	362.75
310.03	378.75
310.26	388.75
310.49	404.75
310.72	417.75
310.949	406.75
311.179	415.75
311.409	384.75
311.639	408.75
311.868	370.75
312.098	380.75
312.328	382.75
312.557	396.75
312.787	412.75
313.017	410.75
313.246	412.75
313.476	384.75
313.706	377.75
313.935	372.75
314.165	393.75
314.394	402.75
314.624	402.75
314.853	406.75
315.083	403.75
315.312	390.75
315.542	378.75
315.771	352.75
316.001	367.75
316.23	380.75
316.46	379.75
316.689	402.75
316.919	390.75
317.148	408.75
317.377	397.75
317.607	394.75
317.836	386.75
318.065	397.75
318.295	390.75
318.524	384.75
318.753	370.75
318.983	394.75
319.212	376.75
319.441	371.75
319.67	402.75
319.9	375.75
320.129	376.75
320.358	382.75
320.587	394.75
320.816	404.75
321.046	418.75
321.275	404.75
321.504	434.75
321.733	417.75
321.962	421.75
322.191	422.75
322.42	455.75
322.649	460.75
322.878	470.75
323.108	498.75
323.337	512.75
323.566	549.75
323.795	591.75
324.024	648.75
324.253	818.75
324.482	1200.75
324.71	1758.75
324.939	2483.75
325.168	2118.75
325.397	1108.75
325.626	774.75
325.855	609.75
326.084	568.75
326.313	532.75
326.542	572.75
326.77	628.75
326.999	747.75
327.228	1060.75
327.457	1561.75
327.686	1773.75
327.914	1218.75
328.143	797.75
328.372	705.75
328.6	641.75
328.829	641.75
329.058	612.75
329.287	624.75
329.515	596.75
329.744	540.75
329.972	539.75
330.201	564.75
330.43	594.75
330.658	627.75
330.887	666.75
331.115	636.75
331.344	546.75
331.572	540.75
331.801	516.75
332.03	508.75
332.258	468.75
332.486	469.75
332.715	450.75
332.943	464.75
333.172	454.75
333.4	463.75
333.629	436.75
333.857	482.75
334.085	496.75
334.314	508.75
334.542	521.75
334.771	538.75
334.999	474.75
335.227	462.75
335.455	444.75
335.684	457.75
335.912	453.75
336.14	449.75
336.369	434.75
336.597	426.75
336.825	438.75
337.053	457.75
337.281	436.75
337.51	426.75
337.738	435.75
337.966	425.75
338.194	427.75
338.422	445.75
338.65	424.75
338.878	405.75
339.106	398.75
339.334	400.75
339.562	427.75
339.79	433.75
340.018	414.75
340.246	414.75
340.474	404.75
340.702	424.75
340.93	404.75
341.158	420.75
341.386	432.75
341.614	423.75
341.842	430.75
342.07	412.75
342.298	422.75
342.526	402.75
342.754	386.75
342.981	384.75
343.209	427.75
343.437	402.75
343.665	404.75
343.893	409.75
344.12	426.75
344.348	418.75
344.576	438.75
344.804	419.75
345.031	440.75
345.259	451.75
345.487	420.75
345.714	422.75
345.942	416.75
346.17	399.75
346.397	387.75
346.625	380.75
346.853	404.75
347.08	402.75
347.308	408.75
347.535	409.75
347.763	423.75
347.99	459.75
348.218	417.75
348.445	429.75
348.673	419.75
348.9	391.75
349.128	398.75
349.355	394.75
349.583	394.75
349.81	374.75
350.037	373.75
350.265	386.75
350.492	387.75
350.72	390.75
350.947	386.75
351.174	434.75
351.402	405.75
351.629	410.75
351.856	407.75
352.083	408.75
352.311	420.75
352.538	433.75
352.765	418.75
352.992	420.75
353.22	391.75
353.447	422.75
353.674	399.75
353.901	390.75
354.128	379.75
354.355	372.75
354.583	357.75
354.81	370.75
355.037	358.75
355.264	367.75
355.491	353.75
355.718	372.75
355.945	363.75
356.172	365.75
356.399	378.75
356.626	377.75
356.853	382.75
357.08	364.75
357.307	373.75
357.534	372.75
357.761	371.75
357.988	375.75
358.215	377.75
358.441	385.75
358.668	362.75
358.895	375.75
359.122	381.75
359.349	354.75
359.576	390.75
359.802	445.75
360.029	452.75
360.256	449.75
360.483	420.75
360.709	404.75
360.936	398.75
361.163	401.75
361.39	400.75
361.616	413.75
361.843	377.75
362.07	385.75
362.296	390.75
362.523	398.75
362.749	379.75
362.976	380.75
363.203	383.75
363.429	351.75
363.656	384.75
363.882	386.75
364.109	375.75
364.335	353.75
364.562	373.75
364.788	374.75
365.015	369.75
365.241	388.75
365.468	374.75
365.694	383.75
365.92	364.75
366.147	388.75
366.373	390.75
366.599	376.75
366.826	361.75
367.052	353.75
367.278	380.75
367.505	384.75
367.731	371.75
367.957	375.75
368.184	383.75
368.41	364.75
368.636	362.75
368.862	386.75
369.089	372.75
369.315	374.75
369.541	371.75
369.767	358.75
369.993	374.75
370.219	357.75
370.445	364.75
370.672	366.75
370.898	354.75
371.124	357.75
371.35	358.75
371.576	364.75
371.802	342.75
372.028	348.75
372.254	370.75
372.48	350.75
372.706	366.75
372.932	361.75
373.158	367.75
373.384	381.75
373.61	349.75
373.835	342.75
374.061	359.75
374.287	347.75
374.513	355.75
374.739	372.75
374.965	358.75
375.191	360.75
375.416	377.75
375.642	368.75
375.868	372.75
376.094	373.75
376.319	350.75
376.545	356.75
376.771	360.75
376.997	340.75
377.222	356.75
377.448	341.75
377.674	352.75
377.899	357.75
378.125	333.75
378.35	363.75
378.576	357.75
378.802	336.75
379.027	363.75
379.253	346.75
379.478	354.75
379.704	370.75
379.929	367.75
380.155	347.75
380.38	344.75
380.606	355.75
380.831	353.75
381.057	339.75
381.282	339.75
381.507	348.75
381.733	348.75
381.958	343.75
382.184	355.75
382.409	361.75
382.634	368.75
382.86	340.75
383.085	355.75
383.31	358.75
383.535	358.75
383.761	372.75
383.986	355.75
384.211	357.75
384.436	358.75
384.662	356.75
384.887	360.75
385.112	360.75
385.337	365.75
385.562	361.75
385.787	358.75
386.013	382.75
386.238	397.75
386.463	377.75
386.688	365.75
386.913	347.75
387.138	376.75
387.363	380.75
387.588	351.75
387.813	366.75
388.038	371.75
388.263	359.75
388.488	365.75
388.713	371.75
388.938	380.75
389.163	381.75
389.387	370.75
389.612	368.75
389.837	348.75
390.062	366.75
390.287	373.75
390.512	356.75
390.736	380.75
390.961	372.75
391.186	359.75
391.411	344.75
391.636	362.75
391.86	372.75
392.085	390.75
392.31	384.75
392.534	374.75
392.759	343.75
392.984	364.75
393.208	369.75
393.433	374.75
393.658	368.75
393.882	354.75
394.107	364.75
394.331	374.75
394.556	354.75
394.78	356.75
395.005	386.75
395.229	377.75
395.454	379.75
395.678	379.75
395.903	384.75
396.127	386.75
396.352	403.75
396.576	372.75
396.801	366.75
397.025	357.75
397.249	374.75
397.474	404.75
397.698	379.75
397.922	378.75
398.147	418.75
398.371	408.75
398.595	410.75
398.82	389.75
399.044	406.75
399.268	442.75
399.492	436.75
399.717	436.75
399.941	465.75
400.165	515.75
400.389	522.75
400.613	459.75
400.837	433.75
401.062	425.75
401.286	417.75
401.51	413.75
401.734	414.75
401.958	408.75
402.182	427.75
402.406	438.75
402.63	425.75
402.854	422.75
403.078	400.75
403.302	420.75
403.526	436.75
403.75	428.75
403.974	410.75
404.198	406.75
404.422	426.75
404.645	414.75
404.869	433.75
405.093	444.75
405.317	468.75
405.541	520.75
405.765	469.75
405.988	437.75
406.212	456.75
406.436	480.75
406.66	480.75
406.883	471.75
407.107	482.75
407.331	527.75
407.555	581.75
407.778	585.75
408.002	525.75
408.226	467.75
408.449	471.75
408.673	475.75
408.896	479.75
409.12	525.75
409.344	492.75
409.567	467.75
409.791	430.75
410.014	422.75
410.238	418.75
410.461	409.75
410.685	435.75
410.908	452.75
411.132	481.75
411.355	516.75
411.578	461.75
411.802	434.75
412.025	413.75
412.249	424.75
412.472	451.75
412.695	474.75
412.919	463.75
413.142	428.75
413.365	408.75
413.589	421.75
413.812	412.75
414.035	413.75
414.258	388.75
414.482	411.75
414.705	400.75
414.928	388.75
415.151	376.75
415.374	390.75
415.597	394.75
415.821	375.75
416.044	400.75
416.267	391.75
416.49	400.75
416.713	410.75
416.936	405.75
417.159	395.75
417.382	404.75
417.605	390.75
417.828	426.75
418.051	402.75
418.274	416.75
418.497	404.75
418.72	408.75
418.943	405.75
419.166	398.75
419.389	403.75
419.611	429.75
419.834	421.75
420.057	422.75
420.28	451.75
420.503	440.75
420.726	420.75
420.948	434.75
421.171	490.75
421.394	494.75
421.617	434.75
421.839	420.75
422.062	403.75
422.285	429.75
422.507	514.75
422.73	562.75
422.953	544.75
423.175	486.75
423.398	449.75
423.621	449.75
423.843	456.75
424.066	467.75
424.288	470.75
424.511	472.75
424.733	536.75
424.956	600.75
425.178	572.75
425.401	586.75
425.623	602.75
425.846	499.75
426.068	463.75
426.291	452.75
426.513	472.75
426.735	485.75
426.958	506.75
427.18	585.75
427.402	675.75
427.625	763.75
427.847	667.75
428.069	601.75
428.292	522.75
428.514	498.75
428.736	429.75
428.958	453.75
429.181	425.75
429.403	409.75
429.625	437.75
429.847	472.75
430.069	519.75
430.292	526.75
430.514	460.75
430.736	435.75
430.958	416.75
431.18	419.75
431.402	421.75
431.624	422.75
431.846	396.75
432.068	402.75
432.29	422.75
432.512	425.75
432.734	417.75
432.956	409.75
433.178	413.75
433.4	411.75
433.622	404.75
433.844	396.75
434.066	398.75
434.287	415.75
434.509	414.75
434.731	419.75
434.953	412.75
435.175	438.75
435.397	435.75
435.618	460.75
435.84	525.75
436.062	585.75
436.284	636.75
436.505	525.75
436.727	501.75
436.949	428.75
437.17	430.75
437.392	414.75
437.614	471.75
437.835	505.75
438.057	586.75
438.278	671.75
438.5	671.75
438.721	724.75
438.943	678.75
439.165	549.75
439.386	496.75
439.608	482.75
439.829	482.75
440.05	521.75
440.272	560.75
440.493	530.75
440.715	475.75
440.936	453.75
441.158	445.75
441.379	425.75
441.6	442.75
441.822	476.75
442.043	518.75
442.264	591.75
442.486	616.75
442.707	524.75
442.928	488.75
443.149	465.75
443.371	548.75
443.592	540.75
443.813	636.75
444.034	673.75
444.255	544.75
444.476	492.75
444.698	464.75
444.919	442.75
445.14	580.75
445.361	562.75
445.582	525.75
445.803	581.75
446.024	681.75
446.245	666.75
446.466	608.75
446.687	525.75
446.908	486.75
447.129	443.75
447.35	430.75
447.571	422.75
447.792	421.75
448.013	459.75
448.234	493.75
448.455	523.75
448.675	621.75
448.896	672.75
449.117	590.75
449.338	553.75
449.559	664.75
449.779	737.75
450	596.75
450.221	464.75
450.442	462.75
450.662	438.75
450.883	440.75
451.104	453.75
451.324	440.75
451.545	413.75
451.766	418.75
451.986	397.75
452.207	407.75
452.428	396.75
452.648	376.75
452.869	399.75
453.089	404.75
453.31	398.75
453.53	406.75
453.751	384.75
453.971	390.75
454.192	410.75
454.412	388.75
454.633	388.75
454.853	401.75
455.073	390.75
455.294	419.75
455.514	462.75
455.734	469.75
455.955	378.75
456.175	373.75
456.395	369.75
456.616	365.75
456.836	359.75
457.056	352.75
457.276	350.75
457.497	357.75
457.717	355.75
457.937	373.75
458.157	365.75
458.377	399.75
458.598	400.75
458.818	457.75
459.038	549.75
459.258	548.75
459.478	470.75
459.698	413.75
459.918	409.75
460.138	393.75
460.358	390.75
460.578	398.75
460.798	385.75
461.018	424.75
461.238	386.75
461.458	385.75
461.678	366.75
461.898	408.75
462.118	408.75
462.338	387.75
462.558	398.75
462.777	409.75
462.997	384.75
463.217	418.75
463.437	420.75
463.657	421.75
463.876	414.75
464.096	427.75
464.316	399.75
464.536	414.75
464.755	424.75
464.975	426.75
465.195	487.75
465.414	554.75
465.634	471.75
465.854	456.75
466.073	435.75
466.293	405.75
466.512	397.75
466.732	384.75
466.951	382.75
467.171	368.75
467.391	385.75
467.61	398.75
467.829	421.75
468.049	403.75
468.268	386.75
468.488	402.75
468.707	402.75
468.927	364.75
469.146	349.75
469.365	364.75
469.585	375.75
469.804	389.75
470.023	390.75
470.243	406.75
470.462	397.75
470.681	432.75
470.901	398.75
471.12	401.75
471.339	404.75
471.558	409.75
471.777	415.75
471.997	396.75
472.216	395.75
472.435	417.75
472.654	435.75
472.873	402.75
473.092	392.75
473.311	393.75
473.53	398.75
473.749	425.75
473.968	466.75
474.187	541.75
474.406	580.75
474.625	471.75
474.844	432.75
475.063	415.75
475.282	408.75
475.501	401.75
475.72	414.75
475.939	404.75
476.158	385.75
476.377	391.75
476.596	393.75
476.814	397.75
477.033	384.75
477.252	418.75
477.471	412.75
477.69	412.75
477.908	428.75
478.127	427.75
478.346	418.75
478.564	443.75
478.783	436.75
479.002	438.75
479.22	437.75
479.439	459.75
479.658	478.75
479.876	474.75
480.095	503.75
480.313	490.75
480.532	483.75
480.751	460.75
480.969	498.75
481.188	549.75
481.406	561.75
481.624	518.75
481.843	489.75
482.061	473.75
482.28	490.75
482.498	461.75
482.717	479.75
482.935	453.75
483.153	462.75
483.372	462.75
483.59	468.75
483.808	476.75
484.027	476.75
484.245	457.75
484.463	459.75
484.681	464.75
484.9	468.75
485.118	485.75
485.336	486.75
485.554	461.75
485.772	473.75
485.99	468.75
486.209	466.75
486.427	454.75
486.645	465.75
486.863	503.75
487.081	522.75
487.299	493.75
487.517	504.75
487.735	491.75
487.953	480.75
488.171	498.75
488.389	506.75
488.607	486.75
488.825	496.75
489.043	500.75
489.261	499.75
489.479	529.75
489.696	499.75
489.914	521.75
490.132	518.75
490.35	544.75
490.568	511.75
490.786	517.75
491.003	519.75
491.221	536.75
491.439	562.75
491.657	576.75
491.874	588.75
492.092	559.75
492.31	564.75
492.527	564.75
492.745	597.75
492.963	597.75
493.18	578.75
493.398	588.75
493.615	570.75
493.833	570.75
494.05	605.75
494.268	581.75
494.485	572.75
494.703	586.75
494.92	597.75
495.138	590.75
495.355	595.75
495.573	609.75
495.79	578.75
496.008	605.75
496.225	587.75
496.442	600.75
496.66	596.75
496.877	589.75
497.094	581.75
497.312	599.75
497.529	594.75
497.746	594.75
497.963	616.75
498.181	634.75
498.398	635.75
498.615	644.75
498.832	648.75
499.049	628.75
499.267	637.75
499.484	679.75
499.701	666.75
499.918	666.75
500.135	682.75
500.352	715.75
500.569	713.75
500.786	733.75
501.003	732.75
501.22	705.75
501.437	710.75
501.654	698.75
501.871	712.75
