Data from 1981.PennyLincolnUp.Lamp.En5.5.200Scan.071819.P1_HRD10591_16-42-28-960.txt Node
Date: Thu Jul 18 16:42:28 EDT 2019
User: cochatt
Spectrometer: HR+D1059
Trigger mode: 1
Integration Time (sec): 1.000000E-1
Scans to average: 1
Electric dark correction enabled: true
Nonlinearity correction enabled: false
Boxcar width: 0
XAxis mode: Wavelengths
Number of Pixels in Spectrum: 2048
>>>>>Begin Spectral Data<<<<<
223.165	-19.31
223.4	-19.31
223.635	-19.31
223.869	-7.31
224.104	-18.31
224.338	-20.31
224.573	-20.31
224.808	-23.31
225.042	-3.31
225.277	-0.31
225.511	0.69
225.746	6.69
225.98	8.69
226.215	16.69
226.449	14.69
226.683	2.69
226.918	28.69
227.152	33.69
227.387	42.69
227.621	51.69
227.856	51.69
228.09	44.69
228.324	39.69
228.559	62.69
228.793	72.69
229.027	106.69
229.262	116.69
229.496	121.69
229.73	126.69
229.964	151.69
230.199	135.69
230.433	119.69
230.667	112.69
230.901	125.69
231.136	113.69
231.37	118.69
231.604	108.69
231.838	123.69
232.072	107.69
232.306	115.69
232.541	118.69
232.775	115.69
233.009	122.69
233.243	92.69
233.477	119.69
233.711	143.69
233.945	127.69
234.179	136.69
234.413	117.69
234.647	109.69
234.881	131.69
235.115	137.69
235.349	129.69
235.583	119.69
235.817	131.69
236.051	129.69
236.285	118.69
236.519	111.69
236.753	138.69
236.987	149.69
237.221	191.69
237.455	255.69
237.689	196.69
237.922	157.69
238.156	128.69
238.39	123.69
238.624	127.69
238.858	128.69
239.091	137.69
239.325	132.69
239.559	118.69
239.793	147.69
240.027	147.69
240.26	153.69
240.494	149.69
240.728	148.69
240.961	146.69
241.195	156.69
241.429	136.69
241.662	133.69
241.896	149.69
242.13	143.69
242.363	132.69
242.597	149.69
242.83	139.69
243.064	133.69
243.298	127.69
243.531	140.69
243.765	146.69
243.998	142.69
244.232	136.69
244.465	147.69
244.699	157.69
244.932	149.69
245.166	142.69
245.399	136.69
245.633	152.69
245.866	157.69
246.099	159.69
246.333	160.69
246.566	163.69
246.8	171.69
247.033	167.69
247.266	172.69
247.5	169.69
247.733	163.69
247.966	190.69
248.2	169.69
248.433	179.69
248.666	194.69
248.899	188.69
249.133	193.69
249.366	204.69
249.599	215.69
249.832	208.69
250.066	202.69
250.299	189.69
250.532	192.69
250.765	228.69
250.998	236.69
251.231	236.69
251.465	227.69
251.698	219.69
251.931	223.69
252.164	204.69
252.397	216.69
252.63	203.69
252.863	223.69
253.096	242.69
253.329	246.69
253.562	227.69
253.795	224.69
254.028	253.69
254.261	212.69
254.494	244.69
254.727	272.69
254.96	300.69
255.193	305.69
255.426	266.69
255.659	263.69
255.892	257.69
256.124	251.69
256.357	252.69
256.59	244.69
256.823	244.69
257.056	231.69
257.289	224.69
257.521	234.69
257.754	221.69
257.987	217.69
258.22	232.69
258.452	225.69
258.685	236.69
258.918	226.69
259.151	228.69
259.383	226.69
259.616	217.69
259.849	252.69
260.081	259.69
260.314	269.69
260.547	273.69
260.779	275.69
261.012	263.69
261.244	263.69
261.477	236.69
261.71	234.69
261.942	245.69
262.175	258.69
262.407	242.69
262.64	242.69
262.872	216.69
263.105	228.69
263.337	229.69
263.57	236.69
263.802	237.69
264.035	218.69
264.267	195.69
264.499	225.69
264.732	233.69
264.964	231.69
265.197	213.69
265.429	225.69
265.661	221.69
265.894	225.69
266.126	212.69
266.358	215.69
266.591	229.69
266.823	232.69
267.055	261.69
267.287	232.69
267.52	222.69
267.752	226.69
267.984	232.69
268.216	257.69
268.448	230.69
268.681	271.69
268.913	268.69
269.145	288.69
269.377	276.69
269.609	279.69
269.841	303.69
270.073	310.69
270.306	307.69
270.538	325.69
270.77	344.69
271.002	316.69
271.234	334.69
271.466	320.69
271.698	348.69
271.93	360.69
272.162	347.69
272.394	335.69
272.626	333.69
272.858	312.69
273.09	298.69
273.322	296.69
273.553	273.69
273.785	281.69
274.017	277.69
274.249	278.69
274.481	294.69
274.713	286.69
274.945	303.69
275.176	304.69
275.408	299.69
275.64	277.69
275.872	301.69
276.104	292.69
276.335	292.69
276.567	281.69
276.799	312.69
277.031	313.69
277.262	350.69
277.494	335.69
277.726	316.69
277.957	301.69
278.189	307.69
278.421	317.69
278.652	304.69
278.884	291.69
279.115	293.69
279.347	289.69
279.579	284.69
279.81	274.69
280.042	288.69
280.273	278.69
280.505	280.69
280.736	278.69
280.968	287.69
281.199	270.69
281.431	259.69
281.662	280.69
281.894	285.69
282.125	279.69
282.356	304.69
282.588	333.69
282.819	331.69
283.051	305.69
283.282	291.69
283.513	293.69
283.745	273.69
283.976	288.69
284.207	296.69
284.439	304.69
284.67	280.69
284.901	292.69
285.132	276.69
285.364	284.69
285.595	290.69
285.826	276.69
286.057	296.69
286.288	284.69
286.52	271.69
286.751	279.69
286.982	295.69
287.213	289.69
287.444	284.69
287.675	298.69
287.906	311.69
288.138	329.69
288.369	317.69
288.6	324.69
288.831	303.69
289.062	298.69
289.293	312.69
289.524	291.69
289.755	305.69
289.986	302.69
290.217	278.69
290.448	299.69
290.679	285.69
290.91	293.69
291.141	298.69
291.371	292.69
291.602	301.69
291.833	279.69
292.064	292.69
292.295	301.69
292.526	304.69
292.757	291.69
292.987	301.69
293.218	298.69
293.449	300.69
293.68	296.69
293.91	297.69
294.141	303.69
294.372	289.69
294.603	286.69
294.833	293.69
295.064	309.69
295.295	310.69
295.525	291.69
295.756	313.69
295.987	309.69
296.217	335.69
296.448	338.69
296.679	321.69
296.909	288.69
297.14	309.69
297.37	304.69
297.601	298.69
297.831	297.69
298.062	297.69
298.292	295.69
298.523	318.69
298.753	295.69
298.984	307.69
299.214	310.69
299.445	293.69
299.675	329.69
299.905	324.69
300.136	320.69
300.366	299.69
300.597	316.69
300.827	325.69
301.057	340.69
301.288	333.69
301.518	331.69
301.748	333.69
301.979	318.69
302.209	335.69
302.439	345.69
302.669	324.69
302.9	345.69
303.13	329.69
303.36	335.69
303.59	353.69
303.82	359.69
304.051	349.69
304.281	347.69
304.511	335.69
304.741	332.69
304.971	347.69
305.201	333.69
305.431	335.69
305.661	348.69
305.891	343.69
306.121	348.69
306.352	339.69
306.582	341.69
306.812	334.69
307.042	352.69
307.272	359.69
307.502	341.69
307.731	345.69
307.961	333.69
308.191	350.69
308.421	355.69
308.651	326.69
308.881	360.69
309.111	355.69
309.341	357.69
309.571	389.69
309.8	372.69
310.03	386.69
310.26	392.69
310.49	376.69
310.72	391.69
310.949	430.69
311.179	436.69
311.409	399.69
311.639	401.69
311.868	398.69
312.098	417.69
312.328	419.69
312.557	433.69
312.787	430.69
313.017	428.69
313.246	396.69
313.476	399.69
313.706	419.69
313.935	395.69
314.165	418.69
314.394	415.69
314.624	417.69
314.853	412.69
315.083	402.69
315.312	408.69
315.542	377.69
315.771	383.69
316.001	400.69
316.23	410.69
316.46	393.69
316.689	376.69
316.919	385.69
317.148	411.69
317.377	407.69
317.607	419.69
317.836	399.69
318.065	389.69
318.295	383.69
318.524	387.69
318.753	396.69
318.983	390.69
319.212	401.69
319.441	396.69
319.67	407.69
319.9	396.69
320.129	401.69
320.358	415.69
320.587	386.69
320.816	415.69
321.046	408.69
321.275	439.69
321.504	440.69
321.733	441.69
321.962	421.69
322.191	432.69
322.42	472.69
322.649	474.69
322.878	502.69
323.108	508.69
323.337	539.69
323.566	561.69
323.795	611.69
324.024	663.69
324.253	849.69
324.482	1249.69
324.71	1883.69
324.939	2563.69
325.168	2130.69
325.397	1131.69
325.626	757.69
325.855	622.69
326.084	576.69
326.313	571.69
326.542	551.69
326.77	644.69
326.999	785.69
327.228	1042.69
327.457	1605.69
327.686	1883.69
327.914	1268.69
328.143	823.69
328.372	713.69
328.6	673.69
328.829	624.69
329.058	669.69
329.287	656.69
329.515	618.69
329.744	559.69
329.972	559.69
330.201	596.69
330.43	622.69
330.658	657.69
330.887	674.69
331.115	666.69
331.344	578.69
331.572	515.69
331.801	543.69
332.03	521.69
332.258	505.69
332.486	476.69
332.715	495.69
332.943	458.69
333.172	478.69
333.4	473.69
333.629	475.69
333.857	496.69
334.085	511.69
334.314	511.69
334.542	548.69
334.771	539.69
334.999	508.69
335.227	496.69
335.455	468.69
335.684	465.69
335.912	459.69
336.14	447.69
336.369	451.69
336.597	469.69
336.825	462.69
337.053	433.69
337.281	451.69
337.51	453.69
337.738	457.69
337.966	456.69
338.194	458.69
338.422	457.69
338.65	418.69
338.878	440.69
339.106	423.69
339.334	428.69
339.562	440.69
339.79	435.69
340.018	453.69
340.246	432.69
340.474	433.69
340.702	432.69
340.93	414.69
341.158	417.69
341.386	438.69
341.614	424.69
341.842	427.69
342.07	409.69
342.298	427.69
342.526	427.69
342.754	404.69
342.981	411.69
343.209	421.69
343.437	432.69
343.665	410.69
343.893	439.69
344.12	431.69
344.348	435.69
344.576	431.69
344.804	429.69
345.031	448.69
345.259	443.69
345.487	427.69
345.714	428.69
345.942	426.69
346.17	416.69
346.397	442.69
346.625	446.69
346.853	431.69
347.08	425.69
347.308	424.69
347.535	445.69
347.763	423.69
347.99	431.69
348.218	421.69
348.445	445.69
348.673	446.69
348.9	410.69
349.128	415.69
349.355	405.69
349.583	419.69
349.81	409.69
350.037	422.69
350.265	414.69
350.492	405.69
350.72	384.69
350.947	425.69
351.174	409.69
351.402	429.69
351.629	417.69
351.856	428.69
352.083	446.69
352.311	429.69
352.538	436.69
352.765	426.69
352.992	425.69
353.22	425.69
353.447	426.69
353.674	403.69
353.901	392.69
354.128	410.69
354.355	377.69
354.583	395.69
354.81	391.69
355.037	391.69
355.264	364.69
355.491	387.69
355.718	376.69
355.945	355.69
356.172	380.69
356.399	373.69
356.626	374.69
356.853	384.69
357.08	371.69
357.307	366.69
357.534	373.69
357.761	363.69
357.988	379.69
358.215	361.69
358.441	373.69
358.668	371.69
358.895	393.69
359.122	385.69
359.349	383.69
359.576	426.69
359.802	439.69
360.029	461.69
360.256	495.69
360.483	471.69
360.709	427.69
360.936	422.69
361.163	420.69
361.39	403.69
361.616	398.69
361.843	397.69
362.07	422.69
362.296	400.69
362.523	374.69
362.749	397.69
362.976	420.69
363.203	365.69
363.429	384.69
363.656	378.69
363.882	373.69
364.109	395.69
364.335	388.69
364.562	407.69
364.788	382.69
365.015	369.69
365.241	378.69
365.468	388.69
365.694	385.69
365.92	396.69
366.147	377.69
366.373	357.69
366.599	379.69
366.826	378.69
367.052	375.69
367.278	381.69
367.505	379.69
367.731	392.69
367.957	407.69
368.184	374.69
368.41	378.69
368.636	380.69
368.862	379.69
369.089	380.69
369.315	384.69
369.541	382.69
369.767	388.69
369.993	364.69
370.219	368.69
370.445	359.69
370.672	387.69
370.898	383.69
371.124	380.69
371.35	365.69
371.576	355.69
371.802	364.69
372.028	375.69
372.254	375.69
372.48	369.69
372.706	374.69
372.932	356.69
373.158	359.69
373.384	378.69
373.61	376.69
373.835	364.69
374.061	373.69
374.287	375.69
374.513	382.69
374.739	367.69
374.965	361.69
375.191	378.69
375.416	373.69
375.642	381.69
375.868	373.69
376.094	372.69
376.319	353.69
376.545	368.69
376.771	358.69
376.997	369.69
377.222	384.69
377.448	362.69
377.674	362.69
377.899	352.69
378.125	347.69
378.35	364.69
378.576	347.69
378.802	355.69
379.027	348.69
379.253	375.69
379.478	371.69
379.704	339.69
379.929	342.69
380.155	350.69
380.38	350.69
380.606	340.69
380.831	350.69
381.057	365.69
381.282	355.69
381.507	384.69
381.733	358.69
381.958	367.69
382.184	344.69
382.409	356.69
382.634	360.69
382.86	377.69
383.085	374.69
383.31	355.69
383.535	369.69
383.761	350.69
383.986	354.69
384.211	363.69
384.436	363.69
384.662	372.69
384.887	364.69
385.112	345.69
385.337	371.69
385.562	377.69
385.787	360.69
386.013	389.69
386.238	387.69
386.463	384.69
386.688	392.69
386.913	365.69
387.138	391.69
387.363	361.69
387.588	386.69
387.813	375.69
388.038	381.69
388.263	373.69
388.488	368.69
388.713	391.69
388.938	370.69
389.163	360.69
389.387	383.69
389.612	363.69
389.837	383.69
390.062	379.69
390.287	383.69
390.512	366.69
390.736	391.69
390.961	387.69
391.186	391.69
391.411	400.69
391.636	357.69
391.86	373.69
392.085	374.69
392.31	382.69
392.534	388.69
392.759	393.69
392.984	367.69
393.208	355.69
393.433	373.69
393.658	362.69
393.882	386.69
394.107	371.69
394.331	382.69
394.556	386.69
394.78	376.69
395.005	380.69
395.229	376.69
395.454	379.69
395.678	393.69
395.903	399.69
396.127	421.69
396.352	408.69
396.576	379.69
396.801	379.69
397.025	375.69
397.249	364.69
397.474	399.69
397.698	381.69
397.922	407.69
398.147	419.69
398.371	416.69
398.595	401.69
398.82	407.69
399.044	408.69
399.268	413.69
399.492	431.69
399.717	453.69
399.941	470.69
400.165	509.69
400.389	523.69
400.613	468.69
400.837	451.69
401.062	430.69
401.286	431.69
401.51	415.69
401.734	423.69
401.958	428.69
402.182	427.69
402.406	407.69
402.63	408.69
402.854	418.69
403.078	425.69
403.302	425.69
403.526	439.69
403.75	428.69
403.974	412.69
404.198	414.69
404.422	412.69
404.645	440.69
404.869	418.69
405.093	468.69
405.317	496.69
405.541	526.69
405.765	486.69
405.988	470.69
406.212	456.69
406.436	476.69
406.66	491.69
406.883	473.69
407.107	504.69
407.331	525.69
407.555	567.69
407.778	600.69
408.002	529.69
408.226	508.69
408.449	483.69
408.673	458.69
408.896	489.69
409.12	540.69
409.344	521.69
409.567	455.69
409.791	444.69
410.014	436.69
410.238	419.69
410.461	435.69
410.685	432.69
410.908	457.69
411.132	487.69
411.355	495.69
411.578	508.69
411.802	457.69
412.025	429.69
412.249	421.69
412.472	469.69
412.695	533.69
412.919	475.69
413.142	452.69
413.365	423.69
413.589	415.69
413.812	424.69
414.035	413.69
414.258	411.69
414.482	408.69
414.705	415.69
414.928	384.69
415.151	406.69
415.374	387.69
415.597	393.69
415.821	405.69
416.044	419.69
416.267	416.69
416.49	406.69
416.713	408.69
416.936	411.69
417.159	400.69
417.382	399.69
417.605	401.69
417.828	429.69
418.051	424.69
418.274	439.69
418.497	425.69
418.72	405.69
418.943	412.69
419.166	415.69
419.389	423.69
419.611	423.69
419.834	408.69
420.057	444.69
420.28	437.69
420.503	441.69
420.726	428.69
420.948	440.69
421.171	483.69
421.394	520.69
421.617	455.69
421.839	441.69
422.062	426.69
422.285	437.69
422.507	507.69
422.73	552.69
422.953	529.69
423.175	494.69
423.398	465.69
423.621	459.69
423.843	456.69
424.066	465.69
424.288	470.69
424.511	488.69
424.733	567.69
424.956	594.69
425.178	580.69
425.401	580.69
425.623	604.69
425.846	532.69
426.068	496.69
426.291	479.69
426.513	493.69
426.735	494.69
426.958	526.69
427.18	601.69
427.402	723.69
427.625	785.69
427.847	720.69
428.069	618.69
428.292	538.69
428.514	494.69
428.736	464.69
428.958	480.69
429.181	448.69
429.403	437.69
429.625	460.69
429.847	484.69
430.069	588.69
430.292	559.69
430.514	458.69
430.736	425.69
430.958	423.69
431.18	412.69
431.402	414.69
431.624	407.69
431.846	398.69
432.068	408.69
432.29	400.69
432.512	401.69
432.734	418.69
432.956	414.69
433.178	418.69
433.4	428.69
433.622	424.69
433.844	398.69
434.066	409.69
434.287	413.69
434.509	404.69
434.731	413.69
434.953	423.69
435.175	429.69
435.397	447.69
435.618	499.69
435.84	505.69
436.062	602.69
436.284	671.69
436.505	566.69
436.727	521.69
436.949	479.69
437.17	441.69
437.392	433.69
437.614	466.69
437.835	503.69
438.057	603.69
438.278	644.69
438.5	699.69
438.721	729.69
438.943	686.69
439.165	571.69
439.386	523.69
439.608	507.69
439.829	495.69
440.05	521.69
440.272	582.69
440.493	547.69
440.715	457.69
440.936	449.69
441.158	432.69
441.379	441.69
441.6	476.69
441.822	471.69
442.043	520.69
442.264	578.69
442.486	616.69
442.707	541.69
442.928	529.69
443.149	507.69
443.371	539.69
443.592	590.69
443.813	651.69
444.034	682.69
444.255	574.69
444.476	507.69
444.698	471.69
444.919	471.69
445.14	584.69
445.361	549.69
445.582	523.69
445.803	599.69
446.024	676.69
446.245	701.69
446.466	623.69
446.687	536.69
446.908	493.69
447.129	458.69
447.35	442.69
447.571	429.69
447.792	443.69
448.013	448.69
448.234	481.69
448.455	533.69
448.675	631.69
448.896	739.69
449.117	638.69
449.338	591.69
449.559	679.69
449.779	751.69
450	613.69
450.221	482.69
450.442	462.69
450.662	427.69
450.883	456.69
451.104	455.69
451.324	458.69
451.545	444.69
451.766	423.69
451.986	402.69
452.207	409.69
452.428	401.69
452.648	396.69
452.869	397.69
453.089	399.69
453.31	417.69
453.53	413.69
453.751	381.69
453.971	412.69
454.192	407.69
454.412	435.69
454.633	399.69
454.853	408.69
455.073	393.69
455.294	442.69
455.514	492.69
455.734	478.69
455.955	390.69
456.175	386.69
456.395	373.69
456.616	351.69
456.836	379.69
457.056	366.69
457.276	366.69
457.497	368.69
457.717	372.69
457.937	381.69
458.157	401.69
458.377	386.69
458.598	397.69
458.818	473.69
459.038	531.69
459.258	579.69
459.478	478.69
459.698	431.69
459.918	413.69
460.138	395.69
460.358	395.69
460.578	402.69
460.798	397.69
461.018	385.69
461.238	390.69
461.458	400.69
461.678	383.69
461.898	399.69
462.118	396.69
462.338	387.69
462.558	419.69
462.777	408.69
462.997	399.69
463.217	411.69
463.437	435.69
463.657	431.69
463.876	435.69
464.096	408.69
464.316	424.69
464.536	419.69
464.755	429.69
464.975	433.69
465.195	488.69
465.414	557.69
465.634	492.69
465.854	447.69
466.073	416.69
466.293	405.69
466.512	391.69
466.732	392.69
466.951	384.69
467.171	395.69
467.391	397.69
467.61	395.69
467.829	432.69
468.049	393.69
468.268	425.69
468.488	393.69
468.707	393.69
468.927	374.69
469.146	371.69
469.365	381.69
469.585	378.69
469.804	396.69
470.023	395.69
470.243	398.69
470.462	411.69
470.681	421.69
470.901	412.69
471.12	384.69
471.339	394.69
471.558	414.69
471.777	407.69
471.997	382.69
472.216	412.69
472.435	447.69
472.654	431.69
472.873	415.69
473.092	397.69
473.311	416.69
473.53	401.69
473.749	401.69
473.968	473.69
474.187	548.69
474.406	593.69
474.625	466.69
474.844	415.69
475.063	419.69
475.282	418.69
475.501	409.69
475.72	423.69
475.939	410.69
476.158	414.69
476.377	419.69
476.596	403.69
476.814	422.69
477.033	429.69
477.252	429.69
477.471	427.69
477.69	422.69
477.908	425.69
478.127	444.69
478.346	424.69
478.564	431.69
478.783	425.69
479.002	439.69
479.22	456.69
479.439	474.69
479.658	482.69
479.876	492.69
480.095	487.69
480.313	505.69
480.532	493.69
480.751	485.69
480.969	477.69
481.188	556.69
481.406	572.69
481.624	504.69
481.843	482.69
482.061	485.69
482.28	492.69
482.498	479.69
482.717	479.69
482.935	465.69
483.153	471.69
483.372	467.69
483.59	454.69
483.808	480.69
484.027	468.69
484.245	473.69
484.463	487.69
484.681	479.69
484.9	473.69
485.118	477.69
485.336	494.69
485.554	489.69
485.772	484.69
485.99	475.69
486.209	472.69
486.427	495.69
486.645	508.69
486.863	510.69
487.081	503.69
487.299	522.69
487.517	509.69
487.735	503.69
487.953	512.69
488.171	495.69
488.389	510.69
488.607	503.69
488.825	530.69
489.043	532.69
489.261	515.69
489.479	494.69
489.696	511.69
489.914	499.69
490.132	533.69
490.35	536.69
490.568	518.69
490.786	547.69
491.003	541.69
491.221	557.69
491.439	573.69
491.657	565.69
491.874	611.69
492.092	597.69
492.31	609.69
492.527	600.69
492.745	616.69
492.963	600.69
493.18	612.69
493.398	591.69
493.615	604.69
493.833	607.69
494.05	610.69
494.268	598.69
494.485	598.69
494.703	607.69
494.92	595.69
495.138	593.69
495.355	602.69
495.573	600.69
495.79	586.69
496.008	618.69
496.225	603.69
496.442	584.69
496.66	605.69
496.877	601.69
497.094	604.69
497.312	604.69
497.529	594.69
497.746	610.69
497.963	637.69
498.181	627.69
498.398	634.69
498.615	645.69
498.832	665.69
499.049	676.69
499.267	704.69
499.484	686.69
499.701	706.69
499.918	710.69
500.135	707.69
500.352	725.69
500.569	737.69
500.786	744.69
501.003	716.69
501.22	739.69
501.437	748.69
501.654	711.69
501.871	712.69
