Data from 1981.PennyLincolnUp.Lamp.En5.5.200Scan.071819.P1_HRD10591_16-41-32-959.txt Node
Date: Thu Jul 18 16:41:32 EDT 2019
User: cochatt
Spectrometer: HR+D1059
Trigger mode: 1
Integration Time (sec): 1.000000E-1
Scans to average: 1
Electric dark correction enabled: true
Nonlinearity correction enabled: false
Boxcar width: 0
XAxis mode: Wavelengths
Number of Pixels in Spectrum: 2048
>>>>>Begin Spectral Data<<<<<
223.165	-14.69
223.4	-14.69
223.635	-14.69
223.869	-15.69
224.104	-13.69
224.338	-1.69
224.573	-20.69
224.808	3.31
225.042	-26.69
225.277	2.31
225.511	-4.69
225.746	-1.69
225.98	-0.69
226.215	6.31
226.449	18.31
226.683	15.31
226.918	20.31
227.152	34.31
227.387	39.31
227.621	51.31
227.856	36.31
228.09	52.31
228.324	45.31
228.559	43.31
228.793	58.31
229.027	98.31
229.262	94.31
229.496	105.31
229.73	144.31
229.964	162.31
230.199	118.31
230.433	118.31
230.667	118.31
230.901	103.31
231.136	111.31
231.37	106.31
231.604	109.31
231.838	105.31
232.072	113.31
232.306	110.31
232.541	100.31
232.775	102.31
233.009	109.31
233.243	130.31
233.477	102.31
233.711	100.31
233.945	126.31
234.179	115.31
234.413	118.31
234.647	115.31
234.881	110.31
235.115	104.31
235.349	115.31
235.583	126.31
235.817	112.31
236.051	115.31
236.285	115.31
236.519	124.31
236.753	119.31
236.987	143.31
237.221	161.31
237.455	222.31
237.689	187.31
237.922	140.31
238.156	128.31
238.39	129.31
238.624	116.31
238.858	122.31
239.091	118.31
239.325	117.31
239.559	130.31
239.793	126.31
240.027	120.31
240.26	156.31
240.494	164.31
240.728	152.31
240.961	150.31
241.195	155.31
241.429	156.31
241.662	134.31
241.896	121.31
242.13	140.31
242.363	143.31
242.597	142.31
242.83	127.31
243.064	126.31
243.298	122.31
243.531	130.31
243.765	124.31
243.998	142.31
244.232	138.31
244.465	152.31
244.699	148.31
244.932	131.31
245.166	140.31
245.399	141.31
245.633	147.31
245.866	131.31
246.099	134.31
246.333	153.31
246.566	154.31
246.8	147.31
247.033	139.31
247.266	154.31
247.5	160.31
247.733	158.31
247.966	176.31
248.2	194.31
248.433	178.31
248.666	176.31
248.899	188.31
249.133	207.31
249.366	200.31
249.599	202.31
249.832	194.31
250.066	191.31
250.299	202.31
250.532	190.31
250.765	215.31
250.998	226.31
251.231	211.31
251.465	202.31
251.698	220.31
251.931	203.31
252.164	209.31
252.397	208.31
252.63	206.31
252.863	208.31
253.096	206.31
253.329	233.31
253.562	241.31
253.795	218.31
254.028	228.31
254.261	214.31
254.494	237.31
254.727	264.31
254.96	276.31
255.193	283.31
255.426	253.31
255.659	242.31
255.892	233.31
256.124	230.31
256.357	230.31
256.59	228.31
256.823	213.31
257.056	224.31
257.289	222.31
257.521	226.31
257.754	218.31
257.987	214.31
258.22	230.31
258.452	225.31
258.685	209.31
258.918	226.31
259.151	220.31
259.383	231.31
259.616	225.31
259.849	232.31
260.081	237.31
260.314	266.31
260.547	271.31
260.779	260.31
261.012	244.31
261.244	247.31
261.477	244.31
261.71	220.31
261.942	247.31
262.175	258.31
262.407	230.31
262.64	215.31
262.872	221.31
263.105	219.31
263.337	209.31
263.57	236.31
263.802	227.31
264.035	229.31
264.267	212.31
264.499	216.31
264.732	215.31
264.964	215.31
265.197	211.31
265.429	236.31
265.661	226.31
265.894	223.31
266.126	218.31
266.358	215.31
266.591	231.31
266.823	232.31
267.055	236.31
267.287	215.31
267.52	210.31
267.752	221.31
267.984	229.31
268.216	234.31
268.448	247.31
268.681	237.31
268.913	252.31
269.145	280.31
269.377	277.31
269.609	290.31
269.841	277.31
270.073	263.31
270.306	297.31
270.538	326.31
270.77	328.31
271.002	311.31
271.234	298.31
271.466	318.31
271.698	325.31
271.93	327.31
272.162	331.31
272.394	309.31
272.626	282.31
272.858	313.31
273.09	307.31
273.322	271.31
273.553	291.31
273.785	261.31
274.017	272.31
274.249	286.31
274.481	280.31
274.713	254.31
274.945	274.31
275.176	264.31
275.408	243.31
275.64	263.31
275.872	250.31
276.104	282.31
276.335	278.31
276.567	273.31
276.799	308.31
277.031	314.31
277.262	326.31
277.494	312.31
277.726	297.31
277.957	280.31
278.189	299.31
278.421	272.31
278.652	288.31
278.884	268.31
279.115	281.31
279.347	256.31
279.579	282.31
279.81	260.31
280.042	265.31
280.273	278.31
280.505	271.31
280.736	271.31
280.968	270.31
281.199	272.31
281.431	270.31
281.662	266.31
281.894	278.31
282.125	275.31
282.356	306.31
282.588	310.31
282.819	312.31
283.051	281.31
283.282	283.31
283.513	280.31
283.745	271.31
283.976	287.31
284.207	281.31
284.439	277.31
284.67	262.31
284.901	307.31
285.132	274.31
285.364	294.31
285.595	270.31
285.826	272.31
286.057	270.31
286.288	266.31
286.52	259.31
286.751	279.31
286.982	288.31
287.213	285.31
287.444	287.31
287.675	284.31
287.906	291.31
288.138	276.31
288.369	316.31
288.6	293.31
288.831	278.31
289.062	294.31
289.293	286.31
289.524	274.31
289.755	286.31
289.986	304.31
290.217	293.31
290.448	286.31
290.679	301.31
290.91	298.31
291.141	276.31
291.371	278.31
291.602	295.31
291.833	274.31
292.064	267.31
292.295	278.31
292.526	286.31
292.757	291.31
292.987	271.31
293.218	298.31
293.449	296.31
293.68	287.31
293.91	303.31
294.141	272.31
294.372	293.31
294.603	299.31
294.833	300.31
295.064	275.31
295.295	278.31
295.525	299.31
295.756	296.31
295.987	310.31
296.217	332.31
296.448	335.31
296.679	306.31
296.909	312.31
297.14	306.31
297.37	289.31
297.601	285.31
297.831	292.31
298.062	298.31
298.292	287.31
298.523	307.31
298.753	306.31
298.984	288.31
299.214	290.31
299.445	287.31
299.675	293.31
299.905	300.31
300.136	314.31
300.366	299.31
300.597	290.31
300.827	289.31
301.057	315.31
301.288	301.31
301.518	318.31
301.748	334.31
301.979	306.31
302.209	323.31
302.439	316.31
302.669	329.31
302.9	322.31
303.13	318.31
303.36	320.31
303.59	333.31
303.82	332.31
304.051	354.31
304.281	321.31
304.511	310.31
304.741	310.31
304.971	307.31
305.201	309.31
305.431	323.31
305.661	314.31
305.891	298.31
306.121	323.31
306.352	340.31
306.582	346.31
306.812	339.31
307.042	337.31
307.272	339.31
307.502	333.31
307.731	347.31
307.961	327.31
308.191	328.31
308.421	342.31
308.651	350.31
308.881	335.31
309.111	332.31
309.341	325.31
309.571	344.31
309.8	365.31
310.03	376.31
310.26	388.31
310.49	382.31
310.72	396.31
310.949	399.31
311.179	374.31
311.409	369.31
311.639	363.31
311.868	378.31
312.098	380.31
312.328	374.31
312.557	405.31
312.787	396.31
313.017	410.31
313.246	382.31
313.476	369.31
313.706	354.31
313.935	388.31
314.165	390.31
314.394	391.31
314.624	399.31
314.853	395.31
315.083	366.31
315.312	386.31
315.542	383.31
315.771	366.31
316.001	365.31
316.23	375.31
316.46	375.31
316.689	379.31
316.919	388.31
317.148	394.31
317.377	396.31
317.607	374.31
317.836	378.31
318.065	377.31
318.295	388.31
318.524	391.31
318.753	380.31
318.983	387.31
319.212	390.31
319.441	378.31
319.67	411.31
319.9	390.31
320.129	370.31
320.358	387.31
320.587	385.31
320.816	389.31
321.046	389.31
321.275	395.31
321.504	400.31
321.733	407.31
321.962	416.31
322.191	441.31
322.42	464.31
322.649	454.31
322.878	474.31
323.108	473.31
323.337	519.31
323.566	516.31
323.795	566.31
324.024	609.31
324.253	751.31
324.482	1103.31
324.71	1666.31
324.939	2271.31
325.168	1914.31
325.397	1014.31
325.626	710.31
325.855	571.31
326.084	546.31
326.313	518.31
326.542	534.31
326.77	578.31
326.999	706.31
327.228	964.31
327.457	1372.31
327.686	1680.31
327.914	1158.31
328.143	746.31
328.372	671.31
328.6	598.31
328.829	559.31
329.058	596.31
329.287	600.31
329.515	570.31
329.744	514.31
329.972	512.31
330.201	530.31
330.43	572.31
330.658	610.31
330.887	613.31
331.115	618.31
331.344	510.31
331.572	514.31
331.801	494.31
332.03	494.31
332.258	470.31
332.486	453.31
332.715	446.31
332.943	439.31
333.172	440.31
333.4	446.31
333.629	453.31
333.857	490.31
334.085	479.31
334.314	463.31
334.542	496.31
334.771	506.31
334.999	496.31
335.227	471.31
335.455	457.31
335.684	446.31
335.912	442.31
336.14	422.31
336.369	436.31
336.597	447.31
336.825	436.31
337.053	427.31
337.281	431.31
337.51	435.31
337.738	430.31
337.966	405.31
338.194	428.31
338.422	423.31
338.65	426.31
338.878	421.31
339.106	408.31
339.334	404.31
339.562	399.31
339.79	410.31
340.018	429.31
340.246	422.31
340.474	426.31
340.702	427.31
340.93	419.31
341.158	415.31
341.386	415.31
341.614	411.31
341.842	409.31
342.07	411.31
342.298	407.31
342.526	406.31
342.754	393.31
342.981	399.31
343.209	396.31
343.437	413.31
343.665	411.31
343.893	408.31
344.12	413.31
344.348	397.31
344.576	396.31
344.804	427.31
345.031	422.31
345.259	438.31
345.487	444.31
345.714	435.31
345.942	425.31
346.17	399.31
346.397	407.31
346.625	400.31
346.853	415.31
347.08	407.31
347.308	411.31
347.535	420.31
347.763	402.31
347.99	441.31
348.218	413.31
348.445	414.31
348.673	408.31
348.9	421.31
349.128	390.31
349.355	385.31
349.583	408.31
349.81	386.31
350.037	394.31
350.265	394.31
350.492	382.31
350.72	388.31
350.947	389.31
351.174	407.31
351.402	406.31
351.629	398.31
351.856	407.31
352.083	398.31
352.311	419.31
352.538	423.31
352.765	413.31
352.992	403.31
353.22	394.31
353.447	401.31
353.674	385.31
353.901	371.31
354.128	382.31
354.355	384.31
354.583	370.31
354.81	354.31
355.037	360.31
355.264	370.31
355.491	360.31
355.718	357.31
355.945	364.31
356.172	354.31
356.399	372.31
356.626	351.31
356.853	356.31
357.08	377.31
357.307	340.31
357.534	350.31
357.761	371.31
357.988	384.31
358.215	386.31
358.441	344.31
358.668	364.31
358.895	358.31
359.122	387.31
359.349	388.31
359.576	408.31
359.802	428.31
360.029	456.31
360.256	452.31
360.483	432.31
360.709	405.31
360.936	364.31
361.163	380.31
361.39	396.31
361.616	384.31
361.843	388.31
362.07	388.31
362.296	382.31
362.523	398.31
362.749	404.31
362.976	384.31
363.203	370.31
363.429	362.31
363.656	369.31
363.882	374.31
364.109	364.31
364.335	359.31
364.562	356.31
364.788	371.31
365.015	364.31
365.241	381.31
365.468	376.31
365.694	370.31
365.92	378.31
366.147	380.31
366.373	372.31
366.599	358.31
366.826	349.31
367.052	350.31
367.278	374.31
367.505	361.31
367.731	360.31
367.957	390.31
368.184	357.31
368.41	378.31
368.636	372.31
368.862	392.31
369.089	379.31
369.315	362.31
369.541	342.31
369.767	359.31
369.993	367.31
370.219	367.31
370.445	350.31
370.672	362.31
370.898	352.31
371.124	376.31
371.35	356.31
371.576	346.31
371.802	353.31
372.028	351.31
372.254	360.31
372.48	355.31
372.706	344.31
372.932	367.31
373.158	360.31
373.384	352.31
373.61	353.31
373.835	364.31
374.061	354.31
374.287	362.31
374.513	347.31
374.739	340.31
374.965	351.31
375.191	354.31
375.416	363.31
375.642	366.31
375.868	356.31
376.094	380.31
376.319	348.31
376.545	363.31
376.771	380.31
376.997	370.31
377.222	333.31
377.448	351.31
377.674	332.31
377.899	358.31
378.125	323.31
378.35	346.31
378.576	346.31
378.802	335.31
379.027	351.31
379.253	327.31
379.478	344.31
379.704	364.31
379.929	342.31
380.155	316.31
380.38	336.31
380.606	346.31
380.831	356.31
381.057	359.31
381.282	319.31
381.507	336.31
381.733	360.31
381.958	335.31
382.184	346.31
382.409	374.31
382.634	366.31
382.86	366.31
383.085	373.31
383.31	367.31
383.535	334.31
383.761	374.31
383.986	349.31
384.211	366.31
384.436	371.31
384.662	352.31
384.887	342.31
385.112	382.31
385.337	340.31
385.562	376.31
385.787	368.31
386.013	378.31
386.238	370.31
386.463	370.31
386.688	353.31
386.913	350.31
387.138	348.31
387.363	356.31
387.588	365.31
387.813	381.31
388.038	366.31
388.263	365.31
388.488	363.31
388.713	375.31
388.938	372.31
389.163	396.31
389.387	382.31
389.612	380.31
389.837	363.31
390.062	346.31
390.287	368.31
390.512	367.31
390.736	366.31
390.961	382.31
391.186	368.31
391.411	364.31
391.636	344.31
391.86	357.31
392.085	383.31
392.31	374.31
392.534	351.31
392.759	376.31
392.984	366.31
393.208	353.31
393.433	380.31
393.658	363.31
393.882	371.31
394.107	376.31
394.331	367.31
394.556	336.31
394.78	361.31
395.005	354.31
395.229	388.31
395.454	390.31
395.678	387.31
395.903	363.31
396.127	396.31
396.352	416.31
396.576	362.31
396.801	375.31
397.025	380.31
397.249	377.31
397.474	399.31
397.698	388.31
397.922	389.31
398.147	427.31
398.371	405.31
398.595	407.31
398.82	399.31
399.044	405.31
399.268	397.31
399.492	405.31
399.717	424.31
399.941	486.31
400.165	498.31
400.389	521.31
400.613	461.31
400.837	428.31
401.062	415.31
401.286	400.31
401.51	414.31
401.734	401.31
401.958	406.31
402.182	400.31
402.406	429.31
402.63	437.31
402.854	412.31
403.078	422.31
403.302	412.31
403.526	410.31
403.75	419.31
403.974	432.31
404.198	403.31
404.422	433.31
404.645	421.31
404.869	410.31
405.093	438.31
405.317	483.31
405.541	510.31
405.765	482.31
405.988	424.31
406.212	442.31
406.436	456.31
406.66	472.31
406.883	463.31
407.107	485.31
407.331	532.31
407.555	548.31
407.778	567.31
408.002	516.31
408.226	474.31
408.449	468.31
408.673	472.31
408.896	467.31
409.12	521.31
409.344	498.31
409.567	464.31
409.791	446.31
410.014	418.31
410.238	426.31
410.461	420.31
410.685	435.31
410.908	448.31
411.132	478.31
411.355	490.31
411.578	479.31
411.802	451.31
412.025	434.31
412.249	418.31
412.472	459.31
412.695	460.31
412.919	463.31
413.142	427.31
413.365	422.31
413.589	396.31
413.812	404.31
414.035	397.31
414.258	409.31
414.482	390.31
414.705	424.31
414.928	401.31
415.151	404.31
415.374	408.31
415.597	415.31
415.821	386.31
416.044	400.31
416.267	401.31
416.49	397.31
416.713	379.31
416.936	395.31
417.159	381.31
417.382	411.31
417.605	407.31
417.828	413.31
418.051	418.31
418.274	412.31
418.497	397.31
418.72	396.31
418.943	399.31
419.166	401.31
419.389	436.31
419.611	420.31
419.834	398.31
420.057	432.31
420.28	414.31
420.503	424.31
420.726	404.31
420.948	442.31
421.171	478.31
421.394	498.31
421.617	429.31
421.839	415.31
422.062	425.31
422.285	430.31
422.507	502.31
422.73	542.31
422.953	531.31
423.175	466.31
423.398	432.31
423.621	446.31
423.843	447.31
424.066	455.31
424.288	434.31
424.511	455.31
424.733	517.31
424.956	614.31
425.178	559.31
425.401	586.31
425.623	590.31
425.846	502.31
426.068	457.31
426.291	459.31
426.513	457.31
426.735	477.31
426.958	526.31
427.18	582.31
427.402	672.31
427.625	765.31
427.847	674.31
428.069	564.31
428.292	497.31
428.514	456.31
428.736	453.31
428.958	437.31
429.181	434.31
429.403	416.31
429.625	421.31
429.847	470.31
430.069	519.31
430.292	498.31
430.514	448.31
430.736	442.31
430.958	416.31
431.18	416.31
431.402	432.31
431.624	393.31
431.846	398.31
432.068	377.31
432.29	394.31
432.512	399.31
432.734	395.31
432.956	406.31
433.178	416.31
433.4	413.31
433.622	422.31
433.844	394.31
434.066	369.31
434.287	383.31
434.509	401.31
434.731	412.31
434.953	408.31
435.175	426.31
435.397	434.31
435.618	455.31
435.84	506.31
436.062	608.31
436.284	634.31
436.505	516.31
436.727	469.31
436.949	421.31
437.17	439.31
437.392	423.31
437.614	450.31
437.835	500.31
438.057	570.31
438.278	654.31
438.5	658.31
438.721	691.31
438.943	652.31
439.165	518.31
439.386	478.31
439.608	461.31
439.829	482.31
440.05	522.31
440.272	542.31
440.493	492.31
440.715	478.31
440.936	448.31
441.158	439.31
441.379	417.31
441.6	425.31
441.822	476.31
442.043	496.31
442.264	574.31
442.486	592.31
442.707	529.31
442.928	464.31
443.149	482.31
443.371	487.31
443.592	543.31
443.813	590.31
444.034	652.31
444.255	566.31
444.476	480.31
444.698	470.31
444.919	449.31
445.14	574.31
445.361	506.31
445.582	508.31
445.803	549.31
446.024	638.31
446.245	663.31
446.466	602.31
446.687	485.31
446.908	464.31
447.129	450.31
447.35	441.31
447.571	443.31
447.792	431.31
448.013	450.31
448.234	472.31
448.455	489.31
448.675	602.31
448.896	670.31
449.117	608.31
449.338	580.31
449.559	639.31
449.779	721.31
450	604.31
450.221	465.31
450.442	449.31
450.662	428.31
450.883	434.31
451.104	447.31
451.324	439.31
451.545	422.31
451.766	409.31
451.986	387.31
452.207	378.31
452.428	380.31
452.648	398.31
452.869	390.31
453.089	385.31
453.31	381.31
453.53	395.31
453.751	383.31
453.971	383.31
454.192	409.31
454.412	392.31
454.633	382.31
454.853	382.31
455.073	403.31
455.294	395.31
455.514	450.31
455.734	453.31
455.955	387.31
456.175	368.31
456.395	360.31
456.616	346.31
456.836	335.31
457.056	354.31
457.276	338.31
457.497	353.31
457.717	372.31
457.937	356.31
458.157	374.31
458.377	380.31
458.598	407.31
458.818	455.31
459.038	536.31
459.258	532.31
459.478	457.31
459.698	406.31
459.918	403.31
460.138	384.31
460.358	387.31
460.578	382.31
460.798	397.31
461.018	386.31
461.238	396.31
461.458	390.31
461.678	390.31
461.898	408.31
462.118	381.31
462.338	396.31
462.558	390.31
462.777	410.31
462.997	414.31
463.217	409.31
463.437	406.31
463.657	409.31
463.876	399.31
464.096	418.31
464.316	400.31
464.536	406.31
464.755	406.31
464.975	416.31
465.195	441.31
465.414	539.31
465.634	464.31
465.854	425.31
466.073	398.31
466.293	394.31
466.512	386.31
466.732	379.31
466.951	379.31
467.171	384.31
467.391	381.31
467.61	396.31
467.829	400.31
468.049	400.31
468.268	378.31
468.488	388.31
468.707	357.31
468.927	375.31
469.146	377.31
469.365	387.31
469.585	350.31
469.804	378.31
470.023	386.31
470.243	391.31
470.462	412.31
470.681	414.31
470.901	414.31
471.12	400.31
471.339	372.31
471.558	392.31
471.777	404.31
471.997	365.31
472.216	396.31
472.435	412.31
472.654	402.31
472.873	408.31
473.092	383.31
473.311	400.31
473.53	380.31
473.749	409.31
473.968	450.31
474.187	535.31
474.406	543.31
474.625	457.31
474.844	422.31
475.063	407.31
475.282	392.31
475.501	384.31
475.72	383.31
475.939	404.31
476.158	397.31
476.377	398.31
476.596	400.31
476.814	410.31
477.033	405.31
477.252	404.31
477.471	416.31
477.69	396.31
477.908	406.31
478.127	400.31
478.346	420.31
478.564	414.31
478.783	428.31
479.002	427.31
479.22	423.31
479.439	459.31
479.658	474.31
479.876	468.31
480.095	463.31
480.313	500.31
480.532	483.31
480.751	473.31
480.969	473.31
481.188	532.31
481.406	541.31
481.624	500.31
481.843	468.31
482.061	466.31
482.28	465.31
482.498	460.31
482.717	442.31
482.935	458.31
483.153	453.31
483.372	444.31
483.59	448.31
483.808	448.31
484.027	471.31
484.245	460.31
484.463	457.31
484.681	476.31
484.9	459.31
485.118	460.31
485.336	467.31
485.554	478.31
485.772	475.31
485.99	464.31
486.209	463.31
486.427	484.31
486.645	477.31
486.863	484.31
487.081	501.31
487.299	475.31
487.517	494.31
487.735	479.31
487.953	488.31
488.171	483.31
488.389	488.31
488.607	487.31
488.825	480.31
489.043	518.31
489.261	514.31
489.479	494.31
489.696	505.31
489.914	513.31
490.132	523.31
490.35	528.31
490.568	514.31
490.786	511.31
491.003	547.31
491.221	528.31
491.439	552.31
491.657	535.31
491.874	549.31
492.092	564.31
492.31	556.31
492.527	544.31
492.745	570.31
492.963	558.31
493.18	573.31
493.398	564.31
493.615	583.31
493.833	570.31
494.05	578.31
494.268	567.31
494.485	583.31
494.703	571.31
494.92	576.31
495.138	585.31
495.355	561.31
495.573	565.31
495.79	568.31
496.008	577.31
496.225	585.31
496.442	589.31
496.66	581.31
496.877	576.31
497.094	594.31
497.312	611.31
497.529	586.31
497.746	587.31
497.963	604.31
498.181	625.31
498.398	631.31
498.615	638.31
498.832	630.31
499.049	626.31
499.267	642.31
499.484	648.31
499.701	647.31
499.918	674.31
500.135	683.31
500.352	713.31
500.569	712.31
500.786	706.31
501.003	716.31
501.22	719.31
501.437	702.31
501.654	719.31
501.871	688.31
