Data from 1981.PennyLincolnUp.Lamp.En5.5.200Scan.071819.P1_HRD10591_16-43-27-961.txt Node
Date: Thu Jul 18 16:43:27 EDT 2019
User: cochatt
Spectrometer: HR+D1059
Trigger mode: 1
Integration Time (sec): 1.000000E-1
Scans to average: 1
Electric dark correction enabled: true
Nonlinearity correction enabled: false
Boxcar width: 0
XAxis mode: Wavelengths
Number of Pixels in Spectrum: 2048
>>>>>Begin Spectral Data<<<<<
223.165	-20.75
223.4	-20.75
223.635	-20.75
223.869	-11.75
224.104	7.25
224.338	-8.75
224.573	-25.75
224.808	-8.75
225.042	7.25
225.277	-15.75
225.511	-5.75
225.746	-6.75
225.98	7.25
226.215	2.25
226.449	13.25
226.683	17.25
226.918	23.25
227.152	26.25
227.387	15.25
227.621	38.25
227.856	41.25
228.09	54.25
228.324	58.25
228.559	44.25
228.793	78.25
229.027	101.25
229.262	118.25
229.496	115.25
229.73	141.25
229.964	172.25
230.199	133.25
230.433	117.25
230.667	131.25
230.901	119.25
231.136	119.25
231.37	118.25
231.604	114.25
231.838	107.25
232.072	113.25
232.306	89.25
232.541	114.25
232.775	115.25
233.009	101.25
233.243	113.25
233.477	106.25
233.711	113.25
233.945	127.25
234.179	116.25
234.413	125.25
234.647	118.25
234.881	118.25
235.115	131.25
235.349	123.25
235.583	122.25
235.817	128.25
236.051	134.25
236.285	124.25
236.519	117.25
236.753	135.25
236.987	142.25
237.221	193.25
237.455	234.25
237.689	194.25
237.922	155.25
238.156	132.25
238.39	127.25
238.624	129.25
238.858	137.25
239.091	120.25
239.325	130.25
239.559	126.25
239.793	133.25
240.027	120.25
240.26	149.25
240.494	165.25
240.728	165.25
240.961	164.25
241.195	143.25
241.429	148.25
241.662	135.25
241.896	141.25
242.13	137.25
242.363	122.25
242.597	127.25
242.83	153.25
243.064	138.25
243.298	141.25
243.531	131.25
243.765	133.25
243.998	150.25
244.232	124.25
244.465	150.25
244.699	144.25
244.932	138.25
245.166	157.25
245.399	156.25
245.633	137.25
245.866	163.25
246.099	156.25
246.333	134.25
246.566	137.25
246.8	148.25
247.033	155.25
247.266	169.25
247.5	163.25
247.733	178.25
247.966	174.25
248.2	181.25
248.433	169.25
248.666	170.25
248.899	195.25
249.133	202.25
249.366	224.25
249.599	211.25
249.832	212.25
250.066	205.25
250.299	185.25
250.532	187.25
250.765	198.25
250.998	228.25
251.231	241.25
251.465	224.25
251.698	228.25
251.931	210.25
252.164	213.25
252.397	210.25
252.63	236.25
252.863	239.25
253.096	231.25
253.329	247.25
253.562	233.25
253.795	203.25
254.028	221.25
254.261	228.25
254.494	237.25
254.727	268.25
254.96	307.25
255.193	298.25
255.426	269.25
255.659	265.25
255.892	271.25
256.124	261.25
256.357	259.25
256.59	254.25
256.823	241.25
257.056	228.25
257.289	235.25
257.521	217.25
257.754	220.25
257.987	227.25
258.22	214.25
258.452	227.25
258.685	219.25
258.918	217.25
259.151	216.25
259.383	229.25
259.616	225.25
259.849	246.25
260.081	245.25
260.314	265.25
260.547	264.25
260.779	272.25
261.012	245.25
261.244	233.25
261.477	226.25
261.71	227.25
261.942	238.25
262.175	232.25
262.407	241.25
262.64	225.25
262.872	229.25
263.105	223.25
263.337	240.25
263.57	221.25
263.802	225.25
264.035	219.25
264.267	231.25
264.499	242.25
264.732	211.25
264.964	207.25
265.197	223.25
265.429	216.25
265.661	225.25
265.894	222.25
266.126	233.25
266.358	205.25
266.591	225.25
266.823	215.25
267.055	223.25
267.287	234.25
267.52	233.25
267.752	220.25
267.984	257.25
268.216	246.25
268.448	261.25
268.681	246.25
268.913	246.25
269.145	271.25
269.377	299.25
269.609	290.25
269.841	281.25
270.073	287.25
270.306	317.25
270.538	340.25
270.77	348.25
271.002	336.25
271.234	309.25
271.466	341.25
271.698	309.25
271.93	352.25
272.162	353.25
272.394	354.25
272.626	335.25
272.858	327.25
273.09	310.25
273.322	267.25
273.553	308.25
273.785	292.25
274.017	295.25
274.249	277.25
274.481	279.25
274.713	290.25
274.945	270.25
275.176	285.25
275.408	251.25
275.64	281.25
275.872	279.25
276.104	289.25
276.335	286.25
276.567	289.25
276.799	312.25
277.031	322.25
277.262	342.25
277.494	333.25
277.726	319.25
277.957	315.25
278.189	294.25
278.421	290.25
278.652	276.25
278.884	283.25
279.115	277.25
279.347	259.25
279.579	270.25
279.81	270.25
280.042	273.25
280.273	290.25
280.505	269.25
280.736	277.25
280.968	257.25
281.199	273.25
281.431	265.25
281.662	251.25
281.894	283.25
282.125	285.25
282.356	287.25
282.588	318.25
282.819	335.25
283.051	280.25
283.282	289.25
283.513	283.25
283.745	278.25
283.976	283.25
284.207	299.25
284.439	303.25
284.67	290.25
284.901	281.25
285.132	286.25
285.364	286.25
285.595	276.25
285.826	276.25
286.057	299.25
286.288	280.25
286.52	284.25
286.751	281.25
286.982	291.25
287.213	277.25
287.444	296.25
287.675	291.25
287.906	275.25
288.138	301.25
288.369	298.25
288.6	310.25
288.831	301.25
289.062	295.25
289.293	290.25
289.524	281.25
289.755	291.25
289.986	278.25
290.217	275.25
290.448	305.25
290.679	291.25
290.91	287.25
291.141	281.25
291.371	305.25
291.602	283.25
291.833	291.25
292.064	297.25
292.295	297.25
292.526	287.25
292.757	305.25
292.987	270.25
293.218	289.25
293.449	297.25
293.68	287.25
293.91	275.25
294.141	280.25
294.372	291.25
294.603	290.25
294.833	277.25
295.064	301.25
295.295	291.25
295.525	290.25
295.756	290.25
295.987	307.25
296.217	323.25
296.448	326.25
296.679	298.25
296.909	286.25
297.14	286.25
297.37	275.25
297.601	313.25
297.831	307.25
298.062	299.25
298.292	276.25
298.523	286.25
298.753	300.25
298.984	298.25
299.214	303.25
299.445	327.25
299.675	307.25
299.905	296.25
300.136	314.25
300.366	297.25
300.597	315.25
300.827	331.25
301.057	326.25
301.288	334.25
301.518	327.25
301.748	311.25
301.979	315.25
302.209	343.25
302.439	322.25
302.669	325.25
302.9	313.25
303.13	328.25
303.36	331.25
303.59	328.25
303.82	340.25
304.051	350.25
304.281	338.25
304.511	309.25
304.741	341.25
304.971	326.25
305.201	331.25
305.431	326.25
305.661	311.25
305.891	306.25
306.121	313.25
306.352	327.25
306.582	337.25
306.812	333.25
307.042	338.25
307.272	345.25
307.502	321.25
307.731	332.25
307.961	332.25
308.191	320.25
308.421	349.25
308.651	328.25
308.881	353.25
309.111	348.25
309.341	346.25
309.571	350.25
309.8	387.25
310.03	371.25
310.26	410.25
310.49	411.25
310.72	407.25
310.949	425.25
311.179	414.25
311.409	385.25
311.639	389.25
311.868	402.25
312.098	380.25
312.328	411.25
312.557	409.25
312.787	428.25
313.017	422.25
313.246	401.25
313.476	390.25
313.706	386.25
313.935	387.25
314.165	394.25
314.394	411.25
314.624	417.25
314.853	397.25
315.083	394.25
315.312	369.25
315.542	397.25
315.771	389.25
316.001	375.25
316.23	371.25
316.46	386.25
316.689	383.25
316.919	391.25
317.148	409.25
317.377	411.25
317.607	393.25
317.836	386.25
318.065	392.25
318.295	383.25
318.524	380.25
318.753	375.25
318.983	372.25
319.212	367.25
319.441	403.25
319.67	383.25
319.9	393.25
320.129	400.25
320.358	386.25
320.587	406.25
320.816	399.25
321.046	441.25
321.275	425.25
321.504	411.25
321.733	404.25
321.962	429.25
322.191	428.25
322.42	468.25
322.649	467.25
322.878	490.25
323.108	489.25
323.337	547.25
323.566	535.25
323.795	592.25
324.024	677.25
324.253	839.25
324.482	1234.25
324.71	1843.25
324.939	2609.25
325.168	2173.25
325.397	1130.25
325.626	758.25
325.855	627.25
326.084	604.25
326.313	559.25
326.542	537.25
326.77	628.25
326.999	783.25
327.228	1087.25
327.457	1609.25
327.686	1889.25
327.914	1270.25
328.143	850.25
328.372	707.25
328.6	648.25
328.829	631.25
329.058	653.25
329.287	653.25
329.515	612.25
329.744	571.25
329.972	571.25
330.201	595.25
330.43	635.25
330.658	649.25
330.887	694.25
331.115	660.25
331.344	554.25
331.572	517.25
331.801	538.25
332.03	522.25
332.258	458.25
332.486	447.25
332.715	455.25
332.943	464.25
333.172	434.25
333.4	474.25
333.629	475.25
333.857	498.25
334.085	490.25
334.314	515.25
334.542	522.25
334.771	550.25
334.999	494.25
335.227	474.25
335.455	452.25
335.684	460.25
335.912	457.25
336.14	438.25
336.369	426.25
336.597	442.25
336.825	450.25
337.053	459.25
337.281	427.25
337.51	426.25
337.738	431.25
337.966	428.25
338.194	415.25
338.422	424.25
338.65	415.25
338.878	454.25
339.106	422.25
339.334	434.25
339.562	429.25
339.79	415.25
340.018	418.25
340.246	427.25
340.474	421.25
340.702	439.25
340.93	400.25
341.158	419.25
341.386	418.25
341.614	430.25
341.842	405.25
342.07	421.25
342.298	395.25
342.526	410.25
342.754	392.25
342.981	391.25
343.209	418.25
343.437	417.25
343.665	390.25
343.893	406.25
344.12	399.25
344.348	399.25
344.576	423.25
344.804	431.25
345.031	428.25
345.259	467.25
345.487	412.25
345.714	425.25
345.942	435.25
346.17	413.25
346.397	392.25
346.625	400.25
346.853	378.25
347.08	409.25
347.308	405.25
347.535	417.25
347.763	425.25
347.99	415.25
348.218	415.25
348.445	428.25
348.673	424.25
348.9	427.25
349.128	413.25
349.355	365.25
349.583	383.25
349.81	394.25
350.037	407.25
350.265	392.25
350.492	385.25
350.72	396.25
350.947	413.25
351.174	420.25
351.402	424.25
351.629	403.25
351.856	400.25
352.083	421.25
352.311	420.25
352.538	452.25
352.765	442.25
352.992	439.25
353.22	407.25
353.447	388.25
353.674	402.25
353.901	379.25
354.128	389.25
354.355	380.25
354.583	381.25
354.81	372.25
355.037	387.25
355.264	349.25
355.491	383.25
355.718	347.25
355.945	358.25
356.172	371.25
356.399	360.25
356.626	349.25
356.853	360.25
357.08	345.25
357.307	356.25
357.534	360.25
357.761	365.25
357.988	363.25
358.215	374.25
358.441	379.25
358.668	370.25
358.895	380.25
359.122	373.25
359.349	376.25
359.576	399.25
359.802	406.25
360.029	462.25
360.256	477.25
360.483	427.25
360.709	391.25
360.936	422.25
361.163	406.25
361.39	415.25
361.616	407.25
361.843	400.25
362.07	397.25
362.296	376.25
362.523	404.25
362.749	379.25
362.976	379.25
363.203	363.25
363.429	372.25
363.656	381.25
363.882	361.25
364.109	362.25
364.335	348.25
364.562	381.25
364.788	370.25
365.015	359.25
365.241	366.25
365.468	352.25
365.694	362.25
365.92	398.25
366.147	385.25
366.373	373.25
366.599	373.25
366.826	370.25
367.052	362.25
367.278	359.25
367.505	347.25
367.731	364.25
367.957	377.25
368.184	353.25
368.41	360.25
368.636	383.25
368.862	364.25
369.089	337.25
369.315	350.25
369.541	360.25
369.767	365.25
369.993	363.25
370.219	367.25
370.445	360.25
370.672	358.25
370.898	361.25
371.124	362.25
371.35	350.25
371.576	332.25
371.802	383.25
372.028	347.25
372.254	360.25
372.48	356.25
372.706	364.25
372.932	354.25
373.158	358.25
373.384	360.25
373.61	366.25
373.835	365.25
374.061	357.25
374.287	354.25
374.513	348.25
374.739	350.25
374.965	365.25
375.191	357.25
375.416	352.25
375.642	351.25
375.868	353.25
376.094	351.25
376.319	351.25
376.545	361.25
376.771	349.25
376.997	341.25
377.222	349.25
377.448	331.25
377.674	362.25
377.899	328.25
378.125	356.25
378.35	341.25
378.576	320.25
378.802	342.25
379.027	344.25
379.253	354.25
379.478	336.25
379.704	349.25
379.929	338.25
380.155	357.25
380.38	350.25
380.606	352.25
380.831	345.25
381.057	358.25
381.282	369.25
381.507	358.25
381.733	358.25
381.958	333.25
382.184	335.25
382.409	348.25
382.634	340.25
382.86	338.25
383.085	337.25
383.31	334.25
383.535	349.25
383.761	345.25
383.986	375.25
384.211	373.25
384.436	375.25
384.662	359.25
384.887	374.25
385.112	355.25
385.337	354.25
385.562	359.25
385.787	366.25
386.013	366.25
386.238	389.25
386.463	371.25
386.688	357.25
386.913	355.25
387.138	374.25
387.363	361.25
387.588	350.25
387.813	360.25
388.038	362.25
388.263	350.25
388.488	352.25
388.713	374.25
388.938	355.25
389.163	350.25
389.387	364.25
389.612	358.25
389.837	354.25
390.062	360.25
390.287	352.25
390.512	353.25
390.736	363.25
390.961	363.25
391.186	369.25
391.411	368.25
391.636	371.25
391.86	375.25
392.085	363.25
392.31	377.25
392.534	367.25
392.759	366.25
392.984	362.25
393.208	361.25
393.433	371.25
393.658	346.25
393.882	353.25
394.107	353.25
394.331	364.25
394.556	388.25
394.78	378.25
395.005	364.25
395.229	363.25
395.454	366.25
395.678	375.25
395.903	369.25
396.127	386.25
396.352	400.25
396.576	392.25
396.801	383.25
397.025	366.25
397.249	387.25
397.474	378.25
397.698	376.25
397.922	401.25
398.147	401.25
398.371	406.25
398.595	406.25
398.82	386.25
399.044	403.25
399.268	403.25
399.492	426.25
399.717	426.25
399.941	453.25
400.165	473.25
400.389	505.25
400.613	447.25
400.837	430.25
401.062	419.25
401.286	408.25
401.51	411.25
401.734	397.25
401.958	405.25
402.182	413.25
402.406	409.25
402.63	420.25
402.854	409.25
403.078	412.25
403.302	412.25
403.526	434.25
403.75	424.25
403.974	419.25
404.198	411.25
404.422	428.25
404.645	429.25
404.869	425.25
405.093	444.25
405.317	484.25
405.541	517.25
405.765	471.25
405.988	456.25
406.212	458.25
406.436	461.25
406.66	500.25
406.883	458.25
407.107	488.25
407.331	508.25
407.555	563.25
407.778	541.25
408.002	517.25
408.226	486.25
408.449	473.25
408.673	462.25
408.896	469.25
409.12	537.25
409.344	503.25
409.567	436.25
409.791	433.25
410.014	437.25
410.238	413.25
410.461	417.25
410.685	404.25
410.908	441.25
411.132	473.25
411.355	498.25
411.578	470.25
411.802	438.25
412.025	436.25
412.249	440.25
412.472	443.25
412.695	476.25
412.919	471.25
413.142	434.25
413.365	414.25
413.589	419.25
413.812	408.25
414.035	393.25
414.258	410.25
414.482	392.25
414.705	381.25
414.928	366.25
415.151	381.25
415.374	392.25
415.597	398.25
415.821	394.25
416.044	394.25
416.267	387.25
416.49	412.25
416.713	362.25
416.936	375.25
417.159	400.25
417.382	411.25
417.605	387.25
417.828	420.25
418.051	417.25
418.274	406.25
418.497	404.25
418.72	397.25
418.943	409.25
419.166	398.25
419.389	411.25
419.611	393.25
419.834	430.25
420.057	420.25
420.28	423.25
420.503	425.25
420.726	409.25
420.948	430.25
421.171	465.25
421.394	495.25
421.617	447.25
421.839	419.25
422.062	423.25
422.285	460.25
422.507	482.25
422.73	531.25
422.953	512.25
423.175	463.25
423.398	451.25
423.621	447.25
423.843	457.25
424.066	445.25
424.288	466.25
424.511	461.25
424.733	537.25
424.956	570.25
425.178	565.25
425.401	577.25
425.623	572.25
425.846	524.25
426.068	453.25
426.291	463.25
426.513	459.25
426.735	475.25
426.958	527.25
427.18	605.25
427.402	706.25
427.625	813.25
427.847	693.25
428.069	612.25
428.292	530.25
428.514	467.25
428.736	441.25
428.958	457.25
429.181	429.25
429.403	420.25
429.625	433.25
429.847	486.25
430.069	541.25
430.292	537.25
430.514	442.25
430.736	417.25
430.958	423.25
431.18	403.25
431.402	414.25
431.624	405.25
431.846	393.25
432.068	396.25
432.29	379.25
432.512	383.25
432.734	425.25
432.956	410.25
433.178	424.25
433.4	419.25
433.622	389.25
433.844	390.25
434.066	412.25
434.287	406.25
434.509	394.25
434.731	423.25
434.953	405.25
435.175	398.25
435.397	450.25
435.618	447.25
435.84	502.25
436.062	589.25
436.284	659.25
436.505	535.25
436.727	503.25
436.949	461.25
437.17	445.25
437.392	417.25
437.614	445.25
437.835	506.25
438.057	571.25
438.278	669.25
438.5	654.25
438.721	706.25
438.943	694.25
439.165	546.25
439.386	491.25
439.608	486.25
439.829	478.25
440.05	534.25
440.272	578.25
440.493	550.25
440.715	472.25
440.936	452.25
441.158	422.25
441.379	436.25
441.6	460.25
441.822	459.25
442.043	502.25
442.264	584.25
442.486	630.25
442.707	533.25
442.928	493.25
443.149	487.25
443.371	510.25
443.592	565.25
443.813	645.25
444.034	679.25
444.255	546.25
444.476	467.25
444.698	453.25
444.919	452.25
445.14	556.25
445.361	494.25
445.582	504.25
445.803	577.25
446.024	707.25
446.245	678.25
446.466	623.25
446.687	530.25
446.908	477.25
447.129	451.25
447.35	443.25
447.571	440.25
447.792	419.25
448.013	439.25
448.234	467.25
448.455	510.25
448.675	612.25
448.896	701.25
449.117	591.25
449.338	570.25
449.559	666.25
449.779	727.25
450	600.25
450.221	512.25
450.442	453.25
450.662	444.25
450.883	437.25
451.104	462.25
451.324	462.25
451.545	417.25
451.766	415.25
451.986	406.25
452.207	385.25
452.428	381.25
452.648	382.25
452.869	397.25
453.089	411.25
453.31	406.25
453.53	389.25
453.751	399.25
453.971	385.25
454.192	410.25
454.412	408.25
454.633	391.25
454.853	384.25
455.073	369.25
455.294	423.25
455.514	511.25
455.734	469.25
455.955	386.25
456.175	355.25
456.395	361.25
456.616	365.25
456.836	371.25
457.056	371.25
457.276	341.25
457.497	365.25
457.717	365.25
457.937	365.25
458.157	377.25
458.377	379.25
458.598	414.25
458.818	460.25
459.038	539.25
459.258	540.25
459.478	466.25
459.698	398.25
459.918	396.25
460.138	396.25
460.358	397.25
460.578	394.25
460.798	413.25
461.018	401.25
461.238	395.25
461.458	390.25
461.678	377.25
461.898	407.25
462.118	360.25
462.338	383.25
462.558	405.25
462.777	391.25
462.997	407.25
463.217	407.25
463.437	421.25
463.657	390.25
463.876	400.25
464.096	409.25
464.316	405.25
464.536	409.25
464.755	433.25
464.975	430.25
465.195	470.25
465.414	558.25
465.634	480.25
465.854	435.25
466.073	429.25
466.293	396.25
466.512	404.25
466.732	397.25
466.951	400.25
467.171	394.25
467.391	377.25
467.61	381.25
467.829	421.25
468.049	410.25
468.268	394.25
468.488	395.25
468.707	380.25
468.927	382.25
469.146	374.25
469.365	388.25
469.585	365.25
469.804	393.25
470.023	405.25
470.243	388.25
470.462	395.25
470.681	416.25
470.901	396.25
471.12	375.25
471.339	388.25
471.558	401.25
471.777	405.25
471.997	409.25
472.216	399.25
472.435	431.25
472.654	424.25
472.873	388.25
473.092	385.25
473.311	391.25
473.53	401.25
473.749	414.25
473.968	437.25
474.187	568.25
474.406	588.25
474.625	482.25
474.844	411.25
475.063	419.25
475.282	397.25
475.501	398.25
475.72	407.25
475.939	423.25
476.158	389.25
476.377	417.25
476.596	404.25
476.814	391.25
477.033	396.25
477.252	423.25
477.471	421.25
477.69	421.25
477.908	390.25
478.127	429.25
478.346	415.25
478.564	420.25
478.783	433.25
479.002	439.25
479.22	419.25
479.439	474.25
479.658	471.25
479.876	480.25
480.095	478.25
480.313	516.25
480.532	471.25
480.751	459.25
480.969	497.25
481.188	555.25
481.406	581.25
481.624	492.25
481.843	488.25
482.061	474.25
482.28	477.25
482.498	464.25
482.717	452.25
482.935	457.25
483.153	471.25
483.372	473.25
483.59	468.25
483.808	453.25
484.027	455.25
484.245	447.25
484.463	473.25
484.681	479.25
484.9	469.25
485.118	470.25
485.336	460.25
485.554	466.25
485.772	472.25
485.99	468.25
486.209	478.25
486.427	484.25
486.645	484.25
486.863	502.25
487.081	501.25
487.299	488.25
487.517	489.25
487.735	509.25
487.953	483.25
488.171	492.25
488.389	495.25
488.607	500.25
488.825	505.25
489.043	489.25
489.261	519.25
489.479	513.25
489.696	489.25
489.914	486.25
490.132	492.25
490.35	519.25
490.568	525.25
490.786	526.25
491.003	527.25
491.221	538.25
491.439	559.25
491.657	541.25
491.874	586.25
492.092	579.25
492.31	588.25
492.527	573.25
492.745	563.25
492.963	583.25
493.18	563.25
493.398	598.25
493.615	595.25
493.833	594.25
494.05	585.25
494.268	598.25
494.485	593.25
494.703	607.25
494.92	581.25
495.138	580.25
495.355	584.25
495.573	609.25
495.79	602.25
496.008	573.25
496.225	591.25
496.442	603.25
496.66	596.25
496.877	589.25
497.094	578.25
497.312	585.25
497.529	605.25
497.746	616.25
497.963	613.25
498.181	612.25
498.398	629.25
498.615	646.25
498.832	649.25
499.049	642.25
499.267	637.25
499.484	667.25
499.701	660.25
499.918	685.25
500.135	711.25
500.352	701.25
500.569	719.25
500.786	727.25
501.003	714.25
501.22	709.25
501.437	710.25
501.654	714.25
501.871	715.25
