Data from 1981.PennyLincolnUp.Lamp.En5.5.200Scan.071819.P1_HRD10591_16-42-56-960.txt Node
Date: Thu Jul 18 16:42:56 EDT 2019
User: cochatt
Spectrometer: HR+D1059
Trigger mode: 1
Integration Time (sec): 1.000000E-1
Scans to average: 1
Electric dark correction enabled: true
Nonlinearity correction enabled: false
Boxcar width: 0
XAxis mode: Wavelengths
Number of Pixels in Spectrum: 2048
>>>>>Begin Spectral Data<<<<<
223.165	-21.56
223.4	-21.56
223.635	-21.56
223.869	-22.56
224.104	-30.56
224.338	-11.56
224.573	-8.56
224.808	-16.56
225.042	-11.56
225.277	-7.56
225.511	6.44
225.746	-6.56
225.98	25.44
226.215	6.44
226.449	23.44
226.683	26.44
226.918	15.44
227.152	33.44
227.387	32.44
227.621	38.44
227.856	49.44
228.09	58.44
228.324	57.44
228.559	57.44
228.793	51.44
229.027	89.44
229.262	113.44
229.496	126.44
229.73	137.44
229.964	149.44
230.199	136.44
230.433	123.44
230.667	122.44
230.901	107.44
231.136	115.44
231.37	103.44
231.604	97.44
231.838	110.44
232.072	121.44
232.306	115.44
232.541	109.44
232.775	106.44
233.009	119.44
233.243	117.44
233.477	113.44
233.711	104.44
233.945	110.44
234.179	118.44
234.413	119.44
234.647	119.44
234.881	131.44
235.115	115.44
235.349	136.44
235.583	125.44
235.817	113.44
236.051	134.44
236.285	128.44
236.519	138.44
236.753	126.44
236.987	158.44
237.221	198.44
237.455	251.44
237.689	192.44
237.922	143.44
238.156	142.44
238.39	150.44
238.624	141.44
238.858	127.44
239.091	130.44
239.325	130.44
239.559	128.44
239.793	125.44
240.027	148.44
240.26	156.44
240.494	151.44
240.728	157.44
240.961	158.44
241.195	149.44
241.429	153.44
241.662	144.44
241.896	140.44
242.13	138.44
242.363	147.44
242.597	133.44
242.83	140.44
243.064	122.44
243.298	126.44
243.531	148.44
243.765	145.44
243.998	152.44
244.232	137.44
244.465	142.44
244.699	152.44
244.932	161.44
245.166	155.44
245.399	167.44
245.633	140.44
245.866	140.44
246.099	165.44
246.333	139.44
246.566	161.44
246.8	146.44
247.033	159.44
247.266	158.44
247.5	179.44
247.733	156.44
247.966	180.44
248.2	175.44
248.433	169.44
248.666	184.44
248.899	189.44
249.133	221.44
249.366	221.44
249.599	228.44
249.832	204.44
250.066	203.44
250.299	196.44
250.532	198.44
250.765	213.44
250.998	235.44
251.231	252.44
251.465	222.44
251.698	226.44
251.931	221.44
252.164	214.44
252.397	216.44
252.63	220.44
252.863	229.44
253.096	233.44
253.329	255.44
253.562	250.44
253.795	250.44
254.028	247.44
254.261	247.44
254.494	244.44
254.727	250.44
254.96	276.44
255.193	300.44
255.426	252.44
255.659	266.44
255.892	256.44
256.124	277.44
256.357	258.44
256.59	227.44
256.823	240.44
257.056	219.44
257.289	239.44
257.521	224.44
257.754	219.44
257.987	227.44
258.22	223.44
258.452	238.44
258.685	225.44
258.918	211.44
259.151	220.44
259.383	221.44
259.616	236.44
259.849	210.44
260.081	259.44
260.314	289.44
260.547	269.44
260.779	273.44
261.012	265.44
261.244	231.44
261.477	236.44
261.71	225.44
261.942	235.44
262.175	253.44
262.407	224.44
262.64	234.44
262.872	258.44
263.105	211.44
263.337	230.44
263.57	227.44
263.802	226.44
264.035	229.44
264.267	219.44
264.499	217.44
264.732	212.44
264.964	241.44
265.197	219.44
265.429	235.44
265.661	224.44
265.894	220.44
266.126	236.44
266.358	224.44
266.591	225.44
266.823	242.44
267.055	254.44
267.287	245.44
267.52	249.44
267.752	232.44
267.984	246.44
268.216	233.44
268.448	236.44
268.681	270.44
268.913	284.44
269.145	274.44
269.377	272.44
269.609	322.44
269.841	288.44
270.073	291.44
270.306	309.44
270.538	335.44
270.77	346.44
271.002	330.44
271.234	316.44
271.466	330.44
271.698	347.44
271.93	345.44
272.162	362.44
272.394	336.44
272.626	343.44
272.858	329.44
273.09	301.44
273.322	275.44
273.553	299.44
273.785	288.44
274.017	293.44
274.249	292.44
274.481	300.44
274.713	294.44
274.945	281.44
275.176	289.44
275.408	281.44
275.64	285.44
275.872	283.44
276.104	285.44
276.335	274.44
276.567	278.44
276.799	298.44
277.031	333.44
277.262	324.44
277.494	347.44
277.726	313.44
277.957	301.44
278.189	316.44
278.421	307.44
278.652	279.44
278.884	289.44
279.115	257.44
279.347	286.44
279.579	287.44
279.81	278.44
280.042	275.44
280.273	270.44
280.505	286.44
280.736	282.44
280.968	275.44
281.199	264.44
281.431	271.44
281.662	268.44
281.894	277.44
282.125	286.44
282.356	297.44
282.588	342.44
282.819	327.44
283.051	271.44
283.282	277.44
283.513	277.44
283.745	283.44
283.976	297.44
284.207	294.44
284.439	306.44
284.67	290.44
284.901	272.44
285.132	291.44
285.364	293.44
285.595	295.44
285.826	283.44
286.057	279.44
286.288	275.44
286.52	292.44
286.751	296.44
286.982	291.44
287.213	285.44
287.444	276.44
287.675	303.44
287.906	317.44
288.138	303.44
288.369	323.44
288.6	325.44
288.831	302.44
289.062	311.44
289.293	312.44
289.524	281.44
289.755	294.44
289.986	278.44
290.217	288.44
290.448	297.44
290.679	275.44
290.91	293.44
291.141	300.44
291.371	309.44
291.602	305.44
291.833	305.44
292.064	294.44
292.295	305.44
292.526	296.44
292.757	295.44
292.987	291.44
293.218	285.44
293.449	281.44
293.68	294.44
293.91	290.44
294.141	286.44
294.372	296.44
294.603	295.44
294.833	286.44
295.064	295.44
295.295	298.44
295.525	297.44
295.756	307.44
295.987	319.44
296.217	353.44
296.448	343.44
296.679	302.44
296.909	315.44
297.14	307.44
297.37	319.44
297.601	310.44
297.831	306.44
298.062	308.44
298.292	313.44
298.523	298.44
298.753	324.44
298.984	311.44
299.214	299.44
299.445	309.44
299.675	322.44
299.905	313.44
300.136	310.44
300.366	315.44
300.597	333.44
300.827	319.44
301.057	335.44
301.288	337.44
301.518	325.44
301.748	316.44
301.979	338.44
302.209	325.44
302.439	319.44
302.669	331.44
302.9	317.44
303.13	321.44
303.36	335.44
303.59	334.44
303.82	348.44
304.051	335.44
304.281	329.44
304.511	329.44
304.741	324.44
304.971	329.44
305.201	346.44
305.431	341.44
305.661	327.44
305.891	335.44
306.121	335.44
306.352	333.44
306.582	326.44
306.812	346.44
307.042	331.44
307.272	341.44
307.502	332.44
307.731	341.44
307.961	343.44
308.191	366.44
308.421	330.44
308.651	361.44
308.881	345.44
309.111	377.44
309.341	363.44
309.571	374.44
309.8	393.44
310.03	388.44
310.26	408.44
310.49	397.44
310.72	397.44
310.949	441.44
311.179	438.44
311.409	404.44
311.639	399.44
311.868	394.44
312.098	395.44
312.328	399.44
312.557	438.44
312.787	439.44
313.017	436.44
313.246	413.44
313.476	395.44
313.706	407.44
313.935	398.44
314.165	409.44
314.394	414.44
314.624	425.44
314.853	414.44
315.083	383.44
315.312	395.44
315.542	387.44
315.771	382.44
316.001	389.44
316.23	393.44
316.46	397.44
316.689	381.44
316.919	402.44
317.148	411.44
317.377	415.44
317.607	383.44
317.836	389.44
318.065	394.44
318.295	404.44
318.524	393.44
318.753	374.44
318.983	389.44
319.212	379.44
319.441	423.44
319.67	397.44
319.9	400.44
320.129	399.44
320.358	386.44
320.587	389.44
320.816	425.44
321.046	426.44
321.275	424.44
321.504	431.44
321.733	425.44
321.962	448.44
322.191	443.44
322.42	463.44
322.649	506.44
322.878	490.44
323.108	513.44
323.337	540.44
323.566	555.44
323.795	629.44
324.024	687.44
324.253	844.44
324.482	1231.44
324.71	1873.44
324.939	2600.44
325.168	2155.44
325.397	1161.44
325.626	775.44
325.855	637.44
326.084	571.44
326.313	582.44
326.542	564.44
326.77	619.44
326.999	775.44
327.228	1065.44
327.457	1600.44
327.686	1894.44
327.914	1258.44
328.143	833.44
328.372	716.44
328.6	673.44
328.829	654.44
329.058	649.44
329.287	679.44
329.515	611.44
329.744	579.44
329.972	574.44
330.201	590.44
330.43	646.44
330.658	669.44
330.887	674.44
331.115	669.44
331.344	576.44
331.572	550.44
331.801	515.44
332.03	526.44
332.258	486.44
332.486	469.44
332.715	449.44
332.943	477.44
333.172	460.44
333.4	459.44
333.629	480.44
333.857	498.44
334.085	501.44
334.314	525.44
334.542	544.44
334.771	579.44
334.999	506.44
335.227	491.44
335.455	471.44
335.684	462.44
335.912	454.44
336.14	443.44
336.369	464.44
336.597	469.44
336.825	451.44
337.053	438.44
337.281	430.44
337.51	437.44
337.738	461.44
337.966	441.44
338.194	452.44
338.422	466.44
338.65	435.44
338.878	436.44
339.106	430.44
339.334	410.44
339.562	423.44
339.79	433.44
340.018	457.44
340.246	431.44
340.474	433.44
340.702	439.44
340.93	416.44
341.158	444.44
341.386	425.44
341.614	436.44
341.842	439.44
342.07	430.44
342.298	449.44
342.526	403.44
342.754	396.44
342.981	420.44
343.209	405.44
343.437	397.44
343.665	423.44
343.893	426.44
344.12	433.44
344.348	427.44
344.576	424.44
344.804	445.44
345.031	443.44
345.259	427.44
345.487	432.44
345.714	445.44
345.942	415.44
346.17	394.44
346.397	424.44
346.625	414.44
346.853	410.44
347.08	425.44
347.308	437.44
347.535	438.44
347.763	445.44
347.99	428.44
348.218	427.44
348.445	427.44
348.673	421.44
348.9	418.44
349.128	402.44
349.355	389.44
349.583	405.44
349.81	385.44
350.037	392.44
350.265	395.44
350.492	412.44
350.72	405.44
350.947	419.44
351.174	431.44
351.402	439.44
351.629	427.44
351.856	435.44
352.083	435.44
352.311	427.44
352.538	460.44
352.765	437.44
352.992	419.44
353.22	426.44
353.447	412.44
353.674	395.44
353.901	404.44
354.128	407.44
354.355	397.44
354.583	394.44
354.81	400.44
355.037	381.44
355.264	373.44
355.491	360.44
355.718	379.44
355.945	375.44
356.172	373.44
356.399	382.44
356.626	386.44
356.853	377.44
357.08	375.44
357.307	371.44
357.534	377.44
357.761	365.44
357.988	395.44
358.215	375.44
358.441	381.44
358.668	369.44
358.895	383.44
359.122	397.44
359.349	392.44
359.576	432.44
359.802	435.44
360.029	475.44
360.256	477.44
360.483	452.44
360.709	433.44
360.936	411.44
361.163	404.44
361.39	419.44
361.616	409.44
361.843	391.44
362.07	405.44
362.296	421.44
362.523	395.44
362.749	418.44
362.976	387.44
363.203	402.44
363.429	369.44
363.656	380.44
363.882	387.44
364.109	397.44
364.335	387.44
364.562	367.44
364.788	389.44
365.015	377.44
365.241	398.44
365.468	389.44
365.694	398.44
365.92	387.44
366.147	391.44
366.373	366.44
366.599	378.44
366.826	358.44
367.052	377.44
367.278	390.44
367.505	378.44
367.731	392.44
367.957	372.44
368.184	391.44
368.41	391.44
368.636	390.44
368.862	421.44
369.089	403.44
369.315	367.44
369.541	383.44
369.767	376.44
369.993	374.44
370.219	362.44
370.445	361.44
370.672	325.44
370.898	369.44
371.124	356.44
371.35	363.44
371.576	370.44
371.802	389.44
372.028	377.44
372.254	357.44
372.48	363.44
372.706	350.44
372.932	366.44
373.158	362.44
373.384	371.44
373.61	345.44
373.835	385.44
374.061	375.44
374.287	372.44
374.513	382.44
374.739	378.44
374.965	351.44
375.191	375.44
375.416	354.44
375.642	360.44
375.868	382.44
376.094	363.44
376.319	367.44
376.545	346.44
376.771	366.44
376.997	369.44
377.222	356.44
377.448	343.44
377.674	360.44
377.899	361.44
378.125	338.44
378.35	358.44
378.576	345.44
378.802	349.44
379.027	373.44
379.253	364.44
379.478	342.44
379.704	358.44
379.929	365.44
380.155	361.44
380.38	364.44
380.606	387.44
380.831	381.44
381.057	377.44
381.282	337.44
381.507	355.44
381.733	373.44
381.958	355.44
382.184	375.44
382.409	358.44
382.634	371.44
382.86	375.44
383.085	363.44
383.31	359.44
383.535	360.44
383.761	359.44
383.986	366.44
384.211	350.44
384.436	367.44
384.662	382.44
384.887	346.44
385.112	371.44
385.337	381.44
385.562	364.44
385.787	381.44
386.013	376.44
386.238	379.44
386.463	380.44
386.688	375.44
386.913	369.44
387.138	389.44
387.363	385.44
387.588	390.44
387.813	368.44
388.038	387.44
388.263	393.44
388.488	361.44
388.713	385.44
388.938	369.44
389.163	384.44
389.387	379.44
389.612	395.44
389.837	358.44
390.062	374.44
390.287	384.44
390.512	379.44
390.736	369.44
390.961	378.44
391.186	371.44
391.411	360.44
391.636	393.44
391.86	375.44
392.085	377.44
392.31	385.44
392.534	402.44
392.759	363.44
392.984	381.44
393.208	362.44
393.433	371.44
393.658	364.44
393.882	382.44
394.107	371.44
394.331	357.44
394.556	381.44
394.78	373.44
395.005	381.44
395.229	383.44
395.454	391.44
395.678	397.44
395.903	387.44
396.127	418.44
396.352	427.44
396.576	399.44
396.801	371.44
397.025	390.44
397.249	374.44
397.474	391.44
397.698	395.44
397.922	405.44
398.147	441.44
398.371	439.44
398.595	414.44
398.82	404.44
399.044	403.44
399.268	422.44
399.492	459.44
399.717	453.44
399.941	489.44
400.165	506.44
400.389	511.44
400.613	484.44
400.837	443.44
401.062	437.44
401.286	419.44
401.51	417.44
401.734	425.44
401.958	409.44
402.182	440.44
402.406	425.44
402.63	445.44
402.854	395.44
403.078	414.44
403.302	428.44
403.526	450.44
403.75	437.44
403.974	421.44
404.198	420.44
404.422	455.44
404.645	440.44
404.869	455.44
405.093	476.44
405.317	511.44
405.541	523.44
405.765	480.44
405.988	449.44
406.212	476.44
406.436	487.44
406.66	497.44
406.883	475.44
407.107	500.44
407.331	527.44
407.555	577.44
407.778	587.44
408.002	531.44
408.226	491.44
408.449	477.44
408.673	496.44
408.896	515.44
409.12	553.44
409.344	515.44
409.567	467.44
409.791	439.44
410.014	446.44
410.238	438.44
410.461	427.44
410.685	461.44
410.908	437.44
411.132	480.44
411.355	513.44
411.578	502.44
411.802	460.44
412.025	428.44
412.249	450.44
412.472	463.44
412.695	500.44
412.919	481.44
413.142	459.44
413.365	429.44
413.589	424.44
413.812	412.44
414.035	433.44
414.258	443.44
414.482	406.44
414.705	413.44
414.928	399.44
415.151	408.44
415.374	406.44
415.597	403.44
415.821	414.44
416.044	405.44
416.267	417.44
416.49	420.44
416.713	402.44
416.936	409.44
417.159	418.44
417.382	403.44
417.605	379.44
417.828	417.44
418.051	419.44
418.274	430.44
418.497	414.44
418.72	415.44
418.943	394.44
419.166	412.44
419.389	430.44
419.611	433.44
419.834	423.44
420.057	418.44
420.28	419.44
420.503	440.44
420.726	424.44
420.948	421.44
421.171	485.44
421.394	517.44
421.617	464.44
421.839	417.44
422.062	428.44
422.285	467.44
422.507	510.44
422.73	548.44
422.953	547.44
423.175	460.44
423.398	476.44
423.621	460.44
423.843	451.44
424.066	477.44
424.288	462.44
424.511	490.44
424.733	542.44
424.956	600.44
425.178	605.44
425.401	566.44
425.623	595.44
425.846	491.44
426.068	471.44
426.291	484.44
426.513	484.44
426.735	495.44
426.958	548.44
427.18	639.44
427.402	709.44
427.625	765.44
427.847	717.44
428.069	629.44
428.292	540.44
428.514	466.44
428.736	446.44
428.958	467.44
429.181	441.44
429.403	437.44
429.625	436.44
429.847	484.44
430.069	538.44
430.292	534.44
430.514	458.44
430.736	424.44
430.958	446.44
431.18	403.44
431.402	411.44
431.624	393.44
431.846	398.44
432.068	387.44
432.29	405.44
432.512	432.44
432.734	402.44
432.956	413.44
433.178	433.44
433.4	438.44
433.622	411.44
433.844	422.44
434.066	385.44
434.287	413.44
434.509	440.44
434.731	415.44
434.953	424.44
435.175	415.44
435.397	449.44
435.618	498.44
435.84	522.44
436.062	607.44
436.284	649.44
436.505	579.44
436.727	499.44
436.949	470.44
437.17	443.44
437.392	441.44
437.614	458.44
437.835	485.44
438.057	558.44
438.278	665.44
438.5	666.44
438.721	714.44
438.943	730.44
439.165	558.44
439.386	510.44
439.608	532.44
439.829	491.44
440.05	539.44
440.272	557.44
440.493	512.44
440.715	461.44
440.936	448.44
441.158	447.44
441.379	477.44
441.6	454.44
441.822	470.44
442.043	511.44
442.264	596.44
442.486	629.44
442.707	542.44
442.928	501.44
443.149	490.44
443.371	507.44
443.592	541.44
443.813	665.44
444.034	669.44
444.255	592.44
444.476	474.44
444.698	481.44
444.919	464.44
445.14	566.44
445.361	533.44
445.582	535.44
445.803	581.44
446.024	669.44
446.245	675.44
446.466	625.44
446.687	514.44
446.908	494.44
447.129	479.44
447.35	458.44
447.571	435.44
447.792	431.44
448.013	449.44
448.234	458.44
448.455	521.44
448.675	614.44
448.896	728.44
449.117	627.44
449.338	571.44
449.559	680.44
449.779	749.44
450	590.44
450.221	516.44
450.442	474.44
450.662	423.44
450.883	458.44
451.104	460.44
451.324	460.44
451.545	438.44
451.766	388.44
451.986	419.44
452.207	396.44
452.428	400.44
452.648	396.44
452.869	398.44
453.089	412.44
453.31	413.44
453.53	427.44
453.751	390.44
453.971	409.44
454.192	432.44
454.412	406.44
454.633	409.44
454.853	385.44
455.073	394.44
455.294	419.44
455.514	492.44
455.734	476.44
455.955	406.44
456.175	399.44
456.395	373.44
456.616	366.44
456.836	380.44
457.056	367.44
457.276	363.44
457.497	353.44
457.717	359.44
457.937	382.44
458.157	380.44
458.377	396.44
458.598	407.44
458.818	475.44
459.038	559.44
459.258	554.44
459.478	487.44
459.698	417.44
459.918	409.44
460.138	398.44
460.358	417.44
460.578	392.44
460.798	411.44
461.018	409.44
461.238	399.44
461.458	398.44
461.678	406.44
461.898	393.44
462.118	405.44
462.338	385.44
462.558	434.44
462.777	413.44
462.997	403.44
463.217	421.44
463.437	441.44
463.657	414.44
463.876	424.44
464.096	420.44
464.316	420.44
464.536	433.44
464.755	441.44
464.975	413.44
465.195	489.44
465.414	562.44
465.634	483.44
465.854	470.44
466.073	416.44
466.293	409.44
466.512	395.44
466.732	398.44
466.951	393.44
467.171	399.44
467.391	401.44
467.61	408.44
467.829	410.44
468.049	385.44
468.268	402.44
468.488	385.44
468.707	379.44
468.927	401.44
469.146	379.44
469.365	380.44
469.585	370.44
469.804	393.44
470.023	400.44
470.243	393.44
470.462	399.44
470.681	429.44
470.901	434.44
471.12	404.44
471.339	399.44
471.558	411.44
471.777	408.44
471.997	394.44
472.216	400.44
472.435	427.44
472.654	449.44
472.873	403.44
473.092	389.44
473.311	394.44
473.53	426.44
473.749	411.44
473.968	471.44
474.187	558.44
474.406	603.44
474.625	490.44
474.844	444.44
475.063	403.44
475.282	411.44
475.501	410.44
475.72	423.44
475.939	416.44
476.158	415.44
476.377	418.44
476.596	431.44
476.814	416.44
477.033	404.44
477.252	423.44
477.471	432.44
477.69	411.44
477.908	425.44
478.127	431.44
478.346	423.44
478.564	441.44
478.783	425.44
479.002	469.44
479.22	463.44
479.439	439.44
479.658	474.44
479.876	513.44
480.095	497.44
480.313	534.44
480.532	492.44
480.751	513.44
480.969	485.44
481.188	536.44
481.406	592.44
481.624	532.44
481.843	466.44
482.061	486.44
482.28	486.44
482.498	463.44
482.717	465.44
482.935	477.44
483.153	469.44
483.372	462.44
483.59	475.44
483.808	451.44
484.027	445.44
484.245	477.44
484.463	465.44
484.681	477.44
484.9	467.44
485.118	482.44
485.336	485.44
485.554	496.44
485.772	503.44
485.99	498.44
486.209	497.44
486.427	501.44
486.645	507.44
486.863	519.44
487.081	523.44
487.299	517.44
487.517	532.44
487.735	495.44
487.953	513.44
488.171	518.44
488.389	522.44
488.607	517.44
488.825	523.44
489.043	528.44
489.261	517.44
489.479	520.44
489.696	513.44
489.914	488.44
490.132	524.44
490.35	533.44
490.568	541.44
490.786	524.44
491.003	555.44
491.221	567.44
491.439	577.44
491.657	571.44
491.874	577.44
492.092	604.44
492.31	589.44
492.527	578.44
492.745	600.44
492.963	600.44
493.18	584.44
493.398	595.44
493.615	605.44
493.833	619.44
494.05	607.44
494.268	599.44
494.485	612.44
494.703	593.44
494.92	631.44
495.138	600.44
495.355	633.44
495.573	604.44
495.79	599.44
496.008	616.44
496.225	611.44
496.442	616.44
496.66	614.44
496.877	621.44
497.094	614.44
497.312	608.44
497.529	603.44
497.746	611.44
497.963	601.44
498.181	648.44
498.398	636.44
498.615	656.44
498.832	641.44
499.049	655.44
499.267	668.44
499.484	677.44
499.701	690.44
499.918	699.44
500.135	717.44
500.352	722.44
500.569	716.44
500.786	737.44
501.003	731.44
501.22	729.44
501.437	729.44
501.654	725.44
501.871	712.44
