Data from 1981.PennyLincolnUp.Lamp.En5.5.200Scan.071819.P1_HRD10591_16-41-15-958.txt Node
Date: Thu Jul 18 16:41:15 EDT 2019
User: cochatt
Spectrometer: HR+D1059
Trigger mode: 1
Integration Time (sec): 1.000000E-1
Scans to average: 1
Electric dark correction enabled: true
Nonlinearity correction enabled: false
Boxcar width: 0
XAxis mode: Wavelengths
Number of Pixels in Spectrum: 2048
>>>>>Begin Spectral Data<<<<<
223.165	-21.38
223.4	-21.38
223.635	-21.38
223.869	-13.38
224.104	-7.38
224.338	-28.38
224.573	-14.38
224.808	-12.38
225.042	4.62
225.277	1.62
225.511	-1.38
225.746	-27.38
225.98	5.62
226.215	25.62
226.449	12.62
226.683	27.62
226.918	22.62
227.152	25.62
227.387	42.62
227.621	50.62
227.856	47.62
228.09	40.62
228.324	54.62
228.559	61.62
228.793	55.62
229.027	90.62
229.262	111.62
229.496	108.62
229.73	124.62
229.964	143.62
230.199	145.62
230.433	99.62
230.667	95.62
230.901	99.62
231.136	110.62
231.37	115.62
231.604	93.62
231.838	105.62
232.072	121.62
232.306	109.62
232.541	106.62
232.775	115.62
233.009	113.62
233.243	98.62
233.477	96.62
233.711	99.62
233.945	123.62
234.179	119.62
234.413	111.62
234.647	112.62
234.881	104.62
235.115	105.62
235.349	110.62
235.583	115.62
235.817	114.62
236.051	117.62
236.285	123.62
236.519	118.62
236.753	137.62
236.987	144.62
237.221	167.62
237.455	221.62
237.689	178.62
237.922	151.62
238.156	139.62
238.39	134.62
238.624	121.62
238.858	111.62
239.091	106.62
239.325	125.62
239.559	124.62
239.793	135.62
240.027	140.62
240.26	145.62
240.494	154.62
240.728	127.62
240.961	151.62
241.195	151.62
241.429	140.62
241.662	137.62
241.896	127.62
242.13	123.62
242.363	127.62
242.597	131.62
242.83	127.62
243.064	134.62
243.298	133.62
243.531	123.62
243.765	146.62
243.998	129.62
244.232	131.62
244.465	118.62
244.699	141.62
244.932	138.62
245.166	131.62
245.399	131.62
245.633	138.62
245.866	139.62
246.099	137.62
246.333	133.62
246.566	146.62
246.8	153.62
247.033	145.62
247.266	137.62
247.5	157.62
247.733	166.62
247.966	166.62
248.2	167.62
248.433	165.62
248.666	170.62
248.899	199.62
249.133	191.62
249.366	208.62
249.599	198.62
249.832	173.62
250.066	163.62
250.299	187.62
250.532	182.62
250.765	201.62
250.998	225.62
251.231	214.62
251.465	211.62
251.698	202.62
251.931	186.62
252.164	198.62
252.397	201.62
252.63	184.62
252.863	208.62
253.096	209.62
253.329	221.62
253.562	217.62
253.795	217.62
254.028	206.62
254.261	212.62
254.494	228.62
254.727	242.62
254.96	267.62
255.193	251.62
255.426	255.62
255.659	234.62
255.892	229.62
256.124	221.62
256.357	220.62
256.59	220.62
256.823	217.62
257.056	215.62
257.289	208.62
257.521	210.62
257.754	196.62
257.987	206.62
258.22	201.62
258.452	200.62
258.685	216.62
258.918	209.62
259.151	210.62
259.383	214.62
259.616	218.62
259.849	210.62
260.081	227.62
260.314	272.62
260.547	240.62
260.779	257.62
261.012	242.62
261.244	222.62
261.477	216.62
261.71	210.62
261.942	207.62
262.175	239.62
262.407	240.62
262.64	220.62
262.872	211.62
263.105	206.62
263.337	199.62
263.57	199.62
263.802	216.62
264.035	205.62
264.267	203.62
264.499	211.62
264.732	209.62
264.964	209.62
265.197	201.62
265.429	203.62
265.661	204.62
265.894	207.62
266.126	206.62
266.358	207.62
266.591	192.62
266.823	207.62
267.055	229.62
267.287	229.62
267.52	217.62
267.752	213.62
267.984	208.62
268.216	242.62
268.448	227.62
268.681	223.62
268.913	248.62
269.145	266.62
269.377	268.62
269.609	250.62
269.841	261.62
270.073	263.62
270.306	290.62
270.538	314.62
270.77	325.62
271.002	295.62
271.234	292.62
271.466	308.62
271.698	324.62
271.93	314.62
272.162	313.62
272.394	308.62
272.626	302.62
272.858	278.62
273.09	275.62
273.322	281.62
273.553	276.62
273.785	254.62
274.017	253.62
274.249	279.62
274.481	263.62
274.713	256.62
274.945	259.62
275.176	261.62
275.408	246.62
275.64	244.62
275.872	256.62
276.104	242.62
276.335	255.62
276.567	264.62
276.799	289.62
277.031	307.62
277.262	313.62
277.494	317.62
277.726	289.62
277.957	275.62
278.189	276.62
278.421	271.62
278.652	277.62
278.884	255.62
279.115	259.62
279.347	269.62
279.579	265.62
279.81	276.62
280.042	269.62
280.273	263.62
280.505	251.62
280.736	262.62
280.968	247.62
281.199	253.62
281.431	257.62
281.662	255.62
281.894	261.62
282.125	258.62
282.356	274.62
282.588	306.62
282.819	285.62
283.051	252.62
283.282	272.62
283.513	256.62
283.745	259.62
283.976	265.62
284.207	267.62
284.439	280.62
284.67	279.62
284.901	258.62
285.132	266.62
285.364	251.62
285.595	254.62
285.826	247.62
286.057	256.62
286.288	240.62
286.52	267.62
286.751	270.62
286.982	272.62
287.213	255.62
287.444	283.62
287.675	274.62
287.906	271.62
288.138	294.62
288.369	292.62
288.6	284.62
288.831	267.62
289.062	290.62
289.293	275.62
289.524	267.62
289.755	267.62
289.986	266.62
290.217	275.62
290.448	275.62
290.679	284.62
290.91	283.62
291.141	275.62
291.371	277.62
291.602	273.62
291.833	275.62
292.064	280.62
292.295	280.62
292.526	274.62
292.757	257.62
292.987	280.62
293.218	270.62
293.449	279.62
293.68	275.62
293.91	276.62
294.141	279.62
294.372	287.62
294.603	271.62
294.833	283.62
295.064	268.62
295.295	277.62
295.525	284.62
295.756	276.62
295.987	278.62
296.217	295.62
296.448	327.62
296.679	318.62
296.909	273.62
297.14	273.62
297.37	287.62
297.601	269.62
297.831	274.62
298.062	288.62
298.292	289.62
298.523	285.62
298.753	281.62
298.984	273.62
299.214	284.62
299.445	282.62
299.675	285.62
299.905	289.62
300.136	288.62
300.366	282.62
300.597	313.62
300.827	301.62
301.057	312.62
301.288	309.62
301.518	306.62
301.748	301.62
301.979	309.62
302.209	307.62
302.439	308.62
302.669	318.62
302.9	305.62
303.13	305.62
303.36	314.62
303.59	303.62
303.82	325.62
304.051	319.62
304.281	309.62
304.511	287.62
304.741	315.62
304.971	316.62
305.201	307.62
305.431	301.62
305.661	319.62
305.891	325.62
306.121	306.62
306.352	327.62
306.582	330.62
306.812	305.62
307.042	311.62
307.272	309.62
307.502	325.62
307.731	326.62
307.961	303.62
308.191	302.62
308.421	306.62
308.651	319.62
308.881	304.62
309.111	335.62
309.341	332.62
309.571	345.62
309.8	341.62
310.03	370.62
310.26	355.62
310.49	359.62
310.72	369.62
310.949	381.62
311.179	390.62
311.409	355.62
311.639	373.62
311.868	360.62
312.098	348.62
312.328	373.62
312.557	383.62
312.787	381.62
313.017	386.62
313.246	388.62
313.476	353.62
313.706	360.62
313.935	358.62
314.165	376.62
314.394	383.62
314.624	395.62
314.853	376.62
315.083	366.62
315.312	362.62
315.542	357.62
315.771	358.62
316.001	350.62
316.23	346.62
316.46	346.62
316.689	351.62
316.919	370.62
317.148	365.62
317.377	363.62
317.607	385.62
317.836	359.62
318.065	358.62
318.295	367.62
318.524	367.62
318.753	354.62
318.983	361.62
319.212	342.62
319.441	384.62
319.67	371.62
319.9	349.62
320.129	344.62
320.358	361.62
320.587	371.62
320.816	373.62
321.046	389.62
321.275	382.62
321.504	379.62
321.733	405.62
321.962	407.62
322.191	389.62
322.42	419.62
322.649	438.62
322.878	443.62
323.108	457.62
323.337	486.62
323.566	505.62
323.795	563.62
324.024	605.62
324.253	739.62
324.482	1041.62
324.71	1620.62
324.939	2218.62
325.168	1874.62
325.397	995.62
325.626	653.62
325.855	573.62
326.084	519.62
326.313	520.62
326.542	538.62
326.77	549.62
326.999	665.62
327.228	927.62
327.457	1401.62
327.686	1655.62
327.914	1113.62
328.143	727.62
328.372	641.62
328.6	590.62
328.829	573.62
329.058	592.62
329.287	578.62
329.515	552.62
329.744	527.62
329.972	520.62
330.201	521.62
330.43	563.62
330.658	575.62
330.887	604.62
331.115	583.62
331.344	521.62
331.572	480.62
331.801	469.62
332.03	459.62
332.258	447.62
332.486	446.62
332.715	421.62
332.943	409.62
333.172	426.62
333.4	430.62
333.629	431.62
333.857	450.62
334.085	477.62
334.314	458.62
334.542	473.62
334.771	481.62
334.999	456.62
335.227	420.62
335.455	428.62
335.684	426.62
335.912	393.62
336.14	404.62
336.369	421.62
336.597	444.62
336.825	414.62
337.053	417.62
337.281	381.62
337.51	398.62
337.738	418.62
337.966	402.62
338.194	411.62
338.422	388.62
338.65	385.62
338.878	398.62
339.106	385.62
339.334	391.62
339.562	400.62
339.79	404.62
340.018	383.62
340.246	383.62
340.474	405.62
340.702	385.62
340.93	381.62
341.158	358.62
341.386	399.62
341.614	415.62
341.842	407.62
342.07	395.62
342.298	392.62
342.526	384.62
342.754	385.62
342.981	371.62
343.209	386.62
343.437	380.62
343.665	378.62
343.893	386.62
344.12	412.62
344.348	395.62
344.576	401.62
344.804	404.62
345.031	403.62
345.259	422.62
345.487	411.62
345.714	414.62
345.942	392.62
346.17	389.62
346.397	396.62
346.625	375.62
346.853	382.62
347.08	393.62
347.308	404.62
347.535	393.62
347.763	412.62
347.99	383.62
348.218	383.62
348.445	399.62
348.673	396.62
348.9	373.62
349.128	383.62
349.355	373.62
349.583	362.62
349.81	374.62
350.037	378.62
350.265	380.62
350.492	378.62
350.72	377.62
350.947	388.62
351.174	385.62
351.402	390.62
351.629	383.62
351.856	388.62
352.083	402.62
352.311	393.62
352.538	396.62
352.765	384.62
352.992	375.62
353.22	377.62
353.447	374.62
353.674	386.62
353.901	350.62
354.128	355.62
354.355	358.62
354.583	350.62
354.81	353.62
355.037	345.62
355.264	331.62
355.491	359.62
355.718	361.62
355.945	335.62
356.172	329.62
356.399	348.62
356.626	341.62
356.853	352.62
357.08	342.62
357.307	337.62
357.534	353.62
357.761	360.62
357.988	337.62
358.215	330.62
358.441	339.62
358.668	358.62
358.895	355.62
359.122	372.62
359.349	363.62
359.576	397.62
359.802	406.62
360.029	420.62
360.256	413.62
360.483	408.62
360.709	376.62
360.936	379.62
361.163	375.62
361.39	374.62
361.616	385.62
361.843	373.62
362.07	374.62
362.296	377.62
362.523	363.62
362.749	359.62
362.976	357.62
363.203	372.62
363.429	382.62
363.656	356.62
363.882	365.62
364.109	361.62
364.335	351.62
364.562	356.62
364.788	351.62
365.015	370.62
365.241	362.62
365.468	360.62
365.694	369.62
365.92	346.62
366.147	361.62
366.373	357.62
366.599	352.62
366.826	340.62
367.052	312.62
367.278	343.62
367.505	344.62
367.731	371.62
367.957	360.62
368.184	361.62
368.41	356.62
368.636	360.62
368.862	374.62
369.089	338.62
369.315	346.62
369.541	334.62
369.767	334.62
369.993	351.62
370.219	333.62
370.445	331.62
370.672	345.62
370.898	325.62
371.124	333.62
371.35	355.62
371.576	342.62
371.802	340.62
372.028	326.62
372.254	346.62
372.48	335.62
372.706	317.62
372.932	347.62
373.158	344.62
373.384	333.62
373.61	338.62
373.835	343.62
374.061	344.62
374.287	333.62
374.513	345.62
374.739	356.62
374.965	336.62
375.191	338.62
375.416	351.62
375.642	347.62
375.868	354.62
376.094	337.62
376.319	331.62
376.545	344.62
376.771	316.62
376.997	330.62
377.222	336.62
377.448	330.62
377.674	327.62
377.899	340.62
378.125	356.62
378.35	333.62
378.576	317.62
378.802	306.62
379.027	331.62
379.253	327.62
379.478	332.62
379.704	327.62
379.929	329.62
380.155	330.62
380.38	323.62
380.606	331.62
380.831	318.62
381.057	345.62
381.282	342.62
381.507	341.62
381.733	325.62
381.958	327.62
382.184	338.62
382.409	340.62
382.634	341.62
382.86	348.62
383.085	334.62
383.31	343.62
383.535	341.62
383.761	334.62
383.986	334.62
384.211	318.62
384.436	337.62
384.662	339.62
384.887	362.62
385.112	335.62
385.337	338.62
385.562	349.62
385.787	340.62
386.013	352.62
386.238	355.62
386.463	361.62
386.688	356.62
386.913	353.62
387.138	366.62
387.363	347.62
387.588	335.62
387.813	340.62
388.038	332.62
388.263	334.62
388.488	343.62
388.713	337.62
388.938	363.62
389.163	353.62
389.387	362.62
389.612	342.62
389.837	352.62
390.062	331.62
390.287	362.62
390.512	367.62
390.736	341.62
390.961	341.62
391.186	347.62
391.411	344.62
391.636	349.62
391.86	365.62
392.085	347.62
392.31	367.62
392.534	372.62
392.759	371.62
392.984	333.62
393.208	360.62
393.433	333.62
393.658	358.62
393.882	350.62
394.107	347.62
394.331	340.62
394.556	340.62
394.78	357.62
395.005	334.62
395.229	340.62
395.454	349.62
395.678	344.62
395.903	349.62
396.127	378.62
396.352	376.62
396.576	355.62
396.801	361.62
397.025	349.62
397.249	340.62
397.474	366.62
397.698	360.62
397.922	392.62
398.147	382.62
398.371	404.62
398.595	379.62
398.82	361.62
399.044	401.62
399.268	387.62
399.492	415.62
399.717	435.62
399.941	454.62
400.165	476.62
400.389	463.62
400.613	432.62
400.837	401.62
401.062	422.62
401.286	418.62
401.51	394.62
401.734	379.62
401.958	388.62
402.182	399.62
402.406	396.62
402.63	420.62
402.854	384.62
403.078	408.62
403.302	392.62
403.526	405.62
403.75	399.62
403.974	397.62
404.198	383.62
404.422	426.62
404.645	391.62
404.869	418.62
405.093	441.62
405.317	447.62
405.541	480.62
405.765	454.62
405.988	426.62
406.212	417.62
406.436	450.62
406.66	462.62
406.883	453.62
407.107	445.62
407.331	489.62
407.555	542.62
407.778	542.62
408.002	486.62
408.226	444.62
408.449	438.62
408.673	440.62
408.896	486.62
409.12	503.62
409.344	468.62
409.567	427.62
409.791	403.62
410.014	407.62
410.238	411.62
410.461	388.62
410.685	416.62
410.908	408.62
411.132	459.62
411.355	479.62
411.578	467.62
411.802	430.62
412.025	395.62
412.249	418.62
412.472	412.62
412.695	436.62
412.919	446.62
413.142	399.62
413.365	383.62
413.589	388.62
413.812	394.62
414.035	400.62
414.258	371.62
414.482	386.62
414.705	357.62
414.928	369.62
415.151	381.62
415.374	370.62
415.597	385.62
415.821	370.62
416.044	389.62
416.267	389.62
416.49	359.62
416.713	376.62
416.936	382.62
417.159	390.62
417.382	371.62
417.605	380.62
417.828	386.62
418.051	408.62
418.274	389.62
418.497	376.62
418.72	384.62
418.943	374.62
419.166	379.62
419.389	402.62
419.611	401.62
419.834	384.62
420.057	381.62
420.28	384.62
420.503	404.62
420.726	391.62
420.948	429.62
421.171	439.62
421.394	465.62
421.617	451.62
421.839	409.62
422.062	393.62
422.285	419.62
422.507	473.62
422.73	512.62
422.953	500.62
423.175	435.62
423.398	421.62
423.621	422.62
423.843	429.62
424.066	434.62
424.288	429.62
424.511	454.62
424.733	526.62
424.956	573.62
425.178	552.62
425.401	547.62
425.623	531.62
425.846	488.62
426.068	464.62
426.291	433.62
426.513	427.62
426.735	445.62
426.958	486.62
427.18	550.62
427.402	670.62
427.625	722.62
427.847	639.62
428.069	565.62
428.292	497.62
428.514	445.62
428.736	413.62
428.958	423.62
429.181	411.62
429.403	397.62
429.625	425.62
429.847	450.62
430.069	490.62
430.292	485.62
430.514	445.62
430.736	391.62
430.958	406.62
431.18	402.62
431.402	390.62
431.624	388.62
431.846	356.62
432.068	385.62
432.29	379.62
432.512	372.62
432.734	378.62
432.956	379.62
433.178	406.62
433.4	409.62
433.622	369.62
433.844	383.62
434.066	390.62
434.287	382.62
434.509	378.62
434.731	381.62
434.953	392.62
435.175	394.62
435.397	419.62
435.618	458.62
435.84	470.62
436.062	559.62
436.284	620.62
436.505	536.62
436.727	461.62
436.949	423.62
437.17	419.62
437.392	408.62
437.614	435.62
437.835	489.62
438.057	550.62
438.278	626.62
438.5	627.62
438.721	690.62
438.943	636.62
439.165	511.62
439.386	472.62
439.608	457.62
439.829	465.62
440.05	493.62
440.272	509.62
440.493	488.62
440.715	440.62
440.936	417.62
441.158	424.62
441.379	401.62
441.6	408.62
441.822	429.62
442.043	468.62
442.264	544.62
442.486	564.62
442.707	501.62
442.928	478.62
443.149	475.62
443.371	487.62
443.592	507.62
443.813	584.62
444.034	612.62
444.255	519.62
444.476	468.62
444.698	441.62
444.919	444.62
445.14	526.62
445.361	484.62
445.582	485.62
445.803	558.62
446.024	635.62
446.245	642.62
446.466	602.62
446.687	481.62
446.908	450.62
447.129	439.62
447.35	401.62
447.571	422.62
447.792	393.62
448.013	415.62
448.234	459.62
448.455	464.62
448.675	576.62
448.896	650.62
449.117	583.62
449.338	551.62
449.559	612.62
449.779	688.62
450	562.62
450.221	457.62
450.442	432.62
450.662	408.62
450.883	409.62
451.104	455.62
451.324	401.62
451.545	405.62
451.766	366.62
451.986	378.62
452.207	355.62
452.428	345.62
452.648	353.62
452.869	365.62
453.089	370.62
453.31	379.62
453.53	380.62
453.751	371.62
453.971	378.62
454.192	392.62
454.412	391.62
454.633	370.62
454.853	396.62
455.073	352.62
455.294	394.62
455.514	437.62
455.734	433.62
455.955	375.62
456.175	354.62
456.395	332.62
456.616	330.62
456.836	354.62
457.056	342.62
457.276	344.62
457.497	354.62
457.717	342.62
457.937	341.62
458.157	350.62
458.377	375.62
458.598	389.62
458.818	445.62
459.038	514.62
459.258	515.62
459.478	435.62
459.698	395.62
459.918	373.62
460.138	384.62
460.358	346.62
460.578	367.62
460.798	383.62
461.018	380.62
461.238	371.62
461.458	372.62
461.678	367.62
461.898	352.62
462.118	361.62
462.338	382.62
462.558	369.62
462.777	393.62
462.997	391.62
463.217	395.62
463.437	373.62
463.657	367.62
463.876	402.62
464.096	403.62
464.316	388.62
464.536	409.62
464.755	391.62
464.975	405.62
465.195	446.62
465.414	517.62
465.634	470.62
465.854	425.62
466.073	388.62
466.293	374.62
466.512	376.62
466.732	349.62
466.951	370.62
467.171	373.62
467.391	373.62
467.61	370.62
467.829	359.62
468.049	377.62
468.268	373.62
468.488	355.62
468.707	360.62
468.927	372.62
469.146	369.62
469.365	349.62
469.585	354.62
469.804	361.62
470.023	370.62
470.243	378.62
470.462	379.62
470.681	395.62
470.901	378.62
471.12	371.62
471.339	375.62
471.558	370.62
471.777	362.62
471.997	363.62
472.216	382.62
472.435	392.62
472.654	391.62
472.873	376.62
473.092	394.62
473.311	355.62
473.53	389.62
473.749	374.62
473.968	435.62
474.187	520.62
474.406	555.62
474.625	455.62
474.844	410.62
475.063	377.62
475.282	388.62
475.501	389.62
475.72	386.62
475.939	371.62
476.158	369.62
476.377	385.62
476.596	385.62
476.814	389.62
477.033	380.62
477.252	389.62
477.471	393.62
477.69	401.62
477.908	404.62
478.127	394.62
478.346	377.62
478.564	395.62
478.783	406.62
479.002	429.62
479.22	423.62
479.439	427.62
479.658	465.62
479.876	469.62
480.095	457.62
480.313	487.62
480.532	472.62
480.751	450.62
480.969	474.62
481.188	515.62
481.406	533.62
481.624	472.62
481.843	447.62
482.061	442.62
482.28	452.62
482.498	435.62
482.717	435.62
482.935	421.62
483.153	430.62
483.372	455.62
483.59	438.62
483.808	419.62
484.027	450.62
484.245	443.62
484.463	445.62
484.681	446.62
484.9	441.62
485.118	446.62
485.336	439.62
485.554	457.62
485.772	453.62
485.99	459.62
486.209	439.62
486.427	433.62
486.645	456.62
486.863	487.62
487.081	483.62
487.299	463.62
487.517	472.62
487.735	465.62
487.953	459.62
488.171	469.62
488.389	476.62
488.607	491.62
488.825	464.62
489.043	474.62
489.261	477.62
489.479	481.62
489.696	474.62
489.914	498.62
490.132	496.62
490.35	487.62
490.568	494.62
490.786	471.62
491.003	528.62
491.221	517.62
491.439	554.62
491.657	540.62
491.874	540.62
492.092	538.62
492.31	546.62
492.527	539.62
492.745	543.62
492.963	542.62
493.18	538.62
493.398	530.62
493.615	544.62
493.833	545.62
494.05	559.62
494.268	551.62
494.485	566.62
494.703	562.62
494.92	546.62
495.138	560.62
495.355	529.62
495.573	575.62
495.79	524.62
496.008	554.62
496.225	559.62
496.442	540.62
496.66	560.62
496.877	533.62
497.094	553.62
497.312	561.62
497.529	561.62
497.746	570.62
497.963	574.62
498.181	614.62
498.398	603.62
498.615	609.62
498.832	626.62
499.049	623.62
499.267	622.62
499.484	633.62
499.701	631.62
499.918	659.62
500.135	672.62
500.352	684.62
500.569	696.62
500.786	693.62
501.003	691.62
501.22	672.62
501.437	685.62
501.654	688.62
501.871	670.62
502.088	651.62
