Data from 1981.PennyLincolnUp.Lamp.En5.5.200Scan.071819.P1_HRD10591_16-42-51-960.txt Node
Date: Thu Jul 18 16:42:51 EDT 2019
User: cochatt
Spectrometer: HR+D1059
Trigger mode: 1
Integration Time (sec): 1.000000E-1
Scans to average: 1
Electric dark correction enabled: true
Nonlinearity correction enabled: false
Boxcar width: 0
XAxis mode: Wavelengths
Number of Pixels in Spectrum: 2048
>>>>>Begin Spectral Data<<<<<
223.165	-4.19
223.4	-4.19
223.635	-4.19
223.869	-15.19
224.104	-22.19
224.338	-26.19
224.573	-15.19
224.808	-5.19
225.042	-12.19
225.277	-17.19
225.511	-4.19
225.746	-1.19
225.98	6.81
226.215	18.81
226.449	28.81
226.683	21.81
226.918	18.81
227.152	27.81
227.387	25.81
227.621	29.81
227.856	38.81
228.09	41.81
228.324	40.81
228.559	59.81
228.793	68.81
229.027	100.81
229.262	114.81
229.496	115.81
229.73	126.81
229.964	149.81
230.199	134.81
230.433	115.81
230.667	112.81
230.901	120.81
231.136	117.81
231.37	109.81
231.604	122.81
231.838	123.81
232.072	101.81
232.306	111.81
232.541	122.81
232.775	117.81
233.009	113.81
233.243	118.81
233.477	99.81
233.711	118.81
233.945	124.81
234.179	120.81
234.413	116.81
234.647	118.81
234.881	125.81
235.115	119.81
235.349	127.81
235.583	121.81
235.817	120.81
236.051	124.81
236.285	132.81
236.519	122.81
236.753	135.81
236.987	164.81
237.221	198.81
237.455	248.81
237.689	192.81
237.922	139.81
238.156	139.81
238.39	144.81
238.624	132.81
238.858	130.81
239.091	128.81
239.325	124.81
239.559	132.81
239.793	139.81
240.027	132.81
240.26	169.81
240.494	170.81
240.728	168.81
240.961	153.81
241.195	152.81
241.429	138.81
241.662	150.81
241.896	123.81
242.13	140.81
242.363	140.81
242.597	156.81
242.83	138.81
243.064	142.81
243.298	142.81
243.531	134.81
243.765	136.81
243.998	139.81
244.232	141.81
244.465	148.81
244.699	145.81
244.932	137.81
245.166	155.81
245.399	142.81
245.633	143.81
245.866	149.81
246.099	170.81
246.333	141.81
246.566	150.81
246.8	146.81
247.033	138.81
247.266	145.81
247.5	173.81
247.733	175.81
247.966	165.81
248.2	187.81
248.433	187.81
248.666	175.81
248.899	192.81
249.133	207.81
249.366	223.81
249.599	205.81
249.832	184.81
250.066	203.81
250.299	187.81
250.532	196.81
250.765	199.81
250.998	222.81
251.231	246.81
251.465	234.81
251.698	219.81
251.931	208.81
252.164	201.81
252.397	219.81
252.63	226.81
252.863	231.81
253.096	222.81
253.329	221.81
253.562	243.81
253.795	228.81
254.028	243.81
254.261	251.81
254.494	240.81
254.727	284.81
254.96	302.81
255.193	291.81
255.426	292.81
255.659	248.81
255.892	257.81
256.124	247.81
256.357	260.81
256.59	246.81
256.823	221.81
257.056	231.81
257.289	224.81
257.521	225.81
257.754	228.81
257.987	227.81
258.22	235.81
258.452	220.81
258.685	223.81
258.918	219.81
259.151	230.81
259.383	221.81
259.616	232.81
259.849	246.81
260.081	257.81
260.314	238.81
260.547	258.81
260.779	257.81
261.012	250.81
261.244	240.81
261.477	244.81
261.71	256.81
261.942	253.81
262.175	234.81
262.407	252.81
262.64	246.81
262.872	235.81
263.105	221.81
263.337	227.81
263.57	218.81
263.802	219.81
264.035	229.81
264.267	217.81
264.499	219.81
264.732	230.81
264.964	222.81
265.197	230.81
265.429	242.81
265.661	226.81
265.894	232.81
266.126	226.81
266.358	229.81
266.591	215.81
266.823	225.81
267.055	238.81
267.287	225.81
267.52	240.81
267.752	244.81
267.984	230.81
268.216	258.81
268.448	246.81
268.681	254.81
268.913	264.81
269.145	283.81
269.377	299.81
269.609	301.81
269.841	278.81
270.073	320.81
270.306	310.81
270.538	347.81
270.77	346.81
271.002	342.81
271.234	313.81
271.466	343.81
271.698	337.81
271.93	345.81
272.162	342.81
272.394	349.81
272.626	339.81
272.858	316.81
273.09	315.81
273.322	289.81
273.553	285.81
273.785	287.81
274.017	293.81
274.249	297.81
274.481	287.81
274.713	287.81
274.945	284.81
275.176	276.81
275.408	296.81
275.64	317.81
275.872	278.81
276.104	280.81
276.335	288.81
276.567	285.81
276.799	308.81
277.031	318.81
277.262	334.81
277.494	332.81
277.726	333.81
277.957	302.81
278.189	290.81
278.421	293.81
278.652	306.81
278.884	284.81
279.115	306.81
279.347	280.81
279.579	271.81
279.81	273.81
280.042	286.81
280.273	271.81
280.505	301.81
280.736	302.81
280.968	286.81
281.199	296.81
281.431	276.81
281.662	285.81
281.894	288.81
282.125	288.81
282.356	300.81
282.588	314.81
282.819	338.81
283.051	301.81
283.282	279.81
283.513	274.81
283.745	289.81
283.976	281.81
284.207	303.81
284.439	295.81
284.67	280.81
284.901	286.81
285.132	291.81
285.364	269.81
285.595	299.81
285.826	290.81
286.057	286.81
286.288	282.81
286.52	290.81
286.751	301.81
286.982	299.81
287.213	284.81
287.444	296.81
287.675	298.81
287.906	316.81
288.138	310.81
288.369	319.81
288.6	289.81
288.831	303.81
289.062	308.81
289.293	303.81
289.524	286.81
289.755	297.81
289.986	294.81
290.217	293.81
290.448	312.81
290.679	310.81
290.91	279.81
291.141	298.81
291.371	298.81
291.602	310.81
291.833	299.81
292.064	293.81
292.295	295.81
292.526	296.81
292.757	316.81
292.987	306.81
293.218	302.81
293.449	294.81
293.68	291.81
293.91	308.81
294.141	290.81
294.372	301.81
294.603	299.81
294.833	315.81
295.064	307.81
295.295	298.81
295.525	299.81
295.756	300.81
295.987	301.81
296.217	316.81
296.448	344.81
296.679	326.81
296.909	317.81
297.14	309.81
297.37	294.81
297.601	315.81
297.831	306.81
298.062	294.81
298.292	313.81
298.523	315.81
298.753	325.81
298.984	310.81
299.214	312.81
299.445	316.81
299.675	319.81
299.905	315.81
300.136	322.81
300.366	329.81
300.597	308.81
300.827	324.81
301.057	334.81
301.288	355.81
301.518	316.81
301.748	326.81
301.979	331.81
302.209	323.81
302.439	337.81
302.669	312.81
302.9	340.81
303.13	335.81
303.36	322.81
303.59	359.81
303.82	352.81
304.051	342.81
304.281	335.81
304.511	342.81
304.741	342.81
304.971	334.81
305.201	308.81
305.431	341.81
305.661	338.81
305.891	322.81
306.121	343.81
306.352	348.81
306.582	346.81
306.812	348.81
307.042	343.81
307.272	349.81
307.502	328.81
307.731	342.81
307.961	352.81
308.191	329.81
308.421	348.81
308.651	362.81
308.881	336.81
309.111	345.81
309.341	346.81
309.571	358.81
309.8	384.81
310.03	391.81
310.26	382.81
310.49	375.81
310.72	406.81
310.949	421.81
311.179	416.81
311.409	410.81
311.639	379.81
311.868	392.81
312.098	401.81
312.328	388.81
312.557	409.81
312.787	418.81
313.017	420.81
313.246	409.81
313.476	367.81
313.706	402.81
313.935	415.81
314.165	406.81
314.394	415.81
314.624	426.81
314.853	413.81
315.083	399.81
315.312	398.81
315.542	371.81
315.771	391.81
316.001	370.81
316.23	380.81
316.46	395.81
316.689	386.81
316.919	380.81
317.148	419.81
317.377	439.81
317.607	388.81
317.836	404.81
318.065	394.81
318.295	396.81
318.524	396.81
318.753	390.81
318.983	404.81
319.212	401.81
319.441	408.81
319.67	414.81
319.9	414.81
320.129	401.81
320.358	406.81
320.587	415.81
320.816	406.81
321.046	425.81
321.275	420.81
321.504	414.81
321.733	441.81
321.962	458.81
322.191	461.81
322.42	470.81
322.649	482.81
322.878	495.81
323.108	496.81
323.337	525.81
323.566	559.81
323.795	608.81
324.024	678.81
324.253	812.81
324.482	1189.81
324.71	1832.81
324.939	2557.81
325.168	2114.81
325.397	1136.81
325.626	762.81
325.855	623.81
326.084	591.81
326.313	551.81
326.542	583.81
326.77	630.81
326.999	756.81
327.228	1059.81
327.457	1610.81
327.686	1873.81
327.914	1239.81
328.143	830.81
328.372	708.81
328.6	658.81
328.829	644.81
329.058	640.81
329.287	650.81
329.515	603.81
329.744	558.81
329.972	566.81
330.201	574.81
330.43	629.81
330.658	674.81
330.887	660.81
331.115	626.81
331.344	532.81
331.572	526.81
331.801	525.81
332.03	524.81
332.258	514.81
332.486	493.81
332.715	461.81
332.943	470.81
333.172	468.81
333.4	472.81
333.629	467.81
333.857	493.81
334.085	500.81
334.314	492.81
334.542	556.81
334.771	540.81
334.999	512.81
335.227	482.81
335.455	443.81
335.684	465.81
335.912	446.81
336.14	444.81
336.369	460.81
336.597	470.81
336.825	463.81
337.053	446.81
337.281	444.81
337.51	445.81
337.738	448.81
337.966	439.81
338.194	445.81
338.422	442.81
338.65	441.81
338.878	437.81
339.106	436.81
339.334	426.81
339.562	423.81
339.79	410.81
340.018	429.81
340.246	454.81
340.474	436.81
340.702	438.81
340.93	423.81
341.158	428.81
341.386	420.81
341.614	443.81
341.842	424.81
342.07	429.81
342.298	418.81
342.526	419.81
342.754	436.81
342.981	403.81
343.209	427.81
343.437	408.81
343.665	428.81
343.893	421.81
344.12	438.81
344.348	390.81
344.576	446.81
344.804	429.81
345.031	454.81
345.259	452.81
345.487	457.81
345.714	445.81
345.942	420.81
346.17	414.81
346.397	429.81
346.625	413.81
346.853	389.81
347.08	392.81
347.308	431.81
347.535	427.81
347.763	430.81
347.99	442.81
348.218	452.81
348.445	434.81
348.673	422.81
348.9	406.81
349.128	410.81
349.355	400.81
349.583	404.81
349.81	400.81
350.037	407.81
350.265	394.81
350.492	406.81
350.72	396.81
350.947	413.81
351.174	416.81
351.402	440.81
351.629	442.81
351.856	434.81
352.083	428.81
352.311	436.81
352.538	442.81
352.765	440.81
352.992	444.81
353.22	429.81
353.447	395.81
353.674	417.81
353.901	382.81
354.128	371.81
354.355	379.81
354.583	380.81
354.81	387.81
355.037	383.81
355.264	378.81
355.491	363.81
355.718	350.81
355.945	351.81
356.172	375.81
356.399	372.81
356.626	379.81
356.853	378.81
357.08	389.81
357.307	389.81
357.534	381.81
357.761	381.81
357.988	381.81
358.215	388.81
358.441	390.81
358.668	380.81
358.895	380.81
359.122	383.81
359.349	387.81
359.576	410.81
359.802	430.81
360.029	469.81
360.256	475.81
360.483	448.81
360.709	431.81
360.936	415.81
361.163	398.81
361.39	414.81
361.616	414.81
361.843	434.81
362.07	398.81
362.296	408.81
362.523	414.81
362.749	397.81
362.976	415.81
363.203	375.81
363.429	388.81
363.656	398.81
363.882	398.81
364.109	379.81
364.335	367.81
364.562	370.81
364.788	382.81
365.015	384.81
365.241	385.81
365.468	382.81
365.694	407.81
365.92	412.81
366.147	401.81
366.373	388.81
366.599	354.81
366.826	372.81
367.052	394.81
367.278	377.81
367.505	388.81
367.731	393.81
367.957	374.81
368.184	371.81
368.41	383.81
368.636	394.81
368.862	412.81
369.089	411.81
369.315	375.81
369.541	370.81
369.767	389.81
369.993	368.81
370.219	381.81
370.445	382.81
370.672	384.81
370.898	364.81
371.124	366.81
371.35	375.81
371.576	376.81
371.802	351.81
372.028	382.81
372.254	350.81
372.48	363.81
372.706	347.81
372.932	364.81
373.158	344.81
373.384	352.81
373.61	368.81
373.835	360.81
374.061	376.81
374.287	363.81
374.513	364.81
374.739	386.81
374.965	378.81
375.191	366.81
375.416	374.81
375.642	376.81
375.868	359.81
376.094	366.81
376.319	361.81
376.545	380.81
376.771	367.81
376.997	351.81
377.222	361.81
377.448	359.81
377.674	348.81
377.899	362.81
378.125	348.81
378.35	344.81
378.576	334.81
378.802	348.81
379.027	371.81
379.253	363.81
379.478	353.81
379.704	358.81
379.929	378.81
380.155	354.81
380.38	348.81
380.606	372.81
380.831	352.81
381.057	343.81
381.282	366.81
381.507	358.81
381.733	349.81
381.958	348.81
382.184	351.81
382.409	382.81
382.634	364.81
382.86	349.81
383.085	342.81
383.31	356.81
383.535	359.81
383.761	356.81
383.986	381.81
384.211	367.81
384.436	379.81
384.662	372.81
384.887	356.81
385.112	362.81
385.337	380.81
385.562	375.81
385.787	391.81
386.013	373.81
386.238	401.81
386.463	396.81
386.688	363.81
386.913	392.81
387.138	382.81
387.363	379.81
387.588	383.81
387.813	392.81
388.038	381.81
388.263	373.81
388.488	375.81
388.713	366.81
388.938	375.81
389.163	391.81
389.387	366.81
389.612	374.81
389.837	380.81
390.062	368.81
390.287	376.81
390.512	375.81
390.736	362.81
390.961	365.81
391.186	362.81
391.411	377.81
391.636	376.81
391.86	380.81
392.085	394.81
392.31	390.81
392.534	375.81
392.759	386.81
392.984	378.81
393.208	375.81
393.433	380.81
393.658	364.81
393.882	370.81
394.107	358.81
394.331	357.81
394.556	374.81
394.78	386.81
395.005	375.81
395.229	368.81
395.454	376.81
395.678	390.81
395.903	406.81
396.127	402.81
396.352	422.81
396.576	395.81
396.801	389.81
397.025	368.81
397.249	398.81
397.474	384.81
397.698	390.81
397.922	410.81
398.147	418.81
398.371	434.81
398.595	412.81
398.82	399.81
399.044	424.81
399.268	418.81
399.492	436.81
399.717	455.81
399.941	472.81
400.165	504.81
400.389	521.81
400.613	478.81
400.837	429.81
401.062	455.81
401.286	429.81
401.51	419.81
401.734	403.81
401.958	413.81
402.182	417.81
402.406	435.81
402.63	427.81
402.854	404.81
403.078	440.81
403.302	428.81
403.526	434.81
403.75	452.81
403.974	434.81
404.198	424.81
404.422	416.81
404.645	443.81
404.869	430.81
405.093	468.81
405.317	497.81
405.541	524.81
405.765	481.81
405.988	440.81
406.212	466.81
406.436	482.81
406.66	500.81
406.883	492.81
407.107	490.81
407.331	511.81
407.555	588.81
407.778	567.81
408.002	535.81
408.226	475.81
408.449	470.81
408.673	471.81
408.896	507.81
409.12	540.81
409.344	501.81
409.567	460.81
409.791	456.81
410.014	436.81
410.238	457.81
410.461	426.81
410.685	450.81
410.908	463.81
411.132	508.81
411.355	495.81
411.578	490.81
411.802	452.81
412.025	415.81
412.249	444.81
412.472	452.81
412.695	485.81
412.919	486.81
413.142	440.81
413.365	438.81
413.589	416.81
413.812	425.81
414.035	389.81
414.258	415.81
414.482	391.81
414.705	395.81
414.928	426.81
415.151	404.81
415.374	406.81
415.597	394.81
415.821	366.81
416.044	408.81
416.267	420.81
416.49	415.81
416.713	388.81
416.936	393.81
417.159	384.81
417.382	419.81
417.605	425.81
417.828	417.81
418.051	434.81
418.274	414.81
418.497	436.81
418.72	413.81
418.943	386.81
419.166	434.81
419.389	439.81
419.611	435.81
419.834	418.81
420.057	423.81
420.28	441.81
420.503	418.81
420.726	440.81
420.948	463.81
421.171	489.81
421.394	519.81
421.617	454.81
421.839	418.81
422.062	423.81
422.285	429.81
422.507	499.81
422.73	552.81
422.953	564.81
423.175	488.81
423.398	453.81
423.621	466.81
423.843	470.81
424.066	475.81
424.288	469.81
424.511	486.81
424.733	543.81
424.956	609.81
425.178	608.81
425.401	579.81
425.623	600.81
425.846	516.81
426.068	508.81
426.291	477.81
426.513	476.81
426.735	509.81
426.958	536.81
427.18	604.81
427.402	732.81
427.625	796.81
427.847	684.81
428.069	611.81
428.292	538.81
428.514	483.81
428.736	462.81
428.958	455.81
429.181	422.81
429.403	428.81
429.625	437.81
429.847	500.81
430.069	564.81
430.292	535.81
430.514	470.81
430.736	431.81
430.958	438.81
431.18	410.81
431.402	411.81
431.624	405.81
431.846	388.81
432.068	418.81
432.29	418.81
432.512	408.81
432.734	432.81
432.956	429.81
433.178	409.81
433.4	438.81
433.622	408.81
433.844	433.81
434.066	392.81
434.287	400.81
434.509	396.81
434.731	432.81
434.953	431.81
435.175	447.81
435.397	482.81
435.618	478.81
435.84	523.81
436.062	589.81
436.284	667.81
436.505	558.81
436.727	487.81
436.949	469.81
437.17	446.81
437.392	442.81
437.614	459.81
437.835	496.81
438.057	592.81
438.278	680.81
438.5	674.81
438.721	728.81
438.943	680.81
439.165	555.81
439.386	524.81
439.608	490.81
439.829	485.81
440.05	540.81
440.272	550.81
440.493	575.81
440.715	491.81
440.936	436.81
441.158	446.81
441.379	446.81
441.6	448.81
441.822	471.81
442.043	518.81
442.264	562.81
442.486	618.81
442.707	537.81
442.928	503.81
443.149	486.81
443.371	530.81
443.592	560.81
443.813	637.81
444.034	665.81
444.255	575.81
444.476	488.81
444.698	488.81
444.919	467.81
445.14	582.81
445.361	532.81
445.582	523.81
445.803	586.81
446.024	671.81
446.245	692.81
446.466	619.81
446.687	528.81
446.908	485.81
447.129	454.81
447.35	455.81
447.571	448.81
447.792	429.81
448.013	453.81
448.234	490.81
448.455	530.81
448.675	623.81
448.896	694.81
449.117	612.81
449.338	578.81
449.559	661.81
449.779	743.81
450	587.81
450.221	483.81
450.442	461.81
450.662	439.81
450.883	469.81
451.104	460.81
451.324	450.81
451.545	414.81
451.766	434.81
451.986	390.81
452.207	415.81
452.428	388.81
452.648	407.81
452.869	393.81
453.089	434.81
453.31	421.81
453.53	416.81
453.751	423.81
453.971	411.81
454.192	430.81
454.412	425.81
454.633	437.81
454.853	396.81
455.073	401.81
455.294	423.81
455.514	508.81
455.734	468.81
455.955	420.81
456.175	387.81
456.395	396.81
456.616	381.81
456.836	375.81
457.056	388.81
457.276	365.81
457.497	378.81
457.717	383.81
457.937	388.81
458.157	371.81
458.377	366.81
458.598	423.81
458.818	462.81
459.038	544.81
459.258	562.81
459.478	474.81
459.698	414.81
459.918	409.81
460.138	405.81
460.358	406.81
460.578	404.81
460.798	416.81
461.018	399.81
461.238	401.81
461.458	389.81
461.678	398.81
461.898	394.81
462.118	380.81
462.338	405.81
462.558	402.81
462.777	412.81
462.997	406.81
463.217	439.81
463.437	428.81
463.657	418.81
463.876	430.81
464.096	428.81
464.316	416.81
464.536	412.81
464.755	434.81
464.975	436.81
465.195	485.81
465.414	566.81
465.634	482.81
465.854	451.81
466.073	446.81
466.293	418.81
466.512	391.81
466.732	404.81
466.951	384.81
467.171	408.81
467.391	383.81
467.61	406.81
467.829	406.81
468.049	407.81
468.268	413.81
468.488	389.81
468.707	386.81
468.927	374.81
469.146	376.81
469.365	400.81
469.585	409.81
469.804	380.81
470.023	410.81
470.243	404.81
470.462	421.81
470.681	429.81
470.901	410.81
471.12	402.81
471.339	416.81
471.558	396.81
471.777	425.81
471.997	406.81
472.216	421.81
472.435	434.81
472.654	442.81
472.873	400.81
473.092	396.81
473.311	410.81
473.53	401.81
473.749	436.81
473.968	460.81
474.187	557.81
474.406	605.81
474.625	461.81
474.844	437.81
475.063	426.81
475.282	406.81
475.501	410.81
475.72	407.81
475.939	404.81
476.158	415.81
476.377	430.81
476.596	426.81
476.814	434.81
477.033	414.81
477.252	426.81
477.471	412.81
477.69	429.81
477.908	440.81
478.127	436.81
478.346	432.81
478.564	426.81
478.783	445.81
479.002	469.81
479.22	440.81
479.439	469.81
479.658	495.81
479.876	502.81
480.095	479.81
480.313	502.81
480.532	522.81
480.751	501.81
480.969	504.81
481.188	547.81
481.406	585.81
481.624	516.81
481.843	503.81
482.061	492.81
482.28	493.81
482.498	470.81
482.717	478.81
482.935	483.81
483.153	458.81
483.372	473.81
483.59	464.81
483.808	470.81
484.027	458.81
484.245	467.81
484.463	472.81
484.681	470.81
484.9	496.81
485.118	476.81
485.336	488.81
485.554	494.81
485.772	501.81
485.99	487.81
486.209	468.81
486.427	481.81
486.645	502.81
486.863	536.81
487.081	528.81
487.299	529.81
487.517	508.81
487.735	501.81
487.953	484.81
488.171	514.81
488.389	502.81
488.607	485.81
488.825	538.81
489.043	526.81
489.261	533.81
489.479	512.81
489.696	511.81
489.914	509.81
490.132	538.81
490.35	519.81
490.568	522.81
490.786	514.81
491.003	542.81
491.221	546.81
491.439	573.81
491.657	555.81
491.874	577.81
492.092	576.81
492.31	567.81
492.527	575.81
492.745	603.81
492.963	600.81
493.18	611.81
493.398	595.81
493.615	617.81
493.833	602.81
494.05	597.81
494.268	594.81
494.485	599.81
494.703	580.81
494.92	616.81
495.138	606.81
495.355	611.81
495.573	614.81
495.79	611.81
496.008	617.81
496.225	617.81
496.442	607.81
496.66	608.81
496.877	593.81
497.094	608.81
497.312	610.81
497.529	604.81
497.746	629.81
497.963	631.81
498.181	645.81
498.398	644.81
498.615	645.81
498.832	645.81
499.049	643.81
499.267	660.81
499.484	682.81
499.701	676.81
499.918	703.81
500.135	702.81
500.352	724.81
500.569	739.81
500.786	761.81
501.003	734.81
501.22	732.81
501.437	731.81
501.654	720.81
501.871	726.81
