Data from 1981.PennyLincolnUp.Lamp.En5.5.200Scan.071819.P1_HRD10591_16-43-32-960.txt Node
Date: Thu Jul 18 16:43:32 EDT 2019
User: cochatt
Spectrometer: HR+D1059
Trigger mode: 1
Integration Time (sec): 1.000000E-1
Scans to average: 1
Electric dark correction enabled: true
Nonlinearity correction enabled: false
Boxcar width: 0
XAxis mode: Wavelengths
Number of Pixels in Spectrum: 2048
>>>>>Begin Spectral Data<<<<<
223.165	-15.12
223.4	-15.12
223.635	-15.12
223.869	-17.12
224.104	-18.12
224.338	-12.12
224.573	-13.12
224.808	-13.12
225.042	-14.12
225.277	-5.12
225.511	-7.12
225.746	12.88
225.98	6.88
226.215	16.88
226.449	17.88
226.683	6.88
226.918	18.88
227.152	34.88
227.387	22.88
227.621	30.88
227.856	40.88
228.09	66.88
228.324	53.88
228.559	60.88
228.793	76.88
229.027	100.88
229.262	109.88
229.496	123.88
229.73	130.88
229.964	159.88
230.199	130.88
230.433	128.88
230.667	127.88
230.901	117.88
231.136	122.88
231.37	114.88
231.604	115.88
231.838	107.88
232.072	116.88
232.306	111.88
232.541	120.88
232.775	117.88
233.009	111.88
233.243	111.88
233.477	115.88
233.711	123.88
233.945	127.88
234.179	124.88
234.413	118.88
234.647	111.88
234.881	120.88
235.115	119.88
235.349	134.88
235.583	119.88
235.817	114.88
236.051	139.88
236.285	132.88
236.519	127.88
236.753	146.88
236.987	142.88
237.221	200.88
237.455	246.88
237.689	203.88
237.922	164.88
238.156	157.88
238.39	134.88
238.624	123.88
238.858	122.88
239.091	98.88
239.325	114.88
239.559	126.88
239.793	130.88
240.027	132.88
240.26	142.88
240.494	160.88
240.728	169.88
240.961	153.88
241.195	145.88
241.429	134.88
241.662	148.88
241.896	141.88
242.13	128.88
242.363	117.88
242.597	125.88
242.83	120.88
243.064	150.88
243.298	132.88
243.531	142.88
243.765	141.88
243.998	137.88
244.232	153.88
244.465	157.88
244.699	134.88
244.932	145.88
245.166	153.88
245.399	155.88
245.633	136.88
245.866	137.88
246.099	159.88
246.333	160.88
246.566	152.88
246.8	138.88
247.033	166.88
247.266	168.88
247.5	181.88
247.733	168.88
247.966	156.88
248.2	166.88
248.433	192.88
248.666	183.88
248.899	212.88
249.133	207.88
249.366	234.88
249.599	222.88
249.832	207.88
250.066	193.88
250.299	195.88
250.532	188.88
250.765	217.88
250.998	236.88
251.231	234.88
251.465	232.88
251.698	207.88
251.931	209.88
252.164	207.88
252.397	216.88
252.63	218.88
252.863	230.88
253.096	244.88
253.329	252.88
253.562	233.88
253.795	249.88
254.028	246.88
254.261	247.88
254.494	246.88
254.727	279.88
254.96	314.88
255.193	287.88
255.426	280.88
255.659	263.88
255.892	262.88
256.124	248.88
256.357	240.88
256.59	234.88
256.823	228.88
257.056	213.88
257.289	235.88
257.521	233.88
257.754	222.88
257.987	222.88
258.22	222.88
258.452	215.88
258.685	212.88
258.918	244.88
259.151	233.88
259.383	238.88
259.616	249.88
259.849	256.88
260.081	256.88
260.314	266.88
260.547	275.88
260.779	264.88
261.012	266.88
261.244	239.88
261.477	248.88
261.71	228.88
261.942	248.88
262.175	232.88
262.407	244.88
262.64	246.88
262.872	224.88
263.105	221.88
263.337	247.88
263.57	218.88
263.802	216.88
264.035	234.88
264.267	222.88
264.499	206.88
264.732	210.88
264.964	212.88
265.197	227.88
265.429	238.88
265.661	228.88
265.894	217.88
266.126	228.88
266.358	232.88
266.591	221.88
266.823	238.88
267.055	227.88
267.287	221.88
267.52	229.88
267.752	235.88
267.984	236.88
268.216	240.88
268.448	250.88
268.681	255.88
268.913	281.88
269.145	287.88
269.377	297.88
269.609	296.88
269.841	294.88
270.073	289.88
270.306	322.88
270.538	341.88
270.77	351.88
271.002	323.88
271.234	308.88
271.466	327.88
271.698	340.88
271.93	342.88
272.162	328.88
272.394	332.88
272.626	339.88
272.858	304.88
273.09	311.88
273.322	292.88
273.553	275.88
273.785	298.88
274.017	290.88
274.249	298.88
274.481	291.88
274.713	267.88
274.945	271.88
275.176	287.88
275.408	278.88
275.64	262.88
275.872	285.88
276.104	287.88
276.335	279.88
276.567	294.88
276.799	298.88
277.031	298.88
277.262	335.88
277.494	350.88
277.726	318.88
277.957	296.88
278.189	287.88
278.421	294.88
278.652	303.88
278.884	285.88
279.115	280.88
279.347	292.88
279.579	281.88
279.81	278.88
280.042	274.88
280.273	279.88
280.505	282.88
280.736	278.88
280.968	278.88
281.199	254.88
281.431	271.88
281.662	289.88
281.894	280.88
282.125	275.88
282.356	294.88
282.588	316.88
282.819	332.88
283.051	264.88
283.282	267.88
283.513	284.88
283.745	272.88
283.976	277.88
284.207	278.88
284.439	288.88
284.67	300.88
284.901	290.88
285.132	298.88
285.364	287.88
285.595	292.88
285.826	285.88
286.057	295.88
286.288	296.88
286.52	280.88
286.751	285.88
286.982	297.88
287.213	287.88
287.444	308.88
287.675	292.88
287.906	279.88
288.138	286.88
288.369	334.88
288.6	318.88
288.831	322.88
289.062	297.88
289.293	290.88
289.524	284.88
289.755	286.88
289.986	292.88
290.217	298.88
290.448	298.88
290.679	287.88
290.91	295.88
291.141	279.88
291.371	283.88
291.602	284.88
291.833	286.88
292.064	309.88
292.295	288.88
292.526	306.88
292.757	304.88
292.987	289.88
293.218	288.88
293.449	286.88
293.68	296.88
293.91	283.88
294.141	294.88
294.372	284.88
294.603	294.88
294.833	301.88
295.064	300.88
295.295	298.88
295.525	304.88
295.756	308.88
295.987	314.88
296.217	346.88
296.448	333.88
296.679	337.88
296.909	312.88
297.14	284.88
297.37	299.88
297.601	310.88
297.831	302.88
298.062	315.88
298.292	294.88
298.523	313.88
298.753	311.88
298.984	316.88
299.214	306.88
299.445	315.88
299.675	324.88
299.905	334.88
300.136	324.88
300.366	320.88
300.597	302.88
300.827	329.88
301.057	344.88
301.288	316.88
301.518	326.88
301.748	313.88
301.979	316.88
302.209	325.88
302.439	318.88
302.669	335.88
302.9	331.88
303.13	311.88
303.36	329.88
303.59	325.88
303.82	334.88
304.051	341.88
304.281	331.88
304.511	321.88
304.741	311.88
304.971	321.88
305.201	324.88
305.431	307.88
305.661	326.88
305.891	334.88
306.121	339.88
306.352	336.88
306.582	343.88
306.812	339.88
307.042	346.88
307.272	335.88
307.502	343.88
307.731	336.88
307.961	331.88
308.191	327.88
308.421	326.88
308.651	343.88
308.881	359.88
309.111	366.88
309.341	367.88
309.571	354.88
309.8	388.88
310.03	383.88
310.26	398.88
310.49	404.88
310.72	408.88
310.949	421.88
311.179	438.88
311.409	412.88
311.639	390.88
311.868	414.88
312.098	408.88
312.328	420.88
312.557	426.88
312.787	435.88
313.017	407.88
313.246	409.88
313.476	391.88
313.706	418.88
313.935	407.88
314.165	420.88
314.394	415.88
314.624	416.88
314.853	399.88
315.083	395.88
315.312	386.88
315.542	380.88
315.771	387.88
316.001	397.88
316.23	389.88
316.46	379.88
316.689	384.88
316.919	390.88
317.148	400.88
317.377	435.88
317.607	402.88
317.836	402.88
318.065	383.88
318.295	382.88
318.524	376.88
318.753	380.88
318.983	374.88
319.212	378.88
319.441	408.88
319.67	391.88
319.9	403.88
320.129	401.88
320.358	404.88
320.587	403.88
320.816	410.88
321.046	438.88
321.275	413.88
321.504	426.88
321.733	444.88
321.962	438.88
322.191	461.88
322.42	449.88
322.649	500.88
322.878	509.88
323.108	522.88
323.337	550.88
323.566	568.88
323.795	615.88
324.024	655.88
324.253	866.88
324.482	1225.88
324.71	1891.88
324.939	2608.88
325.168	2242.88
325.397	1171.88
325.626	776.88
325.855	677.88
326.084	590.88
326.313	556.88
326.542	571.88
326.77	655.88
326.999	774.88
327.228	1102.88
327.457	1674.88
327.686	1936.88
327.914	1306.88
328.143	850.88
328.372	744.88
328.6	682.88
328.829	630.88
329.058	646.88
329.287	623.88
329.515	615.88
329.744	573.88
329.972	573.88
330.201	601.88
330.43	642.88
330.658	656.88
330.887	679.88
331.115	668.88
331.344	572.88
331.572	528.88
331.801	530.88
332.03	516.88
332.258	481.88
332.486	469.88
332.715	440.88
332.943	477.88
333.172	465.88
333.4	459.88
333.629	436.88
333.857	470.88
334.085	484.88
334.314	532.88
334.542	549.88
334.771	555.88
334.999	508.88
335.227	459.88
335.455	449.88
335.684	455.88
335.912	443.88
336.14	435.88
336.369	442.88
336.597	438.88
336.825	449.88
337.053	422.88
337.281	439.88
337.51	407.88
337.738	429.88
337.966	450.88
338.194	438.88
338.422	431.88
338.65	453.88
338.878	440.88
339.106	430.88
339.334	441.88
339.562	430.88
339.79	430.88
340.018	418.88
340.246	438.88
340.474	436.88
340.702	423.88
340.93	456.88
341.158	426.88
341.386	434.88
341.614	446.88
341.842	419.88
342.07	420.88
342.298	411.88
342.526	387.88
342.754	428.88
342.981	419.88
343.209	409.88
343.437	400.88
343.665	418.88
343.893	410.88
344.12	424.88
344.348	428.88
344.576	423.88
344.804	439.88
345.031	448.88
345.259	443.88
345.487	452.88
345.714	419.88
345.942	423.88
346.17	419.88
346.397	410.88
346.625	434.88
346.853	416.88
347.08	427.88
347.308	406.88
347.535	424.88
347.763	425.88
347.99	411.88
348.218	426.88
348.445	438.88
348.673	454.88
348.9	411.88
349.128	410.88
349.355	402.88
349.583	393.88
349.81	392.88
350.037	410.88
350.265	392.88
350.492	382.88
350.72	404.88
350.947	408.88
351.174	423.88
351.402	414.88
351.629	404.88
351.856	427.88
352.083	427.88
352.311	450.88
352.538	434.88
352.765	435.88
352.992	425.88
353.22	412.88
353.447	401.88
353.674	389.88
353.901	400.88
354.128	371.88
354.355	382.88
354.583	365.88
354.81	376.88
355.037	367.88
355.264	374.88
355.491	354.88
355.718	368.88
355.945	374.88
356.172	367.88
356.399	361.88
356.626	356.88
356.853	380.88
357.08	363.88
357.307	372.88
357.534	356.88
357.761	366.88
357.988	363.88
358.215	383.88
358.441	374.88
358.668	381.88
358.895	378.88
359.122	371.88
359.349	388.88
359.576	415.88
359.802	438.88
360.029	468.88
360.256	475.88
360.483	442.88
360.709	426.88
360.936	426.88
361.163	383.88
361.39	400.88
361.616	413.88
361.843	382.88
362.07	406.88
362.296	398.88
362.523	409.88
362.749	410.88
362.976	382.88
363.203	375.88
363.429	373.88
363.656	383.88
363.882	377.88
364.109	350.88
364.335	366.88
364.562	380.88
364.788	374.88
365.015	367.88
365.241	370.88
365.468	378.88
365.694	377.88
365.92	367.88
366.147	378.88
366.373	366.88
366.599	357.88
366.826	384.88
367.052	365.88
367.278	365.88
367.505	357.88
367.731	356.88
367.957	362.88
368.184	373.88
368.41	374.88
368.636	388.88
368.862	390.88
369.089	384.88
369.315	391.88
369.541	366.88
369.767	376.88
369.993	374.88
370.219	360.88
370.445	353.88
370.672	372.88
370.898	365.88
371.124	353.88
371.35	360.88
371.576	344.88
371.802	358.88
372.028	351.88
372.254	337.88
372.48	343.88
372.706	344.88
372.932	367.88
373.158	361.88
373.384	352.88
373.61	347.88
373.835	342.88
374.061	359.88
374.287	345.88
374.513	354.88
374.739	354.88
374.965	367.88
375.191	358.88
375.416	362.88
375.642	341.88
375.868	362.88
376.094	354.88
376.319	344.88
376.545	357.88
376.771	358.88
376.997	356.88
377.222	342.88
377.448	363.88
377.674	350.88
377.899	356.88
378.125	348.88
378.35	351.88
378.576	356.88
378.802	355.88
379.027	353.88
379.253	347.88
379.478	326.88
379.704	348.88
379.929	360.88
380.155	362.88
380.38	340.88
380.606	348.88
380.831	369.88
381.057	344.88
381.282	362.88
381.507	354.88
381.733	350.88
381.958	338.88
382.184	346.88
382.409	360.88
382.634	354.88
382.86	339.88
383.085	382.88
383.31	359.88
383.535	370.88
383.761	352.88
383.986	373.88
384.211	365.88
384.436	371.88
384.662	352.88
384.887	370.88
385.112	344.88
385.337	358.88
385.562	372.88
385.787	378.88
386.013	367.88
386.238	378.88
386.463	356.88
386.688	366.88
386.913	356.88
387.138	360.88
387.363	362.88
387.588	366.88
387.813	347.88
388.038	366.88
388.263	367.88
388.488	357.88
388.713	370.88
388.938	384.88
389.163	376.88
389.387	373.88
389.612	356.88
389.837	346.88
390.062	359.88
390.287	370.88
390.512	354.88
390.736	359.88
390.961	341.88
391.186	355.88
391.411	372.88
391.636	361.88
391.86	349.88
392.085	368.88
392.31	351.88
392.534	350.88
392.759	367.88
392.984	362.88
393.208	373.88
393.433	371.88
393.658	354.88
393.882	370.88
394.107	362.88
394.331	375.88
394.556	364.88
394.78	352.88
395.005	367.88
395.229	358.88
395.454	351.88
395.678	385.88
395.903	390.88
396.127	400.88
396.352	412.88
396.576	397.88
396.801	382.88
397.025	356.88
397.249	371.88
397.474	370.88
397.698	371.88
397.922	387.88
398.147	412.88
398.371	416.88
398.595	397.88
398.82	408.88
399.044	410.88
399.268	405.88
399.492	426.88
399.717	417.88
399.941	469.88
400.165	482.88
400.389	493.88
400.613	474.88
400.837	431.88
401.062	410.88
401.286	405.88
401.51	417.88
401.734	421.88
401.958	425.88
402.182	411.88
402.406	450.88
402.63	442.88
402.854	426.88
403.078	423.88
403.302	404.88
403.526	400.88
403.75	414.88
403.974	431.88
404.198	403.88
404.422	404.88
404.645	412.88
404.869	443.88
405.093	451.88
405.317	508.88
405.541	514.88
405.765	483.88
405.988	451.88
406.212	463.88
406.436	479.88
406.66	466.88
406.883	463.88
407.107	476.88
407.331	538.88
407.555	556.88
407.778	544.88
408.002	504.88
408.226	469.88
408.449	462.88
408.673	460.88
408.896	481.88
409.12	515.88
409.344	484.88
409.567	435.88
409.791	431.88
410.014	421.88
410.238	419.88
410.461	440.88
410.685	438.88
410.908	436.88
411.132	482.88
411.355	518.88
411.578	485.88
411.802	434.88
412.025	418.88
412.249	452.88
412.472	452.88
412.695	483.88
412.919	504.88
413.142	455.88
413.365	414.88
413.589	415.88
413.812	405.88
414.035	400.88
414.258	398.88
414.482	396.88
414.705	387.88
414.928	386.88
415.151	384.88
415.374	395.88
415.597	387.88
415.821	404.88
416.044	381.88
416.267	394.88
416.49	404.88
416.713	380.88
416.936	392.88
417.159	392.88
417.382	382.88
417.605	392.88
417.828	414.88
418.051	424.88
418.274	406.88
418.497	407.88
418.72	391.88
418.943	389.88
419.166	399.88
419.389	413.88
419.611	402.88
419.834	425.88
420.057	425.88
420.28	415.88
420.503	413.88
420.726	427.88
420.948	431.88
421.171	498.88
421.394	510.88
421.617	464.88
421.839	416.88
422.062	430.88
422.285	440.88
422.507	489.88
422.73	558.88
422.953	559.88
423.175	462.88
423.398	437.88
423.621	429.88
423.843	480.88
424.066	462.88
424.288	454.88
424.511	452.88
424.733	525.88
424.956	612.88
425.178	582.88
425.401	582.88
425.623	588.88
425.846	490.88
426.068	478.88
426.291	463.88
426.513	440.88
426.735	484.88
426.958	551.88
427.18	608.88
427.402	712.88
427.625	771.88
427.847	715.88
428.069	594.88
428.292	525.88
428.514	484.88
428.736	471.88
428.958	444.88
429.181	426.88
429.403	423.88
429.625	431.88
429.847	473.88
430.069	548.88
430.292	531.88
430.514	445.88
430.736	436.88
430.958	436.88
431.18	419.88
431.402	416.88
431.624	402.88
431.846	398.88
432.068	404.88
432.29	412.88
432.512	389.88
432.734	425.88
432.956	412.88
433.178	406.88
433.4	426.88
433.622	427.88
433.844	406.88
434.066	382.88
434.287	411.88
434.509	405.88
434.731	400.88
434.953	421.88
435.175	422.88
435.397	474.88
435.618	468.88
435.84	516.88
436.062	605.88
436.284	660.88
436.505	547.88
436.727	500.88
436.949	468.88
437.17	428.88
437.392	438.88
437.614	446.88
437.835	480.88
438.057	582.88
438.278	658.88
438.5	657.88
438.721	708.88
438.943	689.88
439.165	571.88
439.386	480.88
439.608	511.88
439.829	506.88
440.05	519.88
440.272	598.88
440.493	545.88
440.715	499.88
440.936	434.88
441.158	444.88
441.379	438.88
441.6	455.88
441.822	492.88
442.043	478.88
442.264	593.88
442.486	592.88
442.707	551.88
442.928	504.88
443.149	486.88
443.371	509.88
443.592	550.88
443.813	647.88
444.034	694.88
444.255	535.88
444.476	493.88
444.698	464.88
444.919	459.88
445.14	566.88
445.361	534.88
445.582	499.88
445.803	586.88
446.024	670.88
446.245	685.88
446.466	642.88
446.687	522.88
446.908	477.88
447.129	459.88
447.35	447.88
447.571	448.88
447.792	437.88
448.013	444.88
448.234	464.88
448.455	537.88
448.675	638.88
448.896	686.88
449.117	593.88
449.338	598.88
449.559	660.88
449.779	748.88
450	606.88
450.221	487.88
450.442	467.88
450.662	436.88
450.883	453.88
451.104	463.88
451.324	448.88
451.545	407.88
451.766	419.88
451.986	403.88
452.207	385.88
452.428	388.88
452.648	383.88
452.869	396.88
453.089	414.88
453.31	418.88
453.53	397.88
453.751	380.88
453.971	420.88
454.192	412.88
454.412	407.88
454.633	394.88
454.853	406.88
455.073	402.88
455.294	417.88
455.514	491.88
455.734	466.88
455.955	384.88
456.175	374.88
456.395	370.88
456.616	362.88
456.836	348.88
457.056	359.88
457.276	350.88
457.497	365.88
457.717	353.88
457.937	378.88
458.157	386.88
458.377	381.88
458.598	399.88
458.818	458.88
459.038	550.88
459.258	550.88
459.478	465.88
459.698	426.88
459.918	414.88
460.138	404.88
460.358	399.88
460.578	383.88
460.798	386.88
461.018	401.88
461.238	381.88
461.458	375.88
461.678	386.88
461.898	373.88
462.118	384.88
462.338	382.88
462.558	381.88
462.777	368.88
462.997	395.88
463.217	388.88
463.437	425.88
463.657	410.88
463.876	396.88
464.096	393.88
464.316	418.88
464.536	414.88
464.755	408.88
464.975	419.88
465.195	463.88
465.414	559.88
465.634	492.88
465.854	464.88
466.073	423.88
466.293	394.88
466.512	395.88
466.732	367.88
466.951	378.88
467.171	376.88
467.391	391.88
467.61	398.88
467.829	393.88
468.049	386.88
468.268	395.88
468.488	378.88
468.707	397.88
468.927	386.88
469.146	373.88
469.365	389.88
469.585	356.88
469.804	388.88
470.023	382.88
470.243	384.88
470.462	392.88
470.681	418.88
470.901	413.88
471.12	399.88
471.339	386.88
471.558	400.88
471.777	406.88
471.997	390.88
472.216	410.88
472.435	426.88
472.654	427.88
472.873	391.88
473.092	376.88
473.311	399.88
473.53	412.88
473.749	418.88
473.968	451.88
474.187	572.88
474.406	578.88
474.625	462.88
474.844	428.88
475.063	406.88
475.282	395.88
475.501	406.88
475.72	422.88
475.939	421.88
476.158	401.88
476.377	405.88
476.596	397.88
476.814	417.88
477.033	425.88
477.252	416.88
477.471	432.88
477.69	418.88
477.908	420.88
478.127	442.88
478.346	441.88
478.564	416.88
478.783	429.88
479.002	424.88
479.22	428.88
479.439	444.88
479.658	466.88
479.876	483.88
480.095	478.88
480.313	522.88
480.532	487.88
480.751	470.88
480.969	486.88
481.188	558.88
481.406	584.88
481.624	515.88
481.843	489.88
482.061	484.88
482.28	483.88
482.498	488.88
482.717	470.88
482.935	454.88
483.153	440.88
483.372	468.88
483.59	456.88
483.808	482.88
484.027	475.88
484.245	460.88
484.463	484.88
484.681	486.88
484.9	472.88
485.118	487.88
485.336	451.88
485.554	490.88
485.772	476.88
485.99	491.88
486.209	472.88
486.427	482.88
486.645	490.88
486.863	499.88
487.081	509.88
487.299	507.88
487.517	506.88
487.735	492.88
487.953	472.88
488.171	516.88
488.389	505.88
488.607	488.88
488.825	481.88
489.043	508.88
489.261	497.88
489.479	508.88
489.696	498.88
489.914	506.88
490.132	529.88
490.35	523.88
490.568	529.88
490.786	536.88
491.003	557.88
491.221	566.88
491.439	554.88
491.657	547.88
491.874	582.88
492.092	560.88
492.31	582.88
492.527	585.88
492.745	584.88
492.963	563.88
493.18	598.88
493.398	591.88
493.615	597.88
493.833	597.88
494.05	587.88
494.268	588.88
494.485	597.88
494.703	584.88
494.92	602.88
495.138	589.88
495.355	576.88
495.573	587.88
495.79	586.88
496.008	594.88
496.225	582.88
496.442	602.88
496.66	603.88
496.877	590.88
497.094	582.88
497.312	604.88
497.529	619.88
497.746	598.88
497.963	621.88
498.181	648.88
498.398	641.88
498.615	625.88
498.832	642.88
499.049	630.88
499.267	670.88
499.484	648.88
499.701	663.88
499.918	670.88
500.135	714.88
500.352	713.88
500.569	745.88
500.786	728.88
501.003	727.88
501.22	700.88
501.437	708.88
501.654	711.88
501.871	723.88
