Data from 1981.PennyLincolnUp.Lamp.En5.5.200Scan.071819.P1_HRD10591_16-43-10-960.txt Node
Date: Thu Jul 18 16:43:10 EDT 2019
User: cochatt
Spectrometer: HR+D1059
Trigger mode: 1
Integration Time (sec): 1.000000E-1
Scans to average: 1
Electric dark correction enabled: true
Nonlinearity correction enabled: false
Boxcar width: 0
XAxis mode: Wavelengths
Number of Pixels in Spectrum: 2048
>>>>>Begin Spectral Data<<<<<
223.165	-14.25
223.4	-14.25
223.635	-14.25
223.869	-25.25
224.104	-27.25
224.338	-9.25
224.573	-18.25
224.808	1.75
225.042	-6.25
225.277	-13.25
225.511	-3.25
225.746	12.75
225.98	6.75
226.215	9.75
226.449	6.75
226.683	19.75
226.918	35.75
227.152	23.75
227.387	43.75
227.621	45.75
227.856	43.75
228.09	51.75
228.324	36.75
228.559	47.75
228.793	74.75
229.027	105.75
229.262	106.75
229.496	126.75
229.73	135.75
229.964	151.75
230.199	122.75
230.433	112.75
230.667	118.75
230.901	113.75
231.136	115.75
231.37	95.75
231.604	109.75
231.838	113.75
232.072	102.75
232.306	131.75
232.541	127.75
232.775	119.75
233.009	98.75
233.243	98.75
233.477	115.75
233.711	115.75
233.945	123.75
234.179	119.75
234.413	118.75
234.647	130.75
234.881	107.75
235.115	109.75
235.349	114.75
235.583	131.75
235.817	121.75
236.051	125.75
236.285	128.75
236.519	115.75
236.753	129.75
236.987	163.75
237.221	170.75
237.455	246.75
237.689	189.75
237.922	137.75
238.156	135.75
238.39	126.75
238.624	132.75
238.858	122.75
239.091	120.75
239.325	124.75
239.559	136.75
239.793	141.75
240.027	127.75
240.26	154.75
240.494	154.75
240.728	159.75
240.961	140.75
241.195	136.75
241.429	135.75
241.662	142.75
241.896	135.75
242.13	135.75
242.363	125.75
242.597	123.75
242.83	131.75
243.064	129.75
243.298	149.75
243.531	157.75
243.765	139.75
243.998	133.75
244.232	135.75
244.465	141.75
244.699	139.75
244.932	139.75
245.166	141.75
245.399	148.75
245.633	164.75
245.866	160.75
246.099	155.75
246.333	151.75
246.566	146.75
246.8	145.75
247.033	145.75
247.266	173.75
247.5	174.75
247.733	173.75
247.966	175.75
248.2	167.75
248.433	174.75
248.666	175.75
248.899	192.75
249.133	197.75
249.366	226.75
249.599	211.75
249.832	192.75
250.066	190.75
250.299	195.75
250.532	206.75
250.765	214.75
250.998	243.75
251.231	247.75
251.465	237.75
251.698	216.75
251.931	216.75
252.164	217.75
252.397	215.75
252.63	223.75
252.863	236.75
253.096	225.75
253.329	238.75
253.562	220.75
253.795	236.75
254.028	257.75
254.261	257.75
254.494	247.75
254.727	278.75
254.96	310.75
255.193	290.75
255.426	271.75
255.659	268.75
255.892	253.75
256.124	246.75
256.357	245.75
256.59	240.75
256.823	238.75
257.056	225.75
257.289	206.75
257.521	223.75
257.754	227.75
257.987	236.75
258.22	232.75
258.452	228.75
258.685	221.75
258.918	203.75
259.151	222.75
259.383	224.75
259.616	234.75
259.849	232.75
260.081	238.75
260.314	277.75
260.547	283.75
260.779	262.75
261.012	255.75
261.244	225.75
261.477	236.75
261.71	245.75
261.942	236.75
262.175	259.75
262.407	243.75
262.64	243.75
262.872	220.75
263.105	228.75
263.337	225.75
263.57	234.75
263.802	234.75
264.035	239.75
264.267	238.75
264.499	226.75
264.732	229.75
264.964	215.75
265.197	232.75
265.429	224.75
265.661	221.75
265.894	228.75
266.126	243.75
266.358	227.75
266.591	241.75
266.823	241.75
267.055	238.75
267.287	238.75
267.52	232.75
267.752	220.75
267.984	233.75
268.216	239.75
268.448	243.75
268.681	235.75
268.913	259.75
269.145	296.75
269.377	307.75
269.609	303.75
269.841	308.75
270.073	305.75
270.306	328.75
270.538	341.75
270.77	354.75
271.002	345.75
271.234	330.75
271.466	323.75
271.698	352.75
271.93	340.75
272.162	343.75
272.394	357.75
272.626	337.75
272.858	323.75
273.09	310.75
273.322	296.75
273.553	288.75
273.785	287.75
274.017	276.75
274.249	277.75
274.481	286.75
274.713	262.75
274.945	286.75
275.176	284.75
275.408	277.75
275.64	278.75
275.872	278.75
276.104	295.75
276.335	268.75
276.567	293.75
276.799	312.75
277.031	329.75
277.262	334.75
277.494	349.75
277.726	339.75
277.957	322.75
278.189	312.75
278.421	302.75
278.652	265.75
278.884	310.75
279.115	295.75
279.347	281.75
279.579	259.75
279.81	287.75
280.042	289.75
280.273	277.75
280.505	269.75
280.736	290.75
280.968	291.75
281.199	295.75
281.431	295.75
281.662	278.75
281.894	286.75
282.125	301.75
282.356	284.75
282.588	320.75
282.819	325.75
283.051	289.75
283.282	292.75
283.513	297.75
283.745	287.75
283.976	278.75
284.207	292.75
284.439	305.75
284.67	289.75
284.901	290.75
285.132	290.75
285.364	258.75
285.595	290.75
285.826	270.75
286.057	289.75
286.288	272.75
286.52	281.75
286.751	285.75
286.982	290.75
287.213	286.75
287.444	316.75
287.675	307.75
287.906	305.75
288.138	313.75
288.369	308.75
288.6	311.75
288.831	313.75
289.062	299.75
289.293	310.75
289.524	298.75
289.755	292.75
289.986	308.75
290.217	295.75
290.448	286.75
290.679	289.75
290.91	298.75
291.141	294.75
291.371	299.75
291.602	293.75
291.833	300.75
292.064	294.75
292.295	292.75
292.526	277.75
292.757	305.75
292.987	322.75
293.218	293.75
293.449	285.75
293.68	296.75
293.91	285.75
294.141	303.75
294.372	300.75
294.603	287.75
294.833	323.75
295.064	282.75
295.295	321.75
295.525	302.75
295.756	301.75
295.987	305.75
296.217	356.75
296.448	349.75
296.679	317.75
296.909	307.75
297.14	296.75
297.37	292.75
297.601	301.75
297.831	305.75
298.062	305.75
298.292	294.75
298.523	319.75
298.753	317.75
298.984	319.75
299.214	306.75
299.445	319.75
299.675	299.75
299.905	315.75
300.136	321.75
300.366	322.75
300.597	311.75
300.827	324.75
301.057	348.75
301.288	350.75
301.518	318.75
301.748	327.75
301.979	321.75
302.209	336.75
302.439	322.75
302.669	328.75
302.9	341.75
303.13	350.75
303.36	340.75
303.59	340.75
303.82	332.75
304.051	345.75
304.281	348.75
304.511	337.75
304.741	347.75
304.971	322.75
305.201	313.75
305.431	334.75
305.661	312.75
305.891	323.75
306.121	336.75
306.352	339.75
306.582	355.75
306.812	361.75
307.042	345.75
307.272	350.75
307.502	358.75
307.731	341.75
307.961	360.75
308.191	332.75
308.421	343.75
308.651	341.75
308.881	360.75
309.111	334.75
309.341	348.75
309.571	376.75
309.8	379.75
310.03	377.75
310.26	410.75
310.49	408.75
310.72	411.75
310.949	415.75
311.179	421.75
311.409	406.75
311.639	408.75
311.868	399.75
312.098	398.75
312.328	420.75
312.557	430.75
312.787	440.75
313.017	435.75
313.246	405.75
313.476	399.75
313.706	405.75
313.935	407.75
314.165	435.75
314.394	429.75
314.624	422.75
314.853	421.75
315.083	422.75
315.312	406.75
315.542	384.75
315.771	356.75
316.001	365.75
316.23	375.75
316.46	392.75
316.689	408.75
316.919	415.75
317.148	414.75
317.377	416.75
317.607	430.75
317.836	431.75
318.065	394.75
318.295	387.75
318.524	382.75
318.753	379.75
318.983	386.75
319.212	395.75
319.441	403.75
319.67	408.75
319.9	389.75
320.129	389.75
320.358	419.75
320.587	406.75
320.816	435.75
321.046	435.75
321.275	458.75
321.504	435.75
321.733	435.75
321.962	425.75
322.191	465.75
322.42	461.75
322.649	489.75
322.878	525.75
323.108	523.75
323.337	541.75
323.566	589.75
323.795	616.75
324.024	680.75
324.253	838.75
324.482	1258.75
324.71	1872.75
324.939	2589.75
325.168	2189.75
325.397	1155.75
325.626	777.75
325.855	634.75
326.084	572.75
326.313	565.75
326.542	586.75
326.77	634.75
326.999	791.75
327.228	1118.75
327.457	1642.75
327.686	1896.75
327.914	1281.75
328.143	869.75
328.372	722.75
328.6	681.75
328.829	626.75
329.058	639.75
329.287	647.75
329.515	591.75
329.744	559.75
329.972	572.75
330.201	613.75
330.43	628.75
330.658	683.75
330.887	682.75
331.115	666.75
331.344	576.75
331.572	531.75
331.801	515.75
332.03	510.75
332.258	502.75
332.486	484.75
332.715	456.75
332.943	474.75
333.172	488.75
333.4	476.75
333.629	474.75
333.857	487.75
334.085	501.75
334.314	517.75
334.542	530.75
334.771	558.75
334.999	513.75
335.227	467.75
335.455	469.75
335.684	442.75
335.912	445.75
336.14	451.75
336.369	449.75
336.597	467.75
336.825	459.75
337.053	442.75
337.281	440.75
337.51	446.75
337.738	453.75
337.966	454.75
338.194	457.75
338.422	473.75
338.65	419.75
338.878	441.75
339.106	426.75
339.334	450.75
339.562	437.75
339.79	445.75
340.018	439.75
340.246	438.75
340.474	437.75
340.702	430.75
340.93	437.75
341.158	456.75
341.386	430.75
341.614	440.75
341.842	430.75
342.07	426.75
342.298	426.75
342.526	417.75
342.754	411.75
342.981	412.75
343.209	403.75
343.437	406.75
343.665	417.75
343.893	413.75
344.12	413.75
344.348	407.75
344.576	420.75
344.804	426.75
345.031	436.75
345.259	458.75
345.487	453.75
345.714	411.75
345.942	434.75
346.17	434.75
346.397	429.75
346.625	404.75
346.853	429.75
347.08	420.75
347.308	443.75
347.535	426.75
347.763	430.75
347.99	446.75
348.218	443.75
348.445	422.75
348.673	455.75
348.9	423.75
349.128	394.75
349.355	397.75
349.583	421.75
349.81	385.75
350.037	405.75
350.265	381.75
350.492	395.75
350.72	405.75
350.947	395.75
351.174	399.75
351.402	430.75
351.629	427.75
351.856	420.75
352.083	429.75
352.311	420.75
352.538	441.75
352.765	446.75
352.992	435.75
353.22	420.75
353.447	423.75
353.674	396.75
353.901	405.75
354.128	399.75
354.355	379.75
354.583	391.75
354.81	371.75
355.037	372.75
355.264	386.75
355.491	387.75
355.718	378.75
355.945	366.75
356.172	381.75
356.399	364.75
356.626	361.75
356.853	369.75
357.08	363.75
357.307	385.75
357.534	370.75
357.761	361.75
357.988	367.75
358.215	378.75
358.441	358.75
358.668	379.75
358.895	391.75
359.122	365.75
359.349	413.75
359.576	407.75
359.802	428.75
360.029	471.75
360.256	476.75
360.483	465.75
360.709	441.75
360.936	403.75
361.163	411.75
361.39	414.75
361.616	432.75
361.843	403.75
362.07	390.75
362.296	412.75
362.523	417.75
362.749	391.75
362.976	398.75
363.203	374.75
363.429	386.75
363.656	396.75
363.882	379.75
364.109	397.75
364.335	390.75
364.562	380.75
364.788	383.75
365.015	399.75
365.241	378.75
365.468	377.75
365.694	393.75
365.92	382.75
366.147	383.75
366.373	370.75
366.599	392.75
366.826	372.75
367.052	380.75
367.278	359.75
367.505	375.75
367.731	377.75
367.957	356.75
368.184	377.75
368.41	379.75
368.636	382.75
368.862	420.75
369.089	379.75
369.315	379.75
369.541	381.75
369.767	372.75
369.993	383.75
370.219	376.75
370.445	358.75
370.672	363.75
370.898	360.75
371.124	364.75
371.35	371.75
371.576	369.75
371.802	359.75
372.028	361.75
372.254	360.75
372.48	360.75
372.706	363.75
372.932	384.75
373.158	360.75
373.384	356.75
373.61	336.75
373.835	380.75
374.061	364.75
374.287	369.75
374.513	374.75
374.739	371.75
374.965	370.75
375.191	350.75
375.416	366.75
375.642	369.75
375.868	362.75
376.094	361.75
376.319	357.75
376.545	351.75
376.771	364.75
376.997	345.75
377.222	364.75
377.448	367.75
377.674	353.75
377.899	366.75
378.125	353.75
378.35	364.75
378.576	367.75
378.802	341.75
379.027	345.75
379.253	330.75
379.478	363.75
379.704	359.75
379.929	358.75
380.155	380.75
380.38	354.75
380.606	336.75
380.831	375.75
381.057	345.75
381.282	348.75
381.507	348.75
381.733	364.75
381.958	355.75
382.184	358.75
382.409	340.75
382.634	362.75
382.86	357.75
383.085	353.75
383.31	348.75
383.535	343.75
383.761	349.75
383.986	356.75
384.211	370.75
384.436	358.75
384.662	372.75
384.887	367.75
385.112	357.75
385.337	371.75
385.562	375.75
385.787	380.75
386.013	392.75
386.238	373.75
386.463	379.75
386.688	358.75
386.913	375.75
387.138	356.75
387.363	364.75
387.588	363.75
387.813	356.75
388.038	381.75
388.263	375.75
388.488	378.75
388.713	374.75
388.938	384.75
389.163	378.75
389.387	372.75
389.612	373.75
389.837	357.75
390.062	364.75
390.287	364.75
390.512	375.75
390.736	371.75
390.961	375.75
391.186	379.75
391.411	357.75
391.636	373.75
391.86	387.75
392.085	380.75
392.31	377.75
392.534	375.75
392.759	371.75
392.984	385.75
393.208	357.75
393.433	357.75
393.658	386.75
393.882	377.75
394.107	374.75
394.331	357.75
394.556	380.75
394.78	381.75
395.005	381.75
395.229	388.75
395.454	378.75
395.678	389.75
395.903	393.75
396.127	411.75
396.352	414.75
396.576	377.75
396.801	371.75
397.025	365.75
397.249	395.75
397.474	389.75
397.698	393.75
397.922	421.75
398.147	415.75
398.371	413.75
398.595	408.75
398.82	408.75
399.044	392.75
399.268	425.75
399.492	439.75
399.717	437.75
399.941	455.75
400.165	497.75
400.389	497.75
400.613	464.75
400.837	425.75
401.062	418.75
401.286	427.75
401.51	417.75
401.734	421.75
401.958	420.75
402.182	424.75
402.406	419.75
402.63	426.75
402.854	440.75
403.078	427.75
403.302	420.75
403.526	435.75
403.75	412.75
403.974	425.75
404.198	424.75
404.422	424.75
404.645	444.75
404.869	445.75
405.093	457.75
405.317	492.75
405.541	513.75
405.765	489.75
405.988	471.75
406.212	471.75
406.436	492.75
406.66	488.75
406.883	457.75
407.107	477.75
407.331	530.75
407.555	577.75
407.778	571.75
408.002	508.75
408.226	489.75
408.449	475.75
408.673	469.75
408.896	485.75
409.12	528.75
409.344	515.75
409.567	450.75
409.791	451.75
410.014	443.75
410.238	429.75
410.461	436.75
410.685	423.75
410.908	443.75
411.132	486.75
411.355	503.75
411.578	493.75
411.802	468.75
412.025	426.75
412.249	447.75
412.472	470.75
412.695	503.75
412.919	502.75
413.142	446.75
413.365	431.75
413.589	443.75
413.812	399.75
414.035	398.75
414.258	408.75
414.482	410.75
414.705	405.75
414.928	400.75
415.151	407.75
415.374	379.75
415.597	390.75
415.821	392.75
416.044	411.75
416.267	413.75
416.49	388.75
416.713	390.75
416.936	408.75
417.159	410.75
417.382	401.75
417.605	428.75
417.828	403.75
418.051	440.75
418.274	437.75
418.497	425.75
418.72	413.75
418.943	379.75
419.166	425.75
419.389	430.75
419.611	427.75
419.834	441.75
420.057	444.75
420.28	430.75
420.503	430.75
420.726	444.75
420.948	435.75
421.171	470.75
421.394	484.75
421.617	474.75
421.839	441.75
422.062	426.75
422.285	437.75
422.507	519.75
422.73	575.75
422.953	509.75
423.175	490.75
423.398	442.75
423.621	453.75
423.843	480.75
424.066	468.75
424.288	479.75
424.511	464.75
424.733	541.75
424.956	631.75
425.178	579.75
425.401	595.75
425.623	591.75
425.846	529.75
426.068	492.75
426.291	487.75
426.513	483.75
426.735	497.75
426.958	535.75
427.18	597.75
427.402	719.75
427.625	789.75
427.847	703.75
428.069	613.75
428.292	537.75
428.514	489.75
428.736	467.75
428.958	482.75
429.181	436.75
429.403	443.75
429.625	465.75
429.847	484.75
430.069	550.75
430.292	532.75
430.514	454.75
430.736	457.75
430.958	437.75
431.18	421.75
431.402	420.75
431.624	411.75
431.846	401.75
432.068	393.75
432.29	400.75
432.512	411.75
432.734	423.75
432.956	418.75
433.178	435.75
433.4	439.75
433.622	433.75
433.844	435.75
434.066	402.75
434.287	399.75
434.509	408.75
434.731	410.75
434.953	423.75
435.175	422.75
435.397	460.75
435.618	476.75
435.84	540.75
436.062	601.75
436.284	661.75
436.505	559.75
436.727	499.75
436.949	449.75
437.17	449.75
437.392	446.75
437.614	461.75
437.835	513.75
438.057	595.75
438.278	686.75
438.5	675.75
438.721	718.75
438.943	675.75
439.165	553.75
439.386	517.75
439.608	503.75
439.829	494.75
440.05	523.75
440.272	566.75
440.493	541.75
440.715	475.75
440.936	470.75
441.158	456.75
441.379	438.75
441.6	448.75
441.822	476.75
442.043	520.75
442.264	608.75
442.486	642.75
442.707	533.75
442.928	493.75
443.149	490.75
443.371	520.75
443.592	566.75
443.813	649.75
444.034	698.75
444.255	565.75
444.476	490.75
444.698	469.75
444.919	451.75
445.14	583.75
445.361	572.75
445.582	539.75
445.803	587.75
446.024	727.75
446.245	665.75
446.466	636.75
446.687	536.75
446.908	495.75
447.129	454.75
447.35	447.75
447.571	426.75
447.792	440.75
448.013	456.75
448.234	471.75
448.455	542.75
448.675	631.75
448.896	702.75
449.117	614.75
449.338	584.75
449.559	666.75
449.779	781.75
450	613.75
450.221	509.75
450.442	453.75
450.662	456.75
450.883	474.75
451.104	486.75
451.324	450.75
451.545	440.75
451.766	391.75
451.986	409.75
452.207	385.75
452.428	400.75
452.648	399.75
452.869	400.75
453.089	411.75
453.31	426.75
453.53	424.75
453.751	424.75
453.971	407.75
454.192	424.75
454.412	401.75
454.633	395.75
454.853	381.75
455.073	395.75
455.294	405.75
455.514	503.75
455.734	503.75
455.955	395.75
456.175	396.75
456.395	367.75
456.616	364.75
456.836	359.75
457.056	373.75
457.276	346.75
457.497	357.75
457.717	364.75
457.937	369.75
458.157	381.75
458.377	378.75
458.598	410.75
458.818	454.75
459.038	556.75
459.258	577.75
459.478	479.75
459.698	437.75
459.918	430.75
460.138	402.75
460.358	381.75
460.578	409.75
460.798	405.75
461.018	416.75
461.238	397.75
461.458	399.75
461.678	400.75
461.898	397.75
462.118	366.75
462.338	381.75
462.558	407.75
462.777	394.75
462.997	396.75
463.217	409.75
463.437	433.75
463.657	423.75
463.876	418.75
464.096	419.75
464.316	408.75
464.536	414.75
464.755	434.75
464.975	435.75
465.195	518.75
465.414	571.75
465.634	505.75
465.854	460.75
466.073	415.75
466.293	428.75
466.512	405.75
466.732	373.75
466.951	399.75
467.171	415.75
467.391	385.75
467.61	410.75
467.829	417.75
468.049	406.75
468.268	411.75
468.488	394.75
468.707	390.75
468.927	385.75
469.146	371.75
469.365	385.75
469.585	360.75
469.804	393.75
470.023	389.75
470.243	386.75
470.462	423.75
470.681	412.75
470.901	427.75
471.12	392.75
471.339	397.75
471.558	416.75
471.777	408.75
471.997	372.75
472.216	402.75
472.435	449.75
472.654	426.75
472.873	391.75
473.092	428.75
473.311	421.75
473.53	384.75
473.749	408.75
473.968	449.75
474.187	573.75
474.406	575.75
474.625	480.75
474.844	423.75
475.063	417.75
475.282	418.75
475.501	398.75
475.72	421.75
475.939	420.75
476.158	405.75
476.377	418.75
476.596	418.75
476.814	428.75
477.033	409.75
477.252	426.75
477.471	441.75
477.69	431.75
477.908	417.75
478.127	444.75
478.346	424.75
478.564	437.75
478.783	428.75
479.002	441.75
479.22	458.75
479.439	466.75
479.658	487.75
479.876	494.75
480.095	489.75
480.313	506.75
480.532	493.75
480.751	497.75
480.969	502.75
481.188	547.75
481.406	601.75
481.624	543.75
481.843	504.75
482.061	479.75
482.28	497.75
482.498	455.75
482.717	454.75
482.935	470.75
483.153	470.75
483.372	459.75
483.59	468.75
483.808	466.75
484.027	475.75
484.245	466.75
484.463	469.75
484.681	476.75
484.9	478.75
485.118	488.75
485.336	495.75
485.554	479.75
485.772	476.75
485.99	457.75
486.209	473.75
486.427	489.75
486.645	498.75
486.863	521.75
487.081	499.75
487.299	517.75
487.517	492.75
487.735	483.75
487.953	503.75
488.171	522.75
488.389	499.75
488.607	500.75
488.825	501.75
489.043	503.75
489.261	523.75
489.479	531.75
489.696	517.75
489.914	521.75
490.132	511.75
490.35	527.75
490.568	524.75
490.786	534.75
491.003	559.75
491.221	556.75
491.439	578.75
491.657	557.75
491.874	593.75
492.092	563.75
492.31	568.75
492.527	587.75
492.745	596.75
492.963	591.75
493.18	579.75
493.398	589.75
493.615	600.75
493.833	613.75
494.05	601.75
494.268	585.75
494.485	610.75
494.703	598.75
494.92	620.75
495.138	597.75
495.355	587.75
495.573	592.75
495.79	588.75
496.008	617.75
496.225	609.75
496.442	613.75
496.66	605.75
496.877	610.75
497.094	608.75
497.312	600.75
497.529	630.75
497.746	637.75
497.963	617.75
498.181	645.75
498.398	643.75
498.615	658.75
498.832	671.75
499.049	643.75
499.267	661.75
499.484	672.75
499.701	703.75
499.918	713.75
500.135	687.75
500.352	725.75
500.569	745.75
500.786	725.75
501.003	710.75
501.22	725.75
501.437	748.75
501.654	714.75
501.871	733.75
