Data from 1981.PennyLincolnUp.Lamp.En5.5.200Scan.071819.P1_HRD10591_16-41-56-959.txt Node
Date: Thu Jul 18 16:41:56 EDT 2019
User: cochatt
Spectrometer: HR+D1059
Trigger mode: 1
Integration Time (sec): 1.000000E-1
Scans to average: 1
Electric dark correction enabled: true
Nonlinearity correction enabled: false
Boxcar width: 0
XAxis mode: Wavelengths
Number of Pixels in Spectrum: 2048
>>>>>Begin Spectral Data<<<<<
223.165	-8.75
223.4	-8.75
223.635	-8.75
223.869	-19.75
224.104	-15.75
224.338	-20.75
224.573	-4.75
224.808	-11.75
225.042	-4.75
225.277	-0.75
225.511	-16.75
225.746	5.25
225.98	3.25
226.215	19.25
226.449	27.25
226.683	5.25
226.918	30.25
227.152	13.25
227.387	21.25
227.621	39.25
227.856	44.25
228.09	42.25
228.324	46.25
228.559	54.25
228.793	78.25
229.027	94.25
229.262	111.25
229.496	121.25
229.73	119.25
229.964	153.25
230.199	132.25
230.433	104.25
230.667	108.25
230.901	125.25
231.136	102.25
231.37	107.25
231.604	115.25
231.838	101.25
232.072	124.25
232.306	100.25
232.541	106.25
232.775	115.25
233.009	104.25
233.243	120.25
233.477	117.25
233.711	114.25
233.945	120.25
234.179	101.25
234.413	126.25
234.647	117.25
234.881	125.25
235.115	114.25
235.349	120.25
235.583	129.25
235.817	119.25
236.051	128.25
236.285	134.25
236.519	130.25
236.753	136.25
236.987	139.25
237.221	176.25
237.455	230.25
237.689	179.25
237.922	138.25
238.156	136.25
238.39	131.25
238.624	129.25
238.858	130.25
239.091	115.25
239.325	120.25
239.559	130.25
239.793	122.25
240.027	113.25
240.26	142.25
240.494	152.25
240.728	156.25
240.961	148.25
241.195	136.25
241.429	132.25
241.662	129.25
241.896	126.25
242.13	138.25
242.363	137.25
242.597	130.25
242.83	132.25
243.064	147.25
243.298	148.25
243.531	149.25
243.765	138.25
243.998	144.25
244.232	130.25
244.465	144.25
244.699	152.25
244.932	132.25
245.166	144.25
245.399	147.25
245.633	141.25
245.866	128.25
246.099	153.25
246.333	150.25
246.566	152.25
246.8	152.25
247.033	144.25
247.266	141.25
247.5	162.25
247.733	167.25
247.966	166.25
248.2	154.25
248.433	166.25
248.666	178.25
248.899	192.25
249.133	217.25
249.366	204.25
249.599	187.25
249.832	173.25
250.066	184.25
250.299	186.25
250.532	206.25
250.765	205.25
250.998	205.25
251.231	222.25
251.465	228.25
251.698	207.25
251.931	225.25
252.164	187.25
252.397	212.25
252.63	198.25
252.863	223.25
253.096	217.25
253.329	231.25
253.562	237.25
253.795	236.25
254.028	223.25
254.261	211.25
254.494	236.25
254.727	264.25
254.96	282.25
255.193	280.25
255.426	265.25
255.659	228.25
255.892	229.25
256.124	229.25
256.357	237.25
256.59	208.25
256.823	219.25
257.056	218.25
257.289	209.25
257.521	211.25
257.754	217.25
257.987	209.25
258.22	208.25
258.452	212.25
258.685	203.25
258.918	212.25
259.151	219.25
259.383	222.25
259.616	220.25
259.849	243.25
260.081	233.25
260.314	254.25
260.547	267.25
260.779	239.25
261.012	244.25
261.244	235.25
261.477	216.25
261.71	212.25
261.942	235.25
262.175	239.25
262.407	245.25
262.64	212.25
262.872	222.25
263.105	212.25
263.337	226.25
263.57	214.25
263.802	204.25
264.035	189.25
264.267	218.25
264.499	214.25
264.732	237.25
264.964	219.25
265.197	226.25
265.429	214.25
265.661	215.25
265.894	224.25
266.126	218.25
266.358	223.25
266.591	205.25
266.823	215.25
267.055	233.25
267.287	222.25
267.52	235.25
267.752	207.25
267.984	208.25
268.216	225.25
268.448	230.25
268.681	248.25
268.913	249.25
269.145	275.25
269.377	272.25
269.609	260.25
269.841	265.25
270.073	275.25
270.306	302.25
270.538	313.25
270.77	292.25
271.002	318.25
271.234	303.25
271.466	297.25
271.698	323.25
271.93	320.25
272.162	323.25
272.394	343.25
272.626	318.25
272.858	286.25
273.09	297.25
273.322	274.25
273.553	271.25
273.785	262.25
274.017	276.25
274.249	276.25
274.481	284.25
274.713	273.25
274.945	258.25
275.176	248.25
275.408	267.25
275.64	266.25
275.872	272.25
276.104	253.25
276.335	264.25
276.567	245.25
276.799	286.25
277.031	302.25
277.262	335.25
277.494	315.25
277.726	322.25
277.957	295.25
278.189	281.25
278.421	279.25
278.652	279.25
278.884	256.25
279.115	253.25
279.347	269.25
279.579	270.25
279.81	232.25
280.042	270.25
280.273	263.25
280.505	263.25
280.736	276.25
280.968	276.25
281.199	255.25
281.431	237.25
281.662	251.25
281.894	263.25
282.125	251.25
282.356	288.25
282.588	311.25
282.819	294.25
283.051	278.25
283.282	271.25
283.513	276.25
283.745	286.25
283.976	284.25
284.207	284.25
284.439	285.25
284.67	282.25
284.901	278.25
285.132	247.25
285.364	265.25
285.595	264.25
285.826	264.25
286.057	253.25
286.288	280.25
286.52	283.25
286.751	276.25
286.982	281.25
287.213	291.25
287.444	280.25
287.675	280.25
287.906	288.25
288.138	292.25
288.369	297.25
288.6	282.25
288.831	294.25
289.062	301.25
289.293	276.25
289.524	298.25
289.755	271.25
289.986	270.25
290.217	276.25
290.448	276.25
290.679	267.25
290.91	291.25
291.141	289.25
291.371	278.25
291.602	266.25
291.833	277.25
292.064	270.25
292.295	279.25
292.526	284.25
292.757	278.25
292.987	281.25
293.218	283.25
293.449	276.25
293.68	287.25
293.91	295.25
294.141	274.25
294.372	278.25
294.603	287.25
294.833	285.25
295.064	287.25
295.295	298.25
295.525	285.25
295.756	298.25
295.987	302.25
296.217	327.25
296.448	321.25
296.679	318.25
296.909	295.25
297.14	306.25
297.37	283.25
297.601	292.25
297.831	286.25
298.062	290.25
298.292	299.25
298.523	292.25
298.753	286.25
298.984	304.25
299.214	310.25
299.445	319.25
299.675	296.25
299.905	315.25
300.136	296.25
300.366	306.25
300.597	288.25
300.827	289.25
301.057	301.25
301.288	313.25
301.518	292.25
301.748	320.25
301.979	316.25
302.209	330.25
302.439	316.25
302.669	298.25
302.9	291.25
303.13	312.25
303.36	310.25
303.59	314.25
303.82	318.25
304.051	316.25
304.281	304.25
304.511	302.25
304.741	296.25
304.971	302.25
305.201	303.25
305.431	299.25
305.661	331.25
305.891	301.25
306.121	319.25
306.352	327.25
306.582	310.25
306.812	322.25
307.042	318.25
307.272	323.25
307.502	326.25
307.731	310.25
307.961	317.25
308.191	322.25
308.421	330.25
308.651	332.25
308.881	350.25
309.111	335.25
309.341	358.25
309.571	370.25
309.8	351.25
310.03	382.25
310.26	366.25
310.49	358.25
310.72	359.25
310.949	393.25
311.179	399.25
311.409	367.25
311.639	369.25
311.868	372.25
312.098	383.25
312.328	386.25
312.557	404.25
312.787	419.25
313.017	397.25
313.246	402.25
313.476	366.25
313.706	378.25
313.935	374.25
314.165	392.25
314.394	393.25
314.624	383.25
314.853	381.25
315.083	384.25
315.312	375.25
315.542	370.25
315.771	342.25
316.001	359.25
316.23	366.25
316.46	356.25
316.689	370.25
316.919	382.25
317.148	366.25
317.377	374.25
317.607	364.25
317.836	367.25
318.065	384.25
318.295	363.25
318.524	351.25
318.753	368.25
318.983	367.25
319.212	372.25
319.441	386.25
319.67	382.25
319.9	379.25
320.129	386.25
320.358	377.25
320.587	374.25
320.816	400.25
321.046	409.25
321.275	401.25
321.504	410.25
321.733	405.25
321.962	408.25
322.191	427.25
322.42	441.25
322.649	453.25
322.878	457.25
323.108	463.25
323.337	513.25
323.566	524.25
323.795	562.25
324.024	628.25
324.253	778.25
324.482	1094.25
324.71	1682.25
324.939	2282.25
325.168	1920.25
325.397	1040.25
325.626	726.25
325.855	572.25
326.084	555.25
326.313	526.25
326.542	559.25
326.77	576.25
326.999	714.25
327.228	946.25
327.457	1443.25
327.686	1672.25
327.914	1131.25
328.143	737.25
328.372	666.25
328.6	616.25
328.829	590.25
329.058	609.25
329.287	573.25
329.515	555.25
329.744	538.25
329.972	533.25
330.201	541.25
330.43	596.25
330.658	609.25
330.887	627.25
331.115	602.25
331.344	516.25
331.572	484.25
331.801	485.25
332.03	500.25
332.258	462.25
332.486	438.25
332.715	442.25
332.943	440.25
333.172	438.25
333.4	456.25
333.629	429.25
333.857	444.25
334.085	467.25
334.314	464.25
334.542	491.25
334.771	511.25
334.999	478.25
335.227	441.25
335.455	429.25
335.684	408.25
335.912	419.25
336.14	424.25
336.369	417.25
336.597	429.25
336.825	424.25
337.053	416.25
337.281	406.25
337.51	413.25
337.738	429.25
337.966	420.25
338.194	400.25
338.422	423.25
338.65	427.25
338.878	394.25
339.106	405.25
339.334	407.25
339.562	410.25
339.79	389.25
340.018	390.25
340.246	407.25
340.474	404.25
340.702	418.25
340.93	398.25
341.158	394.25
341.386	386.25
341.614	399.25
341.842	413.25
342.07	389.25
342.298	420.25
342.526	423.25
342.754	387.25
342.981	386.25
343.209	390.25
343.437	386.25
343.665	395.25
343.893	397.25
344.12	402.25
344.348	397.25
344.576	412.25
344.804	405.25
345.031	409.25
345.259	406.25
345.487	395.25
345.714	400.25
345.942	412.25
346.17	411.25
346.397	396.25
346.625	396.25
346.853	412.25
347.08	408.25
347.308	387.25
347.535	399.25
347.763	406.25
347.99	396.25
348.218	405.25
348.445	403.25
348.673	423.25
348.9	395.25
349.128	401.25
349.355	396.25
349.583	367.25
349.81	362.25
350.037	366.25
350.265	376.25
350.492	376.25
350.72	373.25
350.947	384.25
351.174	375.25
351.402	404.25
351.629	412.25
351.856	408.25
352.083	417.25
352.311	410.25
352.538	397.25
352.765	420.25
352.992	402.25
353.22	402.25
353.447	373.25
353.674	390.25
353.901	390.25
354.128	373.25
354.355	363.25
354.583	361.25
354.81	355.25
355.037	365.25
355.264	348.25
355.491	352.25
355.718	365.25
355.945	331.25
356.172	367.25
356.399	357.25
356.626	355.25
356.853	370.25
357.08	348.25
357.307	372.25
357.534	365.25
357.761	371.25
357.988	375.25
358.215	371.25
358.441	350.25
358.668	353.25
358.895	343.25
359.122	363.25
359.349	380.25
359.576	380.25
359.802	425.25
360.029	438.25
360.256	448.25
360.483	403.25
360.709	391.25
360.936	391.25
361.163	393.25
361.39	403.25
361.616	382.25
361.843	395.25
362.07	357.25
362.296	382.25
362.523	384.25
362.749	372.25
362.976	381.25
363.203	378.25
363.429	377.25
363.656	370.25
363.882	350.25
364.109	359.25
364.335	352.25
364.562	346.25
364.788	350.25
365.015	347.25
365.241	363.25
365.468	371.25
365.694	376.25
365.92	363.25
366.147	359.25
366.373	364.25
366.599	357.25
366.826	351.25
367.052	358.25
367.278	354.25
367.505	350.25
367.731	362.25
367.957	360.25
368.184	355.25
368.41	353.25
368.636	356.25
368.862	384.25
369.089	377.25
369.315	350.25
369.541	355.25
369.767	353.25
369.993	371.25
370.219	342.25
370.445	368.25
370.672	348.25
370.898	364.25
371.124	347.25
371.35	332.25
371.576	325.25
371.802	357.25
372.028	346.25
372.254	343.25
372.48	331.25
372.706	332.25
372.932	333.25
373.158	344.25
373.384	346.25
373.61	342.25
373.835	354.25
374.061	349.25
374.287	349.25
374.513	346.25
374.739	354.25
374.965	354.25
375.191	350.25
375.416	341.25
375.642	352.25
375.868	345.25
376.094	334.25
376.319	344.25
376.545	342.25
376.771	336.25
376.997	325.25
377.222	336.25
377.448	348.25
377.674	344.25
377.899	308.25
378.125	335.25
378.35	330.25
378.576	340.25
378.802	346.25
379.027	328.25
379.253	338.25
379.478	335.25
379.704	332.25
379.929	342.25
380.155	358.25
380.38	333.25
380.606	340.25
380.831	345.25
381.057	338.25
381.282	344.25
381.507	325.25
381.733	342.25
381.958	335.25
382.184	351.25
382.409	318.25
382.634	319.25
382.86	355.25
383.085	342.25
383.31	334.25
383.535	339.25
383.761	330.25
383.986	334.25
384.211	336.25
384.436	348.25
384.662	354.25
384.887	345.25
385.112	350.25
385.337	344.25
385.562	327.25
385.787	355.25
386.013	349.25
386.238	370.25
386.463	378.25
386.688	359.25
386.913	347.25
387.138	346.25
387.363	344.25
387.588	344.25
387.813	347.25
388.038	347.25
388.263	347.25
388.488	340.25
388.713	359.25
388.938	355.25
389.163	370.25
389.387	349.25
389.612	338.25
389.837	363.25
390.062	342.25
390.287	362.25
390.512	351.25
390.736	342.25
390.961	364.25
391.186	341.25
391.411	348.25
391.636	367.25
391.86	368.25
392.085	342.25
392.31	354.25
392.534	340.25
392.759	357.25
392.984	354.25
393.208	348.25
393.433	366.25
393.658	361.25
393.882	344.25
394.107	364.25
394.331	350.25
394.556	353.25
394.78	345.25
395.005	371.25
395.229	338.25
395.454	352.25
395.678	349.25
395.903	381.25
396.127	370.25
396.352	386.25
396.576	365.25
396.801	364.25
397.025	370.25
397.249	340.25
397.474	381.25
397.698	358.25
397.922	381.25
398.147	406.25
398.371	391.25
398.595	380.25
398.82	367.25
399.044	399.25
399.268	402.25
399.492	418.25
399.717	448.25
399.941	452.25
400.165	481.25
400.389	471.25
400.613	443.25
400.837	422.25
401.062	397.25
401.286	428.25
401.51	400.25
401.734	407.25
401.958	400.25
402.182	409.25
402.406	399.25
402.63	401.25
402.854	395.25
403.078	400.25
403.302	414.25
403.526	418.25
403.75	416.25
403.974	415.25
404.198	392.25
404.422	436.25
404.645	414.25
404.869	427.25
405.093	452.25
405.317	472.25
405.541	492.25
405.765	456.25
405.988	436.25
406.212	434.25
406.436	468.25
406.66	480.25
406.883	447.25
407.107	472.25
407.331	496.25
407.555	549.25
407.778	526.25
408.002	495.25
408.226	448.25
408.449	449.25
408.673	463.25
408.896	485.25
409.12	498.25
409.344	481.25
409.567	444.25
409.791	431.25
410.014	422.25
410.238	389.25
410.461	426.25
410.685	397.25
410.908	412.25
411.132	428.25
411.355	500.25
411.578	468.25
411.802	429.25
412.025	405.25
412.249	416.25
412.472	419.25
412.695	477.25
412.919	467.25
413.142	420.25
413.365	393.25
413.589	401.25
413.812	387.25
414.035	375.25
414.258	363.25
414.482	365.25
414.705	381.25
414.928	379.25
415.151	381.25
415.374	375.25
415.597	377.25
415.821	388.25
416.044	392.25
416.267	358.25
416.49	388.25
416.713	381.25
416.936	406.25
417.159	375.25
417.382	382.25
417.605	412.25
417.828	398.25
418.051	391.25
418.274	383.25
418.497	382.25
418.72	390.25
418.943	396.25
419.166	391.25
419.389	406.25
419.611	390.25
419.834	392.25
420.057	407.25
420.28	414.25
420.503	390.25
420.726	382.25
420.948	425.25
421.171	436.25
421.394	472.25
421.617	427.25
421.839	391.25
422.062	421.25
422.285	423.25
422.507	470.25
422.73	532.25
422.953	500.25
423.175	460.25
423.398	440.25
423.621	432.25
423.843	436.25
424.066	444.25
424.288	463.25
424.511	452.25
424.733	496.25
424.956	574.25
425.178	566.25
425.401	536.25
425.623	562.25
425.846	480.25
426.068	451.25
426.291	470.25
426.513	480.25
426.735	469.25
426.958	506.25
427.18	544.25
427.402	680.25
427.625	749.25
427.847	648.25
428.069	561.25
428.292	498.25
428.514	451.25
428.736	435.25
428.958	442.25
429.181	399.25
429.403	408.25
429.625	431.25
429.847	436.25
430.069	514.25
430.292	498.25
430.514	434.25
430.736	417.25
430.958	405.25
431.18	419.25
431.402	379.25
431.624	378.25
431.846	372.25
432.068	371.25
432.29	384.25
432.512	378.25
432.734	388.25
432.956	403.25
433.178	397.25
433.4	387.25
433.622	374.25
433.844	388.25
434.066	389.25
434.287	384.25
434.509	393.25
434.731	408.25
434.953	392.25
435.175	417.25
435.397	427.25
435.618	436.25
435.84	507.25
436.062	578.25
436.284	642.25
436.505	514.25
436.727	457.25
436.949	423.25
437.17	415.25
437.392	421.25
437.614	442.25
437.835	474.25
438.057	537.25
438.278	617.25
438.5	623.25
438.721	691.25
438.943	636.25
439.165	524.25
439.386	483.25
439.608	474.25
439.829	463.25
440.05	490.25
440.272	527.25
440.493	492.25
440.715	450.25
440.936	413.25
441.158	408.25
441.379	410.25
441.6	436.25
441.822	464.25
442.043	492.25
442.264	546.25
442.486	568.25
442.707	482.25
442.928	468.25
443.149	476.25
443.371	483.25
443.592	523.25
443.813	586.25
444.034	638.25
444.255	544.25
444.476	468.25
444.698	452.25
444.919	425.25
445.14	562.25
445.361	530.25
445.582	473.25
445.803	554.25
446.024	640.25
446.245	654.25
446.466	597.25
446.687	498.25
446.908	456.25
447.129	435.25
447.35	402.25
447.571	411.25
447.792	420.25
448.013	425.25
448.234	456.25
448.455	493.25
448.675	575.25
448.896	656.25
449.117	556.25
449.338	544.25
449.559	628.25
449.779	698.25
450	550.25
450.221	474.25
450.442	427.25
450.662	412.25
450.883	419.25
451.104	431.25
451.324	428.25
451.545	400.25
451.766	381.25
451.986	372.25
452.207	378.25
452.428	385.25
452.648	374.25
452.869	375.25
453.089	403.25
453.31	375.25
453.53	375.25
453.751	370.25
453.971	355.25
454.192	395.25
454.412	387.25
454.633	388.25
454.853	396.25
455.073	379.25
455.294	395.25
455.514	464.25
455.734	448.25
455.955	384.25
456.175	375.25
456.395	366.25
456.616	342.25
456.836	352.25
457.056	342.25
457.276	331.25
457.497	368.25
457.717	356.25
457.937	349.25
458.157	355.25
458.377	367.25
458.598	358.25
458.818	436.25
459.038	520.25
459.258	532.25
459.478	422.25
459.698	397.25
459.918	365.25
460.138	358.25
460.358	372.25
460.578	380.25
460.798	381.25
461.018	389.25
461.238	387.25
461.458	351.25
461.678	381.25
461.898	376.25
462.118	390.25
462.338	382.25
462.558	370.25
462.777	364.25
462.997	398.25
463.217	383.25
463.437	378.25
463.657	392.25
463.876	398.25
464.096	395.25
464.316	389.25
464.536	395.25
464.755	398.25
464.975	415.25
465.195	464.25
465.414	510.25
465.634	450.25
465.854	414.25
466.073	388.25
466.293	377.25
466.512	374.25
466.732	375.25
466.951	370.25
467.171	364.25
467.391	380.25
467.61	383.25
467.829	373.25
468.049	410.25
468.268	388.25
468.488	370.25
468.707	374.25
468.927	366.25
469.146	365.25
469.365	358.25
469.585	367.25
469.804	380.25
470.023	382.25
470.243	389.25
470.462	389.25
470.681	400.25
470.901	390.25
471.12	379.25
471.339	366.25
471.558	374.25
471.777	391.25
471.997	386.25
472.216	361.25
472.435	407.25
472.654	412.25
472.873	395.25
473.092	391.25
473.311	399.25
473.53	376.25
473.749	386.25
473.968	431.25
474.187	528.25
474.406	548.25
474.625	461.25
474.844	390.25
475.063	387.25
475.282	416.25
475.501	375.25
475.72	392.25
475.939	382.25
476.158	378.25
476.377	400.25
476.596	384.25
476.814	405.25
477.033	398.25
477.252	405.25
477.471	408.25
477.69	395.25
477.908	407.25
478.127	410.25
478.346	387.25
478.564	415.25
478.783	418.25
479.002	403.25
479.22	413.25
479.439	436.25
479.658	447.25
479.876	458.25
480.095	442.25
480.313	495.25
480.532	475.25
480.751	448.25
480.969	451.25
481.188	520.25
481.406	529.25
481.624	473.25
481.843	477.25
482.061	444.25
482.28	461.25
482.498	444.25
482.717	440.25
482.935	429.25
483.153	436.25
483.372	426.25
483.59	432.25
483.808	436.25
484.027	455.25
484.245	439.25
484.463	435.25
484.681	448.25
484.9	439.25
485.118	457.25
485.336	464.25
485.554	449.25
485.772	448.25
485.99	442.25
486.209	473.25
486.427	473.25
486.645	472.25
486.863	465.25
487.081	486.25
487.299	466.25
487.517	479.25
487.735	475.25
487.953	484.25
488.171	456.25
488.389	471.25
488.607	491.25
488.825	475.25
489.043	486.25
489.261	498.25
489.479	482.25
489.696	479.25
489.914	476.25
490.132	490.25
490.35	502.25
490.568	494.25
490.786	515.25
491.003	531.25
491.221	520.25
491.439	536.25
491.657	551.25
491.874	536.25
492.092	538.25
492.31	546.25
492.527	540.25
492.745	533.25
492.963	551.25
493.18	556.25
493.398	565.25
493.615	543.25
493.833	560.25
494.05	590.25
494.268	557.25
494.485	555.25
494.703	562.25
494.92	554.25
495.138	556.25
495.355	557.25
495.573	531.25
495.79	558.25
496.008	576.25
496.225	574.25
496.442	580.25
496.66	564.25
496.877	564.25
497.094	593.25
497.312	581.25
497.529	582.25
497.746	586.25
497.963	591.25
498.181	619.25
498.398	605.25
498.615	605.25
498.832	610.25
499.049	613.25
499.267	617.25
499.484	629.25
499.701	650.25
499.918	638.25
500.135	661.25
500.352	674.25
500.569	681.25
500.786	697.25
501.003	696.25
501.22	692.25
501.437	692.25
501.654	678.25
501.871	692.25
