Data from 1981.PennyLincolnUp.Lamp.En5.5.200Scan.071819.P1_HRD10591_16-42-06-959.txt Node
Date: Thu Jul 18 16:42:06 EDT 2019
User: cochatt
Spectrometer: HR+D1059
Trigger mode: 1
Integration Time (sec): 1.000000E-1
Scans to average: 1
Electric dark correction enabled: true
Nonlinearity correction enabled: false
Boxcar width: 0
XAxis mode: Wavelengths
Number of Pixels in Spectrum: 2048
>>>>>Begin Spectral Data<<<<<
223.165	-17.88
223.4	-17.88
223.635	-17.88
223.869	-17.88
224.104	-15.88
224.338	-8.88
224.573	3.12
224.808	-16.88
225.042	-6.88
225.277	-17.88
225.511	-6.88
225.746	1.12
225.98	7.12
226.215	11.12
226.449	16.12
226.683	15.12
226.918	29.12
227.152	26.12
227.387	57.12
227.621	38.12
227.856	59.12
228.09	63.12
228.324	41.12
228.559	80.12
228.793	69.12
229.027	113.12
229.262	97.12
229.496	116.12
229.73	123.12
229.964	142.12
230.199	127.12
230.433	119.12
230.667	103.12
230.901	108.12
231.136	108.12
231.37	102.12
231.604	120.12
231.838	119.12
232.072	118.12
232.306	95.12
232.541	110.12
232.775	104.12
233.009	119.12
233.243	109.12
233.477	109.12
233.711	118.12
233.945	117.12
234.179	111.12
234.413	127.12
234.647	111.12
234.881	137.12
235.115	121.12
235.349	127.12
235.583	133.12
235.817	125.12
236.051	124.12
236.285	136.12
236.519	120.12
236.753	127.12
236.987	148.12
237.221	187.12
237.455	233.12
237.689	187.12
237.922	139.12
238.156	129.12
238.39	136.12
238.624	135.12
238.858	127.12
239.091	142.12
239.325	139.12
239.559	130.12
239.793	142.12
240.027	133.12
240.26	142.12
240.494	165.12
240.728	171.12
240.961	160.12
241.195	147.12
241.429	136.12
241.662	148.12
241.896	133.12
242.13	132.12
242.363	128.12
242.597	121.12
242.83	154.12
243.064	151.12
243.298	148.12
243.531	131.12
243.765	149.12
243.998	135.12
244.232	146.12
244.465	131.12
244.699	153.12
244.932	151.12
245.166	132.12
245.399	145.12
245.633	164.12
245.866	153.12
246.099	142.12
246.333	149.12
246.566	166.12
246.8	163.12
247.033	157.12
247.266	166.12
247.5	171.12
247.733	175.12
247.966	159.12
248.2	186.12
248.433	179.12
248.666	167.12
248.899	189.12
249.133	207.12
249.366	224.12
249.599	198.12
249.832	183.12
250.066	199.12
250.299	178.12
250.532	200.12
250.765	200.12
250.998	221.12
251.231	243.12
251.465	233.12
251.698	221.12
251.931	208.12
252.164	212.12
252.397	210.12
252.63	201.12
252.863	222.12
253.096	226.12
253.329	248.12
253.562	265.12
253.795	237.12
254.028	237.12
254.261	232.12
254.494	249.12
254.727	276.12
254.96	292.12
255.193	288.12
255.426	276.12
255.659	249.12
255.892	240.12
256.124	239.12
256.357	257.12
256.59	249.12
256.823	235.12
257.056	235.12
257.289	227.12
257.521	221.12
257.754	215.12
257.987	211.12
258.22	217.12
258.452	252.12
258.685	221.12
258.918	214.12
259.151	224.12
259.383	226.12
259.616	224.12
259.849	216.12
260.081	246.12
260.314	261.12
260.547	267.12
260.779	272.12
261.012	232.12
261.244	251.12
261.477	221.12
261.71	217.12
261.942	246.12
262.175	269.12
262.407	265.12
262.64	237.12
262.872	223.12
263.105	237.12
263.337	220.12
263.57	209.12
263.802	217.12
264.035	220.12
264.267	208.12
264.499	238.12
264.732	227.12
264.964	209.12
265.197	220.12
265.429	214.12
265.661	227.12
265.894	224.12
266.126	222.12
266.358	219.12
266.591	238.12
266.823	232.12
267.055	237.12
267.287	248.12
267.52	251.12
267.752	247.12
267.984	226.12
268.216	227.12
268.448	244.12
268.681	240.12
268.913	251.12
269.145	294.12
269.377	295.12
269.609	281.12
269.841	300.12
270.073	299.12
270.306	309.12
270.538	349.12
270.77	341.12
271.002	312.12
271.234	334.12
271.466	336.12
271.698	332.12
271.93	348.12
272.162	344.12
272.394	316.12
272.626	303.12
272.858	300.12
273.09	281.12
273.322	302.12
273.553	284.12
273.785	261.12
274.017	275.12
274.249	283.12
274.481	286.12
274.713	271.12
274.945	283.12
275.176	281.12
275.408	279.12
275.64	279.12
275.872	279.12
276.104	268.12
276.335	279.12
276.567	294.12
276.799	295.12
277.031	324.12
277.262	317.12
277.494	325.12
277.726	324.12
277.957	315.12
278.189	301.12
278.421	294.12
278.652	298.12
278.884	293.12
279.115	274.12
279.347	299.12
279.579	282.12
279.81	307.12
280.042	279.12
280.273	265.12
280.505	274.12
280.736	291.12
280.968	263.12
281.199	283.12
281.431	264.12
281.662	262.12
281.894	268.12
282.125	288.12
282.356	292.12
282.588	323.12
282.819	327.12
283.051	286.12
283.282	269.12
283.513	278.12
283.745	269.12
283.976	276.12
284.207	291.12
284.439	304.12
284.67	278.12
284.901	284.12
285.132	278.12
285.364	261.12
285.595	288.12
285.826	286.12
286.057	292.12
286.288	277.12
286.52	265.12
286.751	291.12
286.982	271.12
287.213	273.12
287.444	287.12
287.675	300.12
287.906	308.12
288.138	300.12
288.369	315.12
288.6	303.12
288.831	326.12
289.062	307.12
289.293	312.12
289.524	285.12
289.755	294.12
289.986	295.12
290.217	279.12
290.448	287.12
290.679	288.12
290.91	288.12
291.141	280.12
291.371	291.12
291.602	281.12
291.833	311.12
292.064	285.12
292.295	275.12
292.526	293.12
292.757	279.12
292.987	289.12
293.218	298.12
293.449	282.12
293.68	291.12
293.91	292.12
294.141	293.12
294.372	274.12
294.603	293.12
294.833	293.12
295.064	287.12
295.295	298.12
295.525	291.12
295.756	302.12
295.987	285.12
296.217	315.12
296.448	339.12
296.679	315.12
296.909	311.12
297.14	311.12
297.37	292.12
297.601	308.12
297.831	279.12
298.062	301.12
298.292	309.12
298.523	310.12
298.753	292.12
298.984	293.12
299.214	289.12
299.445	303.12
299.675	300.12
299.905	316.12
300.136	323.12
300.366	304.12
300.597	305.12
300.827	314.12
301.057	315.12
301.288	332.12
301.518	337.12
301.748	337.12
301.979	334.12
302.209	331.12
302.439	313.12
302.669	311.12
302.9	316.12
303.13	315.12
303.36	334.12
303.59	334.12
303.82	336.12
304.051	359.12
304.281	339.12
304.511	345.12
304.741	330.12
304.971	331.12
305.201	337.12
305.431	326.12
305.661	332.12
305.891	321.12
306.121	329.12
306.352	323.12
306.582	329.12
306.812	340.12
307.042	331.12
307.272	323.12
307.502	355.12
307.731	334.12
307.961	329.12
308.191	335.12
308.421	323.12
308.651	339.12
308.881	344.12
309.111	364.12
309.341	351.12
309.571	347.12
309.8	374.12
310.03	391.12
310.26	399.12
310.49	399.12
310.72	397.12
310.949	425.12
311.179	431.12
311.409	404.12
311.639	407.12
311.868	383.12
312.098	398.12
312.328	394.12
312.557	409.12
312.787	425.12
313.017	415.12
313.246	386.12
313.476	384.12
313.706	385.12
313.935	397.12
314.165	396.12
314.394	439.12
314.624	413.12
314.853	391.12
315.083	383.12
315.312	407.12
315.542	377.12
315.771	367.12
316.001	363.12
316.23	372.12
316.46	391.12
316.689	393.12
316.919	378.12
317.148	378.12
317.377	419.12
317.607	401.12
317.836	380.12
318.065	387.12
318.295	371.12
318.524	379.12
318.753	370.12
318.983	382.12
319.212	413.12
319.441	407.12
319.67	392.12
319.9	390.12
320.129	406.12
320.358	387.12
320.587	387.12
320.816	415.12
321.046	403.12
321.275	425.12
321.504	427.12
321.733	418.12
321.962	422.12
322.191	446.12
322.42	463.12
322.649	466.12
322.878	485.12
323.108	487.12
323.337	514.12
323.566	560.12
323.795	600.12
324.024	665.12
324.253	808.12
324.482	1209.12
324.71	1781.12
324.939	2449.12
325.168	2059.12
325.397	1120.12
325.626	733.12
325.855	619.12
326.084	593.12
326.313	571.12
326.542	574.12
326.77	635.12
326.999	727.12
327.228	1024.12
327.457	1542.12
327.686	1754.12
327.914	1196.12
328.143	793.12
328.372	701.12
328.6	637.12
328.829	617.12
329.058	645.12
329.287	633.12
329.515	592.12
329.744	562.12
329.972	544.12
330.201	554.12
330.43	584.12
330.658	634.12
330.887	647.12
331.115	638.12
331.344	549.12
331.572	515.12
331.801	522.12
332.03	522.12
332.258	496.12
332.486	457.12
332.715	461.12
332.943	448.12
333.172	451.12
333.4	461.12
333.629	460.12
333.857	475.12
334.085	472.12
334.314	485.12
334.542	526.12
334.771	522.12
334.999	480.12
335.227	465.12
335.455	418.12
335.684	457.12
335.912	425.12
336.14	430.12
336.369	436.12
336.597	451.12
336.825	471.12
337.053	455.12
337.281	427.12
337.51	427.12
337.738	425.12
337.966	433.12
338.194	439.12
338.422	451.12
338.65	412.12
338.878	440.12
339.106	413.12
339.334	437.12
339.562	433.12
339.79	404.12
340.018	425.12
340.246	432.12
340.474	413.12
340.702	416.12
340.93	410.12
341.158	401.12
341.386	439.12
341.614	411.12
341.842	416.12
342.07	400.12
342.298	408.12
342.526	395.12
342.754	394.12
342.981	379.12
343.209	404.12
343.437	405.12
343.665	391.12
343.893	398.12
344.12	424.12
344.348	404.12
344.576	418.12
344.804	426.12
345.031	444.12
345.259	451.12
345.487	445.12
345.714	447.12
345.942	428.12
346.17	419.12
346.397	430.12
346.625	421.12
346.853	396.12
347.08	398.12
347.308	417.12
347.535	423.12
347.763	419.12
347.99	444.12
348.218	422.12
348.445	441.12
348.673	432.12
348.9	407.12
349.128	407.12
349.355	392.12
349.583	391.12
349.81	405.12
350.037	383.12
350.265	396.12
350.492	385.12
350.72	398.12
350.947	391.12
351.174	423.12
351.402	411.12
351.629	417.12
351.856	415.12
352.083	419.12
352.311	429.12
352.538	407.12
352.765	437.12
352.992	443.12
353.22	420.12
353.447	391.12
353.674	386.12
353.901	372.12
354.128	371.12
354.355	366.12
354.583	378.12
354.81	366.12
355.037	348.12
355.264	391.12
355.491	363.12
355.718	353.12
355.945	368.12
356.172	371.12
356.399	360.12
356.626	373.12
356.853	348.12
357.08	385.12
357.307	366.12
357.534	347.12
357.761	381.12
357.988	356.12
358.215	355.12
358.441	357.12
358.668	365.12
358.895	373.12
359.122	379.12
359.349	385.12
359.576	394.12
359.802	429.12
360.029	460.12
360.256	444.12
360.483	438.12
360.709	409.12
360.936	402.12
361.163	389.12
361.39	400.12
361.616	400.12
361.843	396.12
362.07	390.12
362.296	396.12
362.523	373.12
362.749	396.12
362.976	379.12
363.203	375.12
363.429	385.12
363.656	381.12
363.882	383.12
364.109	373.12
364.335	379.12
364.562	367.12
364.788	370.12
365.015	372.12
365.241	371.12
365.468	389.12
365.694	359.12
365.92	381.12
366.147	379.12
366.373	368.12
366.599	366.12
366.826	359.12
367.052	374.12
367.278	368.12
367.505	371.12
367.731	381.12
367.957	371.12
368.184	358.12
368.41	383.12
368.636	387.12
368.862	384.12
369.089	363.12
369.315	355.12
369.541	358.12
369.767	362.12
369.993	351.12
370.219	361.12
370.445	355.12
370.672	368.12
370.898	371.12
371.124	363.12
371.35	376.12
371.576	363.12
371.802	347.12
372.028	343.12
372.254	348.12
372.48	349.12
372.706	360.12
372.932	343.12
373.158	361.12
373.384	343.12
373.61	343.12
373.835	359.12
374.061	360.12
374.287	341.12
374.513	345.12
374.739	350.12
374.965	347.12
375.191	351.12
375.416	354.12
375.642	361.12
375.868	364.12
376.094	345.12
376.319	344.12
376.545	355.12
376.771	353.12
376.997	360.12
377.222	359.12
377.448	357.12
377.674	354.12
377.899	337.12
378.125	354.12
378.35	349.12
378.576	352.12
378.802	346.12
379.027	347.12
379.253	362.12
379.478	333.12
379.704	343.12
379.929	349.12
380.155	348.12
380.38	347.12
380.606	357.12
380.831	356.12
381.057	368.12
381.282	351.12
381.507	329.12
381.733	363.12
381.958	341.12
382.184	344.12
382.409	348.12
382.634	336.12
382.86	342.12
383.085	364.12
383.31	352.12
383.535	358.12
383.761	349.12
383.986	355.12
384.211	367.12
384.436	357.12
384.662	358.12
384.887	364.12
385.112	363.12
385.337	366.12
385.562	374.12
385.787	352.12
386.013	395.12
386.238	383.12
386.463	368.12
386.688	360.12
386.913	368.12
387.138	367.12
387.363	373.12
387.588	345.12
387.813	366.12
388.038	364.12
388.263	333.12
388.488	371.12
388.713	373.12
388.938	373.12
389.163	371.12
389.387	366.12
389.612	355.12
389.837	363.12
390.062	354.12
390.287	361.12
390.512	358.12
390.736	334.12
390.961	363.12
391.186	368.12
391.411	377.12
391.636	366.12
391.86	367.12
392.085	364.12
392.31	344.12
392.534	361.12
392.759	367.12
392.984	368.12
393.208	348.12
393.433	361.12
393.658	366.12
393.882	360.12
394.107	357.12
394.331	374.12
394.556	368.12
394.78	374.12
395.005	372.12
395.229	381.12
395.454	393.12
395.678	391.12
395.903	378.12
396.127	404.12
396.352	403.12
396.576	392.12
396.801	378.12
397.025	358.12
397.249	378.12
397.474	371.12
397.698	376.12
397.922	397.12
398.147	408.12
398.371	412.12
398.595	398.12
398.82	402.12
399.044	395.12
399.268	407.12
399.492	437.12
399.717	450.12
399.941	458.12
400.165	481.12
400.389	488.12
400.613	457.12
400.837	442.12
401.062	428.12
401.286	415.12
401.51	396.12
401.734	409.12
401.958	422.12
402.182	415.12
402.406	421.12
402.63	421.12
402.854	404.12
403.078	396.12
403.302	399.12
403.526	403.12
403.75	439.12
403.974	425.12
404.198	417.12
404.422	423.12
404.645	427.12
404.869	446.12
405.093	447.12
405.317	513.12
405.541	505.12
405.765	462.12
405.988	465.12
406.212	450.12
406.436	466.12
406.66	478.12
406.883	455.12
407.107	460.12
407.331	518.12
407.555	560.12
407.778	566.12
408.002	523.12
408.226	478.12
408.449	475.12
408.673	473.12
408.896	515.12
409.12	516.12
409.344	491.12
409.567	460.12
409.791	436.12
410.014	427.12
410.238	387.12
410.461	429.12
410.685	395.12
410.908	449.12
411.132	473.12
411.355	511.12
411.578	474.12
411.802	422.12
412.025	405.12
412.249	448.12
412.472	447.12
412.695	473.12
412.919	474.12
413.142	423.12
413.365	404.12
413.589	421.12
413.812	405.12
414.035	401.12
414.258	395.12
414.482	395.12
414.705	401.12
414.928	368.12
415.151	393.12
415.374	399.12
415.597	382.12
415.821	397.12
416.044	393.12
416.267	392.12
416.49	412.12
416.713	405.12
416.936	404.12
417.159	400.12
417.382	407.12
417.605	401.12
417.828	422.12
418.051	428.12
418.274	430.12
418.497	420.12
418.72	407.12
418.943	400.12
419.166	395.12
419.389	425.12
419.611	412.12
419.834	403.12
420.057	414.12
420.28	424.12
420.503	397.12
420.726	405.12
420.948	451.12
421.171	481.12
421.394	495.12
421.617	461.12
421.839	434.12
422.062	445.12
422.285	444.12
422.507	485.12
422.73	552.12
422.953	533.12
423.175	478.12
423.398	441.12
423.621	470.12
423.843	467.12
424.066	466.12
424.288	477.12
424.511	475.12
424.733	537.12
424.956	611.12
425.178	572.12
425.401	577.12
425.623	579.12
425.846	494.12
426.068	459.12
426.291	476.12
426.513	482.12
426.735	459.12
426.958	493.12
427.18	581.12
427.402	674.12
427.625	736.12
427.847	671.12
428.069	600.12
428.292	507.12
428.514	457.12
428.736	450.12
428.958	442.12
429.181	457.12
429.403	424.12
429.625	451.12
429.847	469.12
430.069	541.12
430.292	524.12
430.514	430.12
430.736	445.12
430.958	423.12
431.18	424.12
431.402	383.12
431.624	399.12
431.846	411.12
432.068	389.12
432.29	389.12
432.512	387.12
432.734	416.12
432.956	409.12
433.178	430.12
433.4	417.12
433.622	420.12
433.844	411.12
434.066	401.12
434.287	392.12
434.509	372.12
434.731	389.12
434.953	408.12
435.175	425.12
435.397	430.12
435.618	464.12
435.84	524.12
436.062	604.12
436.284	602.12
436.505	544.12
436.727	489.12
436.949	457.12
437.17	446.12
437.392	446.12
437.614	445.12
437.835	496.12
438.057	572.12
438.278	665.12
438.5	665.12
438.721	702.12
438.943	667.12
439.165	535.12
439.386	494.12
439.608	492.12
439.829	493.12
440.05	527.12
440.272	560.12
440.493	517.12
440.715	471.12
440.936	439.12
441.158	442.12
441.379	409.12
441.6	447.12
441.822	440.12
442.043	490.12
442.264	588.12
442.486	611.12
442.707	540.12
442.928	484.12
443.149	480.12
443.371	508.12
443.592	558.12
443.813	625.12
444.034	647.12
444.255	539.12
444.476	492.12
444.698	451.12
444.919	449.12
445.14	585.12
445.361	533.12
445.582	519.12
445.803	581.12
446.024	678.12
446.245	670.12
446.466	594.12
446.687	517.12
446.908	484.12
447.129	462.12
447.35	428.12
447.571	447.12
447.792	423.12
448.013	440.12
448.234	436.12
448.455	525.12
448.675	629.12
448.896	683.12
449.117	607.12
449.338	575.12
449.559	661.12
449.779	738.12
450	627.12
450.221	501.12
450.442	435.12
450.662	423.12
450.883	452.12
451.104	453.12
451.324	456.12
451.545	408.12
451.766	404.12
451.986	402.12
452.207	392.12
452.428	376.12
452.648	377.12
452.869	387.12
453.089	391.12
453.31	408.12
453.53	390.12
453.751	399.12
453.971	378.12
454.192	399.12
454.412	426.12
454.633	406.12
454.853	382.12
455.073	394.12
455.294	417.12
455.514	479.12
455.734	458.12
455.955	400.12
456.175	388.12
456.395	360.12
456.616	331.12
456.836	368.12
457.056	354.12
457.276	347.12
457.497	359.12
457.717	351.12
457.937	362.12
458.157	384.12
458.377	364.12
458.598	412.12
458.818	462.12
459.038	541.12
459.258	550.12
459.478	446.12
459.698	417.12
459.918	386.12
460.138	371.12
460.358	396.12
460.578	396.12
460.798	389.12
461.018	408.12
461.238	383.12
461.458	355.12
461.678	389.12
461.898	403.12
462.118	373.12
462.338	387.12
462.558	397.12
462.777	388.12
462.997	412.12
463.217	413.12
463.437	412.12
463.657	409.12
463.876	418.12
464.096	403.12
464.316	408.12
464.536	420.12
464.755	410.12
464.975	432.12
465.195	452.12
465.414	561.12
465.634	472.12
465.854	432.12
466.073	423.12
466.293	397.12
466.512	379.12
466.732	394.12
466.951	388.12
467.171	387.12
467.391	369.12
467.61	385.12
467.829	383.12
468.049	406.12
468.268	395.12
468.488	373.12
468.707	373.12
468.927	369.12
469.146	368.12
469.365	371.12
469.585	385.12
469.804	386.12
470.023	392.12
470.243	397.12
470.462	414.12
470.681	385.12
470.901	426.12
471.12	387.12
471.339	385.12
471.558	387.12
471.777	404.12
471.997	383.12
472.216	396.12
472.435	421.12
472.654	421.12
472.873	388.12
473.092	389.12
473.311	406.12
473.53	395.12
473.749	405.12
473.968	440.12
474.187	547.12
474.406	582.12
474.625	462.12
474.844	415.12
475.063	395.12
475.282	390.12
475.501	371.12
475.72	424.12
475.939	409.12
476.158	411.12
476.377	398.12
476.596	415.12
476.814	422.12
477.033	439.12
477.252	407.12
477.471	401.12
477.69	433.12
477.908	423.12
478.127	422.12
478.346	439.12
478.564	427.12
478.783	422.12
479.002	422.12
479.22	433.12
479.439	467.12
479.658	469.12
479.876	475.12
480.095	502.12
480.313	506.12
480.532	477.12
480.751	472.12
480.969	486.12
481.188	530.12
481.406	598.12
481.624	515.12
481.843	473.12
482.061	475.12
482.28	464.12
482.498	461.12
482.717	452.12
482.935	441.12
483.153	459.12
483.372	450.12
483.59	446.12
483.808	466.12
484.027	442.12
484.245	477.12
484.463	474.12
484.681	468.12
484.9	480.12
485.118	463.12
485.336	471.12
485.554	480.12
485.772	472.12
485.99	484.12
486.209	473.12
486.427	484.12
486.645	485.12
486.863	513.12
487.081	504.12
487.299	513.12
487.517	487.12
487.735	504.12
487.953	488.12
488.171	503.12
488.389	482.12
488.607	472.12
488.825	494.12
489.043	495.12
489.261	495.12
489.479	483.12
489.696	503.12
489.914	503.12
490.132	493.12
490.35	515.12
490.568	493.12
490.786	502.12
491.003	535.12
491.221	542.12
491.439	549.12
491.657	557.12
491.874	553.12
492.092	559.12
492.31	579.12
492.527	559.12
492.745	543.12
492.963	551.12
493.18	567.12
493.398	567.12
493.615	556.12
493.833	570.12
494.05	582.12
494.268	598.12
494.485	575.12
494.703	583.12
494.92	563.12
495.138	581.12
495.355	603.12
495.573	583.12
495.79	569.12
496.008	593.12
496.225	593.12
496.442	606.12
496.66	592.12
496.877	583.12
497.094	584.12
497.312	597.12
497.529	614.12
497.746	620.12
497.963	613.12
498.181	614.12
498.398	624.12
498.615	639.12
498.832	637.12
499.049	631.12
499.267	665.12
499.484	667.12
499.701	679.12
499.918	659.12
500.135	712.12
500.352	718.12
500.569	700.12
500.786	729.12
501.003	721.12
501.22	722.12
501.437	701.12
501.654	696.12
501.871	711.12
