Data from 1981.PennyLincolnUp.Lamp.En5.5.200Scan.071819.P1_HRD10591_16-43-41-960.txt Node
Date: Thu Jul 18 16:43:41 EDT 2019
User: cochatt
Spectrometer: HR+D1059
Trigger mode: 1
Integration Time (sec): 1.000000E-1
Scans to average: 1
Electric dark correction enabled: true
Nonlinearity correction enabled: false
Boxcar width: 0
XAxis mode: Wavelengths
Number of Pixels in Spectrum: 2048
>>>>>Begin Spectral Data<<<<<
223.165	-18.69
223.4	-18.69
223.635	-18.69
223.869	-10.69
224.104	-22.69
224.338	-10.69
224.573	-18.69
224.808	-22.69
225.042	-7.69
225.277	-6.69
225.511	6.31
225.746	-6.69
225.98	9.31
226.215	7.31
226.449	14.31
226.683	26.31
226.918	21.31
227.152	40.31
227.387	32.31
227.621	35.31
227.856	45.31
228.09	39.31
228.324	41.31
228.559	63.31
228.793	63.31
229.027	105.31
229.262	103.31
229.496	110.31
229.73	136.31
229.964	163.31
230.199	139.31
230.433	127.31
230.667	120.31
230.901	127.31
231.136	122.31
231.37	110.31
231.604	112.31
231.838	114.31
232.072	108.31
232.306	109.31
232.541	122.31
232.775	120.31
233.009	98.31
233.243	107.31
233.477	111.31
233.711	110.31
233.945	120.31
234.179	113.31
234.413	116.31
234.647	109.31
234.881	135.31
235.115	109.31
235.349	113.31
235.583	122.31
235.817	125.31
236.051	137.31
236.285	120.31
236.519	123.31
236.753	126.31
236.987	165.31
237.221	180.31
237.455	222.31
237.689	188.31
237.922	145.31
238.156	146.31
238.39	135.31
238.624	125.31
238.858	138.31
239.091	121.31
239.325	131.31
239.559	133.31
239.793	126.31
240.027	131.31
240.26	149.31
240.494	164.31
240.728	164.31
240.961	168.31
241.195	169.31
241.429	151.31
241.662	127.31
241.896	134.31
242.13	124.31
242.363	141.31
242.597	128.31
242.83	121.31
243.064	149.31
243.298	136.31
243.531	129.31
243.765	133.31
243.998	143.31
244.232	149.31
244.465	131.31
244.699	153.31
244.932	147.31
245.166	142.31
245.399	136.31
245.633	143.31
245.866	145.31
246.099	155.31
246.333	147.31
246.566	144.31
246.8	154.31
247.033	153.31
247.266	159.31
247.5	161.31
247.733	169.31
247.966	169.31
248.2	175.31
248.433	187.31
248.666	180.31
248.899	179.31
249.133	198.31
249.366	218.31
249.599	206.31
249.832	183.31
250.066	198.31
250.299	177.31
250.532	214.31
250.765	213.31
250.998	223.31
251.231	231.31
251.465	226.31
251.698	211.31
251.931	212.31
252.164	198.31
252.397	191.31
252.63	215.31
252.863	218.31
253.096	228.31
253.329	245.31
253.562	244.31
253.795	244.31
254.028	211.31
254.261	217.31
254.494	241.31
254.727	270.31
254.96	284.31
255.193	283.31
255.426	276.31
255.659	246.31
255.892	246.31
256.124	265.31
256.357	239.31
256.59	249.31
256.823	225.31
257.056	236.31
257.289	225.31
257.521	222.31
257.754	217.31
257.987	226.31
258.22	213.31
258.452	212.31
258.685	219.31
258.918	224.31
259.151	211.31
259.383	221.31
259.616	245.31
259.849	237.31
260.081	261.31
260.314	241.31
260.547	281.31
260.779	264.31
261.012	224.31
261.244	253.31
261.477	251.31
261.71	243.31
261.942	258.31
262.175	245.31
262.407	244.31
262.64	242.31
262.872	225.31
263.105	201.31
263.337	225.31
263.57	212.31
263.802	227.31
264.035	214.31
264.267	211.31
264.499	206.31
264.732	216.31
264.964	228.31
265.197	223.31
265.429	229.31
265.661	238.31
265.894	213.31
266.126	215.31
266.358	210.31
266.591	223.31
266.823	238.31
267.055	229.31
267.287	253.31
267.52	215.31
267.752	228.31
267.984	232.31
268.216	217.31
268.448	227.31
268.681	263.31
268.913	258.31
269.145	280.31
269.377	295.31
269.609	306.31
269.841	282.31
270.073	291.31
270.306	297.31
270.538	303.31
270.77	326.31
271.002	319.31
271.234	329.31
271.466	320.31
271.698	356.31
271.93	343.31
272.162	346.31
272.394	328.31
272.626	335.31
272.858	306.31
273.09	295.31
273.322	291.31
273.553	306.31
273.785	291.31
274.017	292.31
274.249	308.31
274.481	280.31
274.713	270.31
274.945	283.31
275.176	269.31
275.408	269.31
275.64	270.31
275.872	284.31
276.104	282.31
276.335	281.31
276.567	277.31
276.799	309.31
277.031	326.31
277.262	332.31
277.494	343.31
277.726	319.31
277.957	310.31
278.189	289.31
278.421	260.31
278.652	286.31
278.884	271.31
279.115	278.31
279.347	282.31
279.579	282.31
279.81	283.31
280.042	277.31
280.273	270.31
280.505	263.31
280.736	284.31
280.968	251.31
281.199	284.31
281.431	279.31
281.662	280.31
281.894	265.31
282.125	287.31
282.356	290.31
282.588	314.31
282.819	313.31
283.051	278.31
283.282	277.31
283.513	286.31
283.745	276.31
283.976	293.31
284.207	286.31
284.439	295.31
284.67	281.31
284.901	275.31
285.132	267.31
285.364	279.31
285.595	274.31
285.826	296.31
286.057	273.31
286.288	271.31
286.52	302.31
286.751	289.31
286.982	268.31
287.213	294.31
287.444	279.31
287.675	282.31
287.906	285.31
288.138	306.31
288.369	307.31
288.6	307.31
288.831	291.31
289.062	292.31
289.293	307.31
289.524	305.31
289.755	280.31
289.986	290.31
290.217	289.31
290.448	290.31
290.679	301.31
290.91	285.31
291.141	286.31
291.371	295.31
291.602	294.31
291.833	291.31
292.064	297.31
292.295	280.31
292.526	302.31
292.757	276.31
292.987	271.31
293.218	282.31
293.449	286.31
293.68	301.31
293.91	294.31
294.141	286.31
294.372	285.31
294.603	290.31
294.833	295.31
295.064	293.31
295.295	316.31
295.525	279.31
295.756	302.31
295.987	310.31
296.217	323.31
296.448	340.31
296.679	327.31
296.909	291.31
297.14	286.31
297.37	298.31
297.601	300.31
297.831	291.31
298.062	300.31
298.292	302.31
298.523	312.31
298.753	325.31
298.984	283.31
299.214	333.31
299.445	303.31
299.675	306.31
299.905	309.31
300.136	311.31
300.366	325.31
300.597	295.31
300.827	321.31
301.057	307.31
301.288	328.31
301.518	324.31
301.748	323.31
301.979	321.31
302.209	309.31
302.439	322.31
302.669	326.31
302.9	308.31
303.13	314.31
303.36	317.31
303.59	328.31
303.82	355.31
304.051	325.31
304.281	339.31
304.511	337.31
304.741	302.31
304.971	303.31
305.201	315.31
305.431	323.31
305.661	344.31
305.891	333.31
306.121	312.31
306.352	350.31
306.582	333.31
306.812	316.31
307.042	315.31
307.272	329.31
307.502	329.31
307.731	313.31
307.961	314.31
308.191	318.31
308.421	331.31
308.651	316.31
308.881	322.31
309.111	346.31
309.341	338.31
309.571	333.31
309.8	381.31
310.03	372.31
310.26	393.31
310.49	393.31
310.72	406.31
310.949	395.31
311.179	427.31
311.409	396.31
311.639	379.31
311.868	384.31
312.098	381.31
312.328	405.31
312.557	409.31
312.787	425.31
313.017	442.31
313.246	403.31
313.476	387.31
313.706	378.31
313.935	396.31
314.165	408.31
314.394	425.31
314.624	415.31
314.853	393.31
315.083	376.31
315.312	400.31
315.542	374.31
315.771	362.31
316.001	385.31
316.23	361.31
316.46	394.31
316.689	374.31
316.919	390.31
317.148	416.31
317.377	385.31
317.607	404.31
317.836	389.31
318.065	367.31
318.295	381.31
318.524	376.31
318.753	393.31
318.983	381.31
319.212	369.31
319.441	378.31
319.67	398.31
319.9	378.31
320.129	391.31
320.358	397.31
320.587	385.31
320.816	393.31
321.046	419.31
321.275	407.31
321.504	424.31
321.733	407.31
321.962	429.31
322.191	456.31
322.42	456.31
322.649	468.31
322.878	489.31
323.108	480.31
323.337	518.31
323.566	547.31
323.795	608.31
324.024	631.31
324.253	821.31
324.482	1182.31
324.71	1843.31
324.939	2508.31
325.168	2118.31
325.397	1117.31
325.626	748.31
325.855	626.31
326.084	573.31
326.313	547.31
326.542	583.31
326.77	610.31
326.999	743.31
327.228	1080.31
327.457	1573.31
327.686	1859.31
327.914	1252.31
328.143	837.31
328.372	693.31
328.6	665.31
328.829	636.31
329.058	630.31
329.287	655.31
329.515	583.31
329.744	558.31
329.972	553.31
330.201	554.31
330.43	621.31
330.658	632.31
330.887	663.31
331.115	644.31
331.344	562.31
331.572	547.31
331.801	502.31
332.03	510.31
332.258	490.31
332.486	458.31
332.715	469.31
332.943	458.31
333.172	461.31
333.4	433.31
333.629	465.31
333.857	479.31
334.085	492.31
334.314	493.31
334.542	538.31
334.771	545.31
334.999	486.31
335.227	473.31
335.455	424.31
335.684	417.31
335.912	441.31
336.14	416.31
336.369	434.31
336.597	451.31
336.825	430.31
337.053	446.31
337.281	432.31
337.51	427.31
337.738	418.31
337.966	451.31
338.194	425.31
338.422	429.31
338.65	427.31
338.878	415.31
339.106	396.31
339.334	409.31
339.562	425.31
339.79	413.31
340.018	441.31
340.246	421.31
340.474	422.31
340.702	423.31
340.93	415.31
341.158	419.31
341.386	427.31
341.614	407.31
341.842	426.31
342.07	411.31
342.298	422.31
342.526	397.31
342.754	391.31
342.981	396.31
343.209	377.31
343.437	395.31
343.665	424.31
343.893	387.31
344.12	402.31
344.348	431.31
344.576	416.31
344.804	424.31
345.031	442.31
345.259	438.31
345.487	430.31
345.714	437.31
345.942	408.31
346.17	418.31
346.397	395.31
346.625	412.31
346.853	407.31
347.08	433.31
347.308	419.31
347.535	424.31
347.763	431.31
347.99	405.31
348.218	431.31
348.445	423.31
348.673	416.31
348.9	426.31
349.128	403.31
349.355	386.31
349.583	399.31
349.81	380.31
350.037	390.31
350.265	388.31
350.492	377.31
350.72	377.31
350.947	411.31
351.174	407.31
351.402	407.31
351.629	415.31
351.856	417.31
352.083	417.31
352.311	438.31
352.538	430.31
352.765	412.31
352.992	403.31
353.22	417.31
353.447	397.31
353.674	377.31
353.901	378.31
354.128	364.31
354.355	379.31
354.583	379.31
354.81	380.31
355.037	383.31
355.264	357.31
355.491	349.31
355.718	351.31
355.945	362.31
356.172	347.31
356.399	361.31
356.626	372.31
356.853	371.31
357.08	365.31
357.307	360.31
357.534	372.31
357.761	356.31
357.988	381.31
358.215	357.31
358.441	344.31
358.668	364.31
358.895	366.31
359.122	370.31
359.349	395.31
359.576	406.31
359.802	398.31
360.029	447.31
360.256	460.31
360.483	434.31
360.709	407.31
360.936	398.31
361.163	406.31
361.39	395.31
361.616	394.31
361.843	386.31
362.07	360.31
362.296	393.31
362.523	397.31
362.749	393.31
362.976	377.31
363.203	384.31
363.429	365.31
363.656	371.31
363.882	391.31
364.109	360.31
364.335	378.31
364.562	355.31
364.788	356.31
365.015	353.31
365.241	357.31
365.468	362.31
365.694	377.31
365.92	371.31
366.147	378.31
366.373	353.31
366.599	367.31
366.826	373.31
367.052	349.31
367.278	359.31
367.505	359.31
367.731	368.31
367.957	369.31
368.184	381.31
368.41	375.31
368.636	379.31
368.862	372.31
369.089	379.31
369.315	365.31
369.541	358.31
369.767	371.31
369.993	367.31
370.219	344.31
370.445	369.31
370.672	337.31
370.898	353.31
371.124	373.31
371.35	371.31
371.576	357.31
371.802	341.31
372.028	345.31
372.254	366.31
372.48	344.31
372.706	340.31
372.932	346.31
373.158	367.31
373.384	344.31
373.61	361.31
373.835	334.31
374.061	348.31
374.287	354.31
374.513	335.31
374.739	359.31
374.965	367.31
375.191	349.31
375.416	375.31
375.642	335.31
375.868	332.31
376.094	354.31
376.319	345.31
376.545	339.31
376.771	331.31
376.997	351.31
377.222	353.31
377.448	364.31
377.674	376.31
377.899	342.31
378.125	356.31
378.35	330.31
378.576	336.31
378.802	339.31
379.027	338.31
379.253	357.31
379.478	347.31
379.704	334.31
379.929	347.31
380.155	348.31
380.38	349.31
380.606	347.31
380.831	355.31
381.057	356.31
381.282	344.31
381.507	351.31
381.733	348.31
381.958	350.31
382.184	359.31
382.409	361.31
382.634	344.31
382.86	356.31
383.085	331.31
383.31	345.31
383.535	355.31
383.761	357.31
383.986	362.31
384.211	352.31
384.436	378.31
384.662	350.31
384.887	361.31
385.112	339.31
385.337	354.31
385.562	354.31
385.787	335.31
386.013	370.31
386.238	365.31
386.463	364.31
386.688	367.31
386.913	356.31
387.138	366.31
387.363	357.31
387.588	358.31
387.813	355.31
388.038	366.31
388.263	367.31
388.488	364.31
388.713	375.31
388.938	379.31
389.163	374.31
389.387	354.31
389.612	358.31
389.837	342.31
390.062	369.31
390.287	355.31
390.512	350.31
390.736	342.31
390.961	363.31
391.186	374.31
391.411	371.31
391.636	362.31
391.86	361.31
392.085	355.31
392.31	350.31
392.534	339.31
392.759	372.31
392.984	351.31
393.208	385.31
393.433	369.31
393.658	360.31
393.882	372.31
394.107	360.31
394.331	369.31
394.556	362.31
394.78	358.31
395.005	356.31
395.229	366.31
395.454	357.31
395.678	359.31
395.903	367.31
396.127	409.31
396.352	413.31
396.576	385.31
396.801	356.31
397.025	356.31
397.249	357.31
397.474	373.31
397.698	385.31
397.922	397.31
398.147	402.31
398.371	412.31
398.595	404.31
398.82	390.31
399.044	401.31
399.268	381.31
399.492	392.31
399.717	442.31
399.941	435.31
400.165	476.31
400.389	507.31
400.613	461.31
400.837	435.31
401.062	425.31
401.286	411.31
401.51	390.31
401.734	380.31
401.958	407.31
402.182	405.31
402.406	411.31
402.63	412.31
402.854	403.31
403.078	414.31
403.302	419.31
403.526	413.31
403.75	417.31
403.974	395.31
404.198	388.31
404.422	421.31
404.645	410.31
404.869	415.31
405.093	455.31
405.317	479.31
405.541	513.31
405.765	477.31
405.988	444.31
406.212	457.31
406.436	494.31
406.66	477.31
406.883	475.31
407.107	481.31
407.331	506.31
407.555	565.31
407.778	570.31
408.002	488.31
408.226	479.31
408.449	453.31
408.673	462.31
408.896	483.31
409.12	531.31
409.344	485.31
409.567	452.31
409.791	415.31
410.014	421.31
410.238	403.31
410.461	413.31
410.685	441.31
410.908	437.31
411.132	469.31
411.355	500.31
411.578	450.31
411.802	422.31
412.025	400.31
412.249	413.31
412.472	445.31
412.695	483.31
412.919	478.31
413.142	421.31
413.365	429.31
413.589	410.31
413.812	387.31
414.035	406.31
414.258	379.31
414.482	380.31
414.705	403.31
414.928	381.31
415.151	376.31
415.374	389.31
415.597	375.31
415.821	379.31
416.044	371.31
416.267	391.31
416.49	378.31
416.713	358.31
416.936	399.31
417.159	395.31
417.382	389.31
417.605	381.31
417.828	399.31
418.051	425.31
418.274	401.31
418.497	382.31
418.72	381.31
418.943	408.31
419.166	395.31
419.389	392.31
419.611	411.31
419.834	398.31
420.057	421.31
420.28	413.31
420.503	400.31
420.726	413.31
420.948	455.31
421.171	460.31
421.394	510.31
421.617	422.31
421.839	428.31
422.062	423.31
422.285	418.31
422.507	465.31
422.73	577.31
422.953	523.31
423.175	456.31
423.398	439.31
423.621	456.31
423.843	450.31
424.066	458.31
424.288	451.31
424.511	468.31
424.733	517.31
424.956	615.31
425.178	578.31
425.401	557.31
425.623	582.31
425.846	493.31
426.068	464.31
426.291	453.31
426.513	460.31
426.735	459.31
426.958	502.31
427.18	583.31
427.402	692.31
427.625	759.31
427.847	671.31
428.069	599.31
428.292	535.31
428.514	470.31
428.736	437.31
428.958	455.31
429.181	429.31
429.403	409.31
429.625	435.31
429.847	482.31
430.069	542.31
430.292	537.31
430.514	439.31
430.736	453.31
430.958	407.31
431.18	383.31
431.402	411.31
431.624	396.31
431.846	405.31
432.068	398.31
432.29	390.31
432.512	399.31
432.734	388.31
432.956	405.31
433.178	413.31
433.4	423.31
433.622	418.31
433.844	390.31
434.066	395.31
434.287	400.31
434.509	389.31
434.731	400.31
434.953	406.31
435.175	403.31
435.397	444.31
435.618	450.31
435.84	504.31
436.062	573.31
436.284	642.31
436.505	539.31
436.727	467.31
436.949	450.31
437.17	415.31
437.392	420.31
437.614	435.31
437.835	489.31
438.057	561.31
438.278	641.31
438.5	666.31
438.721	700.31
438.943	661.31
439.165	561.31
439.386	499.31
439.608	488.31
439.829	482.31
440.05	497.31
440.272	571.31
440.493	498.31
440.715	463.31
440.936	455.31
441.158	441.31
441.379	433.31
441.6	437.31
441.822	454.31
442.043	512.31
442.264	604.31
442.486	611.31
442.707	531.31
442.928	485.31
443.149	460.31
443.371	504.31
443.592	545.31
443.813	617.31
444.034	675.31
444.255	545.31
444.476	490.31
444.698	437.31
444.919	469.31
445.14	536.31
445.361	521.31
445.582	516.31
445.803	561.31
446.024	680.31
446.245	689.31
446.466	626.31
446.687	514.31
446.908	483.31
447.129	443.31
447.35	443.31
447.571	447.31
447.792	414.31
448.013	416.31
448.234	454.31
448.455	497.31
448.675	599.31
448.896	669.31
449.117	585.31
449.338	563.31
449.559	654.31
449.779	709.31
450	578.31
450.221	495.31
450.442	445.31
450.662	437.31
450.883	433.31
451.104	449.31
451.324	438.31
451.545	410.31
451.766	415.31
451.986	392.31
452.207	375.31
452.428	381.31
452.648	367.31
452.869	373.31
453.089	391.31
453.31	406.31
453.53	378.31
453.751	372.31
453.971	388.31
454.192	404.31
454.412	425.31
454.633	375.31
454.853	384.31
455.073	402.31
455.294	423.31
455.514	485.31
455.734	461.31
455.955	381.31
456.175	353.31
456.395	365.31
456.616	354.31
456.836	364.31
457.056	359.31
457.276	349.31
457.497	340.31
457.717	344.31
457.937	357.31
458.157	355.31
458.377	354.31
458.598	376.31
458.818	468.31
459.038	537.31
459.258	550.31
459.478	459.31
459.698	407.31
459.918	396.31
460.138	395.31
460.358	383.31
460.578	387.31
460.798	381.31
461.018	383.31
461.238	381.31
461.458	389.31
461.678	369.31
461.898	391.31
462.118	386.31
462.338	390.31
462.558	377.31
462.777	399.31
462.997	390.31
463.217	394.31
463.437	405.31
463.657	387.31
463.876	392.31
464.096	400.31
464.316	374.31
464.536	408.31
464.755	398.31
464.975	426.31
465.195	466.31
465.414	536.31
465.634	471.31
465.854	415.31
466.073	396.31
466.293	402.31
466.512	402.31
466.732	380.31
466.951	399.31
467.171	383.31
467.391	376.31
467.61	407.31
467.829	382.31
468.049	392.31
468.268	395.31
468.488	368.31
468.707	355.31
468.927	377.31
469.146	363.31
469.365	385.31
469.585	391.31
469.804	378.31
470.023	371.31
470.243	381.31
470.462	423.31
470.681	429.31
470.901	402.31
471.12	389.31
471.339	383.31
471.558	402.31
471.777	394.31
471.997	395.31
472.216	399.31
472.435	438.31
472.654	410.31
472.873	407.31
473.092	395.31
473.311	405.31
473.53	393.31
473.749	396.31
473.968	453.31
474.187	548.31
474.406	578.31
474.625	463.31
474.844	415.31
475.063	391.31
475.282	393.31
475.501	392.31
475.72	412.31
475.939	393.31
476.158	405.31
476.377	389.31
476.596	394.31
476.814	409.31
477.033	413.31
477.252	427.31
477.471	390.31
477.69	395.31
477.908	410.31
478.127	422.31
478.346	448.31
478.564	412.31
478.783	418.31
479.002	427.31
479.22	442.31
479.439	445.31
479.658	462.31
479.876	451.31
480.095	461.31
480.313	495.31
480.532	483.31
480.751	453.31
480.969	507.31
481.188	563.31
481.406	575.31
481.624	494.31
481.843	475.31
482.061	466.31
482.28	467.31
482.498	454.31
482.717	450.31
482.935	463.31
483.153	436.31
483.372	469.31
483.59	447.31
483.808	468.31
484.027	456.31
484.245	457.31
484.463	460.31
484.681	459.31
484.9	466.31
485.118	463.31
485.336	462.31
485.554	446.31
485.772	466.31
485.99	469.31
486.209	464.31
486.427	471.31
486.645	507.31
486.863	491.31
487.081	517.31
487.299	483.31
487.517	502.31
487.735	490.31
487.953	491.31
488.171	493.31
488.389	493.31
488.607	499.31
488.825	487.31
489.043	501.31
489.261	507.31
489.479	481.31
489.696	515.31
489.914	484.31
490.132	501.31
490.35	506.31
490.568	510.31
490.786	515.31
491.003	517.31
491.221	535.31
491.439	559.31
491.657	548.31
491.874	565.31
492.092	576.31
492.31	586.31
492.527	564.31
492.745	577.31
492.963	577.31
493.18	559.31
493.398	584.31
493.615	572.31
493.833	570.31
494.05	570.31
494.268	596.31
494.485	592.31
494.703	583.31
494.92	580.31
495.138	581.31
495.355	584.31
495.573	573.31
495.79	575.31
496.008	589.31
496.225	585.31
496.442	589.31
496.66	595.31
496.877	552.31
497.094	587.31
497.312	569.31
497.529	586.31
497.746	604.31
497.963	604.31
498.181	612.31
498.398	640.31
498.615	643.31
498.832	631.31
499.049	644.31
499.267	646.31
499.484	671.31
499.701	677.31
499.918	679.31
500.135	684.31
500.352	693.31
500.569	694.31
500.786	686.31
501.003	717.31
501.22	693.31
501.437	699.31
501.654	704.31
501.871	708.31
