Data from 1981.PennyLincolnUp.Lamp.En5.5.200Scan.071819.P1_HRD10591_16-42-37-961.txt Node
Date: Thu Jul 18 16:42:37 EDT 2019
User: cochatt
Spectrometer: HR+D1059
Trigger mode: 1
Integration Time (sec): 1.000000E-1
Scans to average: 1
Electric dark correction enabled: true
Nonlinearity correction enabled: false
Boxcar width: 0
XAxis mode: Wavelengths
Number of Pixels in Spectrum: 2048
>>>>>Begin Spectral Data<<<<<
223.165	-18.75
223.4	-18.75
223.635	-18.75
223.869	-18.75
224.104	-20.75
224.338	-16.75
224.573	-12.75
224.808	-5.75
225.042	-14.75
225.277	-8.75
225.511	-2.75
225.746	6.25
225.98	14.25
226.215	3.25
226.449	16.25
226.683	24.25
226.918	25.25
227.152	30.25
227.387	38.25
227.621	26.25
227.856	43.25
228.09	38.25
228.324	48.25
228.559	56.25
228.793	71.25
229.027	85.25
229.262	94.25
229.496	103.25
229.73	127.25
229.964	165.25
230.199	115.25
230.433	117.25
230.667	103.25
230.901	113.25
231.136	103.25
231.37	102.25
231.604	107.25
231.838	109.25
232.072	120.25
232.306	97.25
232.541	112.25
232.775	132.25
233.009	111.25
233.243	108.25
233.477	112.25
233.711	113.25
233.945	107.25
234.179	108.25
234.413	112.25
234.647	112.25
234.881	121.25
235.115	120.25
235.349	115.25
235.583	127.25
235.817	131.25
236.051	124.25
236.285	135.25
236.519	133.25
236.753	139.25
236.987	131.25
237.221	184.25
237.455	221.25
237.689	174.25
237.922	158.25
238.156	146.25
238.39	141.25
238.624	128.25
238.858	129.25
239.091	116.25
239.325	125.25
239.559	125.25
239.793	126.25
240.027	146.25
240.26	150.25
240.494	165.25
240.728	157.25
240.961	157.25
241.195	145.25
241.429	126.25
241.662	123.25
241.896	134.25
242.13	126.25
242.363	116.25
242.597	138.25
242.83	141.25
243.064	140.25
243.298	142.25
243.531	130.25
243.765	137.25
243.998	137.25
244.232	132.25
244.465	130.25
244.699	144.25
244.932	144.25
245.166	138.25
245.399	156.25
245.633	129.25
245.866	151.25
246.099	142.25
246.333	134.25
246.566	147.25
246.8	148.25
247.033	148.25
247.266	159.25
247.5	153.25
247.733	177.25
247.966	157.25
248.2	181.25
248.433	179.25
248.666	166.25
248.899	190.25
249.133	194.25
249.366	206.25
249.599	197.25
249.832	202.25
250.066	182.25
250.299	189.25
250.532	189.25
250.765	210.25
250.998	213.25
251.231	242.25
251.465	206.25
251.698	210.25
251.931	203.25
252.164	214.25
252.397	208.25
252.63	204.25
252.863	203.25
253.096	226.25
253.329	238.25
253.562	215.25
253.795	212.25
254.028	229.25
254.261	222.25
254.494	228.25
254.727	272.25
254.96	277.25
255.193	280.25
255.426	263.25
255.659	263.25
255.892	248.25
256.124	249.25
256.357	237.25
256.59	235.25
256.823	233.25
257.056	213.25
257.289	220.25
257.521	212.25
257.754	213.25
257.987	202.25
258.22	215.25
258.452	220.25
258.685	201.25
258.918	209.25
259.151	211.25
259.383	223.25
259.616	219.25
259.849	234.25
260.081	233.25
260.314	238.25
260.547	267.25
260.779	242.25
261.012	258.25
261.244	229.25
261.477	241.25
261.71	237.25
261.942	228.25
262.175	233.25
262.407	233.25
262.64	221.25
262.872	234.25
263.105	214.25
263.337	233.25
263.57	227.25
263.802	216.25
264.035	204.25
264.267	217.25
264.499	213.25
264.732	221.25
264.964	217.25
265.197	230.25
265.429	208.25
265.661	213.25
265.894	196.25
266.126	218.25
266.358	219.25
266.591	233.25
266.823	221.25
267.055	220.25
267.287	208.25
267.52	221.25
267.752	210.25
267.984	234.25
268.216	224.25
268.448	216.25
268.681	225.25
268.913	259.25
269.145	267.25
269.377	284.25
269.609	295.25
269.841	258.25
270.073	279.25
270.306	307.25
270.538	322.25
270.77	308.25
271.002	313.25
271.234	304.25
271.466	291.25
271.698	316.25
271.93	321.25
272.162	325.25
272.394	334.25
272.626	321.25
272.858	306.25
273.09	288.25
273.322	294.25
273.553	276.25
273.785	277.25
274.017	277.25
274.249	276.25
274.481	273.25
274.713	276.25
274.945	269.25
275.176	273.25
275.408	271.25
275.64	251.25
275.872	267.25
276.104	273.25
276.335	270.25
276.567	296.25
276.799	313.25
277.031	307.25
277.262	322.25
277.494	327.25
277.726	312.25
277.957	293.25
278.189	284.25
278.421	284.25
278.652	266.25
278.884	276.25
279.115	263.25
279.347	270.25
279.579	280.25
279.81	262.25
280.042	245.25
280.273	270.25
280.505	279.25
280.736	263.25
280.968	265.25
281.199	272.25
281.431	246.25
281.662	242.25
281.894	256.25
282.125	268.25
282.356	292.25
282.588	292.25
282.819	313.25
283.051	283.25
283.282	264.25
283.513	260.25
283.745	274.25
283.976	271.25
284.207	276.25
284.439	270.25
284.67	266.25
284.901	285.25
285.132	264.25
285.364	271.25
285.595	282.25
285.826	261.25
286.057	276.25
286.288	283.25
286.52	274.25
286.751	265.25
286.982	281.25
287.213	289.25
287.444	279.25
287.675	292.25
287.906	305.25
288.138	293.25
288.369	290.25
288.6	304.25
288.831	286.25
289.062	284.25
289.293	298.25
289.524	277.25
289.755	262.25
289.986	292.25
290.217	281.25
290.448	285.25
290.679	279.25
290.91	274.25
291.141	277.25
291.371	289.25
291.602	289.25
291.833	278.25
292.064	299.25
292.295	276.25
292.526	285.25
292.757	283.25
292.987	285.25
293.218	289.25
293.449	284.25
293.68	283.25
293.91	278.25
294.141	301.25
294.372	290.25
294.603	272.25
294.833	297.25
295.064	282.25
295.295	271.25
295.525	287.25
295.756	302.25
295.987	299.25
296.217	317.25
296.448	332.25
296.679	295.25
296.909	292.25
297.14	297.25
297.37	288.25
297.601	290.25
297.831	286.25
298.062	302.25
298.292	276.25
298.523	285.25
298.753	293.25
298.984	297.25
299.214	288.25
299.445	274.25
299.675	299.25
299.905	305.25
300.136	315.25
300.366	285.25
300.597	305.25
300.827	312.25
301.057	329.25
301.288	325.25
301.518	308.25
301.748	308.25
301.979	314.25
302.209	327.25
302.439	316.25
302.669	309.25
302.9	299.25
303.13	313.25
303.36	319.25
303.59	311.25
303.82	322.25
304.051	329.25
304.281	320.25
304.511	318.25
304.741	302.25
304.971	315.25
305.201	311.25
305.431	313.25
305.661	324.25
305.891	312.25
306.121	324.25
306.352	324.25
306.582	313.25
306.812	316.25
307.042	318.25
307.272	314.25
307.502	294.25
307.731	332.25
307.961	338.25
308.191	327.25
308.421	308.25
308.651	324.25
308.881	327.25
309.111	325.25
309.341	344.25
309.571	326.25
309.8	371.25
310.03	354.25
310.26	357.25
310.49	347.25
310.72	386.25
310.949	405.25
311.179	386.25
311.409	384.25
311.639	372.25
311.868	384.25
312.098	377.25
312.328	396.25
312.557	392.25
312.787	411.25
313.017	407.25
313.246	384.25
313.476	373.25
313.706	392.25
313.935	390.25
314.165	384.25
314.394	417.25
314.624	365.25
314.853	374.25
315.083	376.25
315.312	349.25
315.542	374.25
315.771	366.25
316.001	364.25
316.23	372.25
316.46	372.25
316.689	370.25
316.919	366.25
317.148	399.25
317.377	359.25
317.607	378.25
317.836	384.25
318.065	372.25
318.295	367.25
318.524	343.25
318.753	352.25
318.983	386.25
319.212	363.25
319.441	385.25
319.67	380.25
319.9	374.25
320.129	369.25
320.358	380.25
320.587	371.25
320.816	375.25
321.046	408.25
321.275	398.25
321.504	374.25
321.733	404.25
321.962	393.25
322.191	418.25
322.42	457.25
322.649	444.25
322.878	470.25
323.108	473.25
323.337	492.25
323.566	535.25
323.795	587.25
324.024	610.25
324.253	795.25
324.482	1130.25
324.71	1660.25
324.939	2349.25
325.168	2002.25
325.397	1038.25
325.626	738.25
325.855	604.25
326.084	525.25
326.313	526.25
326.542	527.25
326.77	568.25
326.999	684.25
327.228	966.25
327.457	1468.25
327.686	1769.25
327.914	1155.25
328.143	778.25
328.372	666.25
328.6	616.25
328.829	594.25
329.058	614.25
329.287	612.25
329.515	581.25
329.744	524.25
329.972	529.25
330.201	538.25
330.43	620.25
330.658	606.25
330.887	638.25
331.115	624.25
331.344	534.25
331.572	503.25
331.801	487.25
332.03	484.25
332.258	477.25
332.486	461.25
332.715	441.25
332.943	436.25
333.172	418.25
333.4	437.25
333.629	438.25
333.857	477.25
334.085	471.25
334.314	483.25
334.542	501.25
334.771	517.25
334.999	477.25
335.227	449.25
335.455	434.25
335.684	436.25
335.912	425.25
336.14	429.25
336.369	420.25
336.597	445.25
336.825	432.25
337.053	411.25
337.281	413.25
337.51	426.25
337.738	415.25
337.966	427.25
338.194	430.25
338.422	425.25
338.65	405.25
338.878	412.25
339.106	409.25
339.334	411.25
339.562	415.25
339.79	400.25
340.018	397.25
340.246	412.25
340.474	404.25
340.702	439.25
340.93	413.25
341.158	402.25
341.386	384.25
341.614	432.25
341.842	409.25
342.07	404.25
342.298	382.25
342.526	395.25
342.754	405.25
342.981	397.25
343.209	388.25
343.437	406.25
343.665	393.25
343.893	405.25
344.12	400.25
344.348	402.25
344.576	412.25
344.804	427.25
345.031	430.25
345.259	409.25
345.487	419.25
345.714	417.25
345.942	413.25
346.17	392.25
346.397	419.25
346.625	412.25
346.853	395.25
347.08	384.25
347.308	397.25
347.535	399.25
347.763	410.25
347.99	384.25
348.218	403.25
348.445	414.25
348.673	431.25
348.9	396.25
349.128	407.25
349.355	399.25
349.583	381.25
349.81	378.25
350.037	389.25
350.265	379.25
350.492	384.25
350.72	373.25
350.947	386.25
351.174	394.25
351.402	405.25
351.629	409.25
351.856	408.25
352.083	394.25
352.311	403.25
352.538	425.25
352.765	405.25
352.992	406.25
353.22	404.25
353.447	377.25
353.674	385.25
353.901	354.25
354.128	392.25
354.355	362.25
354.583	370.25
354.81	370.25
355.037	373.25
355.264	334.25
355.491	345.25
355.718	344.25
355.945	341.25
356.172	358.25
356.399	349.25
356.626	345.25
356.853	356.25
357.08	347.25
357.307	359.25
357.534	339.25
357.761	338.25
357.988	354.25
358.215	358.25
358.441	363.25
358.668	355.25
358.895	366.25
359.122	348.25
359.349	380.25
359.576	384.25
359.802	405.25
360.029	431.25
360.256	461.25
360.483	417.25
360.709	406.25
360.936	372.25
361.163	376.25
361.39	368.25
361.616	394.25
361.843	393.25
362.07	377.25
362.296	381.25
362.523	378.25
362.749	393.25
362.976	374.25
363.203	370.25
363.429	379.25
363.656	365.25
363.882	342.25
364.109	346.25
364.335	353.25
364.562	360.25
364.788	365.25
365.015	352.25
365.241	348.25
365.468	375.25
365.694	368.25
365.92	349.25
366.147	368.25
366.373	365.25
366.599	346.25
366.826	359.25
367.052	345.25
367.278	349.25
367.505	357.25
367.731	361.25
367.957	349.25
368.184	354.25
368.41	347.25
368.636	370.25
368.862	374.25
369.089	356.25
369.315	361.25
369.541	349.25
369.767	354.25
369.993	356.25
370.219	350.25
370.445	368.25
370.672	360.25
370.898	346.25
371.124	350.25
371.35	348.25
371.576	345.25
371.802	362.25
372.028	346.25
372.254	347.25
372.48	350.25
372.706	334.25
372.932	334.25
373.158	356.25
373.384	357.25
373.61	346.25
373.835	372.25
374.061	360.25
374.287	353.25
374.513	365.25
374.739	374.25
374.965	358.25
375.191	335.25
375.416	333.25
375.642	340.25
375.868	356.25
376.094	346.25
376.319	346.25
376.545	327.25
376.771	339.25
376.997	352.25
377.222	348.25
377.448	328.25
377.674	335.25
377.899	334.25
378.125	340.25
378.35	344.25
378.576	334.25
378.802	311.25
379.027	346.25
379.253	362.25
379.478	336.25
379.704	341.25
379.929	355.25
380.155	333.25
380.38	340.25
380.606	346.25
380.831	332.25
381.057	326.25
381.282	328.25
381.507	350.25
381.733	377.25
381.958	358.25
382.184	332.25
382.409	354.25
382.634	322.25
382.86	333.25
383.085	337.25
383.31	344.25
383.535	341.25
383.761	318.25
383.986	336.25
384.211	344.25
384.436	356.25
384.662	361.25
384.887	352.25
385.112	341.25
385.337	369.25
385.562	351.25
385.787	351.25
386.013	364.25
386.238	370.25
386.463	368.25
386.688	374.25
386.913	344.25
387.138	324.25
387.363	352.25
387.588	349.25
387.813	353.25
388.038	353.25
388.263	346.25
388.488	357.25
388.713	355.25
388.938	356.25
389.163	341.25
389.387	374.25
389.612	359.25
389.837	345.25
390.062	365.25
390.287	332.25
390.512	326.25
390.736	339.25
390.961	352.25
391.186	353.25
391.411	352.25
391.636	348.25
391.86	338.25
392.085	348.25
392.31	355.25
392.534	372.25
392.759	354.25
392.984	370.25
393.208	342.25
393.433	345.25
393.658	342.25
393.882	340.25
394.107	344.25
394.331	376.25
394.556	351.25
394.78	355.25
395.005	373.25
395.229	360.25
395.454	364.25
395.678	382.25
395.903	379.25
396.127	390.25
396.352	395.25
396.576	396.25
396.801	368.25
397.025	370.25
397.249	359.25
397.474	392.25
397.698	394.25
397.922	385.25
398.147	381.25
398.371	399.25
398.595	400.25
398.82	383.25
399.044	400.25
399.268	416.25
399.492	422.25
399.717	407.25
399.941	445.25
400.165	487.25
400.389	480.25
400.613	422.25
400.837	429.25
401.062	399.25
401.286	390.25
401.51	405.25
401.734	377.25
401.958	388.25
402.182	398.25
402.406	408.25
402.63	386.25
402.854	390.25
403.078	400.25
403.302	417.25
403.526	410.25
403.75	422.25
403.974	412.25
404.198	386.25
404.422	397.25
404.645	412.25
404.869	427.25
405.093	432.25
405.317	489.25
405.541	494.25
405.765	463.25
405.988	461.25
406.212	438.25
406.436	463.25
406.66	469.25
406.883	459.25
407.107	482.25
407.331	501.25
407.555	549.25
407.778	545.25
408.002	504.25
408.226	451.25
408.449	436.25
408.673	460.25
408.896	473.25
409.12	508.25
409.344	503.25
409.567	453.25
409.791	426.25
410.014	402.25
410.238	418.25
410.461	407.25
410.685	416.25
410.908	437.25
411.132	448.25
411.355	485.25
411.578	463.25
411.802	440.25
412.025	423.25
412.249	418.25
412.472	446.25
412.695	462.25
412.919	470.25
413.142	436.25
413.365	398.25
413.589	395.25
413.812	380.25
414.035	406.25
414.258	379.25
414.482	390.25
414.705	369.25
414.928	390.25
415.151	377.25
415.374	387.25
415.597	380.25
415.821	376.25
416.044	373.25
416.267	382.25
416.49	368.25
416.713	377.25
416.936	382.25
417.159	383.25
417.382	374.25
417.605	392.25
417.828	410.25
418.051	424.25
418.274	406.25
418.497	385.25
418.72	417.25
418.943	393.25
419.166	399.25
419.389	413.25
419.611	408.25
419.834	389.25
420.057	418.25
420.28	396.25
420.503	419.25
420.726	385.25
420.948	409.25
421.171	446.25
421.394	478.25
421.617	434.25
421.839	428.25
422.062	411.25
422.285	428.25
422.507	483.25
422.73	518.25
422.953	536.25
423.175	464.25
423.398	427.25
423.621	426.25
423.843	443.25
424.066	442.25
424.288	440.25
424.511	458.25
424.733	504.25
424.956	566.25
425.178	580.25
425.401	564.25
425.623	577.25
425.846	487.25
426.068	456.25
426.291	435.25
426.513	430.25
426.735	468.25
426.958	508.25
427.18	586.25
427.402	664.25
427.625	754.25
427.847	684.25
428.069	559.25
428.292	503.25
428.514	459.25
428.736	422.25
428.958	434.25
429.181	424.25
429.403	419.25
429.625	443.25
429.847	458.25
430.069	499.25
430.292	524.25
430.514	426.25
430.736	413.25
430.958	399.25
431.18	398.25
431.402	390.25
431.624	399.25
431.846	379.25
432.068	375.25
432.29	390.25
432.512	393.25
432.734	387.25
432.956	393.25
433.178	388.25
433.4	397.25
433.622	396.25
433.844	381.25
434.066	396.25
434.287	380.25
434.509	387.25
434.731	396.25
434.953	400.25
435.175	411.25
435.397	451.25
435.618	447.25
435.84	497.25
436.062	594.25
436.284	622.25
436.505	537.25
436.727	451.25
436.949	440.25
437.17	409.25
437.392	407.25
437.614	437.25
437.835	471.25
438.057	559.25
438.278	642.25
438.5	631.25
438.721	684.25
438.943	659.25
439.165	524.25
439.386	469.25
439.608	444.25
439.829	486.25
440.05	492.25
440.272	549.25
440.493	484.25
440.715	446.25
440.936	439.25
441.158	432.25
441.379	403.25
441.6	461.25
441.822	443.25
442.043	492.25
442.264	549.25
442.486	620.25
442.707	506.25
442.928	476.25
443.149	477.25
443.371	484.25
443.592	517.25
443.813	601.25
444.034	617.25
444.255	545.25
444.476	459.25
444.698	452.25
444.919	440.25
445.14	531.25
445.361	506.25
445.582	493.25
445.803	550.25
446.024	662.25
446.245	655.25
446.466	592.25
446.687	491.25
446.908	464.25
447.129	453.25
447.35	416.25
447.571	408.25
447.792	410.25
448.013	448.25
448.234	439.25
448.455	496.25
448.675	593.25
448.896	652.25
449.117	566.25
449.338	550.25
449.559	628.25
449.779	707.25
450	567.25
450.221	493.25
450.442	438.25
450.662	424.25
450.883	439.25
451.104	432.25
451.324	424.25
451.545	418.25
451.766	391.25
451.986	378.25
452.207	373.25
452.428	370.25
452.648	382.25
452.869	368.25
453.089	378.25
453.31	420.25
453.53	387.25
453.751	387.25
453.971	378.25
454.192	399.25
454.412	377.25
454.633	388.25
454.853	364.25
455.073	375.25
455.294	388.25
455.514	466.25
455.734	434.25
455.955	390.25
456.175	375.25
456.395	347.25
456.616	352.25
456.836	352.25
457.056	352.25
457.276	354.25
457.497	361.25
457.717	341.25
457.937	342.25
458.157	366.25
458.377	364.25
458.598	390.25
458.818	445.25
459.038	525.25
459.258	524.25
459.478	444.25
459.698	394.25
459.918	398.25
460.138	381.25
460.358	369.25
460.578	371.25
460.798	381.25
461.018	387.25
461.238	375.25
461.458	371.25
461.678	385.25
461.898	377.25
462.118	375.25
462.338	374.25
462.558	397.25
462.777	367.25
462.997	384.25
463.217	387.25
463.437	392.25
463.657	394.25
463.876	398.25
464.096	411.25
464.316	387.25
464.536	393.25
464.755	413.25
464.975	427.25
465.195	466.25
465.414	520.25
465.634	458.25
465.854	422.25
466.073	376.25
466.293	403.25
466.512	377.25
466.732	384.25
466.951	382.25
467.171	350.25
467.391	363.25
467.61	401.25
467.829	401.25
468.049	404.25
468.268	382.25
468.488	379.25
468.707	368.25
468.927	377.25
469.146	366.25
469.365	350.25
469.585	364.25
469.804	365.25
470.023	379.25
470.243	392.25
470.462	406.25
470.681	390.25
470.901	375.25
471.12	387.25
471.339	372.25
471.558	374.25
471.777	385.25
471.997	370.25
472.216	399.25
472.435	423.25
472.654	397.25
472.873	383.25
473.092	386.25
473.311	360.25
473.53	368.25
473.749	390.25
473.968	430.25
474.187	537.25
474.406	556.25
474.625	440.25
474.844	410.25
475.063	399.25
475.282	380.25
475.501	381.25
475.72	390.25
475.939	399.25
476.158	400.25
476.377	407.25
476.596	399.25
476.814	397.25
477.033	392.25
477.252	414.25
477.471	408.25
477.69	412.25
477.908	397.25
478.127	419.25
478.346	409.25
478.564	416.25
478.783	416.25
479.002	420.25
479.22	424.25
479.439	447.25
479.658	464.25
479.876	460.25
480.095	462.25
480.313	493.25
480.532	481.25
480.751	481.25
480.969	465.25
481.188	537.25
481.406	551.25
481.624	486.25
481.843	475.25
482.061	472.25
482.28	450.25
482.498	447.25
482.717	441.25
482.935	471.25
483.153	445.25
483.372	449.25
483.59	427.25
483.808	458.25
484.027	454.25
484.245	460.25
484.463	446.25
484.681	468.25
484.9	453.25
485.118	462.25
485.336	451.25
485.554	465.25
485.772	453.25
485.99	457.25
486.209	477.25
486.427	466.25
486.645	471.25
486.863	469.25
487.081	479.25
487.299	498.25
487.517	486.25
487.735	487.25
487.953	466.25
488.171	478.25
488.389	501.25
488.607	484.25
488.825	477.25
489.043	488.25
489.261	468.25
489.479	490.25
489.696	470.25
489.914	498.25
490.132	483.25
490.35	497.25
490.568	521.25
490.786	516.25
491.003	489.25
491.221	520.25
491.439	522.25
491.657	566.25
491.874	545.25
492.092	543.25
492.31	560.25
492.527	544.25
492.745	547.25
492.963	562.25
493.18	553.25
493.398	580.25
493.615	562.25
493.833	554.25
494.05	571.25
494.268	554.25
494.485	555.25
494.703	565.25
494.92	555.25
495.138	578.25
495.355	563.25
495.573	592.25
495.79	573.25
496.008	564.25
496.225	566.25
496.442	573.25
496.66	566.25
496.877	554.25
497.094	586.25
497.312	578.25
497.529	589.25
497.746	568.25
497.963	595.25
498.181	605.25
498.398	578.25
498.615	593.25
498.832	619.25
499.049	594.25
499.267	617.25
499.484	644.25
499.701	650.25
499.918	673.25
500.135	673.25
500.352	694.25
500.569	677.25
500.786	699.25
501.003	680.25
501.22	661.25
501.437	686.25
501.654	657.25
501.871	672.25
