Data from 1981.PennyLincolnUp.Lamp.En5.5.200Scan.071819.P1_HRD10591_16-41-44-960.txt Node
Date: Thu Jul 18 16:41:44 EDT 2019
User: cochatt
Spectrometer: HR+D1059
Trigger mode: 1
Integration Time (sec): 1.000000E-1
Scans to average: 1
Electric dark correction enabled: true
Nonlinearity correction enabled: false
Boxcar width: 0
XAxis mode: Wavelengths
Number of Pixels in Spectrum: 2048
>>>>>Begin Spectral Data<<<<<
223.165	-11.81
223.4	-11.81
223.635	-11.81
223.869	-9.81
224.104	-23.81
224.338	-6.81
224.573	-4.81
224.808	-17.81
225.042	-4.81
225.277	2.19
225.511	-6.81
225.746	5.19
225.98	-1.81
226.215	-6.81
226.449	7.19
226.683	23.19
226.918	25.19
227.152	32.19
227.387	38.19
227.621	44.19
227.856	33.19
228.09	39.19
228.324	47.19
228.559	60.19
228.793	78.19
229.027	94.19
229.262	85.19
229.496	119.19
229.73	121.19
229.964	140.19
230.199	133.19
230.433	123.19
230.667	121.19
230.901	111.19
231.136	109.19
231.37	108.19
231.604	107.19
231.838	120.19
232.072	115.19
232.306	102.19
232.541	104.19
232.775	110.19
233.009	125.19
233.243	106.19
233.477	117.19
233.711	115.19
233.945	123.19
234.179	120.19
234.413	113.19
234.647	121.19
234.881	120.19
235.115	101.19
235.349	120.19
235.583	112.19
235.817	125.19
236.051	129.19
236.285	125.19
236.519	121.19
236.753	129.19
236.987	141.19
237.221	186.19
237.455	222.19
237.689	195.19
237.922	158.19
238.156	140.19
238.39	140.19
238.624	138.19
238.858	128.19
239.091	120.19
239.325	132.19
239.559	129.19
239.793	131.19
240.027	139.19
240.26	151.19
240.494	149.19
240.728	145.19
240.961	168.19
241.195	143.19
241.429	133.19
241.662	135.19
241.896	131.19
242.13	153.19
242.363	133.19
242.597	141.19
242.83	137.19
243.064	140.19
243.298	135.19
243.531	141.19
243.765	153.19
243.998	137.19
244.232	144.19
244.465	171.19
244.699	141.19
244.932	144.19
245.166	144.19
245.399	149.19
245.633	164.19
245.866	151.19
246.099	139.19
246.333	146.19
246.566	133.19
246.8	152.19
247.033	159.19
247.266	154.19
247.5	159.19
247.733	175.19
247.966	180.19
248.2	177.19
248.433	184.19
248.666	181.19
248.899	189.19
249.133	195.19
249.366	199.19
249.599	204.19
249.832	179.19
250.066	191.19
250.299	181.19
250.532	206.19
250.765	213.19
250.998	229.19
251.231	220.19
251.465	207.19
251.698	200.19
251.931	214.19
252.164	205.19
252.397	200.19
252.63	195.19
252.863	213.19
253.096	213.19
253.329	229.19
253.562	239.19
253.795	221.19
254.028	221.19
254.261	230.19
254.494	228.19
254.727	260.19
254.96	281.19
255.193	276.19
255.426	273.19
255.659	252.19
255.892	245.19
256.124	237.19
256.357	238.19
256.59	224.19
256.823	214.19
257.056	208.19
257.289	203.19
257.521	215.19
257.754	225.19
257.987	227.19
258.22	213.19
258.452	200.19
258.685	203.19
258.918	208.19
259.151	225.19
259.383	241.19
259.616	245.19
259.849	220.19
260.081	231.19
260.314	274.19
260.547	251.19
260.779	271.19
261.012	239.19
261.244	220.19
261.477	229.19
261.71	239.19
261.942	235.19
262.175	245.19
262.407	234.19
262.64	223.19
262.872	212.19
263.105	215.19
263.337	222.19
263.57	212.19
263.802	217.19
264.035	212.19
264.267	210.19
264.499	221.19
264.732	210.19
264.964	207.19
265.197	212.19
265.429	215.19
265.661	212.19
265.894	207.19
266.126	225.19
266.358	221.19
266.591	214.19
266.823	220.19
267.055	219.19
267.287	238.19
267.52	246.19
267.752	220.19
267.984	216.19
268.216	237.19
268.448	217.19
268.681	249.19
268.913	253.19
269.145	259.19
269.377	285.19
269.609	256.19
269.841	277.19
270.073	288.19
270.306	270.19
270.538	326.19
270.77	311.19
271.002	309.19
271.234	310.19
271.466	311.19
271.698	320.19
271.93	331.19
272.162	326.19
272.394	314.19
272.626	309.19
272.858	291.19
273.09	307.19
273.322	271.19
273.553	269.19
273.785	278.19
274.017	271.19
274.249	282.19
274.481	271.19
274.713	270.19
274.945	272.19
275.176	267.19
275.408	252.19
275.64	259.19
275.872	267.19
276.104	261.19
276.335	255.19
276.567	281.19
276.799	302.19
277.031	313.19
277.262	301.19
277.494	308.19
277.726	298.19
277.957	285.19
278.189	286.19
278.421	263.19
278.652	266.19
278.884	259.19
279.115	284.19
279.347	259.19
279.579	259.19
279.81	270.19
280.042	266.19
280.273	267.19
280.505	277.19
280.736	269.19
280.968	264.19
281.199	248.19
281.431	261.19
281.662	262.19
281.894	265.19
282.125	281.19
282.356	297.19
282.588	300.19
282.819	307.19
283.051	272.19
283.282	272.19
283.513	268.19
283.745	281.19
283.976	279.19
284.207	280.19
284.439	287.19
284.67	283.19
284.901	289.19
285.132	272.19
285.364	260.19
285.595	260.19
285.826	269.19
286.057	284.19
286.288	284.19
286.52	263.19
286.751	277.19
286.982	281.19
287.213	256.19
287.444	248.19
287.675	284.19
287.906	288.19
288.138	298.19
288.369	302.19
288.6	296.19
288.831	300.19
289.062	297.19
289.293	271.19
289.524	259.19
289.755	275.19
289.986	261.19
290.217	300.19
290.448	290.19
290.679	273.19
290.91	291.19
291.141	270.19
291.371	266.19
291.602	262.19
291.833	265.19
292.064	277.19
292.295	271.19
292.526	277.19
292.757	267.19
292.987	292.19
293.218	279.19
293.449	271.19
293.68	291.19
293.91	279.19
294.141	266.19
294.372	286.19
294.603	265.19
294.833	292.19
295.064	265.19
295.295	287.19
295.525	288.19
295.756	288.19
295.987	308.19
296.217	324.19
296.448	318.19
296.679	305.19
296.909	299.19
297.14	293.19
297.37	265.19
297.601	287.19
297.831	297.19
298.062	293.19
298.292	277.19
298.523	295.19
298.753	268.19
298.984	290.19
299.214	298.19
299.445	300.19
299.675	304.19
299.905	297.19
300.136	285.19
300.366	303.19
300.597	299.19
300.827	291.19
301.057	323.19
301.288	343.19
301.518	312.19
301.748	301.19
301.979	323.19
302.209	313.19
302.439	316.19
302.669	307.19
302.9	320.19
303.13	307.19
303.36	323.19
303.59	310.19
303.82	322.19
304.051	323.19
304.281	304.19
304.511	304.19
304.741	321.19
304.971	311.19
305.201	299.19
305.431	300.19
305.661	317.19
305.891	317.19
306.121	303.19
306.352	313.19
306.582	337.19
306.812	337.19
307.042	315.19
307.272	315.19
307.502	313.19
307.731	323.19
307.961	309.19
308.191	312.19
308.421	341.19
308.651	335.19
308.881	325.19
309.111	332.19
309.341	345.19
309.571	325.19
309.8	347.19
310.03	362.19
310.26	362.19
310.49	385.19
310.72	379.19
310.949	401.19
311.179	402.19
311.409	378.19
311.639	383.19
311.868	384.19
312.098	375.19
312.328	371.19
312.557	383.19
312.787	413.19
313.017	404.19
313.246	392.19
313.476	373.19
313.706	381.19
313.935	384.19
314.165	369.19
314.394	406.19
314.624	413.19
314.853	384.19
315.083	387.19
315.312	387.19
315.542	365.19
315.771	363.19
316.001	367.19
316.23	355.19
316.46	350.19
316.689	357.19
316.919	391.19
317.148	373.19
317.377	391.19
317.607	399.19
317.836	375.19
318.065	362.19
318.295	375.19
318.524	357.19
318.753	384.19
318.983	373.19
319.212	371.19
319.441	404.19
319.67	395.19
319.9	362.19
320.129	385.19
320.358	382.19
320.587	387.19
320.816	391.19
321.046	410.19
321.275	378.19
321.504	422.19
321.733	406.19
321.962	401.19
322.191	412.19
322.42	428.19
322.649	457.19
322.878	456.19
323.108	480.19
323.337	500.19
323.566	513.19
323.795	549.19
324.024	605.19
324.253	746.19
324.482	1104.19
324.71	1706.19
324.939	2264.19
325.168	1965.19
325.397	1017.19
325.626	727.19
325.855	594.19
326.084	531.19
326.313	520.19
326.542	527.19
326.77	575.19
326.999	687.19
327.228	974.19
327.457	1431.19
327.686	1687.19
327.914	1141.19
328.143	751.19
328.372	657.19
328.6	621.19
328.829	600.19
329.058	611.19
329.287	569.19
329.515	578.19
329.744	542.19
329.972	525.19
330.201	516.19
330.43	556.19
330.658	603.19
330.887	618.19
331.115	615.19
331.344	523.19
331.572	520.19
331.801	501.19
332.03	476.19
332.258	458.19
332.486	428.19
332.715	401.19
332.943	425.19
333.172	435.19
333.4	427.19
333.629	445.19
333.857	446.19
334.085	463.19
334.314	474.19
334.542	503.19
334.771	469.19
334.999	465.19
335.227	451.19
335.455	447.19
335.684	411.19
335.912	424.19
336.14	399.19
336.369	401.19
336.597	426.19
336.825	428.19
337.053	416.19
337.281	424.19
337.51	409.19
337.738	427.19
337.966	409.19
338.194	411.19
338.422	414.19
338.65	427.19
338.878	427.19
339.106	392.19
339.334	409.19
339.562	383.19
339.79	407.19
340.018	416.19
340.246	394.19
340.474	397.19
340.702	413.19
340.93	407.19
341.158	399.19
341.386	404.19
341.614	401.19
341.842	400.19
342.07	399.19
342.298	370.19
342.526	396.19
342.754	400.19
342.981	380.19
343.209	387.19
343.437	387.19
343.665	394.19
343.893	389.19
344.12	404.19
344.348	413.19
344.576	396.19
344.804	422.19
345.031	419.19
345.259	446.19
345.487	427.19
345.714	403.19
345.942	394.19
346.17	409.19
346.397	383.19
346.625	407.19
346.853	377.19
347.08	383.19
347.308	397.19
347.535	403.19
347.763	414.19
347.99	409.19
348.218	387.19
348.445	415.19
348.673	390.19
348.9	403.19
349.128	372.19
349.355	368.19
349.583	383.19
349.81	360.19
350.037	381.19
350.265	383.19
350.492	401.19
350.72	383.19
350.947	371.19
351.174	412.19
351.402	399.19
351.629	389.19
351.856	383.19
352.083	406.19
352.311	401.19
352.538	408.19
352.765	408.19
352.992	394.19
353.22	384.19
353.447	387.19
353.674	375.19
353.901	385.19
354.128	374.19
354.355	374.19
354.583	363.19
354.81	374.19
355.037	360.19
355.264	352.19
355.491	355.19
355.718	338.19
355.945	352.19
356.172	336.19
356.399	334.19
356.626	347.19
356.853	345.19
357.08	358.19
357.307	359.19
357.534	341.19
357.761	337.19
357.988	348.19
358.215	342.19
358.441	362.19
358.668	367.19
358.895	339.19
359.122	370.19
359.349	379.19
359.576	388.19
359.802	397.19
360.029	427.19
360.256	442.19
360.483	412.19
360.709	402.19
360.936	396.19
361.163	397.19
361.39	396.19
361.616	379.19
361.843	376.19
362.07	379.19
362.296	393.19
362.523	372.19
362.749	385.19
362.976	379.19
363.203	349.19
363.429	374.19
363.656	370.19
363.882	351.19
364.109	353.19
364.335	353.19
364.562	360.19
364.788	355.19
365.015	360.19
365.241	359.19
365.468	367.19
365.694	364.19
365.92	351.19
366.147	359.19
366.373	366.19
366.599	349.19
366.826	357.19
367.052	358.19
367.278	348.19
367.505	362.19
367.731	363.19
367.957	331.19
368.184	343.19
368.41	368.19
368.636	353.19
368.862	387.19
369.089	374.19
369.315	334.19
369.541	361.19
369.767	355.19
369.993	343.19
370.219	385.19
370.445	355.19
370.672	347.19
370.898	329.19
371.124	365.19
371.35	340.19
371.576	355.19
371.802	345.19
372.028	344.19
372.254	333.19
372.48	341.19
372.706	339.19
372.932	366.19
373.158	335.19
373.384	352.19
373.61	342.19
373.835	344.19
374.061	348.19
374.287	350.19
374.513	352.19
374.739	357.19
374.965	371.19
375.191	352.19
375.416	354.19
375.642	333.19
375.868	338.19
376.094	329.19
376.319	333.19
376.545	350.19
376.771	321.19
376.997	331.19
377.222	323.19
377.448	310.19
377.674	322.19
377.899	357.19
378.125	337.19
378.35	328.19
378.576	336.19
378.802	340.19
379.027	328.19
379.253	345.19
379.478	328.19
379.704	316.19
379.929	349.19
380.155	347.19
380.38	334.19
380.606	327.19
380.831	335.19
381.057	331.19
381.282	335.19
381.507	335.19
381.733	332.19
381.958	359.19
382.184	334.19
382.409	340.19
382.634	324.19
382.86	343.19
383.085	345.19
383.31	340.19
383.535	335.19
383.761	346.19
383.986	334.19
384.211	331.19
384.436	353.19
384.662	347.19
384.887	330.19
385.112	351.19
385.337	339.19
385.562	349.19
385.787	354.19
386.013	353.19
386.238	365.19
386.463	360.19
386.688	339.19
386.913	359.19
387.138	375.19
387.363	335.19
387.588	349.19
387.813	353.19
388.038	340.19
388.263	366.19
388.488	360.19
388.713	353.19
388.938	352.19
389.163	360.19
389.387	349.19
389.612	349.19
389.837	355.19
390.062	332.19
390.287	360.19
390.512	340.19
390.736	359.19
390.961	352.19
391.186	373.19
391.411	366.19
391.636	348.19
391.86	342.19
392.085	357.19
392.31	326.19
392.534	343.19
392.759	343.19
392.984	350.19
393.208	327.19
393.433	336.19
393.658	344.19
393.882	331.19
394.107	338.19
394.331	368.19
394.556	358.19
394.78	341.19
395.005	364.19
395.229	355.19
395.454	376.19
395.678	376.19
395.903	372.19
396.127	392.19
396.352	384.19
396.576	366.19
396.801	359.19
397.025	352.19
397.249	371.19
397.474	379.19
397.698	368.19
397.922	376.19
398.147	371.19
398.371	383.19
398.595	378.19
398.82	384.19
399.044	391.19
399.268	398.19
399.492	405.19
399.717	420.19
399.941	444.19
400.165	459.19
400.389	496.19
400.613	447.19
400.837	396.19
401.062	393.19
401.286	403.19
401.51	393.19
401.734	408.19
401.958	403.19
402.182	397.19
402.406	392.19
402.63	405.19
402.854	394.19
403.078	393.19
403.302	383.19
403.526	400.19
403.75	401.19
403.974	393.19
404.198	398.19
404.422	399.19
404.645	415.19
404.869	419.19
405.093	451.19
405.317	481.19
405.541	493.19
405.765	457.19
405.988	421.19
406.212	433.19
406.436	454.19
406.66	443.19
406.883	451.19
407.107	462.19
407.331	480.19
407.555	537.19
407.778	521.19
408.002	492.19
408.226	474.19
408.449	451.19
408.673	464.19
408.896	479.19
409.12	487.19
409.344	475.19
409.567	438.19
409.791	419.19
410.014	386.19
410.238	390.19
410.461	416.19
410.685	406.19
410.908	421.19
411.132	475.19
411.355	470.19
411.578	444.19
411.802	411.19
412.025	399.19
412.249	411.19
412.472	433.19
412.695	442.19
412.919	437.19
413.142	409.19
413.365	393.19
413.589	373.19
413.812	370.19
414.035	379.19
414.258	349.19
414.482	381.19
414.705	384.19
414.928	391.19
415.151	360.19
415.374	383.19
415.597	364.19
415.821	387.19
416.044	389.19
416.267	397.19
416.49	366.19
416.713	371.19
416.936	381.19
417.159	381.19
417.382	377.19
417.605	386.19
417.828	402.19
418.051	396.19
418.274	416.19
418.497	377.19
418.72	391.19
418.943	386.19
419.166	409.19
419.389	393.19
419.611	400.19
419.834	398.19
420.057	397.19
420.28	401.19
420.503	416.19
420.726	393.19
420.948	416.19
421.171	469.19
421.394	491.19
421.617	433.19
421.839	414.19
422.062	407.19
422.285	441.19
422.507	487.19
422.73	540.19
422.953	514.19
423.175	446.19
423.398	421.19
423.621	413.19
423.843	409.19
424.066	437.19
424.288	436.19
424.511	458.19
424.733	519.19
424.956	565.19
425.178	547.19
425.401	535.19
425.623	563.19
425.846	481.19
426.068	461.19
426.291	453.19
426.513	471.19
426.735	457.19
426.958	477.19
427.18	573.19
427.402	656.19
427.625	723.19
427.847	641.19
428.069	561.19
428.292	505.19
428.514	455.19
428.736	445.19
428.958	439.19
429.181	419.19
429.403	404.19
429.625	431.19
429.847	472.19
430.069	504.19
430.292	483.19
430.514	419.19
430.736	408.19
430.958	405.19
431.18	379.19
431.402	381.19
431.624	373.19
431.846	387.19
432.068	364.19
432.29	385.19
432.512	397.19
432.734	386.19
432.956	380.19
433.178	389.19
433.4	396.19
433.622	380.19
433.844	373.19
434.066	375.19
434.287	373.19
434.509	373.19
434.731	380.19
434.953	399.19
435.175	408.19
435.397	441.19
435.618	456.19
435.84	494.19
436.062	563.19
436.284	603.19
436.505	532.19
436.727	440.19
436.949	433.19
437.17	406.19
437.392	413.19
437.614	444.19
437.835	475.19
438.057	526.19
438.278	629.19
438.5	603.19
438.721	681.19
438.943	649.19
439.165	505.19
439.386	459.19
439.608	478.19
439.829	480.19
440.05	506.19
440.272	525.19
440.493	486.19
440.715	437.19
440.936	426.19
441.158	443.19
441.379	413.19
441.6	411.19
441.822	440.19
442.043	499.19
442.264	537.19
442.486	609.19
442.707	521.19
442.928	465.19
443.149	482.19
443.371	519.19
443.592	536.19
443.813	577.19
444.034	630.19
444.255	517.19
444.476	451.19
444.698	464.19
444.919	445.19
445.14	559.19
445.361	517.19
445.582	483.19
445.803	557.19
446.024	621.19
446.245	647.19
446.466	601.19
446.687	499.19
446.908	457.19
447.129	431.19
447.35	427.19
447.571	406.19
447.792	411.19
448.013	421.19
448.234	439.19
448.455	467.19
448.675	587.19
448.896	690.19
449.117	563.19
449.338	578.19
449.559	606.19
449.779	696.19
450	553.19
450.221	464.19
450.442	443.19
450.662	414.19
450.883	441.19
451.104	441.19
451.324	422.19
451.545	415.19
451.766	397.19
451.986	376.19
452.207	382.19
452.428	392.19
452.648	383.19
452.869	379.19
453.089	371.19
453.31	376.19
453.53	400.19
453.751	377.19
453.971	374.19
454.192	392.19
454.412	387.19
454.633	383.19
454.853	374.19
455.073	382.19
455.294	383.19
455.514	459.19
455.734	464.19
455.955	389.19
456.175	364.19
456.395	363.19
456.616	350.19
456.836	342.19
457.056	367.19
457.276	332.19
457.497	348.19
457.717	346.19
457.937	355.19
458.157	351.19
458.377	364.19
458.598	377.19
458.818	435.19
459.038	533.19
459.258	517.19
459.478	436.19
459.698	398.19
459.918	393.19
460.138	374.19
460.358	372.19
460.578	373.19
460.798	368.19
461.018	383.19
461.238	385.19
461.458	391.19
461.678	371.19
461.898	395.19
462.118	367.19
462.338	386.19
462.558	365.19
462.777	382.19
462.997	375.19
463.217	396.19
463.437	395.19
463.657	366.19
463.876	389.19
464.096	385.19
464.316	394.19
464.536	389.19
464.755	389.19
464.975	401.19
465.195	460.19
465.414	526.19
465.634	489.19
465.854	435.19
466.073	394.19
466.293	366.19
466.512	379.19
466.732	367.19
466.951	351.19
467.171	368.19
467.391	374.19
467.61	395.19
467.829	381.19
468.049	378.19
468.268	384.19
468.488	365.19
468.707	355.19
468.927	346.19
469.146	361.19
469.365	377.19
469.585	349.19
469.804	384.19
470.023	385.19
470.243	380.19
470.462	396.19
470.681	388.19
470.901	377.19
471.12	377.19
471.339	377.19
471.558	380.19
471.777	389.19
471.997	374.19
472.216	387.19
472.435	415.19
472.654	393.19
472.873	386.19
473.092	396.19
473.311	383.19
473.53	385.19
473.749	379.19
473.968	412.19
474.187	538.19
474.406	537.19
474.625	452.19
474.844	397.19
475.063	365.19
475.282	381.19
475.501	393.19
475.72	396.19
475.939	396.19
476.158	396.19
476.377	393.19
476.596	380.19
476.814	393.19
477.033	387.19
477.252	396.19
477.471	399.19
477.69	391.19
477.908	412.19
478.127	413.19
478.346	420.19
478.564	405.19
478.783	418.19
479.002	421.19
479.22	422.19
479.439	414.19
479.658	443.19
479.876	432.19
480.095	463.19
480.313	484.19
480.532	451.19
480.751	459.19
480.969	454.19
481.188	499.19
481.406	535.19
481.624	480.19
481.843	464.19
482.061	469.19
482.28	446.19
482.498	461.19
482.717	437.19
482.935	452.19
483.153	445.19
483.372	438.19
483.59	432.19
483.808	435.19
484.027	444.19
484.245	445.19
484.463	459.19
484.681	448.19
484.9	458.19
485.118	465.19
485.336	447.19
485.554	455.19
485.772	469.19
485.99	471.19
486.209	461.19
486.427	469.19
486.645	505.19
486.863	494.19
487.081	495.19
487.299	473.19
487.517	483.19
487.735	464.19
487.953	479.19
488.171	455.19
488.389	470.19
488.607	455.19
488.825	466.19
489.043	477.19
489.261	480.19
489.479	495.19
489.696	507.19
489.914	489.19
490.132	485.19
490.35	503.19
490.568	503.19
490.786	485.19
491.003	516.19
491.221	502.19
491.439	535.19
491.657	556.19
491.874	545.19
492.092	552.19
492.31	533.19
492.527	537.19
492.745	560.19
492.963	541.19
493.18	561.19
493.398	544.19
493.615	555.19
493.833	556.19
494.05	576.19
494.268	555.19
494.485	551.19
494.703	570.19
494.92	583.19
495.138	565.19
495.355	586.19
495.573	567.19
495.79	557.19
496.008	571.19
496.225	552.19
496.442	565.19
496.66	545.19
496.877	569.19
497.094	577.19
497.312	566.19
497.529	568.19
497.746	598.19
497.963	587.19
498.181	597.19
498.398	594.19
498.615	619.19
498.832	616.19
499.049	600.19
499.267	618.19
499.484	647.19
499.701	645.19
499.918	646.19
500.135	669.19
500.352	695.19
500.569	681.19
500.786	681.19
501.003	698.19
501.22	691.19
501.437	688.19
501.654	672.19
501.871	698.19
