Data from 1981.PennyLincolnUp.Lamp.En5.5.200Scan.071819.P1_HRD10591_16-43-02-961.txt Node
Date: Thu Jul 18 16:43:02 EDT 2019
User: cochatt
Spectrometer: HR+D1059
Trigger mode: 1
Integration Time (sec): 1.000000E-1
Scans to average: 1
Electric dark correction enabled: true
Nonlinearity correction enabled: false
Boxcar width: 0
XAxis mode: Wavelengths
Number of Pixels in Spectrum: 2048
>>>>>Begin Spectral Data<<<<<
223.165	-9.31
223.4	-9.31
223.635	-9.31
223.869	-8.31
224.104	-15.31
224.338	-19.31
224.573	2.69
224.808	-7.31
225.042	-27.31
225.277	0.69
225.511	-2.31
225.746	8.69
225.98	5.69
226.215	14.69
226.449	4.69
226.683	10.69
226.918	24.69
227.152	16.69
227.387	30.69
227.621	29.69
227.856	43.69
228.09	42.69
228.324	41.69
228.559	61.69
228.793	49.69
229.027	84.69
229.262	115.69
229.496	119.69
229.73	127.69
229.964	150.69
230.199	124.69
230.433	124.69
230.667	114.69
230.901	116.69
231.136	114.69
231.37	107.69
231.604	118.69
231.838	96.69
232.072	122.69
232.306	115.69
232.541	118.69
232.775	101.69
233.009	108.69
233.243	121.69
233.477	116.69
233.711	124.69
233.945	123.69
234.179	115.69
234.413	115.69
234.647	124.69
234.881	122.69
235.115	124.69
235.349	117.69
235.583	122.69
235.817	132.69
236.051	121.69
236.285	115.69
236.519	129.69
236.753	142.69
236.987	154.69
237.221	188.69
237.455	237.69
237.689	201.69
237.922	173.69
238.156	128.69
238.39	135.69
238.624	126.69
238.858	124.69
239.091	120.69
239.325	120.69
239.559	129.69
239.793	119.69
240.027	136.69
240.26	131.69
240.494	159.69
240.728	156.69
240.961	147.69
241.195	138.69
241.429	147.69
241.662	146.69
241.896	129.69
242.13	129.69
242.363	133.69
242.597	134.69
242.83	136.69
243.064	138.69
243.298	138.69
243.531	121.69
243.765	138.69
243.998	152.69
244.232	137.69
244.465	155.69
244.699	144.69
244.932	135.69
245.166	140.69
245.399	126.69
245.633	136.69
245.866	141.69
246.099	136.69
246.333	158.69
246.566	181.69
246.8	152.69
247.033	173.69
247.266	154.69
247.5	159.69
247.733	170.69
247.966	179.69
248.2	187.69
248.433	184.69
248.666	178.69
248.899	200.69
249.133	212.69
249.366	234.69
249.599	200.69
249.832	192.69
250.066	185.69
250.299	192.69
250.532	203.69
250.765	222.69
250.998	236.69
251.231	246.69
251.465	220.69
251.698	231.69
251.931	212.69
252.164	207.69
252.397	202.69
252.63	233.69
252.863	215.69
253.096	224.69
253.329	241.69
253.562	231.69
253.795	231.69
254.028	233.69
254.261	235.69
254.494	258.69
254.727	284.69
254.96	297.69
255.193	280.69
255.426	274.69
255.659	264.69
255.892	257.69
256.124	232.69
256.357	260.69
256.59	237.69
256.823	235.69
257.056	223.69
257.289	241.69
257.521	231.69
257.754	202.69
257.987	230.69
258.22	227.69
258.452	225.69
258.685	228.69
258.918	215.69
259.151	214.69
259.383	225.69
259.616	223.69
259.849	231.69
260.081	249.69
260.314	278.69
260.547	274.69
260.779	259.69
261.012	256.69
261.244	256.69
261.477	242.69
261.71	241.69
261.942	227.69
262.175	236.69
262.407	236.69
262.64	221.69
262.872	228.69
263.105	224.69
263.337	211.69
263.57	213.69
263.802	213.69
264.035	210.69
264.267	229.69
264.499	242.69
264.732	224.69
264.964	206.69
265.197	225.69
265.429	225.69
265.661	194.69
265.894	209.69
266.126	244.69
266.358	226.69
266.591	216.69
266.823	226.69
267.055	240.69
267.287	231.69
267.52	218.69
267.752	225.69
267.984	232.69
268.216	258.69
268.448	246.69
268.681	230.69
268.913	252.69
269.145	254.69
269.377	291.69
269.609	284.69
269.841	293.69
270.073	299.69
270.306	320.69
270.538	354.69
270.77	348.69
271.002	322.69
271.234	303.69
271.466	314.69
271.698	328.69
271.93	342.69
272.162	349.69
272.394	343.69
272.626	346.69
272.858	317.69
273.09	317.69
273.322	304.69
273.553	280.69
273.785	289.69
274.017	297.69
274.249	281.69
274.481	279.69
274.713	288.69
274.945	284.69
275.176	295.69
275.408	276.69
275.64	276.69
275.872	278.69
276.104	280.69
276.335	293.69
276.567	276.69
276.799	306.69
277.031	328.69
277.262	315.69
277.494	344.69
277.726	316.69
277.957	298.69
278.189	306.69
278.421	293.69
278.652	270.69
278.884	281.69
279.115	301.69
279.347	281.69
279.579	286.69
279.81	276.69
280.042	296.69
280.273	295.69
280.505	280.69
280.736	292.69
280.968	282.69
281.199	284.69
281.431	269.69
281.662	277.69
281.894	286.69
282.125	289.69
282.356	309.69
282.588	324.69
282.819	317.69
283.051	278.69
283.282	292.69
283.513	290.69
283.745	287.69
283.976	270.69
284.207	286.69
284.439	277.69
284.67	289.69
284.901	279.69
285.132	295.69
285.364	309.69
285.595	289.69
285.826	283.69
286.057	280.69
286.288	275.69
286.52	269.69
286.751	271.69
286.982	278.69
287.213	280.69
287.444	306.69
287.675	296.69
287.906	306.69
288.138	309.69
288.369	302.69
288.6	308.69
288.831	309.69
289.062	294.69
289.293	315.69
289.524	290.69
289.755	294.69
289.986	281.69
290.217	284.69
290.448	306.69
290.679	297.69
290.91	283.69
291.141	292.69
291.371	300.69
291.602	273.69
291.833	300.69
292.064	284.69
292.295	290.69
292.526	290.69
292.757	290.69
292.987	297.69
293.218	277.69
293.449	285.69
293.68	293.69
293.91	289.69
294.141	290.69
294.372	294.69
294.603	291.69
294.833	288.69
295.064	322.69
295.295	301.69
295.525	296.69
295.756	302.69
295.987	313.69
296.217	331.69
296.448	344.69
296.679	299.69
296.909	292.69
297.14	314.69
297.37	296.69
297.601	306.69
297.831	292.69
298.062	295.69
298.292	312.69
298.523	313.69
298.753	309.69
298.984	300.69
299.214	290.69
299.445	323.69
299.675	325.69
299.905	318.69
300.136	304.69
300.366	321.69
300.597	301.69
300.827	311.69
301.057	318.69
301.288	322.69
301.518	342.69
301.748	317.69
301.979	315.69
302.209	330.69
302.439	332.69
302.669	329.69
302.9	327.69
303.13	333.69
303.36	320.69
303.59	342.69
303.82	342.69
304.051	329.69
304.281	328.69
304.511	320.69
304.741	315.69
304.971	326.69
305.201	322.69
305.431	337.69
305.661	330.69
305.891	309.69
306.121	317.69
306.352	323.69
306.582	340.69
306.812	339.69
307.042	332.69
307.272	351.69
307.502	342.69
307.731	338.69
307.961	325.69
308.191	337.69
308.421	333.69
308.651	349.69
308.881	349.69
309.111	366.69
309.341	359.69
309.571	382.69
309.8	386.69
310.03	365.69
310.26	387.69
310.49	380.69
310.72	410.69
310.949	427.69
311.179	418.69
311.409	403.69
311.639	406.69
311.868	393.69
312.098	371.69
312.328	404.69
312.557	429.69
312.787	416.69
313.017	430.69
313.246	410.69
313.476	402.69
313.706	398.69
313.935	410.69
314.165	402.69
314.394	425.69
314.624	416.69
314.853	411.69
315.083	397.69
315.312	384.69
315.542	394.69
315.771	377.69
316.001	375.69
316.23	380.69
316.46	386.69
316.689	394.69
316.919	400.69
317.148	412.69
317.377	403.69
317.607	398.69
317.836	397.69
318.065	398.69
318.295	408.69
318.524	401.69
318.753	380.69
318.983	384.69
319.212	389.69
319.441	393.69
319.67	393.69
319.9	398.69
320.129	393.69
320.358	403.69
320.587	416.69
320.816	429.69
321.046	419.69
321.275	422.69
321.504	429.69
321.733	419.69
321.962	444.69
322.191	455.69
322.42	451.69
322.649	483.69
322.878	489.69
323.108	491.69
323.337	536.69
323.566	555.69
323.795	610.69
324.024	676.69
324.253	858.69
324.482	1195.69
324.71	1887.69
324.939	2543.69
325.168	2181.69
325.397	1153.69
325.626	762.69
325.855	639.69
326.084	583.69
326.313	566.69
326.542	590.69
326.77	633.69
326.999	745.69
327.228	1079.69
327.457	1622.69
327.686	1837.69
327.914	1277.69
328.143	820.69
328.372	733.69
328.6	692.69
328.829	634.69
329.058	680.69
329.287	642.69
329.515	606.69
329.744	571.69
329.972	552.69
330.201	570.69
330.43	638.69
330.658	664.69
330.887	694.69
331.115	670.69
331.344	554.69
331.572	553.69
331.801	528.69
332.03	517.69
332.258	490.69
332.486	483.69
332.715	477.69
332.943	470.69
333.172	472.69
333.4	464.69
333.629	492.69
333.857	497.69
334.085	504.69
334.314	517.69
334.542	536.69
334.771	553.69
334.999	525.69
335.227	480.69
335.455	470.69
335.684	459.69
335.912	429.69
336.14	449.69
336.369	449.69
336.597	450.69
336.825	439.69
337.053	444.69
337.281	426.69
337.51	446.69
337.738	432.69
337.966	434.69
338.194	452.69
338.422	438.69
338.65	440.69
338.878	436.69
339.106	415.69
339.334	418.69
339.562	418.69
339.79	417.69
340.018	428.69
340.246	434.69
340.474	438.69
340.702	428.69
340.93	426.69
341.158	423.69
341.386	426.69
341.614	449.69
341.842	435.69
342.07	404.69
342.298	417.69
342.526	408.69
342.754	422.69
342.981	404.69
343.209	420.69
343.437	419.69
343.665	390.69
343.893	404.69
344.12	401.69
344.348	419.69
344.576	448.69
344.804	413.69
345.031	427.69
345.259	436.69
345.487	446.69
345.714	436.69
345.942	418.69
346.17	412.69
346.397	440.69
346.625	396.69
346.853	399.69
347.08	408.69
347.308	422.69
347.535	420.69
347.763	420.69
347.99	425.69
348.218	428.69
348.445	419.69
348.673	444.69
348.9	397.69
349.128	395.69
349.355	385.69
349.583	398.69
349.81	397.69
350.037	407.69
350.265	412.69
350.492	408.69
350.72	396.69
350.947	396.69
351.174	416.69
351.402	432.69
351.629	426.69
351.856	404.69
352.083	436.69
352.311	428.69
352.538	409.69
352.765	426.69
352.992	412.69
353.22	426.69
353.447	419.69
353.674	422.69
353.901	398.69
354.128	403.69
354.355	378.69
354.583	384.69
354.81	374.69
355.037	371.69
355.264	385.69
355.491	374.69
355.718	356.69
355.945	375.69
356.172	372.69
356.399	369.69
356.626	365.69
356.853	370.69
357.08	366.69
357.307	355.69
357.534	385.69
357.761	361.69
357.988	378.69
358.215	392.69
358.441	387.69
358.668	374.69
358.895	365.69
359.122	374.69
359.349	394.69
359.576	396.69
359.802	436.69
360.029	459.69
360.256	468.69
360.483	461.69
360.709	416.69
360.936	409.69
361.163	406.69
361.39	404.69
361.616	393.69
361.843	404.69
362.07	384.69
362.296	398.69
362.523	396.69
362.749	395.69
362.976	371.69
363.203	393.69
363.429	388.69
363.656	376.69
363.882	378.69
364.109	404.69
364.335	378.69
364.562	369.69
364.788	376.69
365.015	374.69
365.241	359.69
365.468	377.69
365.694	390.69
365.92	382.69
366.147	357.69
366.373	377.69
366.599	355.69
366.826	354.69
367.052	363.69
367.278	360.69
367.505	360.69
367.731	385.69
367.957	386.69
368.184	376.69
368.41	377.69
368.636	390.69
368.862	371.69
369.089	370.69
369.315	376.69
369.541	361.69
369.767	372.69
369.993	373.69
370.219	369.69
370.445	379.69
370.672	344.69
370.898	344.69
371.124	372.69
371.35	375.69
371.576	343.69
371.802	359.69
372.028	354.69
372.254	371.69
372.48	356.69
372.706	364.69
372.932	371.69
373.158	352.69
373.384	372.69
373.61	362.69
373.835	363.69
374.061	377.69
374.287	364.69
374.513	374.69
374.739	356.69
374.965	368.69
375.191	366.69
375.416	349.69
375.642	359.69
375.868	358.69
376.094	365.69
376.319	345.69
376.545	350.69
376.771	363.69
376.997	365.69
377.222	352.69
377.448	343.69
377.674	352.69
377.899	348.69
378.125	340.69
378.35	353.69
378.576	362.69
378.802	352.69
379.027	356.69
379.253	370.69
379.478	341.69
379.704	341.69
379.929	344.69
380.155	372.69
380.38	343.69
380.606	362.69
380.831	360.69
381.057	354.69
381.282	341.69
381.507	357.69
381.733	371.69
381.958	334.69
382.184	346.69
382.409	356.69
382.634	380.69
382.86	360.69
383.085	357.69
383.31	348.69
383.535	357.69
383.761	379.69
383.986	371.69
384.211	372.69
384.436	367.69
384.662	341.69
384.887	369.69
385.112	354.69
385.337	366.69
385.562	370.69
385.787	378.69
386.013	381.69
386.238	379.69
386.463	402.69
386.688	352.69
386.913	356.69
387.138	364.69
387.363	370.69
387.588	370.69
387.813	377.69
388.038	360.69
388.263	372.69
388.488	380.69
388.713	354.69
388.938	378.69
389.163	358.69
389.387	372.69
389.612	348.69
389.837	357.69
390.062	354.69
390.287	360.69
390.512	361.69
390.736	358.69
390.961	376.69
391.186	355.69
391.411	367.69
391.636	382.69
391.86	372.69
392.085	374.69
392.31	360.69
392.534	365.69
392.759	377.69
392.984	341.69
393.208	362.69
393.433	360.69
393.658	373.69
393.882	364.69
394.107	378.69
394.331	378.69
394.556	371.69
394.78	377.69
395.005	379.69
395.229	368.69
395.454	378.69
395.678	383.69
395.903	392.69
396.127	413.69
396.352	420.69
396.576	401.69
396.801	371.69
397.025	357.69
397.249	374.69
397.474	383.69
397.698	362.69
397.922	406.69
398.147	402.69
398.371	413.69
398.595	401.69
398.82	406.69
399.044	411.69
399.268	389.69
399.492	412.69
399.717	451.69
399.941	457.69
400.165	482.69
400.389	505.69
400.613	468.69
400.837	422.69
401.062	438.69
401.286	429.69
401.51	406.69
401.734	412.69
401.958	418.69
402.182	410.69
402.406	416.69
402.63	422.69
402.854	416.69
403.078	407.69
403.302	409.69
403.526	424.69
403.75	416.69
403.974	415.69
404.198	422.69
404.422	424.69
404.645	434.69
404.869	441.69
405.093	456.69
405.317	492.69
405.541	527.69
405.765	482.69
405.988	440.69
406.212	469.69
406.436	475.69
406.66	479.69
406.883	476.69
407.107	484.69
407.331	498.69
407.555	583.69
407.778	581.69
408.002	514.69
408.226	481.69
408.449	459.69
408.673	461.69
408.896	492.69
409.12	537.69
409.344	520.69
409.567	448.69
409.791	440.69
410.014	420.69
410.238	428.69
410.461	420.69
410.685	430.69
410.908	449.69
411.132	465.69
411.355	513.69
411.578	478.69
411.802	448.69
412.025	400.69
412.249	438.69
412.472	455.69
412.695	494.69
412.919	483.69
413.142	424.69
413.365	410.69
413.589	427.69
413.812	430.69
414.035	439.69
414.258	417.69
414.482	417.69
414.705	405.69
414.928	404.69
415.151	398.69
415.374	374.69
415.597	397.69
415.821	404.69
416.044	420.69
416.267	396.69
416.49	409.69
416.713	388.69
416.936	400.69
417.159	414.69
417.382	404.69
417.605	395.69
417.828	432.69
418.051	408.69
418.274	443.69
418.497	397.69
418.72	404.69
418.943	413.69
419.166	392.69
419.389	426.69
419.611	422.69
419.834	409.69
420.057	436.69
420.28	423.69
420.503	404.69
420.726	438.69
420.948	448.69
421.171	466.69
421.394	504.69
421.617	445.69
421.839	423.69
422.062	442.69
422.285	455.69
422.507	496.69
422.73	598.69
422.953	550.69
423.175	448.69
423.398	433.69
423.621	458.69
423.843	465.69
424.066	472.69
424.288	469.69
424.511	484.69
424.733	536.69
424.956	599.69
425.178	583.69
425.401	586.69
425.623	615.69
425.846	529.69
426.068	483.69
426.291	475.69
426.513	483.69
426.735	521.69
426.958	544.69
427.18	626.69
427.402	705.69
427.625	783.69
427.847	710.69
428.069	598.69
428.292	532.69
428.514	498.69
428.736	477.69
428.958	464.69
429.181	449.69
429.403	433.69
429.625	433.69
429.847	471.69
430.069	530.69
430.292	527.69
430.514	461.69
430.736	418.69
430.958	421.69
431.18	418.69
431.402	409.69
431.624	394.69
431.846	407.69
432.068	402.69
432.29	410.69
432.512	408.69
432.734	410.69
432.956	421.69
433.178	427.69
433.4	432.69
433.622	432.69
433.844	407.69
434.066	398.69
434.287	388.69
434.509	410.69
434.731	402.69
434.953	405.69
435.175	421.69
435.397	442.69
435.618	452.69
435.84	504.69
436.062	600.69
436.284	650.69
436.505	524.69
436.727	507.69
436.949	477.69
437.17	418.69
437.392	441.69
437.614	468.69
437.835	525.69
438.057	582.69
438.278	670.69
438.5	678.69
438.721	704.69
438.943	676.69
439.165	578.69
439.386	522.69
439.608	504.69
439.829	497.69
440.05	534.69
440.272	570.69
440.493	519.69
440.715	483.69
440.936	452.69
441.158	434.69
441.379	424.69
441.6	446.69
441.822	476.69
442.043	510.69
442.264	562.69
442.486	629.69
442.707	528.69
442.928	522.69
443.149	519.69
443.371	515.69
443.592	542.69
443.813	633.69
444.034	689.69
444.255	554.69
444.476	504.69
444.698	471.69
444.919	462.69
445.14	550.69
445.361	518.69
445.582	519.69
445.803	582.69
446.024	690.69
446.245	674.69
446.466	633.69
446.687	536.69
446.908	485.69
447.129	444.69
447.35	435.69
447.571	433.69
447.792	435.69
448.013	442.69
448.234	486.69
448.455	523.69
448.675	612.69
448.896	681.69
449.117	607.69
449.338	579.69
449.559	662.69
449.779	757.69
450	615.69
450.221	514.69
450.442	440.69
450.662	427.69
450.883	454.69
451.104	454.69
451.324	442.69
451.545	440.69
451.766	417.69
451.986	398.69
452.207	398.69
452.428	411.69
452.648	396.69
452.869	410.69
453.089	410.69
453.31	424.69
453.53	413.69
453.751	395.69
453.971	407.69
454.192	425.69
454.412	418.69
454.633	388.69
454.853	410.69
455.073	397.69
455.294	431.69
455.514	490.69
455.734	469.69
455.955	404.69
456.175	394.69
456.395	378.69
456.616	350.69
456.836	368.69
457.056	380.69
457.276	343.69
457.497	348.69
457.717	365.69
457.937	365.69
458.157	380.69
458.377	402.69
458.598	404.69
458.818	462.69
459.038	565.69
459.258	544.69
459.478	458.69
459.698	420.69
459.918	421.69
460.138	401.69
460.358	404.69
460.578	391.69
460.798	392.69
461.018	413.69
461.238	397.69
461.458	384.69
461.678	402.69
461.898	396.69
462.118	381.69
462.338	396.69
462.558	398.69
462.777	397.69
462.997	391.69
463.217	421.69
463.437	409.69
463.657	406.69
463.876	392.69
464.096	413.69
464.316	420.69
464.536	398.69
464.755	422.69
464.975	428.69
465.195	462.69
465.414	557.69
465.634	485.69
465.854	438.69
466.073	408.69
466.293	430.69
466.512	371.69
466.732	396.69
466.951	379.69
467.171	393.69
467.391	407.69
467.61	413.69
467.829	407.69
468.049	412.69
468.268	398.69
468.488	397.69
468.707	379.69
468.927	385.69
469.146	377.69
469.365	378.69
469.585	389.69
469.804	389.69
470.023	407.69
470.243	392.69
470.462	420.69
470.681	424.69
470.901	415.69
471.12	392.69
471.339	399.69
471.558	405.69
471.777	417.69
471.997	397.69
472.216	421.69
472.435	456.69
472.654	428.69
472.873	395.69
473.092	400.69
473.311	388.69
473.53	389.69
473.749	415.69
473.968	458.69
474.187	570.69
474.406	571.69
474.625	456.69
474.844	430.69
475.063	412.69
475.282	400.69
475.501	402.69
475.72	420.69
475.939	408.69
476.158	405.69
476.377	410.69
476.596	412.69
476.814	413.69
477.033	404.69
477.252	418.69
477.471	417.69
477.69	413.69
477.908	439.69
478.127	437.69
478.346	427.69
478.564	427.69
478.783	433.69
479.002	437.69
479.22	427.69
479.439	467.69
479.658	482.69
479.876	482.69
480.095	508.69
480.313	511.69
480.532	511.69
480.751	491.69
480.969	510.69
481.188	566.69
481.406	579.69
481.624	544.69
481.843	488.69
482.061	473.69
482.28	478.69
482.498	482.69
482.717	482.69
482.935	490.69
483.153	477.69
483.372	470.69
483.59	465.69
483.808	469.69
484.027	470.69
484.245	487.69
484.463	473.69
484.681	502.69
484.9	470.69
485.118	469.69
485.336	474.69
485.554	485.69
485.772	500.69
485.99	468.69
486.209	497.69
486.427	476.69
486.645	510.69
486.863	523.69
487.081	526.69
487.299	507.69
487.517	493.69
487.735	496.69
487.953	502.69
488.171	498.69
488.389	504.69
488.607	494.69
488.825	512.69
489.043	516.69
489.261	497.69
489.479	541.69
489.696	508.69
489.914	528.69
490.132	532.69
490.35	540.69
490.568	521.69
490.786	530.69
491.003	534.69
491.221	561.69
491.439	568.69
491.657	562.69
491.874	589.69
492.092	575.69
492.31	587.69
492.527	565.69
492.745	568.69
492.963	594.69
493.18	588.69
493.398	580.69
493.615	615.69
493.833	595.69
494.05	590.69
494.268	607.69
494.485	599.69
494.703	589.69
494.92	612.69
495.138	594.69
495.355	593.69
495.573	621.69
495.79	615.69
496.008	602.69
496.225	594.69
496.442	610.69
496.66	604.69
496.877	598.69
497.094	614.69
497.312	614.69
497.529	597.69
497.746	609.69
497.963	626.69
498.181	641.69
498.398	621.69
498.615	662.69
498.832	642.69
499.049	641.69
499.267	660.69
499.484	645.69
499.701	684.69
499.918	670.69
500.135	729.69
500.352	716.69
500.569	725.69
500.786	739.69
501.003	732.69
501.22	760.69
501.437	719.69
501.654	713.69
501.871	718.69
502.088	679.69
