Data from 1981.PennyLincolnUp.Lamp.En5.5.200Scan.071819.P1_HRD10591_16-40-54-959.txt Node
Date: Thu Jul 18 16:40:54 EDT 2019
User: cochatt
Spectrometer: HR+D1059
Trigger mode: 1
Integration Time (sec): 1.000000E-1
Scans to average: 1
Electric dark correction enabled: true
Nonlinearity correction enabled: false
Boxcar width: 0
XAxis mode: Wavelengths
Number of Pixels in Spectrum: 2048
>>>>>Begin Spectral Data<<<<<
223.165	-0.56
223.4	-0.56
223.635	-0.56
223.869	-22.56
224.104	-19.56
224.338	-9.56
224.573	-18.56
224.808	-10.56
225.042	0.44
225.277	-2.56
225.511	-7.56
225.746	-0.56
225.98	-0.56
226.215	14.44
226.449	6.44
226.683	15.44
226.918	23.44
227.152	32.44
227.387	30.44
227.621	37.44
227.856	30.44
228.09	31.44
228.324	46.44
228.559	50.44
228.793	62.44
229.027	103.44
229.262	90.44
229.496	115.44
229.73	117.44
229.964	136.44
230.199	115.44
230.433	118.44
230.667	109.44
230.901	106.44
231.136	93.44
231.37	107.44
231.604	127.44
231.838	97.44
232.072	104.44
232.306	94.44
232.541	103.44
232.775	113.44
233.009	117.44
233.243	116.44
233.477	113.44
233.711	109.44
233.945	103.44
234.179	118.44
234.413	126.44
234.647	88.44
234.881	123.44
235.115	123.44
235.349	119.44
235.583	116.44
235.817	117.44
236.051	115.44
236.285	115.44
236.519	126.44
236.753	129.44
236.987	138.44
237.221	169.44
237.455	212.44
237.689	187.44
237.922	135.44
238.156	130.44
238.39	130.44
238.624	123.44
238.858	116.44
239.091	120.44
239.325	111.44
239.559	125.44
239.793	122.44
240.027	127.44
240.26	129.44
240.494	135.44
240.728	143.44
240.961	144.44
241.195	143.44
241.429	123.44
241.662	136.44
241.896	122.44
242.13	129.44
242.363	130.44
242.597	162.44
242.83	142.44
243.064	131.44
243.298	133.44
243.531	123.44
243.765	128.44
243.998	146.44
244.232	141.44
244.465	133.44
244.699	154.44
244.932	146.44
245.166	131.44
245.399	139.44
245.633	143.44
245.866	140.44
246.099	137.44
246.333	147.44
246.566	146.44
246.8	136.44
247.033	147.44
247.266	147.44
247.5	162.44
247.733	175.44
247.966	169.44
248.2	169.44
248.433	168.44
248.666	189.44
248.899	188.44
249.133	181.44
249.366	193.44
249.599	205.44
249.832	187.44
250.066	182.44
250.299	186.44
250.532	193.44
250.765	188.44
250.998	212.44
251.231	220.44
251.465	199.44
251.698	205.44
251.931	196.44
252.164	188.44
252.397	175.44
252.63	195.44
252.863	206.44
253.096	210.44
253.329	212.44
253.562	222.44
253.795	217.44
254.028	217.44
254.261	206.44
254.494	237.44
254.727	234.44
254.96	278.44
255.193	277.44
255.426	245.44
255.659	235.44
255.892	241.44
256.124	223.44
256.357	226.44
256.59	238.44
256.823	215.44
257.056	200.44
257.289	209.44
257.521	195.44
257.754	222.44
257.987	217.44
258.22	204.44
258.452	194.44
258.685	213.44
258.918	204.44
259.151	207.44
259.383	218.44
259.616	217.44
259.849	213.44
260.081	228.44
260.314	253.44
260.547	277.44
260.779	232.44
261.012	223.44
261.244	214.44
261.477	233.44
261.71	220.44
261.942	228.44
262.175	220.44
262.407	216.44
262.64	218.44
262.872	202.44
263.105	226.44
263.337	205.44
263.57	211.44
263.802	228.44
264.035	213.44
264.267	204.44
264.499	190.44
264.732	210.44
264.964	219.44
265.197	210.44
265.429	214.44
265.661	219.44
265.894	230.44
266.126	207.44
266.358	222.44
266.591	193.44
266.823	218.44
267.055	226.44
267.287	222.44
267.52	204.44
267.752	245.44
267.984	223.44
268.216	201.44
268.448	223.44
268.681	219.44
268.913	239.44
269.145	230.44
269.377	263.44
269.609	289.44
269.841	262.44
270.073	249.44
270.306	281.44
270.538	307.44
270.77	293.44
271.002	288.44
271.234	275.44
271.466	289.44
271.698	295.44
271.93	298.44
272.162	300.44
272.394	322.44
272.626	300.44
272.858	271.44
273.09	274.44
273.322	279.44
273.553	263.44
273.785	271.44
274.017	263.44
274.249	282.44
274.481	269.44
274.713	241.44
274.945	243.44
275.176	253.44
275.408	253.44
275.64	253.44
275.872	263.44
276.104	269.44
276.335	245.44
276.567	263.44
276.799	279.44
277.031	282.44
277.262	301.44
277.494	317.44
277.726	280.44
277.957	294.44
278.189	273.44
278.421	264.44
278.652	257.44
278.884	289.44
279.115	245.44
279.347	266.44
279.579	243.44
279.81	276.44
280.042	271.44
280.273	255.44
280.505	261.44
280.736	259.44
280.968	239.44
281.199	249.44
281.431	265.44
281.662	252.44
281.894	267.44
282.125	266.44
282.356	270.44
282.588	298.44
282.819	309.44
283.051	274.44
283.282	251.44
283.513	266.44
283.745	252.44
283.976	269.44
284.207	279.44
284.439	278.44
284.67	258.44
284.901	243.44
285.132	275.44
285.364	265.44
285.595	275.44
285.826	250.44
286.057	269.44
286.288	247.44
286.52	289.44
286.751	269.44
286.982	268.44
287.213	277.44
287.444	278.44
287.675	280.44
287.906	286.44
288.138	279.44
288.369	289.44
288.6	301.44
288.831	284.44
289.062	277.44
289.293	269.44
289.524	268.44
289.755	297.44
289.986	283.44
290.217	273.44
290.448	275.44
290.679	261.44
290.91	263.44
291.141	275.44
291.371	277.44
291.602	278.44
291.833	280.44
292.064	296.44
292.295	274.44
292.526	277.44
292.757	272.44
292.987	268.44
293.218	286.44
293.449	249.44
293.68	267.44
293.91	286.44
294.141	269.44
294.372	275.44
294.603	292.44
294.833	285.44
295.064	277.44
295.295	274.44
295.525	283.44
295.756	289.44
295.987	295.44
296.217	309.44
296.448	310.44
296.679	305.44
296.909	291.44
297.14	271.44
297.37	291.44
297.601	264.44
297.831	261.44
298.062	297.44
298.292	293.44
298.523	279.44
298.753	285.44
298.984	294.44
299.214	294.44
299.445	295.44
299.675	293.44
299.905	302.44
300.136	274.44
300.366	287.44
300.597	285.44
300.827	286.44
301.057	303.44
301.288	311.44
301.518	309.44
301.748	306.44
301.979	289.44
302.209	287.44
302.439	309.44
302.669	302.44
302.9	297.44
303.13	309.44
303.36	314.44
303.59	294.44
303.82	323.44
304.051	331.44
304.281	312.44
304.511	287.44
304.741	309.44
304.971	292.44
305.201	305.44
305.431	307.44
305.661	302.44
305.891	306.44
306.121	299.44
306.352	316.44
306.582	309.44
306.812	330.44
307.042	313.44
307.272	292.44
307.502	314.44
307.731	341.44
307.961	316.44
308.191	311.44
308.421	307.44
308.651	306.44
308.881	323.44
309.111	340.44
309.341	335.44
309.571	328.44
309.8	343.44
310.03	349.44
310.26	359.44
310.49	369.44
310.72	371.44
310.949	377.44
311.179	397.44
311.409	371.44
311.639	362.44
311.868	373.44
312.098	365.44
312.328	376.44
312.557	383.44
312.787	401.44
313.017	382.44
313.246	380.44
313.476	361.44
313.706	359.44
313.935	373.44
314.165	387.44
314.394	377.44
314.624	383.44
314.853	355.44
315.083	345.44
315.312	351.44
315.542	345.44
315.771	353.44
316.001	322.44
316.23	354.44
316.46	341.44
316.689	350.44
316.919	369.44
317.148	361.44
317.377	363.44
317.607	373.44
317.836	374.44
318.065	369.44
318.295	346.44
318.524	359.44
318.753	343.44
318.983	381.44
319.212	354.44
319.441	357.44
319.67	373.44
319.9	375.44
320.129	350.44
320.358	377.44
320.587	369.44
320.816	365.44
321.046	381.44
321.275	371.44
321.504	382.44
321.733	373.44
321.962	381.44
322.191	418.44
322.42	407.44
322.649	428.44
322.878	439.44
323.108	435.44
323.337	477.44
323.566	485.44
323.795	500.44
324.024	566.44
324.253	693.44
324.482	1015.44
324.71	1512.44
324.939	2055.44
325.168	1758.44
325.397	941.44
325.626	641.44
325.855	553.44
326.084	495.44
326.313	490.44
326.542	485.44
326.77	529.44
326.999	628.44
327.228	885.44
327.457	1287.44
327.686	1526.44
327.914	1043.44
328.143	697.44
328.372	600.44
328.6	550.44
328.829	534.44
329.058	555.44
329.287	556.44
329.515	545.44
329.744	481.44
329.972	480.44
330.201	487.44
330.43	521.44
330.658	555.44
330.887	569.44
331.115	552.44
331.344	496.44
331.572	459.44
331.801	481.44
332.03	460.44
332.258	441.44
332.486	447.44
332.715	422.44
332.943	415.44
333.172	411.44
333.4	414.44
333.629	414.44
333.857	415.44
334.085	417.44
334.314	456.44
334.542	474.44
334.771	473.44
334.999	433.44
335.227	422.44
335.455	432.44
335.684	410.44
335.912	399.44
336.14	418.44
336.369	414.44
336.597	427.44
336.825	415.44
337.053	414.44
337.281	413.44
337.51	395.44
337.738	394.44
337.966	394.44
338.194	414.44
338.422	404.44
338.65	388.44
338.878	391.44
339.106	377.44
339.334	395.44
339.562	391.44
339.79	365.44
340.018	395.44
340.246	390.44
340.474	387.44
340.702	397.44
340.93	379.44
341.158	399.44
341.386	389.44
341.614	396.44
341.842	399.44
342.07	409.44
342.298	395.44
342.526	391.44
342.754	364.44
342.981	379.44
343.209	377.44
343.437	371.44
343.665	369.44
343.893	409.44
344.12	383.44
344.348	389.44
344.576	395.44
344.804	416.44
345.031	414.44
345.259	411.44
345.487	397.44
345.714	391.44
345.942	397.44
346.17	374.44
346.397	366.44
346.625	389.44
346.853	367.44
347.08	378.44
347.308	384.44
347.535	397.44
347.763	393.44
347.99	397.44
348.218	389.44
348.445	371.44
348.673	375.44
348.9	378.44
349.128	360.44
349.355	387.44
349.583	383.44
349.81	359.44
350.037	377.44
350.265	379.44
350.492	371.44
350.72	357.44
350.947	360.44
351.174	378.44
351.402	395.44
351.629	362.44
351.856	381.44
352.083	385.44
352.311	396.44
352.538	401.44
352.765	409.44
352.992	390.44
353.22	387.44
353.447	377.44
353.674	381.44
353.901	364.44
354.128	363.44
354.355	363.44
354.583	361.44
354.81	365.44
355.037	349.44
355.264	343.44
355.491	349.44
355.718	349.44
355.945	342.44
356.172	354.44
356.399	357.44
356.626	333.44
356.853	363.44
357.08	321.44
357.307	346.44
357.534	351.44
357.761	329.44
357.988	353.44
358.215	349.44
358.441	339.44
358.668	345.44
358.895	353.44
359.122	345.44
359.349	381.44
359.576	381.44
359.802	394.44
360.029	444.44
360.256	424.44
360.483	399.44
360.709	377.44
360.936	378.44
361.163	365.44
361.39	381.44
361.616	384.44
361.843	355.44
362.07	371.44
362.296	375.44
362.523	379.44
362.749	378.44
362.976	367.44
363.203	370.44
363.429	350.44
363.656	371.44
363.882	340.44
364.109	346.44
364.335	356.44
364.562	343.44
364.788	353.44
365.015	361.44
365.241	350.44
365.468	355.44
365.694	346.44
365.92	375.44
366.147	350.44
366.373	347.44
366.599	341.44
366.826	333.44
367.052	348.44
367.278	351.44
367.505	343.44
367.731	354.44
367.957	336.44
368.184	359.44
368.41	353.44
368.636	383.44
368.862	367.44
369.089	361.44
369.315	348.44
369.541	350.44
369.767	345.44
369.993	338.44
370.219	361.44
370.445	346.44
370.672	352.44
370.898	345.44
371.124	334.44
371.35	343.44
371.576	341.44
371.802	346.44
372.028	333.44
372.254	351.44
372.48	330.44
372.706	341.44
372.932	327.44
373.158	357.44
373.384	330.44
373.61	351.44
373.835	358.44
374.061	323.44
374.287	357.44
374.513	359.44
374.739	335.44
374.965	366.44
375.191	363.44
375.416	312.44
375.642	345.44
375.868	350.44
376.094	347.44
376.319	349.44
376.545	331.44
376.771	343.44
376.997	337.44
377.222	348.44
377.448	350.44
377.674	327.44
377.899	344.44
378.125	321.44
378.35	323.44
378.576	350.44
378.802	329.44
379.027	330.44
379.253	336.44
379.478	331.44
379.704	335.44
379.929	325.44
380.155	355.44
380.38	333.44
380.606	329.44
380.831	346.44
381.057	361.44
381.282	330.44
381.507	340.44
381.733	346.44
381.958	323.44
382.184	321.44
382.409	340.44
382.634	362.44
382.86	348.44
383.085	333.44
383.31	346.44
383.535	353.44
383.761	337.44
383.986	347.44
384.211	349.44
384.436	323.44
384.662	344.44
384.887	344.44
385.112	342.44
385.337	366.44
385.562	345.44
385.787	364.44
386.013	374.44
386.238	372.44
386.463	358.44
386.688	389.44
386.913	342.44
387.138	371.44
387.363	368.44
387.588	366.44
387.813	357.44
388.038	362.44
388.263	369.44
388.488	375.44
388.713	359.44
388.938	363.44
389.163	357.44
389.387	366.44
389.612	347.44
389.837	364.44
390.062	358.44
390.287	347.44
390.512	362.44
390.736	323.44
390.961	335.44
391.186	363.44
391.411	355.44
391.636	357.44
391.86	358.44
392.085	351.44
392.31	364.44
392.534	364.44
392.759	354.44
392.984	359.44
393.208	328.44
393.433	333.44
393.658	342.44
393.882	345.44
394.107	361.44
394.331	352.44
394.556	341.44
394.78	342.44
395.005	337.44
395.229	336.44
395.454	366.44
395.678	371.44
395.903	362.44
396.127	411.44
396.352	391.44
396.576	370.44
396.801	366.44
397.025	373.44
397.249	373.44
397.474	370.44
397.698	377.44
397.922	378.44
398.147	400.44
398.371	406.44
398.595	390.44
398.82	406.44
399.044	378.44
399.268	382.44
399.492	412.44
399.717	428.44
399.941	446.44
400.165	471.44
400.389	474.44
400.613	446.44
400.837	414.44
401.062	404.44
401.286	397.44
401.51	393.44
401.734	380.44
401.958	403.44
402.182	386.44
402.406	397.44
402.63	409.44
402.854	400.44
403.078	397.44
403.302	423.44
403.526	395.44
403.75	402.44
403.974	397.44
404.198	401.44
404.422	415.44
404.645	419.44
404.869	412.44
405.093	441.44
405.317	468.44
405.541	469.44
405.765	455.44
405.988	434.44
406.212	441.44
406.436	467.44
406.66	456.44
406.883	442.44
407.107	456.44
407.331	483.44
407.555	521.44
407.778	534.44
408.002	500.44
408.226	441.44
408.449	415.44
408.673	437.44
408.896	482.44
409.12	503.44
409.344	463.44
409.567	425.44
409.791	428.44
410.014	403.44
410.238	413.44
410.461	409.44
410.685	412.44
410.908	407.44
411.132	435.44
411.355	453.44
411.578	467.44
411.802	420.44
412.025	391.44
412.249	416.44
412.472	413.44
412.695	454.44
412.919	453.44
413.142	406.44
413.365	395.44
413.589	385.44
413.812	379.44
414.035	395.44
414.258	398.44
414.482	397.44
414.705	390.44
414.928	391.44
415.151	372.44
415.374	389.44
415.597	373.44
415.821	380.44
416.044	375.44
416.267	385.44
416.49	371.44
416.713	370.44
416.936	375.44
417.159	393.44
417.382	387.44
417.605	381.44
417.828	379.44
418.051	407.44
418.274	403.44
418.497	408.44
418.72	390.44
418.943	394.44
419.166	386.44
419.389	418.44
419.611	403.44
419.834	378.44
420.057	389.44
420.28	406.44
420.503	414.44
420.726	400.44
420.948	398.44
421.171	437.44
421.394	455.44
421.617	431.44
421.839	418.44
422.062	409.44
422.285	427.44
422.507	471.44
422.73	528.44
422.953	504.44
423.175	441.44
423.398	411.44
423.621	426.44
423.843	453.44
424.066	447.44
424.288	445.44
424.511	460.44
424.733	506.44
424.956	552.44
425.178	551.44
425.401	558.44
425.623	539.44
425.846	471.44
426.068	453.44
426.291	435.44
426.513	433.44
426.735	451.44
426.958	505.44
427.18	555.44
427.402	618.44
427.625	717.44
427.847	637.44
428.069	554.44
428.292	484.44
428.514	445.44
428.736	417.44
428.958	425.44
429.181	414.44
429.403	387.44
429.625	406.44
429.847	476.44
430.069	473.44
430.292	482.44
430.514	415.44
430.736	404.44
430.958	397.44
431.18	391.44
431.402	386.44
431.624	381.44
431.846	379.44
432.068	401.44
432.29	391.44
432.512	379.44
432.734	394.44
432.956	406.44
433.178	399.44
433.4	407.44
433.622	380.44
433.844	388.44
434.066	370.44
434.287	379.44
434.509	385.44
434.731	379.44
434.953	409.44
435.175	406.44
435.397	428.44
435.618	434.44
435.84	485.44
436.062	535.44
436.284	614.44
436.505	515.44
436.727	453.44
436.949	443.44
437.17	431.44
437.392	394.44
437.614	436.44
437.835	461.44
438.057	539.44
438.278	621.44
438.5	625.44
438.721	663.44
438.943	629.44
439.165	538.44
439.386	455.44
439.608	465.44
439.829	452.44
440.05	483.44
440.272	521.44
440.493	486.44
440.715	451.44
440.936	423.44
441.158	417.44
441.379	406.44
441.6	418.44
441.822	462.44
442.043	477.44
442.264	515.44
442.486	575.44
442.707	491.44
442.928	487.44
443.149	456.44
443.371	481.44
443.592	495.44
443.813	533.44
444.034	617.44
444.255	531.44
444.476	473.44
444.698	442.44
444.919	440.44
445.14	515.44
445.361	510.44
445.582	466.44
445.803	539.44
446.024	609.44
446.245	633.44
446.466	557.44
446.687	497.44
446.908	438.44
447.129	405.44
447.35	401.44
447.571	406.44
447.792	411.44
448.013	418.44
448.234	440.44
448.455	490.44
448.675	557.44
448.896	638.44
449.117	554.44
449.338	550.44
449.559	632.44
449.779	670.44
450	561.44
450.221	468.44
450.442	427.44
450.662	405.44
450.883	402.44
451.104	430.44
451.324	409.44
451.545	379.44
451.766	376.44
451.986	371.44
452.207	363.44
452.428	360.44
452.648	357.44
452.869	346.44
453.089	376.44
453.31	385.44
453.53	376.44
453.751	362.44
453.971	361.44
454.192	402.44
454.412	373.44
454.633	365.44
454.853	375.44
455.073	396.44
455.294	398.44
455.514	458.44
455.734	431.44
455.955	362.44
456.175	356.44
456.395	360.44
456.616	353.44
456.836	343.44
457.056	353.44
457.276	325.44
457.497	356.44
457.717	345.44
457.937	344.44
458.157	356.44
458.377	378.44
458.598	372.44
458.818	408.44
459.038	488.44
459.258	513.44
459.478	420.44
459.698	405.44
459.918	377.44
460.138	391.44
460.358	387.44
460.578	387.44
460.798	390.44
461.018	373.44
461.238	378.44
461.458	365.44
461.678	377.44
461.898	384.44
462.118	378.44
462.338	395.44
462.558	393.44
462.777	384.44
462.997	389.44
463.217	388.44
463.437	397.44
463.657	397.44
463.876	394.44
464.096	380.44
464.316	383.44
464.536	393.44
464.755	389.44
464.975	415.44
465.195	460.44
465.414	516.44
465.634	430.44
465.854	407.44
466.073	397.44
466.293	366.44
466.512	382.44
466.732	390.44
466.951	373.44
467.171	362.44
467.391	379.44
467.61	379.44
467.829	395.44
468.049	383.44
468.268	362.44
468.488	369.44
468.707	351.44
468.927	330.44
469.146	354.44
469.365	362.44
469.585	364.44
469.804	363.44
470.023	372.44
470.243	380.44
470.462	389.44
470.681	407.44
470.901	397.44
471.12	354.44
471.339	352.44
471.558	379.44
471.777	370.44
471.997	374.44
472.216	370.44
472.435	378.44
472.654	375.44
472.873	373.44
473.092	385.44
473.311	367.44
473.53	361.44
473.749	392.44
473.968	439.44
474.187	526.44
474.406	549.44
474.625	452.44
474.844	387.44
475.063	372.44
475.282	380.44
475.501	364.44
475.72	392.44
475.939	371.44
476.158	391.44
476.377	381.44
476.596	381.44
476.814	387.44
477.033	414.44
477.252	382.44
477.471	423.44
477.69	399.44
477.908	393.44
478.127	413.44
478.346	401.44
478.564	412.44
478.783	441.44
479.002	410.44
479.22	426.44
479.439	453.44
479.658	429.44
479.876	437.44
480.095	467.44
480.313	486.44
480.532	447.44
480.751	433.44
480.969	475.44
481.188	501.44
481.406	513.44
481.624	469.44
481.843	449.44
482.061	441.44
482.28	429.44
482.498	448.44
482.717	423.44
482.935	457.44
483.153	451.44
483.372	437.44
483.59	423.44
483.808	428.44
484.027	437.44
484.245	449.44
484.463	450.44
484.681	441.44
484.9	446.44
485.118	438.44
485.336	458.44
485.554	456.44
485.772	448.44
485.99	440.44
486.209	458.44
486.427	473.44
486.645	472.44
486.863	468.44
487.081	499.44
487.299	457.44
487.517	466.44
487.735	467.44
487.953	470.44
488.171	472.44
488.389	454.44
488.607	483.44
488.825	469.44
489.043	482.44
489.261	477.44
489.479	476.44
489.696	476.44
489.914	491.44
490.132	484.44
490.35	476.44
490.568	501.44
490.786	500.44
491.003	520.44
491.221	530.44
491.439	517.44
491.657	513.44
491.874	544.44
492.092	532.44
492.31	546.44
492.527	552.44
492.745	528.44
492.963	534.44
493.18	559.44
493.398	512.44
493.615	549.44
493.833	556.44
494.05	561.44
494.268	537.44
494.485	555.44
494.703	564.44
494.92	547.44
495.138	548.44
495.355	558.44
495.573	561.44
495.79	593.44
496.008	546.44
496.225	557.44
496.442	561.44
496.66	567.44
496.877	553.44
497.094	549.44
497.312	557.44
497.529	578.44
497.746	608.44
497.963	595.44
498.181	604.44
498.398	613.44
498.615	621.44
498.832	599.44
499.049	599.44
499.267	629.44
499.484	629.44
499.701	646.44
499.918	651.44
500.135	662.44
500.352	684.44
500.569	722.44
500.786	697.44
501.003	717.44
501.22	697.44
501.437	681.44
501.654	665.44
501.871	681.44
502.088	649.44
