Data from 1981.PennyLincolnUp.Lamp.En5.5.200Scan.071819.P1_HRD10591_16-41-24-959.txt Node
Date: Thu Jul 18 16:41:24 EDT 2019
User: cochatt
Spectrometer: HR+D1059
Trigger mode: 1
Integration Time (sec): 1.000000E-1
Scans to average: 1
Electric dark correction enabled: true
Nonlinearity correction enabled: false
Boxcar width: 0
XAxis mode: Wavelengths
Number of Pixels in Spectrum: 2048
>>>>>Begin Spectral Data<<<<<
223.165	-22.62
223.4	-22.62
223.635	-22.62
223.869	-8.62
224.104	-27.62
224.338	-19.62
224.573	-12.62
224.808	-8.62
225.042	-18.62
225.277	7.38
225.511	1.38
225.746	1.38
225.98	4.38
226.215	7.38
226.449	9.38
226.683	15.38
226.918	34.38
227.152	37.38
227.387	23.38
227.621	36.38
227.856	42.38
228.09	39.38
228.324	38.38
228.559	56.38
228.793	65.38
229.027	90.38
229.262	115.38
229.496	115.38
229.73	125.38
229.964	150.38
230.199	129.38
230.433	123.38
230.667	98.38
230.901	122.38
231.136	100.38
231.37	108.38
231.604	114.38
231.838	118.38
232.072	106.38
232.306	102.38
232.541	100.38
232.775	125.38
233.009	102.38
233.243	114.38
233.477	109.38
233.711	121.38
233.945	109.38
234.179	124.38
234.413	124.38
234.647	124.38
234.881	121.38
235.115	106.38
235.349	124.38
235.583	116.38
235.817	134.38
236.051	135.38
236.285	126.38
236.519	114.38
236.753	123.38
236.987	149.38
237.221	180.38
237.455	238.38
237.689	190.38
237.922	154.38
238.156	136.38
238.39	118.38
238.624	133.38
238.858	122.38
239.091	126.38
239.325	130.38
239.559	108.38
239.793	128.38
240.027	138.38
240.26	125.38
240.494	157.38
240.728	168.38
240.961	136.38
241.195	144.38
241.429	143.38
241.662	124.38
241.896	143.38
242.13	118.38
242.363	119.38
242.597	132.38
242.83	134.38
243.064	126.38
243.298	134.38
243.531	130.38
243.765	123.38
243.998	140.38
244.232	122.38
244.465	133.38
244.699	135.38
244.932	125.38
245.166	137.38
245.399	138.38
245.633	139.38
245.866	155.38
246.099	142.38
246.333	131.38
246.566	145.38
246.8	165.38
247.033	175.38
247.266	174.38
247.5	157.38
247.733	148.38
247.966	161.38
248.2	174.38
248.433	161.38
248.666	149.38
248.899	170.38
249.133	190.38
249.366	223.38
249.599	193.38
249.832	177.38
250.066	201.38
250.299	181.38
250.532	189.38
250.765	208.38
250.998	206.38
251.231	217.38
251.465	208.38
251.698	217.38
251.931	210.38
252.164	199.38
252.397	193.38
252.63	209.38
252.863	210.38
253.096	217.38
253.329	235.38
253.562	223.38
253.795	216.38
254.028	229.38
254.261	230.38
254.494	249.38
254.727	255.38
254.96	293.38
255.193	257.38
255.426	237.38
255.659	229.38
255.892	246.38
256.124	239.38
256.357	236.38
256.59	222.38
256.823	239.38
257.056	216.38
257.289	217.38
257.521	233.38
257.754	216.38
257.987	221.38
258.22	212.38
258.452	206.38
258.685	210.38
258.918	218.38
259.151	206.38
259.383	224.38
259.616	222.38
259.849	238.38
260.081	243.38
260.314	256.38
260.547	247.38
260.779	253.38
261.012	255.38
261.244	221.38
261.477	243.38
261.71	220.38
261.942	221.38
262.175	242.38
262.407	221.38
262.64	208.38
262.872	204.38
263.105	210.38
263.337	214.38
263.57	206.38
263.802	218.38
264.035	213.38
264.267	215.38
264.499	212.38
264.732	202.38
264.964	212.38
265.197	204.38
265.429	226.38
265.661	209.38
265.894	216.38
266.126	222.38
266.358	205.38
266.591	226.38
266.823	226.38
267.055	236.38
267.287	241.38
267.52	234.38
267.752	217.38
267.984	205.38
268.216	234.38
268.448	224.38
268.681	220.38
268.913	265.38
269.145	269.38
269.377	278.38
269.609	265.38
269.841	249.38
270.073	263.38
270.306	272.38
270.538	311.38
270.77	303.38
271.002	315.38
271.234	290.38
271.466	302.38
271.698	321.38
271.93	324.38
272.162	313.38
272.394	331.38
272.626	308.38
272.858	278.38
273.09	288.38
273.322	265.38
273.553	280.38
273.785	262.38
274.017	270.38
274.249	269.38
274.481	298.38
274.713	249.38
274.945	283.38
275.176	264.38
275.408	262.38
275.64	251.38
275.872	279.38
276.104	284.38
276.335	278.38
276.567	278.38
276.799	282.38
277.031	296.38
277.262	315.38
277.494	309.38
277.726	309.38
277.957	298.38
278.189	275.38
278.421	277.38
278.652	268.38
278.884	273.38
279.115	249.38
279.347	262.38
279.579	271.38
279.81	276.38
280.042	267.38
280.273	255.38
280.505	245.38
280.736	251.38
280.968	279.38
281.199	262.38
281.431	268.38
281.662	254.38
281.894	276.38
282.125	269.38
282.356	301.38
282.588	302.38
282.819	308.38
283.051	282.38
283.282	286.38
283.513	264.38
283.745	282.38
283.976	271.38
284.207	291.38
284.439	281.38
284.67	270.38
284.901	273.38
285.132	288.38
285.364	262.38
285.595	271.38
285.826	244.38
286.057	259.38
286.288	266.38
286.52	278.38
286.751	249.38
286.982	272.38
287.213	255.38
287.444	269.38
287.675	278.38
287.906	296.38
288.138	281.38
288.369	294.38
288.6	283.38
288.831	302.38
289.062	312.38
289.293	286.38
289.524	283.38
289.755	270.38
289.986	265.38
290.217	293.38
290.448	274.38
290.679	277.38
290.91	267.38
291.141	285.38
291.371	265.38
291.602	271.38
291.833	278.38
292.064	286.38
292.295	263.38
292.526	280.38
292.757	268.38
292.987	280.38
293.218	262.38
293.449	283.38
293.68	282.38
293.91	296.38
294.141	281.38
294.372	275.38
294.603	271.38
294.833	259.38
295.064	292.38
295.295	285.38
295.525	272.38
295.756	301.38
295.987	283.38
296.217	323.38
296.448	325.38
296.679	280.38
296.909	272.38
297.14	276.38
297.37	276.38
297.601	290.38
297.831	290.38
298.062	279.38
298.292	284.38
298.523	288.38
298.753	302.38
298.984	286.38
299.214	269.38
299.445	295.38
299.675	305.38
299.905	299.38
300.136	309.38
300.366	307.38
300.597	313.38
300.827	302.38
301.057	303.38
301.288	323.38
301.518	313.38
301.748	295.38
301.979	317.38
302.209	303.38
302.439	326.38
302.669	315.38
302.9	331.38
303.13	312.38
303.36	301.38
303.59	317.38
303.82	309.38
304.051	330.38
304.281	294.38
304.511	314.38
304.741	311.38
304.971	317.38
305.201	315.38
305.431	319.38
305.661	316.38
305.891	335.38
306.121	310.38
306.352	326.38
306.582	322.38
306.812	314.38
307.042	289.38
307.272	322.38
307.502	316.38
307.731	316.38
307.961	317.38
308.191	308.38
308.421	321.38
308.651	326.38
308.881	300.38
309.111	335.38
309.341	340.38
309.571	333.38
309.8	359.38
310.03	366.38
310.26	366.38
310.49	349.38
310.72	382.38
310.949	385.38
311.179	374.38
311.409	397.38
311.639	374.38
311.868	377.38
312.098	383.38
312.328	387.38
312.557	399.38
312.787	430.38
313.017	406.38
313.246	380.38
313.476	379.38
313.706	381.38
313.935	375.38
314.165	383.38
314.394	371.38
314.624	381.38
314.853	358.38
315.083	377.38
315.312	361.38
315.542	363.38
315.771	341.38
316.001	366.38
316.23	366.38
316.46	369.38
316.689	367.38
316.919	371.38
317.148	372.38
317.377	369.38
317.607	379.38
317.836	379.38
318.065	357.38
318.295	373.38
318.524	357.38
318.753	346.38
318.983	371.38
319.212	348.38
319.441	375.38
319.67	383.38
319.9	382.38
320.129	365.38
320.358	368.38
320.587	389.38
320.816	375.38
321.046	410.38
321.275	393.38
321.504	403.38
321.733	407.38
321.962	397.38
322.191	412.38
322.42	442.38
322.649	437.38
322.878	470.38
323.108	482.38
323.337	469.38
323.566	548.38
323.795	573.38
324.024	629.38
324.253	757.38
324.482	1099.38
324.71	1619.38
324.939	2221.38
325.168	1862.38
325.397	1025.38
325.626	724.38
325.855	585.38
326.084	524.38
326.313	535.38
326.542	546.38
326.77	601.38
326.999	697.38
327.228	964.38
327.457	1385.38
327.686	1647.38
327.914	1107.38
328.143	757.38
328.372	659.38
328.6	616.38
328.829	601.38
329.058	605.38
329.287	590.38
329.515	541.38
329.744	523.38
329.972	493.38
330.201	536.38
330.43	558.38
330.658	581.38
330.887	631.38
331.115	597.38
331.344	523.38
331.572	505.38
331.801	482.38
332.03	467.38
332.258	474.38
332.486	462.38
332.715	435.38
332.943	426.38
333.172	424.38
333.4	439.38
333.629	449.38
333.857	454.38
334.085	453.38
334.314	465.38
334.542	468.38
334.771	490.38
334.999	443.38
335.227	447.38
335.455	440.38
335.684	413.38
335.912	422.38
336.14	432.38
336.369	411.38
336.597	428.38
336.825	434.38
337.053	446.38
337.281	417.38
337.51	423.38
337.738	417.38
337.966	401.38
338.194	411.38
338.422	416.38
338.65	397.38
338.878	414.38
339.106	422.38
339.334	415.38
339.562	417.38
339.79	407.38
340.018	407.38
340.246	409.38
340.474	418.38
340.702	417.38
340.93	393.38
341.158	383.38
341.386	418.38
341.614	407.38
341.842	410.38
342.07	406.38
342.298	407.38
342.526	387.38
342.754	366.38
342.981	393.38
343.209	380.38
343.437	414.38
343.665	379.38
343.893	383.38
344.12	400.38
344.348	390.38
344.576	412.38
344.804	405.38
345.031	393.38
345.259	431.38
345.487	415.38
345.714	425.38
345.942	408.38
346.17	419.38
346.397	399.38
346.625	411.38
346.853	382.38
347.08	401.38
347.308	410.38
347.535	411.38
347.763	414.38
347.99	403.38
348.218	390.38
348.445	398.38
348.673	394.38
348.9	384.38
349.128	376.38
349.355	377.38
349.583	377.38
349.81	394.38
350.037	361.38
350.265	352.38
350.492	378.38
350.72	381.38
350.947	398.38
351.174	397.38
351.402	399.38
351.629	398.38
351.856	383.38
352.083	421.38
352.311	412.38
352.538	416.38
352.765	414.38
352.992	390.38
353.22	401.38
353.447	411.38
353.674	381.38
353.901	377.38
354.128	345.38
354.355	364.38
354.583	363.38
354.81	354.38
355.037	355.38
355.264	350.38
355.491	347.38
355.718	338.38
355.945	355.38
356.172	346.38
356.399	335.38
356.626	363.38
356.853	341.38
357.08	360.38
357.307	362.38
357.534	357.38
357.761	361.38
357.988	366.38
358.215	355.38
358.441	347.38
358.668	373.38
358.895	353.38
359.122	364.38
359.349	373.38
359.576	395.38
359.802	409.38
360.029	444.38
360.256	456.38
360.483	415.38
360.709	389.38
360.936	398.38
361.163	381.38
361.39	393.38
361.616	370.38
361.843	391.38
362.07	387.38
362.296	376.38
362.523	367.38
362.749	377.38
362.976	363.38
363.203	369.38
363.429	366.38
363.656	379.38
363.882	371.38
364.109	370.38
364.335	364.38
364.562	343.38
364.788	380.38
365.015	341.38
365.241	359.38
365.468	371.38
365.694	374.38
365.92	359.38
366.147	355.38
366.373	354.38
366.599	363.38
366.826	333.38
367.052	346.38
367.278	357.38
367.505	359.38
367.731	369.38
367.957	370.38
368.184	345.38
368.41	358.38
368.636	354.38
368.862	373.38
369.089	356.38
369.315	357.38
369.541	353.38
369.767	330.38
369.993	355.38
370.219	333.38
370.445	355.38
370.672	350.38
370.898	341.38
371.124	345.38
371.35	346.38
371.576	347.38
371.802	341.38
372.028	362.38
372.254	357.38
372.48	333.38
372.706	345.38
372.932	369.38
373.158	348.38
373.384	347.38
373.61	343.38
373.835	363.38
374.061	345.38
374.287	322.38
374.513	344.38
374.739	351.38
374.965	346.38
375.191	353.38
375.416	334.38
375.642	337.38
375.868	344.38
376.094	340.38
376.319	370.38
376.545	349.38
376.771	343.38
376.997	346.38
377.222	359.38
377.448	334.38
377.674	338.38
377.899	339.38
378.125	329.38
378.35	341.38
378.576	325.38
378.802	318.38
379.027	339.38
379.253	346.38
379.478	334.38
379.704	328.38
379.929	332.38
380.155	329.38
380.38	332.38
380.606	333.38
380.831	329.38
381.057	333.38
381.282	337.38
381.507	349.38
381.733	326.38
381.958	331.38
382.184	342.38
382.409	339.38
382.634	346.38
382.86	345.38
383.085	342.38
383.31	345.38
383.535	363.38
383.761	339.38
383.986	341.38
384.211	351.38
384.436	334.38
384.662	365.38
384.887	359.38
385.112	341.38
385.337	350.38
385.562	364.38
385.787	341.38
386.013	357.38
386.238	379.38
386.463	327.38
386.688	365.38
386.913	349.38
387.138	346.38
387.363	362.38
387.588	368.38
387.813	361.38
388.038	343.38
388.263	345.38
388.488	351.38
388.713	377.38
388.938	342.38
389.163	349.38
389.387	347.38
389.612	350.38
389.837	362.38
390.062	372.38
390.287	335.38
390.512	339.38
390.736	352.38
390.961	339.38
391.186	369.38
391.411	366.38
391.636	355.38
391.86	344.38
392.085	357.38
392.31	349.38
392.534	365.38
392.759	361.38
392.984	335.38
393.208	343.38
393.433	344.38
393.658	367.38
393.882	351.38
394.107	338.38
394.331	357.38
394.556	335.38
394.78	351.38
395.005	357.38
395.229	362.38
395.454	356.38
395.678	358.38
395.903	402.38
396.127	384.38
396.352	379.38
396.576	357.38
396.801	372.38
397.025	348.38
397.249	363.38
397.474	383.38
397.698	373.38
397.922	372.38
398.147	399.38
398.371	400.38
398.595	400.38
398.82	384.38
399.044	382.38
399.268	411.38
399.492	421.38
399.717	431.38
399.941	447.38
400.165	451.38
400.389	494.38
400.613	427.38
400.837	410.38
401.062	430.38
401.286	395.38
401.51	400.38
401.734	387.38
401.958	388.38
402.182	407.38
402.406	415.38
402.63	413.38
402.854	403.38
403.078	393.38
403.302	401.38
403.526	422.38
403.75	416.38
403.974	413.38
404.198	406.38
404.422	400.38
404.645	410.38
404.869	431.38
405.093	448.38
405.317	485.38
405.541	502.38
405.765	451.38
405.988	476.38
406.212	440.38
406.436	444.38
406.66	444.38
406.883	456.38
407.107	454.38
407.331	493.38
407.555	521.38
407.778	525.38
408.002	503.38
408.226	440.38
408.449	441.38
408.673	452.38
408.896	493.38
409.12	505.38
409.344	479.38
409.567	405.38
409.791	415.38
410.014	408.38
410.238	409.38
410.461	420.38
410.685	392.38
410.908	427.38
411.132	467.38
411.355	476.38
411.578	473.38
411.802	419.38
412.025	409.38
412.249	410.38
412.472	433.38
412.695	433.38
412.919	456.38
413.142	419.38
413.365	401.38
413.589	383.38
413.812	383.38
414.035	378.38
414.258	384.38
414.482	376.38
414.705	377.38
414.928	382.38
415.151	375.38
415.374	369.38
415.597	385.38
415.821	372.38
416.044	357.38
416.267	391.38
416.49	389.38
416.713	386.38
416.936	375.38
417.159	381.38
417.382	392.38
417.605	387.38
417.828	394.38
418.051	401.38
418.274	403.38
418.497	373.38
418.72	392.38
418.943	387.38
419.166	388.38
419.389	392.38
419.611	402.38
419.834	390.38
420.057	385.38
420.28	417.38
420.503	425.38
420.726	405.38
420.948	420.38
421.171	451.38
421.394	480.38
421.617	423.38
421.839	427.38
422.062	405.38
422.285	395.38
422.507	477.38
422.73	520.38
422.953	511.38
423.175	453.38
423.398	433.38
423.621	414.38
423.843	426.38
424.066	453.38
424.288	455.38
424.511	461.38
424.733	506.38
424.956	568.38
425.178	560.38
425.401	549.38
425.623	571.38
425.846	501.38
426.068	445.38
426.291	438.38
426.513	440.38
426.735	462.38
426.958	516.38
427.18	595.38
427.402	644.38
427.625	746.38
427.847	653.38
428.069	552.38
428.292	506.38
428.514	457.38
428.736	460.38
428.958	423.38
429.181	409.38
429.403	419.38
429.625	419.38
429.847	461.38
430.069	509.38
430.292	521.38
430.514	451.38
430.736	405.38
430.958	406.38
431.18	382.38
431.402	400.38
431.624	385.38
431.846	374.38
432.068	379.38
432.29	394.38
432.512	378.38
432.734	405.38
432.956	380.38
433.178	414.38
433.4	410.38
433.622	401.38
433.844	368.38
434.066	372.38
434.287	385.38
434.509	385.38
434.731	380.38
434.953	404.38
435.175	420.38
435.397	446.38
435.618	437.38
435.84	481.38
436.062	571.38
436.284	631.38
436.505	515.38
436.727	475.38
436.949	441.38
437.17	422.38
437.392	420.38
437.614	431.38
437.835	456.38
438.057	541.38
438.278	628.38
438.5	627.38
438.721	672.38
438.943	662.38
439.165	515.38
439.386	486.38
439.608	459.38
439.829	473.38
440.05	485.38
440.272	534.38
440.493	499.38
440.715	471.38
440.936	448.38
441.158	423.38
441.379	399.38
441.6	407.38
441.822	453.38
442.043	457.38
442.264	554.38
442.486	591.38
442.707	499.38
442.928	453.38
443.149	443.38
443.371	494.38
443.592	517.38
443.813	595.38
444.034	649.38
444.255	515.38
444.476	458.38
444.698	453.38
444.919	453.38
445.14	600.38
445.361	514.38
445.582	463.38
445.803	545.38
446.024	637.38
446.245	645.38
446.466	590.38
446.687	493.38
446.908	445.38
447.129	434.38
447.35	425.38
447.571	407.38
447.792	405.38
448.013	433.38
448.234	446.38
448.455	481.38
448.675	591.38
448.896	663.38
449.117	584.38
449.338	537.38
449.559	645.38
449.779	711.38
450	572.38
450.221	472.38
450.442	424.38
450.662	385.38
450.883	435.38
451.104	473.38
451.324	425.38
451.545	408.38
451.766	382.38
451.986	373.38
452.207	357.38
452.428	370.38
452.648	389.38
452.869	352.38
453.089	395.38
453.31	398.38
453.53	374.38
453.751	371.38
453.971	387.38
454.192	397.38
454.412	396.38
454.633	370.38
454.853	385.38
455.073	392.38
455.294	399.38
455.514	468.38
455.734	453.38
455.955	384.38
456.175	369.38
456.395	352.38
456.616	350.38
456.836	338.38
457.056	345.38
457.276	345.38
457.497	354.38
457.717	336.38
457.937	381.38
458.157	362.38
458.377	364.38
458.598	389.38
458.818	430.38
459.038	512.38
459.258	533.38
459.478	450.38
459.698	387.38
459.918	402.38
460.138	379.38
460.358	386.38
460.578	381.38
460.798	387.38
461.018	389.38
461.238	393.38
461.458	378.38
461.678	382.38
461.898	390.38
462.118	377.38
462.338	375.38
462.558	381.38
462.777	372.38
462.997	392.38
463.217	387.38
463.437	405.38
463.657	395.38
463.876	397.38
464.096	418.38
464.316	405.38
464.536	395.38
464.755	417.38
464.975	408.38
465.195	471.38
465.414	549.38
465.634	453.38
465.854	425.38
466.073	382.38
466.293	387.38
466.512	386.38
466.732	360.38
466.951	351.38
467.171	358.38
467.391	373.38
467.61	382.38
467.829	395.38
468.049	381.38
468.268	378.38
468.488	366.38
468.707	361.38
468.927	355.38
469.146	367.38
469.365	356.38
469.585	363.38
469.804	372.38
470.023	391.38
470.243	372.38
470.462	389.38
470.681	390.38
470.901	405.38
471.12	374.38
471.339	388.38
471.558	371.38
471.777	379.38
471.997	378.38
472.216	377.38
472.435	410.38
472.654	381.38
472.873	364.38
473.092	380.38
473.311	371.38
473.53	380.38
473.749	405.38
473.968	420.38
474.187	533.38
474.406	538.38
474.625	429.38
474.844	412.38
475.063	393.38
475.282	388.38
475.501	405.38
475.72	395.38
475.939	396.38
476.158	373.38
476.377	393.38
476.596	403.38
476.814	380.38
477.033	398.38
477.252	412.38
477.471	389.38
477.69	411.38
477.908	397.38
478.127	413.38
478.346	395.38
478.564	405.38
478.783	407.38
479.002	427.38
479.22	411.38
479.439	458.38
479.658	439.38
479.876	447.38
480.095	452.38
480.313	494.38
480.532	488.38
480.751	467.38
480.969	451.38
481.188	523.38
481.406	553.38
481.624	513.38
481.843	465.38
482.061	463.38
482.28	449.38
482.498	457.38
482.717	442.38
482.935	468.38
483.153	444.38
483.372	435.38
483.59	450.38
483.808	425.38
484.027	437.38
484.245	440.38
484.463	431.38
484.681	442.38
484.9	445.38
485.118	461.38
485.336	466.38
485.554	448.38
485.772	458.38
485.99	456.38
486.209	468.38
486.427	462.38
486.645	464.38
486.863	485.38
487.081	484.38
487.299	481.38
487.517	470.38
487.735	475.38
487.953	477.38
488.171	476.38
488.389	503.38
488.607	487.38
488.825	474.38
489.043	502.38
489.261	478.38
489.479	473.38
489.696	485.38
489.914	492.38
490.132	486.38
490.35	498.38
490.568	486.38
490.786	488.38
491.003	503.38
491.221	519.38
491.439	516.38
491.657	545.38
491.874	533.38
492.092	536.38
492.31	548.38
492.527	547.38
492.745	550.38
492.963	553.38
493.18	562.38
493.398	535.38
493.615	564.38
493.833	547.38
494.05	548.38
494.268	555.38
494.485	550.38
494.703	549.38
494.92	558.38
495.138	573.38
495.355	561.38
495.573	564.38
495.79	565.38
496.008	590.38
496.225	564.38
496.442	550.38
496.66	571.38
496.877	567.38
497.094	587.38
497.312	571.38
497.529	567.38
497.746	594.38
497.963	587.38
498.181	591.38
498.398	613.38
498.615	586.38
498.832	612.38
499.049	611.38
499.267	617.38
499.484	651.38
499.701	645.38
499.918	660.38
500.135	659.38
500.352	720.38
500.569	698.38
500.786	702.38
501.003	700.38
501.22	731.38
501.437	713.38
501.654	707.38
501.871	691.38
502.088	675.38
