Data from 1981.PennyLincolnUp.Lamp.En5.5.200Scan.071819.P1_HRD10591_16-40-40-959.txt Node
Date: Thu Jul 18 16:40:40 EDT 2019
User: cochatt
Spectrometer: HR+D1059
Trigger mode: 1
Integration Time (sec): 1.000000E-1
Scans to average: 1
Electric dark correction enabled: true
Nonlinearity correction enabled: false
Boxcar width: 0
XAxis mode: Wavelengths
Number of Pixels in Spectrum: 2048
>>>>>Begin Spectral Data<<<<<
223.165	-11.06
223.4	-11.06
223.635	-11.06
223.869	-14.06
224.104	-10.06
224.338	-5.06
224.573	-22.06
224.808	-14.06
225.042	-1.06
225.277	-6.06
225.511	7.94
225.746	13.94
225.98	-5.06
226.215	5.94
226.449	14.94
226.683	8.94
226.918	14.94
227.152	21.94
227.387	35.94
227.621	52.94
227.856	44.94
228.09	38.94
228.324	64.94
228.559	56.94
228.793	70.94
229.027	81.94
229.262	86.94
229.496	97.94
229.73	128.94
229.964	142.94
230.199	122.94
230.433	109.94
230.667	116.94
230.901	94.94
231.136	104.94
231.37	90.94
231.604	104.94
231.838	117.94
232.072	114.94
232.306	120.94
232.541	104.94
232.775	127.94
233.009	112.94
233.243	113.94
233.477	102.94
233.711	121.94
233.945	108.94
234.179	99.94
234.413	124.94
234.647	113.94
234.881	116.94
235.115	104.94
235.349	116.94
235.583	123.94
235.817	120.94
236.051	118.94
236.285	110.94
236.519	111.94
236.753	127.94
236.987	121.94
237.221	162.94
237.455	199.94
237.689	185.94
237.922	134.94
238.156	121.94
238.39	136.94
238.624	124.94
238.858	113.94
239.091	115.94
239.325	104.94
239.559	113.94
239.793	117.94
240.027	124.94
240.26	128.94
240.494	146.94
240.728	139.94
240.961	136.94
241.195	125.94
241.429	130.94
241.662	126.94
241.896	116.94
242.13	130.94
242.363	120.94
242.597	128.94
242.83	120.94
243.064	149.94
243.298	138.94
243.531	133.94
243.765	144.94
243.998	136.94
244.232	137.94
244.465	125.94
244.699	144.94
244.932	146.94
245.166	138.94
245.399	152.94
245.633	136.94
245.866	139.94
246.099	135.94
246.333	144.94
246.566	149.94
246.8	133.94
247.033	145.94
247.266	151.94
247.5	162.94
247.733	148.94
247.966	168.94
248.2	170.94
248.433	157.94
248.666	176.94
248.899	182.94
249.133	181.94
249.366	192.94
249.599	178.94
249.832	174.94
250.066	177.94
250.299	185.94
250.532	171.94
250.765	182.94
250.998	204.94
251.231	197.94
251.465	196.94
251.698	189.94
251.931	199.94
252.164	198.94
252.397	186.94
252.63	184.94
252.863	201.94
253.096	199.94
253.329	202.94
253.562	213.94
253.795	232.94
254.028	215.94
254.261	218.94
254.494	227.94
254.727	223.94
254.96	253.94
255.193	242.94
255.426	239.94
255.659	214.94
255.892	215.94
256.124	208.94
256.357	216.94
256.59	197.94
256.823	192.94
257.056	207.94
257.289	199.94
257.521	204.94
257.754	208.94
257.987	202.94
258.22	193.94
258.452	185.94
258.685	199.94
258.918	197.94
259.151	201.94
259.383	201.94
259.616	223.94
259.849	211.94
260.081	220.94
260.314	219.94
260.547	220.94
260.779	217.94
261.012	208.94
261.244	220.94
261.477	203.94
261.71	213.94
261.942	223.94
262.175	229.94
262.407	210.94
262.64	189.94
262.872	192.94
263.105	223.94
263.337	223.94
263.57	211.94
263.802	200.94
264.035	189.94
264.267	196.94
264.499	205.94
264.732	183.94
264.964	206.94
265.197	198.94
265.429	205.94
265.661	197.94
265.894	209.94
266.126	207.94
266.358	213.94
266.591	200.94
266.823	214.94
267.055	206.94
267.287	219.94
267.52	213.94
267.752	205.94
267.984	195.94
268.216	227.94
268.448	224.94
268.681	216.94
268.913	241.94
269.145	225.94
269.377	245.94
269.609	254.94
269.841	250.94
270.073	259.94
270.306	270.94
270.538	280.94
270.77	287.94
271.002	270.94
271.234	280.94
271.466	278.94
271.698	263.94
271.93	288.94
272.162	286.94
272.394	281.94
272.626	277.94
272.858	271.94
273.09	262.94
273.322	252.94
273.553	239.94
273.785	278.94
274.017	251.94
274.249	251.94
274.481	241.94
274.713	239.94
274.945	248.94
275.176	267.94
275.408	244.94
275.64	259.94
275.872	226.94
276.104	227.94
276.335	240.94
276.567	249.94
276.799	264.94
277.031	253.94
277.262	280.94
277.494	300.94
277.726	272.94
277.957	270.94
278.189	261.94
278.421	254.94
278.652	254.94
278.884	258.94
279.115	241.94
279.347	247.94
279.579	248.94
279.81	252.94
280.042	235.94
280.273	252.94
280.505	253.94
280.736	236.94
280.968	244.94
281.199	211.94
281.431	242.94
281.662	244.94
281.894	241.94
282.125	252.94
282.356	261.94
282.588	264.94
282.819	276.94
283.051	236.94
283.282	233.94
283.513	237.94
283.745	253.94
283.976	238.94
284.207	248.94
284.439	251.94
284.67	267.94
284.901	246.94
285.132	244.94
285.364	236.94
285.595	249.94
285.826	253.94
286.057	261.94
286.288	262.94
286.52	251.94
286.751	242.94
286.982	261.94
287.213	235.94
287.444	244.94
287.675	262.94
287.906	269.94
288.138	249.94
288.369	265.94
288.6	257.94
288.831	258.94
289.062	276.94
289.293	268.94
289.524	272.94
289.755	257.94
289.986	252.94
290.217	252.94
290.448	245.94
290.679	239.94
290.91	273.94
291.141	266.94
291.371	253.94
291.602	252.94
291.833	236.94
292.064	270.94
292.295	272.94
292.526	260.94
292.757	268.94
292.987	258.94
293.218	257.94
293.449	253.94
293.68	275.94
293.91	240.94
294.141	249.94
294.372	250.94
294.603	266.94
294.833	240.94
295.064	255.94
295.295	242.94
295.525	264.94
295.756	284.94
295.987	271.94
296.217	279.94
296.448	274.94
296.679	282.94
296.909	257.94
297.14	277.94
297.37	284.94
297.601	256.94
297.831	259.94
298.062	256.94
298.292	271.94
298.523	267.94
298.753	269.94
298.984	263.94
299.214	266.94
299.445	268.94
299.675	271.94
299.905	286.94
300.136	271.94
300.366	282.94
300.597	282.94
300.827	271.94
301.057	292.94
301.288	270.94
301.518	275.94
301.748	280.94
301.979	267.94
302.209	260.94
302.439	271.94
302.669	293.94
302.9	294.94
303.13	299.94
303.36	282.94
303.59	280.94
303.82	292.94
304.051	287.94
304.281	281.94
304.511	292.94
304.741	279.94
304.971	285.94
305.201	282.94
305.431	294.94
305.661	277.94
305.891	289.94
306.121	281.94
306.352	292.94
306.582	280.94
306.812	282.94
307.042	283.94
307.272	294.94
307.502	306.94
307.731	277.94
307.961	287.94
308.191	292.94
308.421	303.94
308.651	305.94
308.881	298.94
309.111	291.94
309.341	304.94
309.571	306.94
309.8	327.94
310.03	318.94
310.26	347.94
310.49	328.94
310.72	342.94
310.949	326.94
311.179	370.94
311.409	339.94
311.639	338.94
311.868	326.94
312.098	317.94
312.328	353.94
312.557	349.94
312.787	367.94
313.017	362.94
313.246	338.94
313.476	325.94
313.706	315.94
313.935	328.94
314.165	339.94
314.394	361.94
314.624	329.94
314.853	344.94
315.083	336.94
315.312	314.94
315.542	317.94
315.771	321.94
316.001	313.94
316.23	325.94
316.46	338.94
316.689	325.94
316.919	336.94
317.148	338.94
317.377	340.94
317.607	338.94
317.836	332.94
318.065	341.94
318.295	325.94
318.524	313.94
318.753	332.94
318.983	335.94
319.212	342.94
319.441	334.94
319.67	352.94
319.9	341.94
320.129	328.94
320.358	341.94
320.587	340.94
320.816	353.94
321.046	363.94
321.275	358.94
321.504	360.94
321.733	354.94
321.962	352.94
322.191	378.94
322.42	380.94
322.649	388.94
322.878	412.94
323.108	433.94
323.337	412.94
323.566	438.94
323.795	460.94
324.024	489.94
324.253	624.94
324.482	920.94
324.71	1333.94
324.939	1855.94
325.168	1519.94
325.397	844.94
325.626	588.94
325.855	488.94
326.084	453.94
326.313	429.94
326.542	433.94
326.77	481.94
326.999	551.94
327.228	793.94
327.457	1154.94
327.686	1339.94
327.914	914.94
328.143	611.94
328.372	550.94
328.6	497.94
328.829	480.94
329.058	511.94
329.287	512.94
329.515	469.94
329.744	447.94
329.972	437.94
330.201	433.94
330.43	452.94
330.658	482.94
330.887	506.94
331.115	532.94
331.344	441.94
331.572	417.94
331.801	420.94
332.03	414.94
332.258	402.94
332.486	391.94
332.715	381.94
332.943	384.94
333.172	406.94
333.4	379.94
333.629	399.94
333.857	376.94
334.085	388.94
334.314	391.94
334.542	416.94
334.771	413.94
334.999	411.94
335.227	382.94
335.455	376.94
335.684	388.94
335.912	381.94
336.14	364.94
336.369	350.94
336.597	372.94
336.825	397.94
337.053	373.94
337.281	378.94
337.51	378.94
337.738	391.94
337.966	361.94
338.194	388.94
338.422	349.94
338.65	348.94
338.878	377.94
339.106	355.94
339.334	353.94
339.562	356.94
339.79	377.94
340.018	356.94
340.246	369.94
340.474	360.94
340.702	369.94
340.93	352.94
341.158	345.94
341.386	376.94
341.614	376.94
341.842	363.94
342.07	348.94
342.298	370.94
342.526	357.94
342.754	350.94
342.981	337.94
343.209	352.94
343.437	340.94
343.665	347.94
343.893	344.94
344.12	352.94
344.348	340.94
344.576	365.94
344.804	374.94
345.031	361.94
345.259	364.94
345.487	390.94
345.714	362.94
345.942	356.94
346.17	345.94
346.397	314.94
346.625	343.94
346.853	362.94
347.08	336.94
347.308	351.94
347.535	369.94
347.763	390.94
347.99	369.94
348.218	363.94
348.445	365.94
348.673	372.94
348.9	342.94
349.128	352.94
349.355	338.94
349.583	329.94
349.81	335.94
350.037	321.94
350.265	343.94
350.492	347.94
350.72	361.94
350.947	358.94
351.174	362.94
351.402	352.94
351.629	352.94
351.856	349.94
352.083	332.94
352.311	377.94
352.538	356.94
352.765	363.94
352.992	362.94
353.22	369.94
353.447	348.94
353.674	351.94
353.901	327.94
354.128	343.94
354.355	339.94
354.583	335.94
354.81	343.94
355.037	330.94
355.264	326.94
355.491	322.94
355.718	351.94
355.945	331.94
356.172	329.94
356.399	312.94
356.626	336.94
356.853	333.94
357.08	320.94
357.307	318.94
357.534	323.94
357.761	336.94
357.988	327.94
358.215	333.94
358.441	345.94
358.668	325.94
358.895	320.94
359.122	340.94
359.349	361.94
359.576	353.94
359.802	359.94
360.029	376.94
360.256	400.94
360.483	361.94
360.709	367.94
360.936	356.94
361.163	363.94
361.39	358.94
361.616	353.94
361.843	338.94
362.07	351.94
362.296	358.94
362.523	340.94
362.749	342.94
362.976	337.94
363.203	341.94
363.429	330.94
363.656	338.94
363.882	328.94
364.109	325.94
364.335	318.94
364.562	314.94
364.788	331.94
365.015	332.94
365.241	307.94
365.468	329.94
365.694	333.94
365.92	331.94
366.147	319.94
366.373	326.94
366.599	326.94
366.826	317.94
367.052	321.94
367.278	312.94
367.505	335.94
367.731	329.94
367.957	334.94
368.184	326.94
368.41	330.94
368.636	339.94
368.862	331.94
369.089	333.94
369.315	328.94
369.541	326.94
369.767	333.94
369.993	329.94
370.219	315.94
370.445	316.94
370.672	326.94
370.898	322.94
371.124	304.94
371.35	322.94
371.576	316.94
371.802	328.94
372.028	332.94
372.254	313.94
372.48	329.94
372.706	310.94
372.932	332.94
373.158	322.94
373.384	325.94
373.61	312.94
373.835	326.94
374.061	320.94
374.287	321.94
374.513	317.94
374.739	327.94
374.965	293.94
375.191	320.94
375.416	324.94
375.642	328.94
375.868	329.94
376.094	321.94
376.319	329.94
376.545	319.94
376.771	325.94
376.997	321.94
377.222	321.94
377.448	329.94
377.674	328.94
377.899	328.94
378.125	322.94
378.35	300.94
378.576	316.94
378.802	327.94
379.027	311.94
379.253	328.94
379.478	300.94
379.704	316.94
379.929	302.94
380.155	321.94
380.38	314.94
380.606	317.94
380.831	313.94
381.057	317.94
381.282	316.94
381.507	321.94
381.733	310.94
381.958	322.94
382.184	315.94
382.409	310.94
382.634	314.94
382.86	333.94
383.085	326.94
383.31	314.94
383.535	320.94
383.761	331.94
383.986	309.94
384.211	326.94
384.436	326.94
384.662	334.94
384.887	330.94
385.112	328.94
385.337	327.94
385.562	335.94
385.787	336.94
386.013	329.94
386.238	332.94
386.463	342.94
386.688	331.94
386.913	316.94
387.138	335.94
387.363	329.94
387.588	301.94
387.813	321.94
388.038	333.94
388.263	336.94
388.488	312.94
388.713	330.94
388.938	338.94
389.163	336.94
389.387	345.94
389.612	328.94
389.837	314.94
390.062	330.94
390.287	337.94
390.512	310.94
390.736	337.94
390.961	348.94
391.186	302.94
391.411	320.94
391.636	324.94
391.86	352.94
392.085	341.94
392.31	338.94
392.534	327.94
392.759	319.94
392.984	322.94
393.208	332.94
393.433	319.94
393.658	321.94
393.882	355.94
394.107	329.94
394.331	332.94
394.556	330.94
394.78	332.94
395.005	324.94
395.229	334.94
395.454	341.94
395.678	325.94
395.903	348.94
396.127	337.94
396.352	357.94
396.576	338.94
396.801	335.94
397.025	330.94
397.249	342.94
397.474	335.94
397.698	342.94
397.922	365.94
398.147	359.94
398.371	361.94
398.595	343.94
398.82	348.94
399.044	366.94
399.268	373.94
399.492	389.94
399.717	409.94
399.941	417.94
400.165	459.94
400.389	454.94
400.613	405.94
400.837	386.94
401.062	411.94
401.286	377.94
401.51	369.94
401.734	348.94
401.958	368.94
402.182	369.94
402.406	370.94
402.63	379.94
402.854	388.94
403.078	355.94
403.302	360.94
403.526	375.94
403.75	384.94
403.974	370.94
404.198	400.94
404.422	380.94
404.645	385.94
404.869	375.94
405.093	386.94
405.317	445.94
405.541	444.94
405.765	409.94
405.988	393.94
406.212	406.94
406.436	426.94
406.66	416.94
406.883	394.94
407.107	401.94
407.331	453.94
407.555	506.94
407.778	509.94
408.002	434.94
408.226	404.94
408.449	406.94
408.673	416.94
408.896	440.94
409.12	466.94
409.344	440.94
409.567	394.94
409.791	388.94
410.014	397.94
410.238	373.94
410.461	382.94
410.685	368.94
410.908	392.94
411.132	408.94
411.355	449.94
411.578	406.94
411.802	386.94
412.025	364.94
412.249	383.94
412.472	396.94
412.695	413.94
412.919	405.94
413.142	385.94
413.365	356.94
413.589	369.94
413.812	354.94
414.035	370.94
414.258	351.94
414.482	360.94
414.705	337.94
414.928	352.94
415.151	360.94
415.374	370.94
415.597	351.94
415.821	343.94
416.044	370.94
416.267	352.94
416.49	349.94
416.713	344.94
416.936	361.94
417.159	374.94
417.382	362.94
417.605	377.94
417.828	352.94
418.051	370.94
418.274	370.94
418.497	359.94
418.72	344.94
418.943	362.94
419.166	356.94
419.389	379.94
419.611	376.94
419.834	378.94
420.057	374.94
420.28	379.94
420.503	372.94
420.726	358.94
420.948	379.94
421.171	412.94
421.394	428.94
421.617	395.94
421.839	378.94
422.062	395.94
422.285	404.94
422.507	429.94
422.73	464.94
422.953	478.94
423.175	418.94
423.398	405.94
423.621	400.94
423.843	409.94
424.066	395.94
424.288	407.94
424.511	423.94
424.733	471.94
424.956	523.94
425.178	496.94
425.401	496.94
425.623	500.94
425.846	438.94
426.068	420.94
426.291	416.94
426.513	402.94
426.735	443.94
426.958	440.94
427.18	509.94
427.402	606.94
427.625	638.94
427.847	561.94
428.069	488.94
428.292	438.94
428.514	398.94
428.736	395.94
428.958	394.94
429.181	381.94
429.403	384.94
429.625	394.94
429.847	409.94
430.069	438.94
430.292	464.94
430.514	378.94
430.736	373.94
430.958	377.94
431.18	358.94
431.402	364.94
431.624	366.94
431.846	358.94
432.068	365.94
432.29	361.94
432.512	354.94
432.734	367.94
432.956	372.94
433.178	364.94
433.4	360.94
433.622	365.94
433.844	376.94
434.066	350.94
434.287	372.94
434.509	348.94
434.731	361.94
434.953	369.94
435.175	378.94
435.397	402.94
435.618	410.94
435.84	432.94
436.062	493.94
436.284	565.94
436.505	453.94
436.727	433.94
436.949	392.94
437.17	381.94
437.392	367.94
437.614	398.94
437.835	434.94
438.057	477.94
438.278	567.94
438.5	576.94
438.721	598.94
438.943	594.94
439.165	465.94
439.386	436.94
439.608	439.94
439.829	426.94
440.05	438.94
440.272	463.94
440.493	465.94
440.715	397.94
440.936	387.94
441.158	392.94
441.379	384.94
441.6	418.94
441.822	410.94
442.043	443.94
442.264	510.94
442.486	547.94
442.707	458.94
442.928	416.94
443.149	417.94
443.371	445.94
443.592	468.94
443.813	537.94
444.034	567.94
444.255	493.94
444.476	433.94
444.698	406.94
444.919	412.94
445.14	511.94
445.361	439.94
445.582	453.94
445.803	488.94
446.024	562.94
446.245	586.94
446.466	523.94
446.687	445.94
446.908	406.94
447.129	401.94
447.35	380.94
447.571	380.94
447.792	386.94
448.013	396.94
448.234	397.94
448.455	426.94
448.675	534.94
448.896	606.94
449.117	514.94
449.338	512.94
449.559	569.94
449.779	630.94
450	514.94
450.221	414.94
450.442	393.94
450.662	374.94
450.883	359.94
451.104	392.94
451.324	365.94
451.545	350.94
451.766	354.94
451.986	357.94
452.207	347.94
452.428	349.94
452.648	348.94
452.869	333.94
453.089	346.94
453.31	346.94
453.53	366.94
453.751	348.94
453.971	338.94
454.192	348.94
454.412	348.94
454.633	357.94
454.853	353.94
455.073	356.94
455.294	364.94
455.514	420.94
455.734	388.94
455.955	345.94
456.175	343.94
456.395	320.94
456.616	323.94
456.836	320.94
457.056	315.94
457.276	303.94
457.497	297.94
457.717	310.94
457.937	333.94
458.157	320.94
458.377	337.94
458.598	361.94
458.818	383.94
459.038	440.94
459.258	453.94
459.478	395.94
459.698	372.94
459.918	355.94
460.138	333.94
460.358	336.94
460.578	356.94
460.798	373.94
461.018	356.94
461.238	339.94
461.458	360.94
461.678	365.94
461.898	356.94
462.118	353.94
462.338	345.94
462.558	361.94
462.777	363.94
462.997	369.94
463.217	364.94
463.437	369.94
463.657	369.94
463.876	373.94
464.096	358.94
464.316	364.94
464.536	378.94
464.755	378.94
464.975	370.94
465.195	406.94
465.414	451.94
465.634	404.94
465.854	388.94
466.073	357.94
466.293	360.94
466.512	365.94
466.732	353.94
466.951	342.94
467.171	353.94
467.391	360.94
467.61	354.94
467.829	372.94
468.049	347.94
468.268	345.94
468.488	339.94
468.707	320.94
468.927	331.94
469.146	339.94
469.365	343.94
469.585	333.94
469.804	348.94
470.023	360.94
470.243	341.94
470.462	337.94
470.681	360.94
470.901	363.94
471.12	353.94
471.339	335.94
471.558	353.94
471.777	338.94
471.997	358.94
472.216	362.94
472.435	362.94
472.654	368.94
472.873	364.94
473.092	347.94
473.311	358.94
473.53	348.94
473.749	363.94
473.968	381.94
474.187	478.94
474.406	476.94
474.625	414.94
474.844	365.94
475.063	358.94
475.282	352.94
475.501	341.94
475.72	368.94
475.939	349.94
476.158	359.94
476.377	356.94
476.596	343.94
476.814	367.94
477.033	386.94
477.252	378.94
477.471	354.94
477.69	360.94
477.908	368.94
478.127	374.94
478.346	378.94
478.564	389.94
478.783	383.94
479.002	402.94
479.22	381.94
479.439	397.94
479.658	414.94
479.876	401.94
480.095	411.94
480.313	437.94
480.532	418.94
480.751	409.94
480.969	413.94
481.188	423.94
481.406	461.94
481.624	436.94
481.843	422.94
482.061	408.94
482.28	404.94
482.498	396.94
482.717	395.94
482.935	385.94
483.153	401.94
483.372	400.94
483.59	405.94
483.808	414.94
484.027	410.94
484.245	399.94
484.463	424.94
484.681	422.94
484.9	414.94
485.118	403.94
485.336	415.94
485.554	430.94
485.772	417.94
485.99	422.94
486.209	426.94
486.427	435.94
486.645	398.94
486.863	428.94
487.081	430.94
487.299	466.94
487.517	446.94
487.735	433.94
487.953	447.94
488.171	441.94
488.389	437.94
488.607	437.94
488.825	436.94
489.043	429.94
489.261	444.94
489.479	438.94
489.696	449.94
489.914	464.94
490.132	451.94
490.35	465.94
490.568	457.94
490.786	466.94
491.003	453.94
491.221	468.94
491.439	493.94
491.657	464.94
491.874	476.94
492.092	488.94
492.31	487.94
492.527	503.94
492.745	494.94
492.963	494.94
493.18	534.94
493.398	505.94
493.615	514.94
493.833	495.94
494.05	520.94
494.268	520.94
494.485	494.94
494.703	503.94
494.92	494.94
495.138	511.94
495.355	550.94
495.573	523.94
495.79	495.94
496.008	504.94
496.225	501.94
496.442	522.94
496.66	518.94
496.877	520.94
497.094	512.94
497.312	526.94
497.529	510.94
497.746	522.94
497.963	560.94
498.181	553.94
498.398	541.94
498.615	526.94
498.832	562.94
499.049	564.94
499.267	581.94
499.484	594.94
499.701	612.94
499.918	613.94
500.135	622.94
500.352	648.94
500.569	624.94
500.786	642.94
501.003	648.94
501.22	612.94
501.437	625.94
501.654	622.94
501.871	632.94
502.088	605.94
