Data from 1981.PennyLincolnUp.Lamp.En5.5.200Scan.071819.P1_HRD10591_16-41-50-960.txt Node
Date: Thu Jul 18 16:41:50 EDT 2019
User: cochatt
Spectrometer: HR+D1059
Trigger mode: 1
Integration Time (sec): 1.000000E-1
Scans to average: 1
Electric dark correction enabled: true
Nonlinearity correction enabled: false
Boxcar width: 0
XAxis mode: Wavelengths
Number of Pixels in Spectrum: 2048
>>>>>Begin Spectral Data<<<<<
223.165	-10
223.4	-10
223.635	-10
223.869	-26
224.104	-24
224.338	-21
224.573	-9
224.808	-25
225.042	-3
225.277	-2
225.511	-3
225.746	12
225.98	5
226.215	2
226.449	18
226.683	31
226.918	26
227.152	29
227.387	29
227.621	24
227.856	51
228.09	38
228.324	66
228.559	64
228.793	54
229.027	95
229.262	101
229.496	108
229.73	134
229.964	154
230.199	128
230.433	122
230.667	108
230.901	121
231.136	125
231.37	123
231.604	127
231.838	122
232.072	106
232.306	112
232.541	123
232.775	139
233.009	145
233.243	104
233.477	124
233.711	120
233.945	116
234.179	127
234.413	120
234.647	109
234.881	126
235.115	127
235.349	112
235.583	112
235.817	107
236.051	135
236.285	145
236.519	128
236.753	146
236.987	146
237.221	181
237.455	238
237.689	201
237.922	150
238.156	136
238.39	134
238.624	129
238.858	128
239.091	132
239.325	118
239.559	126
239.793	139
240.027	132
240.26	137
240.494	160
240.728	154
240.961	149
241.195	161
241.429	150
241.662	153
241.896	136
242.13	134
242.363	145
242.597	132
242.83	129
243.064	144
243.298	140
243.531	131
243.765	137
243.998	142
244.232	147
244.465	157
244.699	152
244.932	128
245.166	133
245.399	157
245.633	148
245.866	152
246.099	144
246.333	148
246.566	159
246.8	148
247.033	178
247.266	155
247.5	154
247.733	169
247.966	166
248.2	180
248.433	190
248.666	170
248.899	202
249.133	210
249.366	223
249.599	207
249.832	219
250.066	180
250.299	191
250.532	188
250.765	214
250.998	222
251.231	238
251.465	227
251.698	211
251.931	218
252.164	201
252.397	215
252.63	219
252.863	192
253.096	222
253.329	236
253.562	234
253.795	244
254.028	225
254.261	247
254.494	240
254.727	275
254.96	301
255.193	274
255.426	262
255.659	246
255.892	250
256.124	235
256.357	238
256.59	222
256.823	221
257.056	222
257.289	215
257.521	226
257.754	234
257.987	222
258.22	231
258.452	215
258.685	212
258.918	220
259.151	228
259.383	231
259.616	232
259.849	239
260.081	229
260.314	259
260.547	271
260.779	271
261.012	253
261.244	234
261.477	238
261.71	231
261.942	237
262.175	259
262.407	239
262.64	225
262.872	234
263.105	221
263.337	234
263.57	227
263.802	230
264.035	216
264.267	202
264.499	214
264.732	217
264.964	225
265.197	221
265.429	231
265.661	223
265.894	223
266.126	222
266.358	223
266.591	223
266.823	233
267.055	241
267.287	233
267.52	231
267.752	235
267.984	223
268.216	232
268.448	243
268.681	236
268.913	259
269.145	273
269.377	288
269.609	275
269.841	271
270.073	297
270.306	300
270.538	343
270.77	333
271.002	330
271.234	314
271.466	328
271.698	339
271.93	341
272.162	354
272.394	343
272.626	341
272.858	312
273.09	303
273.322	294
273.553	291
273.785	302
274.017	278
274.249	253
274.481	284
274.713	272
274.945	301
275.176	293
275.408	288
275.64	272
275.872	285
276.104	292
276.335	278
276.567	288
276.799	315
277.031	302
277.262	343
277.494	325
277.726	322
277.957	312
278.189	263
278.421	269
278.652	284
278.884	279
279.115	279
279.347	274
279.579	275
279.81	290
280.042	284
280.273	281
280.505	279
280.736	285
280.968	269
281.199	250
281.431	277
281.662	277
281.894	269
282.125	280
282.356	303
282.588	294
282.819	310
283.051	284
283.282	297
283.513	282
283.745	288
283.976	271
284.207	289
284.439	275
284.67	275
284.901	281
285.132	311
285.364	274
285.595	290
285.826	281
286.057	286
286.288	260
286.52	286
286.751	278
286.982	289
287.213	276
287.444	294
287.675	308
287.906	292
288.138	308
288.369	308
288.6	312
288.831	293
289.062	312
289.293	300
289.524	288
289.755	284
289.986	293
290.217	291
290.448	285
290.679	298
290.91	308
291.141	286
291.371	274
291.602	294
291.833	282
292.064	279
292.295	301
292.526	313
292.757	284
292.987	294
293.218	308
293.449	297
293.68	282
293.91	278
294.141	278
294.372	312
294.603	296
294.833	293
295.064	285
295.295	298
295.525	307
295.756	304
295.987	312
296.217	320
296.448	338
296.679	312
296.909	289
297.14	304
297.37	300
297.601	298
297.831	312
298.062	297
298.292	301
298.523	306
298.753	315
298.984	310
299.214	313
299.445	297
299.675	305
299.905	313
300.136	312
300.366	316
300.597	308
300.827	319
301.057	329
301.288	328
301.518	328
301.748	325
301.979	331
302.209	328
302.439	328
302.669	327
302.9	326
303.13	311
303.36	314
303.59	333
303.82	332
304.051	336
304.281	358
304.511	330
304.741	318
304.971	320
305.201	316
305.431	330
305.661	340
305.891	318
306.121	329
306.352	336
306.582	345
306.812	348
307.042	342
307.272	329
307.502	337
307.731	337
307.961	336
308.191	326
308.421	336
308.651	332
308.881	349
309.111	355
309.341	357
309.571	364
309.8	380
310.03	357
310.26	380
310.49	376
310.72	392
310.949	410
311.179	419
311.409	385
311.639	388
311.868	383
312.098	407
312.328	408
312.557	402
312.787	412
313.017	441
313.246	397
313.476	396
313.706	368
313.935	380
314.165	394
314.394	404
314.624	410
314.853	409
315.083	394
315.312	391
315.542	384
315.771	374
316.001	396
316.23	377
316.46	370
316.689	380
316.919	393
317.148	394
317.377	399
317.607	386
317.836	387
318.065	380
318.295	364
318.524	397
318.753	394
318.983	377
319.212	383
319.441	415
319.67	388
319.9	406
320.129	372
320.358	387
320.587	377
320.816	401
321.046	408
321.275	427
321.504	411
321.733	426
321.962	423
322.191	450
322.42	475
322.649	455
322.878	479
323.108	478
323.337	522
323.566	554
323.795	581
324.024	654
324.253	811
324.482	1175
324.71	1771
324.939	2388
325.168	2046
325.397	1073
325.626	721
325.855	618
326.084	595
326.313	582
326.542	548
326.77	608
326.999	745
327.228	1018
327.457	1501
327.686	1769
327.914	1163
328.143	784
328.372	686
328.6	632
328.829	623
329.058	624
329.287	629
329.515	604
329.744	557
329.972	556
330.201	565
330.43	592
330.658	623
330.887	644
331.115	628
331.344	548
331.572	533
331.801	515
332.03	512
332.258	458
332.486	438
332.715	461
332.943	450
333.172	432
333.4	450
333.629	485
333.857	472
334.085	486
334.314	509
334.542	511
334.771	536
334.999	482
335.227	455
335.455	457
335.684	445
335.912	444
336.14	430
336.369	443
336.597	453
336.825	462
337.053	430
337.281	434
337.51	434
337.738	437
337.966	414
338.194	443
338.422	452
338.65	416
338.878	411
339.106	443
339.334	426
339.562	440
339.79	422
340.018	418
340.246	429
340.474	442
340.702	432
340.93	416
341.158	423
341.386	419
341.614	433
341.842	420
342.07	384
342.298	396
342.526	407
342.754	410
342.981	396
343.209	392
343.437	405
343.665	421
343.893	415
344.12	432
344.348	412
344.576	433
344.804	436
345.031	443
345.259	452
345.487	421
345.714	420
345.942	419
346.17	424
346.397	416
346.625	407
346.853	413
347.08	409
347.308	416
347.535	422
347.763	420
347.99	406
348.218	431
348.445	422
348.673	430
348.9	412
349.128	404
349.355	392
349.583	399
349.81	393
350.037	394
350.265	385
350.492	378
350.72	385
350.947	407
351.174	403
351.402	432
351.629	412
351.856	416
352.083	421
352.311	422
352.538	438
352.765	451
352.992	412
353.22	416
353.447	400
353.674	399
353.901	408
354.128	368
354.355	372
354.583	372
354.81	373
355.037	381
355.264	369
355.491	390
355.718	368
355.945	361
356.172	354
356.399	352
356.626	365
356.853	370
357.08	365
357.307	380
357.534	379
357.761	360
357.988	365
358.215	377
358.441	362
358.668	366
358.895	381
359.122	386
359.349	382
359.576	385
359.802	424
360.029	455
360.256	469
360.483	413
360.709	408
360.936	401
361.163	396
361.39	392
361.616	401
361.843	394
362.07	389
362.296	398
362.523	398
362.749	395
362.976	396
363.203	402
363.429	395
363.656	384
363.882	377
364.109	384
364.335	374
364.562	377
364.788	375
365.015	361
365.241	384
365.468	388
365.694	381
365.92	382
366.147	379
366.373	372
366.599	365
366.826	362
367.052	372
367.278	361
367.505	374
367.731	359
367.957	376
368.184	373
368.41	366
368.636	380
368.862	363
369.089	388
369.315	356
369.541	374
369.767	364
369.993	365
370.219	375
370.445	372
370.672	366
370.898	362
371.124	374
371.35	353
371.576	354
371.802	363
372.028	378
372.254	356
372.48	368
372.706	335
372.932	358
373.158	362
373.384	355
373.61	374
373.835	363
374.061	362
374.287	368
374.513	369
374.739	358
374.965	367
375.191	381
375.416	380
375.642	357
375.868	367
376.094	367
376.319	339
376.545	350
376.771	379
376.997	365
377.222	343
377.448	347
377.674	360
377.899	338
378.125	331
378.35	349
378.576	362
378.802	344
379.027	340
379.253	359
379.478	354
379.704	351
379.929	347
380.155	380
380.38	352
380.606	360
380.831	343
381.057	366
381.282	352
381.507	349
381.733	350
381.958	346
382.184	351
382.409	360
382.634	366
382.86	356
383.085	372
383.31	348
383.535	339
383.761	370
383.986	375
384.211	352
384.436	354
384.662	371
384.887	372
385.112	362
385.337	338
385.562	372
385.787	369
386.013	392
386.238	384
386.463	384
386.688	374
386.913	352
387.138	371
387.363	376
387.588	374
387.813	374
388.038	350
388.263	351
388.488	377
388.713	379
388.938	361
389.163	358
389.387	361
389.612	360
389.837	352
390.062	373
390.287	374
390.512	363
390.736	356
390.961	376
391.186	364
391.411	367
391.636	371
391.86	364
392.085	364
392.31	394
392.534	376
392.759	367
392.984	354
393.208	383
393.433	340
393.658	372
393.882	364
394.107	360
394.331	369
394.556	379
394.78	362
395.005	369
395.229	359
395.454	381
395.678	380
395.903	397
396.127	386
396.352	384
396.576	396
396.801	393
397.025	380
397.249	392
397.474	399
397.698	382
397.922	415
398.147	415
398.371	416
398.595	392
398.82	408
399.044	417
399.268	409
399.492	437
399.717	448
399.941	465
400.165	497
400.389	489
400.613	472
400.837	415
401.062	416
401.286	442
401.51	412
401.734	408
401.958	403
402.182	419
402.406	430
402.63	424
402.854	422
403.078	429
403.302	426
403.526	429
403.75	433
403.974	423
404.198	407
404.422	418
404.645	443
404.869	443
405.093	465
405.317	473
405.541	522
405.765	463
405.988	464
406.212	461
406.436	457
406.66	526
406.883	472
407.107	516
407.331	514
407.555	577
407.778	545
408.002	523
408.226	479
408.449	446
408.673	477
408.896	498
409.12	534
409.344	504
409.567	474
409.791	461
410.014	431
410.238	407
410.461	415
410.685	431
410.908	454
411.132	483
411.355	483
411.578	479
411.802	438
412.025	413
412.249	429
412.472	452
412.695	465
412.919	472
413.142	444
413.365	402
413.589	408
413.812	401
414.035	398
414.258	413
414.482	396
414.705	418
414.928	383
415.151	386
415.374	391
415.597	391
415.821	389
416.044	386
416.267	415
416.49	388
416.713	389
416.936	393
417.159	395
417.382	408
417.605	428
417.828	391
418.051	406
418.274	401
418.497	404
418.72	386
418.943	384
419.166	415
419.389	426
419.611	423
419.834	401
420.057	444
420.28	427
420.503	416
420.726	418
420.948	442
421.171	489
421.394	484
421.617	447
421.839	436
422.062	434
422.285	432
422.507	478
422.73	577
422.953	553
423.175	475
423.398	454
423.621	450
423.843	465
424.066	452
424.288	459
424.511	497
424.733	517
424.956	600
425.178	576
425.401	576
425.623	602
425.846	498
426.068	467
426.291	449
426.513	471
426.735	465
426.958	506
427.18	578
427.402	705
427.625	764
427.847	692
428.069	609
428.292	524
428.514	475
428.736	472
428.958	447
429.181	427
429.403	445
429.625	438
429.847	488
430.069	524
430.292	535
430.514	456
430.736	427
430.958	455
431.18	396
431.402	417
431.624	398
431.846	401
432.068	384
432.29	390
432.512	402
432.734	398
432.956	401
433.178	414
433.4	416
433.622	407
433.844	415
434.066	397
434.287	410
434.509	408
434.731	410
434.953	405
435.175	433
435.397	475
435.618	461
435.84	495
436.062	574
436.284	647
436.505	561
436.727	496
436.949	486
437.17	458
437.392	428
437.614	463
437.835	476
438.057	581
438.278	668
438.5	676
438.721	688
438.943	662
439.165	539
439.386	494
439.608	498
439.829	507
440.05	518
440.272	549
440.493	516
440.715	468
440.936	474
441.158	441
441.379	437
441.6	437
441.822	479
442.043	481
442.264	572
442.486	615
442.707	533
442.928	475
443.149	488
443.371	504
443.592	541
443.813	630
444.034	655
444.255	571
444.476	500
444.698	472
444.919	460
445.14	575
445.361	535
445.582	503
445.803	571
446.024	672
446.245	673
446.466	629
446.687	530
446.908	481
447.129	436
447.35	416
447.571	416
447.792	408
448.013	442
448.234	466
448.455	524
448.675	602
448.896	672
449.117	612
449.338	587
449.559	646
449.779	728
450	612
450.221	490
450.442	442
450.662	433
450.883	433
451.104	447
451.324	450
451.545	413
451.766	395
451.986	410
452.207	394
452.428	401
452.648	386
452.869	397
453.089	402
453.31	399
453.53	408
453.751	398
453.971	420
454.192	374
454.412	416
454.633	398
454.853	390
455.073	380
455.294	408
455.514	478
455.734	472
455.955	395
456.175	383
456.395	362
456.616	381
456.836	386
457.056	356
457.276	356
457.497	362
457.717	368
457.937	362
458.157	364
458.377	385
458.598	414
458.818	440
459.038	528
459.258	534
459.478	464
459.698	401
459.918	414
460.138	400
460.358	383
460.578	384
460.798	384
461.018	402
461.238	395
461.458	402
461.678	382
461.898	388
462.118	399
462.338	406
462.558	401
462.777	406
462.997	399
463.217	423
463.437	423
463.657	400
463.876	396
464.096	398
464.316	418
464.536	433
464.755	405
464.975	418
465.195	475
465.414	549
465.634	493
465.854	438
466.073	423
466.293	408
466.512	400
466.732	389
466.951	402
467.171	411
467.391	399
467.61	403
467.829	422
468.049	407
468.268	413
468.488	399
468.707	380
468.927	395
469.146	378
469.365	382
469.585	370
469.804	382
470.023	388
470.243	399
470.462	396
470.681	422
470.901	414
471.12	387
471.339	390
471.558	416
471.777	404
471.997	405
472.216	396
472.435	438
472.654	417
472.873	403
473.092	391
473.311	399
473.53	398
473.749	395
473.968	428
474.187	559
474.406	576
474.625	473
474.844	408
475.063	397
475.282	406
475.501	412
475.72	418
475.939	397
476.158	396
476.377	405
476.596	406
476.814	418
477.033	432
477.252	416
477.471	418
477.69	412
477.908	425
478.127	423
478.346	425
478.564	420
478.783	422
479.002	433
479.22	441
479.439	446
479.658	456
479.876	474
480.095	478
480.313	507
480.532	490
480.751	481
480.969	485
481.188	555
481.406	558
481.624	497
481.843	470
482.061	464
482.28	456
482.498	469
482.717	485
482.935	474
483.153	485
483.372	463
483.59	450
483.808	452
484.027	466
484.245	457
484.463	475
484.681	478
484.9	463
485.118	471
485.336	466
485.554	488
485.772	481
485.99	463
486.209	478
486.427	477
486.645	495
486.863	506
487.081	504
487.299	527
487.517	493
487.735	457
487.953	480
488.171	502
488.389	496
488.607	513
488.825	485
489.043	506
489.261	504
489.479	493
489.696	522
489.914	503
490.132	511
490.35	504
490.568	518
490.786	536
491.003	524
491.221	552
491.439	543
491.657	554
491.874	572
492.092	577
492.31	575
492.527	570
492.745	578
492.963	586
493.18	576
493.398	568
493.615	572
493.833	581
494.05	588
494.268	573
494.485	596
494.703	572
494.92	594
495.138	583
495.355	593
495.573	602
495.79	588
496.008	588
496.225	577
496.442	593
496.66	583
496.877	588
497.094	578
497.312	607
497.529	593
497.746	622
497.963	616
498.181	649
498.398	664
498.615	652
498.832	633
499.049	653
499.267	666
499.484	669
499.701	670
499.918	698
500.135	717
500.352	724
500.569	714
500.786	729
501.003	747
501.22	721
501.437	696
501.654	684
501.871	700
502.088	694
502.305	665
502.522	657
502.739	634
502.956	594
503.172	609
503.389	632
503.606	625
503.823	620
504.04	622
504.256	581
504.473	576
504.69	591
504.907	608
505.123	590
505.34	586
505.557	581
505.773	581
505.99	587
506.207	579
506.423	582
506.64	558
506.856	561
507.073	573
507.289	580
507.506	551
507.722	591
507.939	605
508.155	574
508.372	564
508.588	539
508.805	570
509.021	561
509.238	583
509.454	586
509.67	580
509.887	561
510.103	564
510.319	575
510.536	688
510.752	1096
510.968	906
511.184	597
511.401	546
511.617	528
511.833	537
512.049	554
512.265	525
512.481	534
512.698	516
512.914	527
513.13	528
513.346	531
513.562	524
513.778	528
513.994	555
514.21	564
514.426	576
514.642	633
514.858	651
515.074	691
515.29	865
515.506	1234
515.721	989
515.937	682
516.153	603
516.369	583
516.585	564
516.801	566
517.016	513
517.232	544
517.448	546
517.664	521
517.879	535
518.095	543
518.311	538
518.527	525
518.742	534
518.958	500
519.173	534
519.389	537
519.605	520
519.82	536
520.036	565
520.251	553
520.467	590
520.682	609
520.898	617
521.113	625
521.329	672
521.544	776
521.76	980
521.975	1665
522.19	1578
522.406	852
522.621	644
522.836	584
523.052	533
523.267	512
523.482	489
523.698	504
523.913	495
524.128	496
524.343	474
524.559	486
524.774	473
524.989	464
525.204	476
525.419	454
525.634	457
525.849	451
526.064	434
526.28	428
526.495	428
526.71	418
526.925	422
527.14	425
527.355	420
527.57	414
527.785	435
527.999	429
528.214	430
528.429	410
528.644	426
528.859	412
529.074	426
529.289	473
529.503	549
529.718	513
529.933	476
530.148	449
530.363	441
530.577	416
530.792	432
531.007	420
531.221	412
531.436	405
531.651	416
531.865	402
532.08	412
532.295	414
532.509	403
532.724	415
532.938	412
533.153	413
533.367	410
533.582	394
533.796	386
534.011	392
534.225	406
534.44	377
534.654	401
534.868	409
535.083	387
535.297	385
535.511	406
535.726	396
535.94	406
536.154	412
536.369	401
536.583	415
536.797	406
537.011	383
537.225	393
537.44	365
537.654	400
537.868	398
538.082	380
538.296	407
538.51	379
538.724	402
538.938	382
539.153	391
539.367	406
539.581	400
539.795	399
540.009	395
540.222	402
540.436	382
540.65	386
540.864	395
541.078	409
541.292	420
541.506	382
541.72	410
541.934	384
542.147	391
542.361	390
542.575	362
542.789	393
543.002	358
543.216	370
543.43	385
543.644	394
543.857	380
544.071	385
544.285	380
544.498	374
544.712	380
544.925	400
545.139	358
545.352	372
545.566	368
545.779	375
545.993	374
546.206	355
546.42	359
546.633	359
546.847	365
547.06	355
547.274	362
547.487	376
547.7	358
547.914	375
548.127	380
548.34	378
548.554	352
548.767	376
548.98	376
549.193	353
549.407	339
549.62	366
549.833	360
550.046	372
550.259	356
550.473	349
550.686	364
550.899	363
551.112	354
551.325	343
551.538	354
551.751	350
551.964	352
552.177	367
552.39	347
552.603	361
552.816	360
553.029	349
553.242	348
553.455	350
553.667	368
553.88	369
554.093	361
554.306	356
554.519	368
554.732	365
554.944	344
555.157	362
555.37	332
555.583	352
555.795	337
556.008	328
556.221	349
556.433	337
556.646	321
556.859	349
557.071	329
557.284	330
557.496	329
557.709	332
557.921	316
558.134	312
558.346	314
558.559	305
558.771	340
558.984	310
559.196	320
559.409	321
559.621	312
559.833	317
560.046	306
560.258	310
560.47	334
560.683	340
560.895	316
561.107	330
561.32	350
561.532	325
561.744	314
561.956	329
562.168	325
562.381	326
562.593	326
562.805	320
563.017	331
563.229	310
563.441	322
