Data from 1981.PennyLincolnUp.Lamp.En5.5.200Scan.071819.P1_HRD10591_16-40-59-959.txt Node
Date: Thu Jul 18 16:40:59 EDT 2019
User: cochatt
Spectrometer: HR+D1059
Trigger mode: 1
Integration Time (sec): 1.000000E-1
Scans to average: 1
Electric dark correction enabled: true
Nonlinearity correction enabled: false
Boxcar width: 0
XAxis mode: Wavelengths
Number of Pixels in Spectrum: 2048
>>>>>Begin Spectral Data<<<<<
223.165	-24.81
223.4	-24.81
223.635	-24.81
223.869	-34.81
224.104	-16.81
224.338	-12.81
224.573	-16.81
224.808	-7.81
225.042	-1.81
225.277	-6.81
225.511	-7.81
225.746	-10.81
225.98	11.19
226.215	22.19
226.449	14.19
226.683	35.19
226.918	23.19
227.152	35.19
227.387	43.19
227.621	32.19
227.856	45.19
228.09	50.19
228.324	52.19
228.559	53.19
228.793	70.19
229.027	87.19
229.262	120.19
229.496	114.19
229.73	123.19
229.964	140.19
230.199	125.19
230.433	116.19
230.667	120.19
230.901	115.19
231.136	135.19
231.37	117.19
231.604	108.19
231.838	116.19
232.072	104.19
232.306	102.19
232.541	108.19
232.775	110.19
233.009	114.19
233.243	109.19
233.477	100.19
233.711	111.19
233.945	112.19
234.179	117.19
234.413	117.19
234.647	117.19
234.881	115.19
235.115	120.19
235.349	114.19
235.583	120.19
235.817	122.19
236.051	124.19
236.285	129.19
236.519	112.19
236.753	133.19
236.987	168.19
237.221	175.19
237.455	213.19
237.689	163.19
237.922	128.19
238.156	115.19
238.39	122.19
238.624	123.19
238.858	123.19
239.091	121.19
239.325	126.19
239.559	116.19
239.793	121.19
240.027	135.19
240.26	130.19
240.494	152.19
240.728	143.19
240.961	146.19
241.195	138.19
241.429	135.19
241.662	134.19
241.896	121.19
242.13	122.19
242.363	154.19
242.597	134.19
242.83	137.19
243.064	117.19
243.298	126.19
243.531	150.19
243.765	134.19
243.998	148.19
244.232	124.19
244.465	144.19
244.699	125.19
244.932	133.19
245.166	141.19
245.399	146.19
245.633	142.19
245.866	143.19
246.099	138.19
246.333	140.19
246.566	144.19
246.8	149.19
247.033	145.19
247.266	135.19
247.5	158.19
247.733	153.19
247.966	175.19
248.2	186.19
248.433	164.19
248.666	171.19
248.899	188.19
249.133	194.19
249.366	207.19
249.599	200.19
249.832	175.19
250.066	175.19
250.299	170.19
250.532	184.19
250.765	207.19
250.998	200.19
251.231	206.19
251.465	208.19
251.698	203.19
251.931	199.19
252.164	200.19
252.397	204.19
252.63	188.19
252.863	200.19
253.096	219.19
253.329	212.19
253.562	229.19
253.795	227.19
254.028	213.19
254.261	219.19
254.494	227.19
254.727	252.19
254.96	252.19
255.193	250.19
255.426	235.19
255.659	233.19
255.892	235.19
256.124	242.19
256.357	211.19
256.59	208.19
256.823	199.19
257.056	212.19
257.289	222.19
257.521	207.19
257.754	168.19
257.987	212.19
258.22	208.19
258.452	200.19
258.685	208.19
258.918	198.19
259.151	224.19
259.383	234.19
259.616	242.19
259.849	239.19
260.081	232.19
260.314	261.19
260.547	267.19
260.779	250.19
261.012	228.19
261.244	222.19
261.477	212.19
261.71	226.19
261.942	212.19
262.175	229.19
262.407	224.19
262.64	211.19
262.872	201.19
263.105	216.19
263.337	208.19
263.57	209.19
263.802	225.19
264.035	217.19
264.267	208.19
264.499	198.19
264.732	212.19
264.964	201.19
265.197	215.19
265.429	218.19
265.661	210.19
265.894	224.19
266.126	212.19
266.358	200.19
266.591	204.19
266.823	226.19
267.055	222.19
267.287	223.19
267.52	219.19
267.752	232.19
267.984	222.19
268.216	220.19
268.448	221.19
268.681	234.19
268.913	238.19
269.145	249.19
269.377	264.19
269.609	258.19
269.841	267.19
270.073	252.19
270.306	286.19
270.538	306.19
270.77	310.19
271.002	281.19
271.234	288.19
271.466	299.19
271.698	317.19
271.93	321.19
272.162	317.19
272.394	310.19
272.626	292.19
272.858	303.19
273.09	285.19
273.322	271.19
273.553	262.19
273.785	250.19
274.017	242.19
274.249	265.19
274.481	261.19
274.713	251.19
274.945	252.19
275.176	267.19
275.408	262.19
275.64	251.19
275.872	252.19
276.104	246.19
276.335	257.19
276.567	262.19
276.799	270.19
277.031	306.19
277.262	299.19
277.494	290.19
277.726	284.19
277.957	299.19
278.189	270.19
278.421	257.19
278.652	256.19
278.884	272.19
279.115	250.19
279.347	252.19
279.579	254.19
279.81	277.19
280.042	266.19
280.273	264.19
280.505	258.19
280.736	251.19
280.968	240.19
281.199	262.19
281.431	271.19
281.662	258.19
281.894	245.19
282.125	258.19
282.356	271.19
282.588	293.19
282.819	296.19
283.051	266.19
283.282	266.19
283.513	265.19
283.745	276.19
283.976	265.19
284.207	271.19
284.439	263.19
284.67	270.19
284.901	244.19
285.132	267.19
285.364	287.19
285.595	244.19
285.826	249.19
286.057	251.19
286.288	278.19
286.52	255.19
286.751	268.19
286.982	253.19
287.213	289.19
287.444	269.19
287.675	271.19
287.906	291.19
288.138	293.19
288.369	284.19
288.6	291.19
288.831	289.19
289.062	287.19
289.293	264.19
289.524	266.19
289.755	264.19
289.986	267.19
290.217	278.19
290.448	265.19
290.679	284.19
290.91	266.19
291.141	274.19
291.371	295.19
291.602	280.19
291.833	273.19
292.064	276.19
292.295	271.19
292.526	283.19
292.757	283.19
292.987	282.19
293.218	248.19
293.449	278.19
293.68	278.19
293.91	278.19
294.141	275.19
294.372	262.19
294.603	273.19
294.833	271.19
295.064	282.19
295.295	271.19
295.525	285.19
295.756	295.19
295.987	297.19
296.217	291.19
296.448	327.19
296.679	289.19
296.909	271.19
297.14	282.19
297.37	278.19
297.601	294.19
297.831	286.19
298.062	277.19
298.292	280.19
298.523	293.19
298.753	295.19
298.984	270.19
299.214	297.19
299.445	287.19
299.675	281.19
299.905	303.19
300.136	296.19
300.366	287.19
300.597	283.19
300.827	316.19
301.057	308.19
301.288	305.19
301.518	307.19
301.748	317.19
301.979	322.19
302.209	311.19
302.439	313.19
302.669	323.19
302.9	303.19
303.13	311.19
303.36	324.19
303.59	298.19
303.82	313.19
304.051	327.19
304.281	299.19
304.511	298.19
304.741	291.19
304.971	288.19
305.201	306.19
305.431	304.19
305.661	294.19
305.891	299.19
306.121	304.19
306.352	313.19
306.582	311.19
306.812	301.19
307.042	299.19
307.272	310.19
307.502	319.19
307.731	317.19
307.961	312.19
308.191	294.19
308.421	307.19
308.651	326.19
308.881	317.19
309.111	333.19
309.341	318.19
309.571	320.19
309.8	318.19
310.03	359.19
310.26	339.19
310.49	360.19
310.72	357.19
310.949	359.19
311.179	381.19
311.409	364.19
311.639	373.19
311.868	374.19
312.098	355.19
312.328	372.19
312.557	384.19
312.787	378.19
313.017	397.19
313.246	375.19
313.476	364.19
313.706	356.19
313.935	379.19
314.165	389.19
314.394	378.19
314.624	374.19
314.853	358.19
315.083	372.19
315.312	376.19
315.542	336.19
315.771	362.19
316.001	345.19
316.23	361.19
316.46	353.19
316.689	365.19
316.919	356.19
317.148	374.19
317.377	368.19
317.607	356.19
317.836	354.19
318.065	351.19
318.295	351.19
318.524	376.19
318.753	333.19
318.983	366.19
319.212	356.19
319.441	351.19
319.67	373.19
319.9	363.19
320.129	361.19
320.358	366.19
320.587	374.19
320.816	381.19
321.046	390.19
321.275	372.19
321.504	387.19
321.733	376.19
321.962	393.19
322.191	394.19
322.42	414.19
322.649	445.19
322.878	446.19
323.108	452.19
323.337	484.19
323.566	500.19
323.795	536.19
324.024	578.19
324.253	690.19
324.482	1016.19
324.71	1524.19
324.939	2104.19
325.168	1807.19
325.397	951.19
325.626	691.19
325.855	573.19
326.084	524.19
326.313	486.19
326.542	492.19
326.77	558.19
326.999	662.19
327.228	900.19
327.457	1336.19
327.686	1571.19
327.914	1048.19
328.143	726.19
328.372	644.19
328.6	565.19
328.829	567.19
329.058	584.19
329.287	548.19
329.515	554.19
329.744	503.19
329.972	506.19
330.201	487.19
330.43	549.19
330.658	545.19
330.887	582.19
331.115	566.19
331.344	495.19
331.572	467.19
331.801	463.19
332.03	445.19
332.258	461.19
332.486	437.19
332.715	419.19
332.943	429.19
333.172	431.19
333.4	414.19
333.629	439.19
333.857	430.19
334.085	447.19
334.314	468.19
334.542	463.19
334.771	486.19
334.999	444.19
335.227	435.19
335.455	428.19
335.684	408.19
335.912	411.19
336.14	394.19
336.369	436.19
336.597	398.19
336.825	408.19
337.053	409.19
337.281	399.19
337.51	410.19
337.738	404.19
337.966	404.19
338.194	410.19
338.422	394.19
338.65	411.19
338.878	386.19
339.106	394.19
339.334	383.19
339.562	374.19
339.79	397.19
340.018	408.19
340.246	415.19
340.474	399.19
340.702	404.19
340.93	386.19
341.158	381.19
341.386	375.19
341.614	386.19
341.842	376.19
342.07	374.19
342.298	376.19
342.526	383.19
342.754	399.19
342.981	395.19
343.209	357.19
343.437	388.19
343.665	377.19
343.893	398.19
344.12	396.19
344.348	377.19
344.576	387.19
344.804	408.19
345.031	404.19
345.259	390.19
345.487	418.19
345.714	382.19
345.942	401.19
346.17	379.19
346.397	400.19
346.625	382.19
346.853	391.19
347.08	376.19
347.308	382.19
347.535	393.19
347.763	396.19
347.99	375.19
348.218	399.19
348.445	412.19
348.673	399.19
348.9	382.19
349.128	396.19
349.355	364.19
349.583	356.19
349.81	362.19
350.037	352.19
350.265	364.19
350.492	379.19
350.72	366.19
350.947	367.19
351.174	377.19
351.402	378.19
351.629	381.19
351.856	389.19
352.083	404.19
352.311	402.19
352.538	406.19
352.765	394.19
352.992	371.19
353.22	354.19
353.447	374.19
353.674	387.19
353.901	360.19
354.128	359.19
354.355	342.19
354.583	364.19
354.81	354.19
355.037	338.19
355.264	359.19
355.491	352.19
355.718	346.19
355.945	353.19
356.172	372.19
356.399	338.19
356.626	357.19
356.853	339.19
357.08	339.19
357.307	347.19
357.534	351.19
357.761	337.19
357.988	350.19
358.215	362.19
358.441	337.19
358.668	345.19
358.895	352.19
359.122	351.19
359.349	367.19
359.576	366.19
359.802	376.19
360.029	414.19
360.256	421.19
360.483	391.19
360.709	380.19
360.936	363.19
361.163	387.19
361.39	394.19
361.616	374.19
361.843	378.19
362.07	382.19
362.296	370.19
362.523	361.19
362.749	367.19
362.976	377.19
363.203	364.19
363.429	360.19
363.656	361.19
363.882	356.19
364.109	357.19
364.335	351.19
364.562	362.19
364.788	348.19
365.015	349.19
365.241	340.19
365.468	342.19
365.694	341.19
365.92	355.19
366.147	344.19
366.373	360.19
366.599	349.19
366.826	330.19
367.052	335.19
367.278	361.19
367.505	358.19
367.731	363.19
367.957	347.19
368.184	341.19
368.41	344.19
368.636	359.19
368.862	371.19
369.089	346.19
369.315	362.19
369.541	351.19
369.767	332.19
369.993	332.19
370.219	348.19
370.445	349.19
370.672	358.19
370.898	343.19
371.124	343.19
371.35	336.19
371.576	336.19
371.802	345.19
372.028	344.19
372.254	340.19
372.48	353.19
372.706	331.19
372.932	336.19
373.158	332.19
373.384	339.19
373.61	360.19
373.835	347.19
374.061	358.19
374.287	336.19
374.513	328.19
374.739	362.19
374.965	347.19
375.191	349.19
375.416	350.19
375.642	352.19
375.868	329.19
376.094	354.19
376.319	320.19
376.545	337.19
376.771	340.19
376.997	325.19
377.222	335.19
377.448	340.19
377.674	331.19
377.899	348.19
378.125	335.19
378.35	342.19
378.576	326.19
378.802	331.19
379.027	328.19
379.253	351.19
379.478	315.19
379.704	339.19
379.929	314.19
380.155	352.19
380.38	344.19
380.606	332.19
380.831	328.19
381.057	347.19
381.282	336.19
381.507	345.19
381.733	322.19
381.958	333.19
382.184	333.19
382.409	340.19
382.634	327.19
382.86	346.19
383.085	334.19
383.31	352.19
383.535	331.19
383.761	355.19
383.986	345.19
384.211	358.19
384.436	330.19
384.662	343.19
384.887	349.19
385.112	342.19
385.337	348.19
385.562	367.19
385.787	342.19
386.013	392.19
386.238	358.19
386.463	374.19
386.688	365.19
386.913	363.19
387.138	359.19
387.363	341.19
387.588	342.19
387.813	351.19
388.038	367.19
388.263	352.19
388.488	361.19
388.713	342.19
388.938	338.19
389.163	351.19
389.387	340.19
389.612	348.19
389.837	342.19
390.062	352.19
390.287	362.19
390.512	348.19
390.736	356.19
390.961	350.19
391.186	345.19
391.411	366.19
391.636	341.19
391.86	365.19
392.085	352.19
392.31	372.19
392.534	365.19
392.759	344.19
392.984	372.19
393.208	358.19
393.433	366.19
393.658	351.19
393.882	370.19
394.107	351.19
394.331	367.19
394.556	350.19
394.78	352.19
395.005	355.19
395.229	368.19
395.454	351.19
395.678	348.19
395.903	382.19
396.127	376.19
396.352	385.19
396.576	365.19
396.801	353.19
397.025	384.19
397.249	360.19
397.474	360.19
397.698	357.19
397.922	376.19
398.147	386.19
398.371	384.19
398.595	378.19
398.82	388.19
399.044	376.19
399.268	418.19
399.492	420.19
399.717	404.19
399.941	430.19
400.165	465.19
400.389	472.19
400.613	424.19
400.837	414.19
401.062	404.19
401.286	395.19
401.51	391.19
401.734	390.19
401.958	398.19
402.182	404.19
402.406	393.19
402.63	386.19
402.854	393.19
403.078	390.19
403.302	396.19
403.526	410.19
403.75	392.19
403.974	406.19
404.198	368.19
404.422	384.19
404.645	418.19
404.869	407.19
405.093	421.19
405.317	467.19
405.541	491.19
405.765	433.19
405.988	455.19
406.212	443.19
406.436	436.19
406.66	458.19
406.883	446.19
407.107	481.19
407.331	495.19
407.555	537.19
407.778	538.19
408.002	490.19
408.226	441.19
408.449	422.19
408.673	436.19
408.896	465.19
409.12	479.19
409.344	484.19
409.567	404.19
409.791	408.19
410.014	400.19
410.238	395.19
410.461	400.19
410.685	395.19
410.908	402.19
411.132	443.19
411.355	454.19
411.578	448.19
411.802	431.19
412.025	385.19
412.249	414.19
412.472	414.19
412.695	446.19
412.919	419.19
413.142	410.19
413.365	406.19
413.589	392.19
413.812	398.19
414.035	378.19
414.258	390.19
414.482	365.19
414.705	362.19
414.928	363.19
415.151	377.19
415.374	394.19
415.597	373.19
415.821	380.19
416.044	355.19
416.267	375.19
416.49	382.19
416.713	391.19
416.936	388.19
417.159	370.19
417.382	352.19
417.605	380.19
417.828	405.19
418.051	386.19
418.274	385.19
418.497	395.19
418.72	392.19
418.943	376.19
419.166	399.19
419.389	400.19
419.611	403.19
419.834	406.19
420.057	397.19
420.28	413.19
420.503	389.19
420.726	412.19
420.948	413.19
421.171	450.19
421.394	475.19
421.617	423.19
421.839	420.19
422.062	409.19
422.285	417.19
422.507	455.19
422.73	524.19
422.953	473.19
423.175	454.19
423.398	430.19
423.621	422.19
423.843	416.19
424.066	424.19
424.288	442.19
424.511	458.19
424.733	512.19
424.956	573.19
425.178	544.19
425.401	527.19
425.623	550.19
425.846	498.19
426.068	448.19
426.291	458.19
426.513	447.19
426.735	452.19
426.958	472.19
427.18	573.19
427.402	628.19
427.625	729.19
427.847	627.19
428.069	542.19
428.292	496.19
428.514	436.19
428.736	421.19
428.958	415.19
429.181	399.19
429.403	411.19
429.625	420.19
429.847	451.19
430.069	495.19
430.292	522.19
430.514	442.19
430.736	410.19
430.958	404.19
431.18	363.19
431.402	377.19
431.624	384.19
431.846	352.19
432.068	390.19
432.29	396.19
432.512	388.19
432.734	378.19
432.956	377.19
433.178	397.19
433.4	388.19
433.622	387.19
433.844	371.19
434.066	361.19
434.287	374.19
434.509	390.19
434.731	400.19
434.953	399.19
435.175	393.19
435.397	413.19
435.618	436.19
435.84	469.19
436.062	570.19
436.284	614.19
436.505	498.19
436.727	448.19
436.949	422.19
437.17	421.19
437.392	428.19
437.614	436.19
437.835	460.19
438.057	540.19
438.278	611.19
438.5	598.19
438.721	642.19
438.943	626.19
439.165	516.19
439.386	469.19
439.608	453.19
439.829	455.19
440.05	467.19
440.272	516.19
440.493	502.19
440.715	450.19
440.936	425.19
441.158	413.19
441.379	426.19
441.6	428.19
441.822	425.19
442.043	462.19
442.264	534.19
442.486	562.19
442.707	478.19
442.928	441.19
443.149	440.19
443.371	477.19
443.592	500.19
443.813	566.19
444.034	637.19
444.255	520.19
444.476	453.19
444.698	420.19
444.919	435.19
445.14	531.19
445.361	496.19
445.582	475.19
445.803	534.19
446.024	609.19
446.245	626.19
446.466	554.19
446.687	493.19
446.908	464.19
447.129	421.19
447.35	411.19
447.571	412.19
447.792	410.19
448.013	419.19
448.234	430.19
448.455	473.19
448.675	575.19
448.896	647.19
449.117	567.19
449.338	514.19
449.559	606.19
449.779	676.19
450	557.19
450.221	465.19
450.442	430.19
450.662	400.19
450.883	399.19
451.104	422.19
451.324	394.19
451.545	399.19
451.766	396.19
451.986	369.19
452.207	368.19
452.428	358.19
452.648	374.19
452.869	353.19
453.089	382.19
453.31	390.19
453.53	400.19
453.751	365.19
453.971	377.19
454.192	379.19
454.412	388.19
454.633	364.19
454.853	364.19
455.073	366.19
455.294	398.19
455.514	455.19
455.734	419.19
455.955	352.19
456.175	363.19
456.395	333.19
456.616	348.19
456.836	335.19
457.056	340.19
457.276	345.19
457.497	330.19
457.717	340.19
457.937	348.19
458.157	367.19
458.377	364.19
458.598	392.19
458.818	427.19
459.038	513.19
459.258	513.19
459.478	416.19
459.698	380.19
459.918	375.19
460.138	385.19
460.358	367.19
460.578	370.19
460.798	371.19
461.018	378.19
461.238	369.19
461.458	403.19
461.678	374.19
461.898	379.19
462.118	369.19
462.338	390.19
462.558	383.19
462.777	390.19
462.997	390.19
463.217	398.19
463.437	397.19
463.657	383.19
463.876	400.19
464.096	393.19
464.316	394.19
464.536	407.19
464.755	391.19
464.975	396.19
465.195	450.19
465.414	506.19
465.634	446.19
465.854	416.19
466.073	381.19
466.293	400.19
466.512	367.19
466.732	336.19
466.951	384.19
467.171	380.19
467.391	393.19
467.61	392.19
467.829	392.19
468.049	373.19
468.268	383.19
468.488	359.19
468.707	361.19
468.927	363.19
469.146	365.19
469.365	348.19
469.585	377.19
469.804	373.19
470.023	371.19
470.243	388.19
470.462	350.19
470.681	379.19
470.901	386.19
471.12	381.19
471.339	365.19
471.558	375.19
471.777	380.19
471.997	366.19
472.216	388.19
472.435	388.19
472.654	387.19
472.873	377.19
473.092	390.19
473.311	394.19
473.53	383.19
473.749	380.19
473.968	443.19
474.187	495.19
474.406	521.19
474.625	446.19
474.844	404.19
475.063	401.19
475.282	362.19
475.501	361.19
475.72	396.19
475.939	406.19
476.158	393.19
476.377	400.19
476.596	388.19
476.814	380.19
477.033	398.19
477.252	405.19
477.471	395.19
477.69	389.19
477.908	415.19
478.127	392.19
478.346	378.19
478.564	407.19
478.783	414.19
479.002	423.19
479.22	418.19
479.439	408.19
479.658	417.19
479.876	440.19
480.095	460.19
480.313	454.19
480.532	446.19
480.751	445.19
480.969	443.19
481.188	482.19
481.406	510.19
481.624	472.19
481.843	438.19
482.061	404.19
482.28	452.19
482.498	455.19
482.717	434.19
482.935	451.19
483.153	446.19
483.372	441.19
483.59	422.19
483.808	418.19
484.027	427.19
484.245	429.19
484.463	457.19
484.681	452.19
484.9	438.19
485.118	440.19
485.336	463.19
485.554	446.19
485.772	465.19
485.99	451.19
486.209	476.19
486.427	458.19
486.645	457.19
486.863	486.19
487.081	463.19
487.299	488.19
487.517	471.19
487.735	491.19
487.953	468.19
488.171	447.19
488.389	468.19
488.607	455.19
488.825	473.19
489.043	470.19
489.261	484.19
489.479	481.19
489.696	464.19
489.914	481.19
490.132	490.19
490.35	474.19
490.568	477.19
490.786	498.19
491.003	496.19
491.221	503.19
491.439	520.19
491.657	531.19
491.874	536.19
492.092	527.19
492.31	528.19
492.527	534.19
492.745	539.19
492.963	522.19
493.18	530.19
493.398	548.19
493.615	554.19
493.833	546.19
494.05	533.19
494.268	536.19
494.485	543.19
494.703	531.19
494.92	530.19
495.138	567.19
495.355	570.19
495.573	584.19
495.79	553.19
496.008	555.19
496.225	536.19
496.442	557.19
496.66	554.19
496.877	550.19
497.094	580.19
497.312	551.19
497.529	576.19
497.746	580.19
497.963	562.19
498.181	587.19
498.398	605.19
498.615	587.19
498.832	606.19
499.049	600.19
499.267	635.19
499.484	634.19
499.701	661.19
499.918	640.19
500.135	670.19
500.352	682.19
500.569	678.19
500.786	707.19
501.003	672.19
501.22	681.19
501.437	674.19
501.654	679.19
501.871	659.19
