Data from 1981.PennyLincolnUp.Lamp.En5.5.200Scan.071819.P1_HRD10591_16-41-51-959.txt Node
Date: Thu Jul 18 16:41:51 EDT 2019
User: cochatt
Spectrometer: HR+D1059
Trigger mode: 1
Integration Time (sec): 1.000000E-1
Scans to average: 1
Electric dark correction enabled: true
Nonlinearity correction enabled: false
Boxcar width: 0
XAxis mode: Wavelengths
Number of Pixels in Spectrum: 2048
>>>>>Begin Spectral Data<<<<<
223.165	-22.06
223.4	-22.06
223.635	-22.06
223.869	-30.06
224.104	-17.06
224.338	-14.06
224.573	-16.06
224.808	1.94
225.042	-16.06
225.277	-2.06
225.511	-6.06
225.746	-2.06
225.98	11.94
226.215	15.94
226.449	21.94
226.683	26.94
226.918	20.94
227.152	25.94
227.387	25.94
227.621	32.94
227.856	26.94
228.09	39.94
228.324	38.94
228.559	58.94
228.793	68.94
229.027	101.94
229.262	104.94
229.496	108.94
229.73	134.94
229.964	162.94
230.199	123.94
230.433	113.94
230.667	113.94
230.901	106.94
231.136	119.94
231.37	119.94
231.604	130.94
231.838	121.94
232.072	112.94
232.306	131.94
232.541	117.94
232.775	111.94
233.009	114.94
233.243	113.94
233.477	113.94
233.711	102.94
233.945	105.94
234.179	108.94
234.413	106.94
234.647	118.94
234.881	112.94
235.115	112.94
235.349	120.94
235.583	110.94
235.817	116.94
236.051	127.94
236.285	118.94
236.519	132.94
236.753	128.94
236.987	149.94
237.221	184.94
237.455	245.94
237.689	191.94
237.922	132.94
238.156	127.94
238.39	139.94
238.624	122.94
238.858	129.94
239.091	137.94
239.325	127.94
239.559	125.94
239.793	131.94
240.027	148.94
240.26	135.94
240.494	169.94
240.728	142.94
240.961	144.94
241.195	147.94
241.429	128.94
241.662	122.94
241.896	139.94
242.13	151.94
242.363	130.94
242.597	127.94
242.83	124.94
243.064	135.94
243.298	136.94
243.531	146.94
243.765	139.94
243.998	127.94
244.232	138.94
244.465	133.94
244.699	140.94
244.932	132.94
245.166	157.94
245.399	137.94
245.633	167.94
245.866	149.94
246.099	148.94
246.333	145.94
246.566	151.94
246.8	154.94
247.033	167.94
247.266	159.94
247.5	162.94
247.733	170.94
247.966	154.94
248.2	180.94
248.433	185.94
248.666	179.94
248.899	191.94
249.133	207.94
249.366	224.94
249.599	186.94
249.832	186.94
250.066	192.94
250.299	188.94
250.532	185.94
250.765	204.94
250.998	207.94
251.231	241.94
251.465	212.94
251.698	224.94
251.931	207.94
252.164	217.94
252.397	202.94
252.63	213.94
252.863	232.94
253.096	222.94
253.329	235.94
253.562	243.94
253.795	223.94
254.028	230.94
254.261	221.94
254.494	238.94
254.727	260.94
254.96	287.94
255.193	305.94
255.426	273.94
255.659	248.94
255.892	253.94
256.124	237.94
256.357	249.94
256.59	233.94
256.823	220.94
257.056	234.94
257.289	234.94
257.521	213.94
257.754	221.94
257.987	222.94
258.22	231.94
258.452	206.94
258.685	226.94
258.918	190.94
259.151	235.94
259.383	223.94
259.616	231.94
259.849	227.94
260.081	245.94
260.314	281.94
260.547	261.94
260.779	240.94
261.012	241.94
261.244	235.94
261.477	230.94
261.71	225.94
261.942	231.94
262.175	239.94
262.407	257.94
262.64	219.94
262.872	222.94
263.105	239.94
263.337	212.94
263.57	209.94
263.802	207.94
264.035	208.94
264.267	228.94
264.499	226.94
264.732	220.94
264.964	217.94
265.197	224.94
265.429	227.94
265.661	224.94
265.894	247.94
266.126	215.94
266.358	226.94
266.591	244.94
266.823	239.94
267.055	236.94
267.287	229.94
267.52	223.94
267.752	226.94
267.984	220.94
268.216	210.94
268.448	245.94
268.681	227.94
268.913	268.94
269.145	258.94
269.377	279.94
269.609	268.94
269.841	262.94
270.073	285.94
270.306	319.94
270.538	326.94
270.77	323.94
271.002	320.94
271.234	313.94
271.466	315.94
271.698	325.94
271.93	351.94
272.162	353.94
272.394	331.94
272.626	324.94
272.858	313.94
273.09	296.94
273.322	301.94
273.553	286.94
273.785	259.94
274.017	277.94
274.249	283.94
274.481	271.94
274.713	291.94
274.945	275.94
275.176	278.94
275.408	252.94
275.64	276.94
275.872	259.94
276.104	277.94
276.335	273.94
276.567	282.94
276.799	292.94
277.031	308.94
277.262	321.94
277.494	313.94
277.726	314.94
277.957	309.94
278.189	278.94
278.421	274.94
278.652	281.94
278.884	273.94
279.115	262.94
279.347	261.94
279.579	285.94
279.81	265.94
280.042	287.94
280.273	266.94
280.505	267.94
280.736	282.94
280.968	271.94
281.199	268.94
281.431	274.94
281.662	269.94
281.894	263.94
282.125	276.94
282.356	299.94
282.588	314.94
282.819	316.94
283.051	283.94
283.282	258.94
283.513	271.94
283.745	277.94
283.976	294.94
284.207	275.94
284.439	290.94
284.67	291.94
284.901	277.94
285.132	299.94
285.364	274.94
285.595	294.94
285.826	299.94
286.057	279.94
286.288	268.94
286.52	297.94
286.751	266.94
286.982	283.94
287.213	284.94
287.444	280.94
287.675	290.94
287.906	312.94
288.138	295.94
288.369	303.94
288.6	329.94
288.831	278.94
289.062	315.94
289.293	292.94
289.524	299.94
289.755	297.94
289.986	273.94
290.217	294.94
290.448	281.94
290.679	274.94
290.91	285.94
291.141	287.94
291.371	278.94
291.602	281.94
291.833	276.94
292.064	291.94
292.295	291.94
292.526	299.94
292.757	278.94
292.987	291.94
293.218	291.94
293.449	287.94
293.68	286.94
293.91	281.94
294.141	278.94
294.372	305.94
294.603	307.94
294.833	292.94
295.064	300.94
295.295	293.94
295.525	282.94
295.756	288.94
295.987	299.94
296.217	345.94
296.448	339.94
296.679	316.94
296.909	299.94
297.14	285.94
297.37	303.94
297.601	287.94
297.831	284.94
298.062	287.94
298.292	300.94
298.523	309.94
298.753	301.94
298.984	300.94
299.214	292.94
299.445	303.94
299.675	312.94
299.905	317.94
300.136	290.94
300.366	321.94
300.597	304.94
300.827	316.94
301.057	316.94
301.288	316.94
301.518	324.94
301.748	308.94
301.979	338.94
302.209	313.94
302.439	325.94
302.669	305.94
302.9	318.94
303.13	324.94
303.36	306.94
303.59	323.94
303.82	340.94
304.051	343.94
304.281	345.94
304.511	321.94
304.741	328.94
304.971	324.94
305.201	325.94
305.431	326.94
305.661	303.94
305.891	322.94
306.121	336.94
306.352	347.94
306.582	339.94
306.812	330.94
307.042	309.94
307.272	333.94
307.502	331.94
307.731	348.94
307.961	327.94
308.191	321.94
308.421	321.94
308.651	332.94
308.881	350.94
309.111	341.94
309.341	356.94
309.571	354.94
309.8	350.94
310.03	369.94
310.26	383.94
310.49	392.94
310.72	381.94
310.949	402.94
311.179	421.94
311.409	386.94
311.639	390.94
311.868	379.94
312.098	387.94
312.328	385.94
312.557	404.94
312.787	426.94
313.017	412.94
313.246	388.94
313.476	385.94
313.706	371.94
313.935	393.94
314.165	392.94
314.394	426.94
314.624	413.94
314.853	389.94
315.083	380.94
315.312	375.94
315.542	379.94
315.771	365.94
316.001	369.94
316.23	369.94
316.46	378.94
316.689	378.94
316.919	388.94
317.148	387.94
317.377	398.94
317.607	389.94
317.836	379.94
318.065	395.94
318.295	393.94
318.524	384.94
318.753	363.94
318.983	395.94
319.212	368.94
319.441	412.94
319.67	407.94
319.9	396.94
320.129	380.94
320.358	379.94
320.587	364.94
320.816	393.94
321.046	412.94
321.275	399.94
321.504	431.94
321.733	401.94
321.962	429.94
322.191	447.94
322.42	443.94
322.649	481.94
322.878	479.94
323.108	490.94
323.337	508.94
323.566	546.94
323.795	583.94
324.024	633.94
324.253	806.94
324.482	1166.94
324.71	1730.94
324.939	2417.94
325.168	2027.94
325.397	1095.94
325.626	735.94
325.855	586.94
326.084	574.94
326.313	529.94
326.542	561.94
326.77	615.94
326.999	725.94
327.228	1030.94
327.457	1549.94
327.686	1740.94
327.914	1171.94
328.143	784.94
328.372	718.94
328.6	670.94
328.829	588.94
329.058	613.94
329.287	631.94
329.515	592.94
329.744	569.94
329.972	554.94
330.201	543.94
330.43	594.94
330.658	618.94
330.887	650.94
331.115	622.94
331.344	539.94
331.572	512.94
331.801	513.94
332.03	511.94
332.258	477.94
332.486	454.94
332.715	447.94
332.943	454.94
333.172	447.94
333.4	460.94
333.629	464.94
333.857	465.94
334.085	475.94
334.314	484.94
334.542	506.94
334.771	547.94
334.999	485.94
335.227	456.94
335.455	457.94
335.684	458.94
335.912	435.94
336.14	443.94
336.369	438.94
336.597	448.94
336.825	444.94
337.053	452.94
337.281	403.94
337.51	437.94
337.738	439.94
337.966	438.94
338.194	438.94
338.422	435.94
338.65	436.94
338.878	439.94
339.106	411.94
339.334	391.94
339.562	395.94
339.79	405.94
340.018	437.94
340.246	424.94
340.474	438.94
340.702	424.94
340.93	429.94
341.158	424.94
341.386	408.94
341.614	437.94
341.842	427.94
342.07	404.94
342.298	424.94
342.526	398.94
342.754	396.94
342.981	411.94
343.209	410.94
343.437	423.94
343.665	401.94
343.893	429.94
344.12	422.94
344.348	421.94
344.576	428.94
344.804	414.94
345.031	438.94
345.259	439.94
345.487	434.94
345.714	426.94
345.942	394.94
346.17	414.94
346.397	400.94
346.625	401.94
346.853	391.94
347.08	390.94
347.308	404.94
347.535	413.94
347.763	430.94
347.99	411.94
348.218	418.94
348.445	419.94
348.673	421.94
348.9	427.94
349.128	409.94
349.355	424.94
349.583	375.94
349.81	378.94
350.037	388.94
350.265	385.94
350.492	373.94
350.72	398.94
350.947	386.94
351.174	406.94
351.402	419.94
351.629	415.94
351.856	404.94
352.083	427.94
352.311	400.94
352.538	428.94
352.765	423.94
352.992	389.94
353.22	399.94
353.447	409.94
353.674	401.94
353.901	369.94
354.128	372.94
354.355	373.94
354.583	381.94
354.81	379.94
355.037	378.94
355.264	360.94
355.491	352.94
355.718	356.94
355.945	384.94
356.172	353.94
356.399	375.94
356.626	368.94
356.853	383.94
357.08	358.94
357.307	369.94
357.534	367.94
357.761	376.94
357.988	370.94
358.215	380.94
358.441	360.94
358.668	369.94
358.895	377.94
359.122	367.94
359.349	400.94
359.576	396.94
359.802	392.94
360.029	445.94
360.256	459.94
360.483	436.94
360.709	399.94
360.936	400.94
361.163	401.94
361.39	402.94
361.616	384.94
361.843	401.94
362.07	389.94
362.296	385.94
362.523	381.94
362.749	383.94
362.976	383.94
363.203	395.94
363.429	385.94
363.656	379.94
363.882	387.94
364.109	377.94
364.335	380.94
364.562	384.94
364.788	372.94
365.015	378.94
365.241	378.94
365.468	373.94
365.694	370.94
365.92	376.94
366.147	374.94
366.373	367.94
366.599	364.94
366.826	383.94
367.052	369.94
367.278	377.94
367.505	372.94
367.731	385.94
367.957	354.94
368.184	360.94
368.41	351.94
368.636	376.94
368.862	380.94
369.089	367.94
369.315	360.94
369.541	359.94
369.767	365.94
369.993	371.94
370.219	371.94
370.445	328.94
370.672	369.94
370.898	366.94
371.124	349.94
371.35	358.94
371.576	362.94
371.802	354.94
372.028	346.94
372.254	355.94
372.48	354.94
372.706	360.94
372.932	361.94
373.158	368.94
373.384	362.94
373.61	375.94
373.835	368.94
374.061	348.94
374.287	355.94
374.513	368.94
374.739	373.94
374.965	355.94
375.191	353.94
375.416	357.94
375.642	352.94
375.868	356.94
376.094	348.94
376.319	333.94
376.545	349.94
376.771	346.94
376.997	346.94
377.222	329.94
377.448	343.94
377.674	347.94
377.899	348.94
378.125	336.94
378.35	360.94
378.576	357.94
378.802	336.94
379.027	341.94
379.253	341.94
379.478	340.94
379.704	367.94
379.929	360.94
380.155	359.94
380.38	358.94
380.606	371.94
380.831	353.94
381.057	358.94
381.282	353.94
381.507	338.94
381.733	333.94
381.958	349.94
382.184	348.94
382.409	359.94
382.634	327.94
382.86	345.94
383.085	359.94
383.31	358.94
383.535	362.94
383.761	355.94
383.986	358.94
384.211	351.94
384.436	369.94
384.662	348.94
384.887	371.94
385.112	362.94
385.337	363.94
385.562	356.94
385.787	370.94
386.013	383.94
386.238	371.94
386.463	373.94
386.688	359.94
386.913	356.94
387.138	369.94
387.363	371.94
387.588	342.94
387.813	356.94
388.038	367.94
388.263	359.94
388.488	359.94
388.713	376.94
388.938	397.94
389.163	374.94
389.387	388.94
389.612	370.94
389.837	375.94
390.062	369.94
390.287	360.94
390.512	363.94
390.736	351.94
390.961	377.94
391.186	364.94
391.411	387.94
391.636	387.94
391.86	381.94
392.085	376.94
392.31	376.94
392.534	381.94
392.759	366.94
392.984	375.94
393.208	369.94
393.433	373.94
393.658	359.94
393.882	357.94
394.107	367.94
394.331	360.94
394.556	351.94
394.78	339.94
395.005	351.94
395.229	353.94
395.454	365.94
395.678	375.94
395.903	385.94
396.127	398.94
396.352	395.94
396.576	385.94
396.801	369.94
397.025	369.94
397.249	390.94
397.474	391.94
397.698	388.94
397.922	381.94
398.147	425.94
398.371	423.94
398.595	422.94
398.82	385.94
399.044	403.94
399.268	405.94
399.492	428.94
399.717	437.94
399.941	466.94
400.165	492.94
400.389	502.94
400.613	457.94
400.837	434.94
401.062	421.94
401.286	426.94
401.51	414.94
401.734	402.94
401.958	428.94
402.182	421.94
402.406	420.94
402.63	453.94
402.854	414.94
403.078	422.94
403.302	421.94
403.526	439.94
403.75	427.94
403.974	418.94
404.198	419.94
404.422	417.94
404.645	436.94
404.869	441.94
405.093	460.94
405.317	513.94
405.541	503.94
405.765	484.94
405.988	443.94
406.212	461.94
406.436	484.94
406.66	478.94
406.883	456.94
407.107	477.94
407.331	526.94
407.555	577.94
407.778	566.94
408.002	507.94
408.226	481.94
408.449	468.94
408.673	473.94
408.896	476.94
409.12	526.94
409.344	470.94
409.567	460.94
409.791	441.94
410.014	426.94
410.238	419.94
410.461	425.94
410.685	436.94
410.908	435.94
411.132	472.94
411.355	501.94
411.578	456.94
411.802	439.94
412.025	426.94
412.249	430.94
412.472	456.94
412.695	477.94
412.919	482.94
413.142	433.94
413.365	410.94
413.589	402.94
413.812	385.94
414.035	398.94
414.258	403.94
414.482	398.94
414.705	405.94
414.928	423.94
415.151	385.94
415.374	412.94
415.597	389.94
415.821	377.94
416.044	394.94
416.267	392.94
416.49	403.94
416.713	387.94
416.936	386.94
417.159	363.94
417.382	393.94
417.605	417.94
417.828	419.94
418.051	419.94
418.274	431.94
418.497	396.94
418.72	385.94
418.943	410.94
419.166	395.94
419.389	411.94
419.611	424.94
419.834	423.94
420.057	423.94
420.28	415.94
420.503	420.94
420.726	412.94
420.948	432.94
421.171	466.94
421.394	513.94
421.617	451.94
421.839	411.94
422.062	431.94
422.285	450.94
422.507	473.94
422.73	530.94
422.953	514.94
423.175	468.94
423.398	437.94
423.621	428.94
423.843	444.94
424.066	448.94
424.288	470.94
424.511	461.94
424.733	529.94
424.956	591.94
425.178	573.94
425.401	574.94
425.623	568.94
425.846	511.94
426.068	487.94
426.291	450.94
426.513	468.94
426.735	474.94
426.958	510.94
427.18	592.94
427.402	672.94
427.625	763.94
427.847	707.94
428.069	587.94
428.292	521.94
428.514	479.94
428.736	459.94
428.958	439.94
429.181	435.94
429.403	415.94
429.625	439.94
429.847	471.94
430.069	515.94
430.292	515.94
430.514	437.94
430.736	429.94
430.958	435.94
431.18	410.94
431.402	416.94
431.624	393.94
431.846	409.94
432.068	400.94
432.29	407.94
432.512	415.94
432.734	405.94
432.956	395.94
433.178	385.94
433.4	419.94
433.622	408.94
433.844	387.94
434.066	415.94
434.287	387.94
434.509	417.94
434.731	403.94
434.953	404.94
435.175	428.94
435.397	451.94
435.618	467.94
435.84	510.94
436.062	602.94
436.284	643.94
436.505	539.94
436.727	476.94
436.949	443.94
437.17	419.94
437.392	429.94
437.614	445.94
437.835	493.94
438.057	572.94
438.278	654.94
438.5	655.94
438.721	700.94
438.943	679.94
439.165	538.94
439.386	486.94
439.608	475.94
439.829	487.94
440.05	504.94
440.272	550.94
440.493	513.94
440.715	460.94
440.936	456.94
441.158	460.94
441.379	426.94
441.6	435.94
441.822	466.94
442.043	501.94
442.264	583.94
442.486	589.94
442.707	517.94
442.928	508.94
443.149	505.94
443.371	523.94
443.592	557.94
443.813	610.94
444.034	657.94
444.255	556.94
444.476	476.94
444.698	469.94
444.919	450.94
445.14	580.94
445.361	530.94
445.582	531.94
445.803	576.94
446.024	652.94
446.245	682.94
446.466	591.94
446.687	519.94
446.908	493.94
447.129	444.94
447.35	453.94
447.571	444.94
447.792	429.94
448.013	431.94
448.234	459.94
448.455	521.94
448.675	607.94
448.896	688.94
449.117	611.94
449.338	574.94
449.559	657.94
449.779	728.94
450	609.94
450.221	481.94
450.442	459.94
450.662	450.94
450.883	457.94
451.104	446.94
451.324	453.94
451.545	425.94
451.766	403.94
451.986	393.94
452.207	373.94
452.428	362.94
452.648	391.94
452.869	401.94
453.089	393.94
453.31	403.94
453.53	408.94
453.751	391.94
453.971	388.94
454.192	413.94
454.412	394.94
454.633	396.94
454.853	376.94
455.073	379.94
455.294	403.94
455.514	481.94
455.734	460.94
455.955	400.94
456.175	392.94
456.395	357.94
456.616	332.94
456.836	374.94
457.056	365.94
457.276	360.94
457.497	360.94
457.717	348.94
457.937	380.94
458.157	379.94
458.377	373.94
458.598	381.94
458.818	456.94
459.038	516.94
459.258	539.94
459.478	449.94
459.698	401.94
459.918	401.94
460.138	401.94
460.358	390.94
460.578	385.94
460.798	406.94
461.018	394.94
461.238	396.94
461.458	374.94
461.678	411.94
461.898	401.94
462.118	403.94
462.338	394.94
462.558	385.94
462.777	377.94
462.997	382.94
463.217	418.94
463.437	404.94
463.657	407.94
463.876	397.94
464.096	397.94
464.316	410.94
464.536	407.94
464.755	418.94
464.975	431.94
465.195	466.94
465.414	548.94
465.634	475.94
465.854	423.94
466.073	394.94
466.293	399.94
466.512	370.94
466.732	369.94
466.951	377.94
467.171	385.94
467.391	396.94
467.61	419.94
467.829	398.94
468.049	426.94
468.268	386.94
468.488	391.94
468.707	357.94
468.927	356.94
469.146	372.94
469.365	376.94
469.585	381.94
469.804	388.94
470.023	393.94
470.243	408.94
470.462	403.94
470.681	423.94
470.901	424.94
471.12	399.94
471.339	377.94
471.558	411.94
471.777	383.94
471.997	383.94
472.216	400.94
472.435	424.94
472.654	413.94
472.873	393.94
473.092	380.94
473.311	398.94
473.53	403.94
473.749	421.94
473.968	448.94
474.187	540.94
474.406	559.94
474.625	459.94
474.844	409.94
475.063	394.94
475.282	401.94
475.501	411.94
475.72	451.94
475.939	416.94
476.158	387.94
476.377	427.94
476.596	412.94
476.814	435.94
477.033	422.94
477.252	419.94
477.471	413.94
477.69	428.94
477.908	416.94
478.127	421.94
478.346	431.94
478.564	432.94
478.783	414.94
479.002	435.94
479.22	424.94
479.439	454.94
479.658	460.94
479.876	468.94
480.095	484.94
480.313	507.94
480.532	501.94
480.751	472.94
480.969	496.94
481.188	534.94
481.406	567.94
481.624	518.94
481.843	492.94
482.061	467.94
482.28	472.94
482.498	433.94
482.717	442.94
482.935	451.94
483.153	459.94
483.372	455.94
483.59	462.94
483.808	464.94
484.027	449.94
484.245	455.94
484.463	467.94
484.681	480.94
484.9	472.94
485.118	465.94
485.336	459.94
485.554	468.94
485.772	484.94
485.99	468.94
486.209	467.94
486.427	489.94
486.645	477.94
486.863	515.94
487.081	511.94
487.299	480.94
487.517	511.94
487.735	493.94
487.953	495.94
488.171	495.94
488.389	484.94
488.607	513.94
488.825	482.94
489.043	497.94
489.261	490.94
489.479	482.94
489.696	516.94
489.914	513.94
490.132	489.94
490.35	521.94
490.568	502.94
490.786	517.94
491.003	531.94
491.221	544.94
491.439	570.94
491.657	556.94
491.874	561.94
492.092	562.94
492.31	562.94
492.527	581.94
492.745	577.94
492.963	575.94
493.18	559.94
493.398	573.94
493.615	570.94
493.833	616.94
494.05	588.94
494.268	589.94
494.485	579.94
494.703	582.94
494.92	580.94
495.138	568.94
495.355	597.94
495.573	595.94
495.79	590.94
496.008	576.94
496.225	564.94
496.442	578.94
496.66	597.94
496.877	604.94
497.094	598.94
497.312	585.94
497.529	604.94
497.746	607.94
497.963	612.94
498.181	623.94
498.398	631.94
498.615	653.94
498.832	635.94
499.049	618.94
499.267	641.94
499.484	664.94
499.701	699.94
499.918	705.94
500.135	709.94
500.352	698.94
500.569	699.94
500.786	724.94
501.003	742.94
501.22	726.94
501.437	717.94
501.654	731.94
501.871	684.94
