Data from 1981.PennyLincolnUp.Lamp.En5.5.200Scan.071819.P1_HRD10591_16-41-02-959.txt Node
Date: Thu Jul 18 16:41:02 EDT 2019
User: cochatt
Spectrometer: HR+D1059
Trigger mode: 1
Integration Time (sec): 1.000000E-1
Scans to average: 1
Electric dark correction enabled: true
Nonlinearity correction enabled: false
Boxcar width: 0
XAxis mode: Wavelengths
Number of Pixels in Spectrum: 2048
>>>>>Begin Spectral Data<<<<<
223.165	-18.88
223.4	-18.88
223.635	-18.88
223.869	-15.88
224.104	-7.88
224.338	-15.88
224.573	-16.88
224.808	-18.88
225.042	1.12
225.277	-8.88
225.511	-1.88
225.746	-3.88
225.98	1.12
226.215	10.12
226.449	20.12
226.683	15.12
226.918	24.12
227.152	37.12
227.387	24.12
227.621	36.12
227.856	54.12
228.09	51.12
228.324	42.12
228.559	54.12
228.793	64.12
229.027	100.12
229.262	91.12
229.496	113.12
229.73	136.12
229.964	153.12
230.199	128.12
230.433	109.12
230.667	103.12
230.901	113.12
231.136	108.12
231.37	125.12
231.604	121.12
231.838	103.12
232.072	102.12
232.306	110.12
232.541	113.12
232.775	122.12
233.009	124.12
233.243	112.12
233.477	115.12
233.711	110.12
233.945	120.12
234.179	110.12
234.413	111.12
234.647	106.12
234.881	124.12
235.115	123.12
235.349	123.12
235.583	107.12
235.817	125.12
236.051	132.12
236.285	123.12
236.519	140.12
236.753	124.12
236.987	140.12
237.221	170.12
237.455	214.12
237.689	184.12
237.922	139.12
238.156	129.12
238.39	116.12
238.624	111.12
238.858	123.12
239.091	135.12
239.325	121.12
239.559	128.12
239.793	126.12
240.027	138.12
240.26	145.12
240.494	141.12
240.728	145.12
240.961	146.12
241.195	145.12
241.429	145.12
241.662	132.12
241.896	137.12
242.13	119.12
242.363	127.12
242.597	134.12
242.83	133.12
243.064	136.12
243.298	151.12
243.531	131.12
243.765	138.12
243.998	135.12
244.232	145.12
244.465	139.12
244.699	155.12
244.932	147.12
245.166	150.12
245.399	128.12
245.633	142.12
245.866	155.12
246.099	147.12
246.333	146.12
246.566	150.12
246.8	166.12
247.033	166.12
247.266	154.12
247.5	148.12
247.733	153.12
247.966	171.12
248.2	174.12
248.433	168.12
248.666	175.12
248.899	166.12
249.133	176.12
249.366	201.12
249.599	191.12
249.832	189.12
250.066	189.12
250.299	187.12
250.532	190.12
250.765	202.12
250.998	212.12
251.231	205.12
251.465	233.12
251.698	223.12
251.931	214.12
252.164	203.12
252.397	204.12
252.63	198.12
252.863	202.12
253.096	205.12
253.329	221.12
253.562	233.12
253.795	218.12
254.028	213.12
254.261	209.12
254.494	214.12
254.727	236.12
254.96	280.12
255.193	282.12
255.426	249.12
255.659	226.12
255.892	236.12
256.124	235.12
256.357	239.12
256.59	198.12
256.823	219.12
257.056	217.12
257.289	207.12
257.521	213.12
257.754	203.12
257.987	201.12
258.22	201.12
258.452	200.12
258.685	210.12
258.918	216.12
259.151	201.12
259.383	201.12
259.616	190.12
259.849	237.12
260.081	227.12
260.314	260.12
260.547	263.12
260.779	253.12
261.012	237.12
261.244	225.12
261.477	233.12
261.71	222.12
261.942	223.12
262.175	249.12
262.407	227.12
262.64	198.12
262.872	213.12
263.105	195.12
263.337	203.12
263.57	215.12
263.802	195.12
264.035	207.12
264.267	199.12
264.499	229.12
264.732	235.12
264.964	192.12
265.197	205.12
265.429	209.12
265.661	210.12
265.894	202.12
266.126	196.12
266.358	206.12
266.591	204.12
266.823	211.12
267.055	229.12
267.287	227.12
267.52	233.12
267.752	233.12
267.984	224.12
268.216	236.12
268.448	223.12
268.681	239.12
268.913	232.12
269.145	243.12
269.377	269.12
269.609	259.12
269.841	290.12
270.073	271.12
270.306	300.12
270.538	301.12
270.77	310.12
271.002	311.12
271.234	298.12
271.466	294.12
271.698	313.12
271.93	336.12
272.162	324.12
272.394	307.12
272.626	290.12
272.858	304.12
273.09	294.12
273.322	290.12
273.553	267.12
273.785	253.12
274.017	261.12
274.249	255.12
274.481	251.12
274.713	269.12
274.945	259.12
275.176	265.12
275.408	250.12
275.64	248.12
275.872	276.12
276.104	266.12
276.335	259.12
276.567	268.12
276.799	285.12
277.031	295.12
277.262	314.12
277.494	309.12
277.726	270.12
277.957	285.12
278.189	275.12
278.421	261.12
278.652	263.12
278.884	284.12
279.115	258.12
279.347	277.12
279.579	267.12
279.81	245.12
280.042	268.12
280.273	264.12
280.505	265.12
280.736	265.12
280.968	247.12
281.199	283.12
281.431	252.12
281.662	248.12
281.894	257.12
282.125	253.12
282.356	270.12
282.588	291.12
282.819	288.12
283.051	277.12
283.282	271.12
283.513	274.12
283.745	264.12
283.976	271.12
284.207	273.12
284.439	276.12
284.67	271.12
284.901	240.12
285.132	269.12
285.364	247.12
285.595	265.12
285.826	263.12
286.057	259.12
286.288	245.12
286.52	269.12
286.751	274.12
286.982	268.12
287.213	276.12
287.444	265.12
287.675	276.12
287.906	278.12
288.138	276.12
288.369	281.12
288.6	294.12
288.831	296.12
289.062	290.12
289.293	271.12
289.524	277.12
289.755	261.12
289.986	292.12
290.217	281.12
290.448	283.12
290.679	280.12
290.91	273.12
291.141	262.12
291.371	273.12
291.602	257.12
291.833	281.12
292.064	273.12
292.295	289.12
292.526	266.12
292.757	263.12
292.987	273.12
293.218	270.12
293.449	271.12
293.68	285.12
293.91	291.12
294.141	278.12
294.372	278.12
294.603	268.12
294.833	266.12
295.064	273.12
295.295	273.12
295.525	267.12
295.756	291.12
295.987	291.12
296.217	308.12
296.448	310.12
296.679	291.12
296.909	271.12
297.14	286.12
297.37	292.12
297.601	294.12
297.831	263.12
298.062	289.12
298.292	286.12
298.523	299.12
298.753	288.12
298.984	281.12
299.214	269.12
299.445	297.12
299.675	292.12
299.905	289.12
300.136	301.12
300.366	295.12
300.597	302.12
300.827	300.12
301.057	300.12
301.288	302.12
301.518	304.12
301.748	309.12
301.979	318.12
302.209	308.12
302.439	309.12
302.669	312.12
302.9	311.12
303.13	296.12
303.36	315.12
303.59	312.12
303.82	314.12
304.051	326.12
304.281	316.12
304.511	312.12
304.741	296.12
304.971	324.12
305.201	302.12
305.431	309.12
305.661	310.12
305.891	320.12
306.121	314.12
306.352	311.12
306.582	325.12
306.812	315.12
307.042	317.12
307.272	325.12
307.502	344.12
307.731	317.12
307.961	331.12
308.191	339.12
308.421	326.12
308.651	328.12
308.881	332.12
309.111	336.12
309.341	309.12
309.571	324.12
309.8	340.12
310.03	365.12
310.26	361.12
310.49	368.12
310.72	351.12
310.949	366.12
311.179	367.12
311.409	366.12
311.639	365.12
311.868	367.12
312.098	363.12
312.328	367.12
312.557	383.12
312.787	384.12
313.017	376.12
313.246	374.12
313.476	374.12
313.706	382.12
313.935	367.12
314.165	379.12
314.394	361.12
314.624	371.12
314.853	379.12
315.083	366.12
315.312	366.12
315.542	354.12
315.771	364.12
316.001	355.12
316.23	353.12
316.46	353.12
316.689	357.12
316.919	361.12
317.148	381.12
317.377	355.12
317.607	362.12
317.836	358.12
318.065	349.12
318.295	351.12
318.524	360.12
318.753	365.12
318.983	362.12
319.212	361.12
319.441	377.12
319.67	388.12
319.9	353.12
320.129	369.12
320.358	381.12
320.587	363.12
320.816	380.12
321.046	399.12
321.275	400.12
321.504	379.12
321.733	387.12
321.962	383.12
322.191	429.12
322.42	414.12
322.649	447.12
322.878	445.12
323.108	432.12
323.337	486.12
323.566	513.12
323.795	537.12
324.024	578.12
324.253	731.12
324.482	1039.12
324.71	1551.12
324.939	2117.12
325.168	1801.12
325.397	960.12
325.626	653.12
325.855	554.12
326.084	509.12
326.313	489.12
326.542	529.12
326.77	569.12
326.999	670.12
327.228	920.12
327.457	1327.12
327.686	1562.12
327.914	1067.12
328.143	720.12
328.372	603.12
328.6	551.12
328.829	557.12
329.058	546.12
329.287	579.12
329.515	531.12
329.744	486.12
329.972	499.12
330.201	480.12
330.43	565.12
330.658	559.12
330.887	577.12
331.115	549.12
331.344	504.12
331.572	493.12
331.801	471.12
332.03	467.12
332.258	448.12
332.486	411.12
332.715	408.12
332.943	405.12
333.172	410.12
333.4	436.12
333.629	426.12
333.857	437.12
334.085	441.12
334.314	447.12
334.542	450.12
334.771	471.12
334.999	439.12
335.227	428.12
335.455	400.12
335.684	412.12
335.912	403.12
336.14	401.12
336.369	410.12
336.597	435.12
336.825	433.12
337.053	397.12
337.281	410.12
337.51	409.12
337.738	407.12
337.966	391.12
338.194	407.12
338.422	413.12
338.65	388.12
338.878	393.12
339.106	418.12
339.334	401.12
339.562	384.12
339.79	399.12
340.018	393.12
340.246	409.12
340.474	404.12
340.702	383.12
340.93	395.12
341.158	399.12
341.386	388.12
341.614	389.12
341.842	393.12
342.07	383.12
342.298	385.12
342.526	398.12
342.754	387.12
342.981	386.12
343.209	381.12
343.437	368.12
343.665	377.12
343.893	387.12
344.12	401.12
344.348	391.12
344.576	400.12
344.804	400.12
345.031	408.12
345.259	421.12
345.487	404.12
345.714	389.12
345.942	377.12
346.17	363.12
346.397	379.12
346.625	399.12
346.853	387.12
347.08	382.12
347.308	401.12
347.535	402.12
347.763	399.12
347.99	385.12
348.218	398.12
348.445	393.12
348.673	398.12
348.9	389.12
349.128	375.12
349.355	345.12
349.583	349.12
349.81	361.12
350.037	359.12
350.265	360.12
350.492	360.12
350.72	364.12
350.947	361.12
351.174	379.12
351.402	399.12
351.629	381.12
351.856	387.12
352.083	408.12
352.311	393.12
352.538	381.12
352.765	404.12
352.992	393.12
353.22	373.12
353.447	391.12
353.674	370.12
353.901	368.12
354.128	351.12
354.355	359.12
354.583	359.12
354.81	363.12
355.037	368.12
355.264	345.12
355.491	345.12
355.718	349.12
355.945	342.12
356.172	341.12
356.399	354.12
356.626	359.12
356.853	336.12
357.08	352.12
357.307	342.12
357.534	345.12
357.761	345.12
357.988	355.12
358.215	358.12
358.441	342.12
358.668	340.12
358.895	356.12
359.122	357.12
359.349	350.12
359.576	380.12
359.802	393.12
360.029	425.12
360.256	422.12
360.483	395.12
360.709	398.12
360.936	381.12
361.163	370.12
361.39	371.12
361.616	395.12
361.843	383.12
362.07	359.12
362.296	361.12
362.523	373.12
362.749	372.12
362.976	368.12
363.203	353.12
363.429	344.12
363.656	358.12
363.882	356.12
364.109	347.12
364.335	363.12
364.562	358.12
364.788	362.12
365.015	354.12
365.241	363.12
365.468	343.12
365.694	363.12
365.92	374.12
366.147	355.12
366.373	336.12
366.599	352.12
366.826	339.12
367.052	345.12
367.278	353.12
367.505	328.12
367.731	337.12
367.957	345.12
368.184	372.12
368.41	371.12
368.636	358.12
368.862	368.12
369.089	350.12
369.315	370.12
369.541	348.12
369.767	355.12
369.993	344.12
370.219	357.12
370.445	358.12
370.672	324.12
370.898	327.12
371.124	352.12
371.35	350.12
371.576	355.12
371.802	350.12
372.028	348.12
372.254	342.12
372.48	343.12
372.706	343.12
372.932	345.12
373.158	363.12
373.384	355.12
373.61	360.12
373.835	347.12
374.061	329.12
374.287	339.12
374.513	333.12
374.739	348.12
374.965	343.12
375.191	358.12
375.416	347.12
375.642	343.12
375.868	345.12
376.094	335.12
376.319	326.12
376.545	329.12
376.771	332.12
376.997	331.12
377.222	326.12
377.448	341.12
377.674	338.12
377.899	315.12
378.125	328.12
378.35	323.12
378.576	341.12
378.802	344.12
379.027	340.12
379.253	351.12
379.478	321.12
379.704	331.12
379.929	329.12
380.155	331.12
380.38	335.12
380.606	344.12
380.831	347.12
381.057	336.12
381.282	317.12
381.507	337.12
381.733	340.12
381.958	337.12
382.184	340.12
382.409	340.12
382.634	351.12
382.86	331.12
383.085	323.12
383.31	318.12
383.535	335.12
383.761	345.12
383.986	348.12
384.211	327.12
384.436	343.12
384.662	339.12
384.887	349.12
385.112	361.12
385.337	347.12
385.562	346.12
385.787	354.12
386.013	356.12
386.238	364.12
386.463	359.12
386.688	365.12
386.913	351.12
387.138	337.12
387.363	347.12
387.588	343.12
387.813	340.12
388.038	336.12
388.263	352.12
388.488	345.12
388.713	365.12
388.938	363.12
389.163	355.12
389.387	371.12
389.612	349.12
389.837	348.12
390.062	363.12
390.287	349.12
390.512	365.12
390.736	355.12
390.961	342.12
391.186	345.12
391.411	337.12
391.636	350.12
391.86	333.12
392.085	374.12
392.31	335.12
392.534	338.12
392.759	363.12
392.984	332.12
393.208	358.12
393.433	331.12
393.658	330.12
393.882	340.12
394.107	350.12
394.331	356.12
394.556	343.12
394.78	335.12
395.005	333.12
395.229	332.12
395.454	348.12
395.678	363.12
395.903	372.12
396.127	403.12
396.352	401.12
396.576	361.12
396.801	374.12
397.025	367.12
397.249	357.12
397.474	363.12
397.698	355.12
397.922	364.12
398.147	385.12
398.371	398.12
398.595	396.12
398.82	381.12
399.044	422.12
399.268	387.12
399.492	402.12
399.717	431.12
399.941	455.12
400.165	477.12
400.389	458.12
400.613	436.12
400.837	412.12
401.062	388.12
401.286	409.12
401.51	392.12
401.734	371.12
401.958	386.12
402.182	384.12
402.406	398.12
402.63	403.12
402.854	396.12
403.078	392.12
403.302	392.12
403.526	400.12
403.75	389.12
403.974	405.12
404.198	378.12
404.422	396.12
404.645	396.12
404.869	402.12
405.093	430.12
405.317	461.12
405.541	490.12
405.765	454.12
405.988	430.12
406.212	444.12
406.436	459.12
406.66	443.12
406.883	443.12
407.107	449.12
407.331	486.12
407.555	531.12
407.778	519.12
408.002	471.12
408.226	430.12
408.449	423.12
408.673	447.12
408.896	464.12
409.12	480.12
409.344	454.12
409.567	430.12
409.791	423.12
410.014	408.12
410.238	404.12
410.461	396.12
410.685	429.12
410.908	436.12
411.132	434.12
411.355	460.12
411.578	423.12
411.802	407.12
412.025	417.12
412.249	410.12
412.472	428.12
412.695	432.12
412.919	442.12
413.142	401.12
413.365	379.12
413.589	397.12
413.812	382.12
414.035	369.12
414.258	387.12
414.482	382.12
414.705	364.12
414.928	359.12
415.151	388.12
415.374	363.12
415.597	349.12
415.821	369.12
416.044	383.12
416.267	371.12
416.49	364.12
416.713	385.12
416.936	365.12
417.159	379.12
417.382	369.12
417.605	385.12
417.828	389.12
418.051	405.12
418.274	406.12
418.497	390.12
418.72	382.12
418.943	380.12
419.166	385.12
419.389	394.12
419.611	395.12
419.834	399.12
420.057	404.12
420.28	380.12
420.503	395.12
420.726	401.12
420.948	419.12
421.171	447.12
421.394	480.12
421.617	416.12
421.839	402.12
422.062	405.12
422.285	405.12
422.507	452.12
422.73	530.12
422.953	489.12
423.175	445.12
423.398	416.12
423.621	404.12
423.843	430.12
424.066	415.12
424.288	439.12
424.511	439.12
424.733	478.12
424.956	537.12
425.178	548.12
425.401	539.12
425.623	535.12
425.846	464.12
426.068	460.12
426.291	443.12
426.513	449.12
426.735	449.12
426.958	475.12
427.18	548.12
427.402	652.12
427.625	704.12
427.847	651.12
428.069	539.12
428.292	474.12
428.514	409.12
428.736	416.12
428.958	415.12
429.181	414.12
429.403	409.12
429.625	417.12
429.847	447.12
430.069	483.12
430.292	506.12
430.514	437.12
430.736	408.12
430.958	384.12
431.18	378.12
431.402	379.12
431.624	368.12
431.846	382.12
432.068	372.12
432.29	380.12
432.512	363.12
432.734	359.12
432.956	379.12
433.178	395.12
433.4	398.12
433.622	388.12
433.844	377.12
434.066	385.12
434.287	389.12
434.509	396.12
434.731	382.12
434.953	387.12
435.175	397.12
435.397	428.12
435.618	441.12
435.84	485.12
436.062	567.12
436.284	597.12
436.505	503.12
436.727	467.12
436.949	443.12
437.17	419.12
437.392	425.12
437.614	431.12
437.835	456.12
438.057	527.12
438.278	617.12
438.5	601.12
438.721	668.12
438.943	640.12
439.165	510.12
439.386	458.12
439.608	460.12
439.829	446.12
440.05	469.12
440.272	531.12
440.493	477.12
440.715	448.12
440.936	423.12
441.158	407.12
441.379	404.12
441.6	401.12
441.822	429.12
442.043	468.12
442.264	526.12
442.486	579.12
442.707	491.12
442.928	461.12
443.149	464.12
443.371	484.12
443.592	495.12
443.813	577.12
444.034	611.12
444.255	501.12
444.476	452.12
444.698	433.12
444.919	440.12
445.14	539.12
445.361	479.12
445.582	465.12
445.803	529.12
446.024	623.12
446.245	617.12
446.466	547.12
446.687	479.12
446.908	435.12
447.129	418.12
447.35	395.12
447.571	393.12
447.792	390.12
448.013	408.12
448.234	429.12
448.455	464.12
448.675	571.12
448.896	647.12
449.117	536.12
449.338	525.12
449.559	607.12
449.779	665.12
450	549.12
450.221	462.12
450.442	419.12
450.662	429.12
450.883	407.12
451.104	406.12
451.324	407.12
451.545	410.12
451.766	374.12
451.986	382.12
452.207	355.12
452.428	351.12
452.648	352.12
452.869	372.12
453.089	377.12
453.31	396.12
453.53	355.12
453.751	365.12
453.971	366.12
454.192	396.12
454.412	380.12
454.633	369.12
454.853	371.12
455.073	353.12
455.294	392.12
455.514	457.12
455.734	428.12
455.955	377.12
456.175	343.12
456.395	336.12
456.616	332.12
456.836	336.12
457.056	325.12
457.276	337.12
457.497	344.12
457.717	337.12
457.937	345.12
458.157	336.12
458.377	348.12
458.598	379.12
458.818	435.12
459.038	481.12
459.258	520.12
459.478	401.12
459.698	388.12
459.918	364.12
460.138	381.12
460.358	373.12
460.578	369.12
460.798	373.12
461.018	367.12
461.238	390.12
461.458	368.12
461.678	368.12
461.898	346.12
462.118	378.12
462.338	355.12
462.558	383.12
462.777	377.12
462.997	389.12
463.217	390.12
463.437	386.12
463.657	379.12
463.876	403.12
464.096	366.12
464.316	376.12
464.536	394.12
464.755	402.12
464.975	411.12
465.195	427.12
465.414	512.12
465.634	437.12
465.854	405.12
466.073	363.12
466.293	380.12
466.512	385.12
466.732	375.12
466.951	385.12
467.171	376.12
467.391	376.12
467.61	386.12
467.829	395.12
468.049	374.12
468.268	364.12
468.488	365.12
468.707	340.12
468.927	354.12
469.146	337.12
469.365	341.12
469.585	349.12
469.804	366.12
470.023	376.12
470.243	371.12
470.462	371.12
470.681	395.12
470.901	387.12
471.12	378.12
471.339	361.12
471.558	371.12
471.777	371.12
471.997	361.12
472.216	376.12
472.435	365.12
472.654	387.12
472.873	370.12
473.092	367.12
473.311	359.12
473.53	384.12
473.749	381.12
473.968	411.12
474.187	507.12
474.406	549.12
474.625	443.12
474.844	393.12
475.063	395.12
475.282	377.12
475.501	367.12
475.72	393.12
475.939	376.12
476.158	365.12
476.377	387.12
476.596	374.12
476.814	400.12
477.033	396.12
477.252	380.12
477.471	375.12
477.69	383.12
477.908	385.12
478.127	397.12
478.346	388.12
478.564	383.12
478.783	391.12
479.002	408.12
479.22	390.12
479.439	421.12
479.658	426.12
479.876	445.12
480.095	453.12
480.313	481.12
480.532	446.12
480.751	461.12
480.969	462.12
481.188	488.12
481.406	513.12
481.624	471.12
481.843	439.12
482.061	445.12
482.28	420.12
482.498	437.12
482.717	436.12
482.935	438.12
483.153	443.12
483.372	423.12
483.59	432.12
483.808	447.12
484.027	441.12
484.245	430.12
484.463	420.12
484.681	438.12
484.9	448.12
485.118	446.12
485.336	442.12
485.554	444.12
485.772	459.12
485.99	427.12
486.209	431.12
486.427	453.12
486.645	460.12
486.863	462.12
487.081	473.12
487.299	492.12
487.517	479.12
487.735	469.12
487.953	465.12
488.171	466.12
488.389	498.12
488.607	479.12
488.825	471.12
489.043	465.12
489.261	483.12
489.479	470.12
489.696	487.12
489.914	459.12
490.132	485.12
490.35	489.12
490.568	509.12
490.786	505.12
491.003	504.12
491.221	500.12
491.439	513.12
491.657	529.12
491.874	516.12
492.092	539.12
492.31	551.12
492.527	532.12
492.745	526.12
492.963	527.12
493.18	535.12
493.398	553.12
493.615	550.12
493.833	557.12
494.05	535.12
494.268	563.12
494.485	546.12
494.703	564.12
494.92	541.12
495.138	547.12
495.355	549.12
495.573	559.12
495.79	551.12
496.008	568.12
496.225	545.12
496.442	558.12
496.66	574.12
496.877	542.12
497.094	545.12
497.312	549.12
497.529	571.12
497.746	594.12
497.963	579.12
498.181	603.12
498.398	575.12
498.615	623.12
498.832	613.12
499.049	604.12
499.267	598.12
499.484	642.12
499.701	635.12
499.918	680.12
500.135	657.12
500.352	665.12
500.569	658.12
500.786	676.12
501.003	697.12
501.22	697.12
501.437	662.12
501.654	665.12
501.871	662.12
