Data from 1981.PennyLincolnUp.Lamp.En5.5.200Scan.071819.P1_HRD10591_16-42-33-960.txt Node
Date: Thu Jul 18 16:42:33 EDT 2019
User: cochatt
Spectrometer: HR+D1059
Trigger mode: 1
Integration Time (sec): 1.000000E-1
Scans to average: 1
Electric dark correction enabled: true
Nonlinearity correction enabled: false
Boxcar width: 0
XAxis mode: Wavelengths
Number of Pixels in Spectrum: 2048
>>>>>Begin Spectral Data<<<<<
223.165	-14.25
223.4	-14.25
223.635	-14.25
223.869	-13.25
224.104	-12.25
224.338	-15.25
224.573	-10.25
224.808	-8.25
225.042	-2.25
225.277	-16.25
225.511	-6.25
225.746	-3.25
225.98	1.75
226.215	8.75
226.449	16.75
226.683	21.75
226.918	24.75
227.152	27.75
227.387	35.75
227.621	36.75
227.856	45.75
228.09	43.75
228.324	52.75
228.559	50.75
228.793	62.75
229.027	97.75
229.262	104.75
229.496	109.75
229.73	140.75
229.964	167.75
230.199	131.75
230.433	124.75
230.667	124.75
230.901	112.75
231.136	120.75
231.37	112.75
231.604	92.75
231.838	115.75
232.072	101.75
232.306	93.75
232.541	115.75
232.775	107.75
233.009	120.75
233.243	107.75
233.477	119.75
233.711	109.75
233.945	112.75
234.179	107.75
234.413	113.75
234.647	119.75
234.881	98.75
235.115	118.75
235.349	132.75
235.583	141.75
235.817	114.75
236.051	102.75
236.285	111.75
236.519	117.75
236.753	118.75
236.987	142.75
237.221	191.75
237.455	248.75
237.689	197.75
237.922	146.75
238.156	126.75
238.39	127.75
238.624	138.75
238.858	118.75
239.091	123.75
239.325	125.75
239.559	132.75
239.793	129.75
240.027	127.75
240.26	135.75
240.494	172.75
240.728	136.75
240.961	160.75
241.195	142.75
241.429	128.75
241.662	138.75
241.896	149.75
242.13	127.75
242.363	139.75
242.597	130.75
242.83	136.75
243.064	140.75
243.298	135.75
243.531	134.75
243.765	127.75
243.998	134.75
244.232	127.75
244.465	135.75
244.699	137.75
244.932	138.75
245.166	134.75
245.399	142.75
245.633	140.75
245.866	128.75
246.099	139.75
246.333	140.75
246.566	153.75
246.8	141.75
247.033	152.75
247.266	153.75
247.5	154.75
247.733	171.75
247.966	159.75
248.2	178.75
248.433	189.75
248.666	182.75
248.899	173.75
249.133	226.75
249.366	210.75
249.599	200.75
249.832	182.75
250.066	188.75
250.299	188.75
250.532	200.75
250.765	225.75
250.998	232.75
251.231	233.75
251.465	224.75
251.698	208.75
251.931	211.75
252.164	198.75
252.397	187.75
252.63	220.75
252.863	226.75
253.096	216.75
253.329	228.75
253.562	220.75
253.795	222.75
254.028	229.75
254.261	237.75
254.494	225.75
254.727	285.75
254.96	298.75
255.193	274.75
255.426	280.75
255.659	243.75
255.892	260.75
256.124	240.75
256.357	253.75
256.59	229.75
256.823	232.75
257.056	221.75
257.289	216.75
257.521	235.75
257.754	230.75
257.987	231.75
258.22	196.75
258.452	220.75
258.685	234.75
258.918	207.75
259.151	200.75
259.383	211.75
259.616	229.75
259.849	265.75
260.081	248.75
260.314	269.75
260.547	264.75
260.779	276.75
261.012	241.75
261.244	248.75
261.477	234.75
261.71	209.75
261.942	229.75
262.175	252.75
262.407	249.75
262.64	240.75
262.872	235.75
263.105	204.75
263.337	218.75
263.57	221.75
263.802	227.75
264.035	218.75
264.267	227.75
264.499	211.75
264.732	232.75
264.964	216.75
265.197	212.75
265.429	225.75
265.661	205.75
265.894	213.75
266.126	228.75
266.358	227.75
266.591	216.75
266.823	217.75
267.055	221.75
267.287	237.75
267.52	225.75
267.752	239.75
267.984	218.75
268.216	236.75
268.448	255.75
268.681	268.75
268.913	260.75
269.145	273.75
269.377	275.75
269.609	301.75
269.841	289.75
270.073	277.75
270.306	314.75
270.538	340.75
270.77	335.75
271.002	308.75
271.234	305.75
271.466	311.75
271.698	340.75
271.93	343.75
272.162	339.75
272.394	356.75
272.626	330.75
272.858	300.75
273.09	297.75
273.322	294.75
273.553	287.75
273.785	293.75
274.017	279.75
274.249	290.75
274.481	284.75
274.713	277.75
274.945	286.75
275.176	255.75
275.408	292.75
275.64	290.75
275.872	267.75
276.104	260.75
276.335	289.75
276.567	296.75
276.799	298.75
277.031	308.75
277.262	351.75
277.494	333.75
277.726	302.75
277.957	296.75
278.189	274.75
278.421	258.75
278.652	283.75
278.884	275.75
279.115	260.75
279.347	278.75
279.579	278.75
279.81	268.75
280.042	282.75
280.273	283.75
280.505	279.75
280.736	262.75
280.968	268.75
281.199	268.75
281.431	254.75
281.662	255.75
281.894	287.75
282.125	286.75
282.356	290.75
282.588	328.75
282.819	324.75
283.051	283.75
283.282	268.75
283.513	270.75
283.745	267.75
283.976	275.75
284.207	278.75
284.439	280.75
284.67	284.75
284.901	280.75
285.132	290.75
285.364	269.75
285.595	267.75
285.826	269.75
286.057	281.75
286.288	300.75
286.52	271.75
286.751	281.75
286.982	266.75
287.213	279.75
287.444	286.75
287.675	287.75
287.906	304.75
288.138	290.75
288.369	318.75
288.6	311.75
288.831	308.75
289.062	296.75
289.293	294.75
289.524	282.75
289.755	282.75
289.986	314.75
290.217	275.75
290.448	298.75
290.679	298.75
290.91	287.75
291.141	293.75
291.371	276.75
291.602	273.75
291.833	280.75
292.064	308.75
292.295	287.75
292.526	283.75
292.757	292.75
292.987	299.75
293.218	292.75
293.449	289.75
293.68	277.75
293.91	284.75
294.141	293.75
294.372	292.75
294.603	292.75
294.833	290.75
295.064	291.75
295.295	305.75
295.525	285.75
295.756	299.75
295.987	308.75
296.217	337.75
296.448	328.75
296.679	314.75
296.909	304.75
297.14	288.75
297.37	298.75
297.601	285.75
297.831	301.75
298.062	305.75
298.292	290.75
298.523	301.75
298.753	289.75
298.984	315.75
299.214	292.75
299.445	297.75
299.675	306.75
299.905	309.75
300.136	298.75
300.366	313.75
300.597	300.75
300.827	310.75
301.057	341.75
301.288	336.75
301.518	353.75
301.748	324.75
301.979	323.75
302.209	317.75
302.439	320.75
302.669	322.75
302.9	328.75
303.13	324.75
303.36	315.75
303.59	324.75
303.82	329.75
304.051	336.75
304.281	313.75
304.511	323.75
304.741	325.75
304.971	326.75
305.201	342.75
305.431	312.75
305.661	339.75
305.891	340.75
306.121	332.75
306.352	349.75
306.582	331.75
306.812	317.75
307.042	332.75
307.272	344.75
307.502	335.75
307.731	339.75
307.961	328.75
308.191	325.75
308.421	340.75
308.651	332.75
308.881	336.75
309.111	343.75
309.341	362.75
309.571	350.75
309.8	364.75
310.03	380.75
310.26	389.75
310.49	395.75
310.72	401.75
310.949	408.75
311.179	418.75
311.409	386.75
311.639	379.75
311.868	410.75
312.098	380.75
312.328	401.75
312.557	406.75
312.787	431.75
313.017	426.75
313.246	401.75
313.476	376.75
313.706	382.75
313.935	375.75
314.165	387.75
314.394	422.75
314.624	404.75
314.853	404.75
315.083	415.75
315.312	380.75
315.542	378.75
315.771	381.75
316.001	388.75
316.23	373.75
316.46	375.75
316.689	371.75
316.919	387.75
317.148	398.75
317.377	383.75
317.607	383.75
317.836	385.75
318.065	382.75
318.295	391.75
318.524	387.75
318.753	382.75
318.983	361.75
319.212	375.75
319.441	398.75
319.67	397.75
319.9	392.75
320.129	393.75
320.358	376.75
320.587	385.75
320.816	405.75
321.046	390.75
321.275	417.75
321.504	420.75
321.733	424.75
321.962	414.75
322.191	443.75
322.42	447.75
322.649	467.75
322.878	507.75
323.108	487.75
323.337	527.75
323.566	559.75
323.795	579.75
324.024	647.75
324.253	823.75
324.482	1149.75
324.71	1866.75
324.939	2532.75
325.168	2122.75
325.397	1092.75
325.626	760.75
325.855	610.75
326.084	585.75
326.313	568.75
326.542	582.75
326.77	621.75
326.999	739.75
327.228	1051.75
327.457	1563.75
327.686	1865.75
327.914	1245.75
328.143	823.75
328.372	697.75
328.6	640.75
328.829	625.75
329.058	626.75
329.287	630.75
329.515	594.75
329.744	555.75
329.972	554.75
330.201	563.75
330.43	589.75
330.658	635.75
330.887	655.75
331.115	629.75
331.344	553.75
331.572	529.75
331.801	506.75
332.03	505.75
332.258	498.75
332.486	487.75
332.715	457.75
332.943	453.75
333.172	455.75
333.4	449.75
333.629	455.75
333.857	455.75
334.085	491.75
334.314	527.75
334.542	520.75
334.771	543.75
334.999	484.75
335.227	458.75
335.455	465.75
335.684	421.75
335.912	450.75
336.14	436.75
336.369	427.75
336.597	452.75
336.825	447.75
337.053	436.75
337.281	428.75
337.51	443.75
337.738	443.75
337.966	426.75
338.194	441.75
338.422	423.75
338.65	443.75
338.878	450.75
339.106	421.75
339.334	432.75
339.562	411.75
339.79	423.75
340.018	412.75
340.246	421.75
340.474	427.75
340.702	436.75
340.93	399.75
341.158	410.75
341.386	428.75
341.614	429.75
341.842	418.75
342.07	408.75
342.298	404.75
342.526	402.75
342.754	417.75
342.981	416.75
343.209	398.75
343.437	385.75
343.665	392.75
343.893	397.75
344.12	417.75
344.348	413.75
344.576	404.75
344.804	437.75
345.031	438.75
345.259	433.75
345.487	425.75
345.714	427.75
345.942	416.75
346.17	386.75
346.397	396.75
346.625	384.75
346.853	406.75
347.08	407.75
347.308	415.75
347.535	415.75
347.763	420.75
347.99	413.75
348.218	424.75
348.445	417.75
348.673	429.75
348.9	409.75
349.128	399.75
349.355	398.75
349.583	384.75
349.81	406.75
350.037	383.75
350.265	383.75
350.492	375.75
350.72	411.75
350.947	422.75
351.174	418.75
351.402	425.75
351.629	424.75
351.856	424.75
352.083	417.75
352.311	432.75
352.538	423.75
352.765	404.75
352.992	401.75
353.22	402.75
353.447	403.75
353.674	395.75
353.901	401.75
354.128	380.75
354.355	388.75
354.583	369.75
354.81	380.75
355.037	371.75
355.264	363.75
355.491	345.75
355.718	352.75
355.945	360.75
356.172	360.75
356.399	388.75
356.626	362.75
356.853	338.75
357.08	354.75
357.307	378.75
357.534	348.75
357.761	368.75
357.988	384.75
358.215	387.75
358.441	364.75
358.668	363.75
358.895	353.75
359.122	364.75
359.349	386.75
359.576	427.75
359.802	448.75
360.029	462.75
360.256	470.75
360.483	449.75
360.709	403.75
360.936	411.75
361.163	400.75
361.39	417.75
361.616	365.75
361.843	399.75
362.07	395.75
362.296	395.75
362.523	403.75
362.749	401.75
362.976	379.75
363.203	381.75
363.429	384.75
363.656	377.75
363.882	385.75
364.109	372.75
364.335	363.75
364.562	383.75
364.788	376.75
365.015	379.75
365.241	371.75
365.468	370.75
365.694	384.75
365.92	376.75
366.147	379.75
366.373	369.75
366.599	368.75
366.826	379.75
367.052	363.75
367.278	377.75
367.505	361.75
367.731	372.75
367.957	376.75
368.184	373.75
368.41	378.75
368.636	372.75
368.862	375.75
369.089	379.75
369.315	359.75
369.541	372.75
369.767	357.75
369.993	359.75
370.219	360.75
370.445	374.75
370.672	351.75
370.898	319.75
371.124	339.75
371.35	360.75
371.576	341.75
371.802	365.75
372.028	354.75
372.254	357.75
372.48	360.75
372.706	352.75
372.932	344.75
373.158	371.75
373.384	359.75
373.61	369.75
373.835	377.75
374.061	348.75
374.287	358.75
374.513	365.75
374.739	360.75
374.965	350.75
375.191	357.75
375.416	351.75
375.642	360.75
375.868	349.75
376.094	360.75
376.319	362.75
376.545	358.75
376.771	353.75
376.997	360.75
377.222	347.75
377.448	357.75
377.674	345.75
377.899	342.75
378.125	322.75
378.35	341.75
378.576	344.75
378.802	337.75
379.027	362.75
379.253	352.75
379.478	339.75
379.704	354.75
379.929	347.75
380.155	343.75
380.38	347.75
380.606	346.75
380.831	354.75
381.057	359.75
381.282	351.75
381.507	343.75
381.733	347.75
381.958	360.75
382.184	356.75
382.409	366.75
382.634	338.75
382.86	329.75
383.085	352.75
383.31	363.75
383.535	353.75
383.761	357.75
383.986	347.75
384.211	360.75
384.436	347.75
384.662	353.75
384.887	356.75
385.112	337.75
385.337	360.75
385.562	350.75
385.787	375.75
386.013	387.75
386.238	366.75
386.463	367.75
386.688	377.75
386.913	352.75
387.138	360.75
387.363	372.75
387.588	348.75
387.813	355.75
388.038	353.75
388.263	364.75
388.488	374.75
388.713	361.75
388.938	375.75
389.163	387.75
389.387	372.75
389.612	369.75
389.837	358.75
390.062	371.75
390.287	372.75
390.512	362.75
390.736	377.75
390.961	353.75
391.186	360.75
391.411	367.75
391.636	377.75
391.86	365.75
392.085	353.75
392.31	355.75
392.534	363.75
392.759	373.75
392.984	335.75
393.208	346.75
393.433	374.75
393.658	343.75
393.882	364.75
394.107	365.75
394.331	363.75
394.556	367.75
394.78	380.75
395.005	374.75
395.229	353.75
395.454	353.75
395.678	365.75
395.903	359.75
396.127	392.75
396.352	405.75
396.576	370.75
396.801	367.75
397.025	384.75
397.249	372.75
397.474	371.75
397.698	374.75
397.922	392.75
398.147	411.75
398.371	418.75
398.595	401.75
398.82	406.75
399.044	400.75
399.268	408.75
399.492	409.75
399.717	441.75
399.941	456.75
400.165	481.75
400.389	501.75
400.613	469.75
400.837	431.75
401.062	425.75
401.286	407.75
401.51	405.75
401.734	390.75
401.958	395.75
402.182	419.75
402.406	408.75
402.63	428.75
402.854	428.75
403.078	422.75
403.302	426.75
403.526	439.75
403.75	439.75
403.974	432.75
404.198	429.75
404.422	416.75
404.645	426.75
404.869	420.75
405.093	439.75
405.317	488.75
405.541	544.75
405.765	471.75
405.988	477.75
406.212	440.75
406.436	481.75
406.66	497.75
406.883	445.75
407.107	480.75
407.331	518.75
407.555	575.75
407.778	561.75
408.002	525.75
408.226	500.75
408.449	468.75
408.673	456.75
408.896	489.75
409.12	532.75
409.344	492.75
409.567	439.75
409.791	424.75
410.014	427.75
410.238	423.75
410.461	419.75
410.685	411.75
410.908	437.75
411.132	462.75
411.355	515.75
411.578	485.75
411.802	460.75
412.025	414.75
412.249	413.75
412.472	440.75
412.695	475.75
412.919	476.75
413.142	435.75
413.365	396.75
413.589	396.75
413.812	395.75
414.035	388.75
414.258	385.75
414.482	380.75
414.705	387.75
414.928	377.75
415.151	376.75
415.374	370.75
415.597	375.75
415.821	408.75
416.044	398.75
416.267	416.75
416.49	402.75
416.713	402.75
416.936	392.75
417.159	403.75
417.382	387.75
417.605	395.75
417.828	410.75
418.051	419.75
418.274	408.75
418.497	420.75
418.72	409.75
418.943	405.75
419.166	420.75
419.389	401.75
419.611	418.75
419.834	394.75
420.057	427.75
420.28	428.75
420.503	423.75
420.726	431.75
420.948	429.75
421.171	463.75
421.394	488.75
421.617	441.75
421.839	435.75
422.062	429.75
422.285	439.75
422.507	465.75
422.73	554.75
422.953	533.75
423.175	459.75
423.398	461.75
423.621	447.75
423.843	466.75
424.066	457.75
424.288	456.75
424.511	481.75
424.733	531.75
424.956	602.75
425.178	599.75
425.401	571.75
425.623	583.75
425.846	515.75
426.068	472.75
426.291	466.75
426.513	481.75
426.735	460.75
426.958	503.75
427.18	604.75
427.402	710.75
427.625	779.75
427.847	690.75
428.069	606.75
428.292	515.75
428.514	481.75
428.736	452.75
428.958	448.75
429.181	425.75
429.403	441.75
429.625	438.75
429.847	469.75
430.069	520.75
430.292	540.75
430.514	454.75
430.736	434.75
430.958	399.75
431.18	408.75
431.402	386.75
431.624	378.75
431.846	373.75
432.068	395.75
432.29	389.75
432.512	401.75
432.734	409.75
432.956	415.75
433.178	423.75
433.4	432.75
433.622	413.75
433.844	389.75
434.066	395.75
434.287	402.75
434.509	408.75
434.731	412.75
434.953	408.75
435.175	440.75
435.397	465.75
435.618	472.75
435.84	520.75
436.062	608.75
436.284	672.75
436.505	554.75
436.727	471.75
436.949	452.75
437.17	421.75
437.392	431.75
437.614	454.75
437.835	482.75
438.057	598.75
438.278	675.75
438.5	660.75
438.721	713.75
438.943	671.75
439.165	528.75
439.386	485.75
439.608	486.75
439.829	503.75
440.05	509.75
440.272	562.75
440.493	530.75
440.715	451.75
440.936	435.75
441.158	459.75
441.379	426.75
441.6	412.75
441.822	474.75
442.043	499.75
442.264	579.75
442.486	610.75
442.707	501.75
442.928	495.75
443.149	487.75
443.371	530.75
443.592	562.75
443.813	616.75
444.034	647.75
444.255	563.75
444.476	460.75
444.698	467.75
444.919	454.75
445.14	552.75
445.361	531.75
445.582	541.75
445.803	588.75
446.024	692.75
446.245	657.75
446.466	611.75
446.687	515.75
446.908	466.75
447.129	445.75
447.35	436.75
447.571	442.75
447.792	441.75
448.013	459.75
448.234	455.75
448.455	500.75
448.675	609.75
448.896	695.75
449.117	598.75
449.338	570.75
449.559	681.75
449.779	693.75
450	583.75
450.221	515.75
450.442	453.75
450.662	425.75
450.883	428.75
451.104	448.75
451.324	450.75
451.545	432.75
451.766	427.75
451.986	403.75
452.207	374.75
452.428	398.75
452.648	384.75
452.869	388.75
453.089	409.75
453.31	416.75
453.53	416.75
453.751	371.75
453.971	402.75
454.192	401.75
454.412	425.75
454.633	396.75
454.853	411.75
455.073	371.75
455.294	419.75
455.514	475.75
455.734	451.75
455.955	411.75
456.175	348.75
456.395	360.75
456.616	363.75
456.836	377.75
457.056	375.75
457.276	330.75
457.497	364.75
457.717	364.75
457.937	355.75
458.157	371.75
458.377	379.75
458.598	383.75
458.818	456.75
459.038	552.75
459.258	534.75
459.478	460.75
459.698	427.75
459.918	401.75
460.138	380.75
460.358	403.75
460.578	380.75
460.798	409.75
461.018	407.75
461.238	395.75
461.458	409.75
461.678	388.75
461.898	402.75
462.118	385.75
462.338	389.75
462.558	409.75
462.777	407.75
462.997	405.75
463.217	439.75
463.437	421.75
463.657	415.75
463.876	405.75
464.096	407.75
464.316	405.75
464.536	412.75
464.755	434.75
464.975	404.75
465.195	486.75
465.414	560.75
465.634	487.75
465.854	437.75
466.073	423.75
466.293	403.75
466.512	394.75
466.732	378.75
466.951	378.75
467.171	397.75
467.391	390.75
467.61	417.75
467.829	395.75
468.049	407.75
468.268	404.75
468.488	393.75
468.707	361.75
468.927	369.75
469.146	380.75
469.365	351.75
469.585	383.75
469.804	385.75
470.023	411.75
470.243	400.75
470.462	402.75
470.681	412.75
470.901	398.75
471.12	396.75
471.339	397.75
471.558	385.75
471.777	373.75
471.997	376.75
472.216	417.75
472.435	428.75
472.654	404.75
472.873	401.75
473.092	415.75
473.311	404.75
473.53	416.75
473.749	415.75
473.968	461.75
474.187	543.75
474.406	574.75
474.625	469.75
474.844	433.75
475.063	412.75
475.282	397.75
475.501	421.75
475.72	390.75
475.939	408.75
476.158	411.75
476.377	412.75
476.596	412.75
476.814	404.75
477.033	418.75
477.252	406.75
477.471	438.75
477.69	410.75
477.908	427.75
478.127	447.75
478.346	416.75
478.564	433.75
478.783	420.75
479.002	430.75
479.22	457.75
479.439	422.75
479.658	483.75
479.876	495.75
480.095	472.75
480.313	500.75
480.532	502.75
480.751	479.75
480.969	481.75
481.188	546.75
481.406	562.75
481.624	511.75
481.843	489.75
482.061	491.75
482.28	476.75
482.498	465.75
482.717	472.75
482.935	462.75
483.153	450.75
483.372	458.75
483.59	455.75
483.808	468.75
484.027	484.75
484.245	444.75
484.463	456.75
484.681	482.75
484.9	453.75
485.118	484.75
485.336	480.75
485.554	475.75
485.772	482.75
485.99	484.75
486.209	477.75
486.427	489.75
486.645	493.75
486.863	486.75
487.081	502.75
487.299	520.75
487.517	499.75
487.735	485.75
487.953	506.75
488.171	499.75
488.389	499.75
488.607	516.75
488.825	496.75
489.043	506.75
489.261	506.75
489.479	497.75
489.696	500.75
489.914	507.75
490.132	495.75
490.35	511.75
490.568	519.75
490.786	511.75
491.003	547.75
491.221	543.75
491.439	562.75
491.657	523.75
491.874	565.75
492.092	572.75
492.31	590.75
492.527	588.75
492.745	572.75
492.963	589.75
493.18	580.75
493.398	570.75
493.615	570.75
493.833	585.75
494.05	578.75
494.268	571.75
494.485	587.75
494.703	607.75
494.92	583.75
495.138	579.75
495.355	619.75
495.573	601.75
495.79	584.75
496.008	579.75
496.225	579.75
496.442	587.75
496.66	579.75
496.877	581.75
497.094	590.75
497.312	591.75
497.529	582.75
497.746	579.75
497.963	598.75
498.181	633.75
498.398	627.75
498.615	631.75
498.832	645.75
499.049	674.75
499.267	641.75
499.484	682.75
499.701	676.75
499.918	676.75
500.135	674.75
500.352	696.75
500.569	705.75
500.786	732.75
501.003	719.75
501.22	713.75
501.437	699.75
501.654	695.75
501.871	707.75
