Data from 1981.PennyLincolnUp.Lamp.En5.5.200Scan.071819.P1_HRD10591_16-41-42-961.txt Node
Date: Thu Jul 18 16:41:42 EDT 2019
User: cochatt
Spectrometer: HR+D1059
Trigger mode: 1
Integration Time (sec): 1.000000E-1
Scans to average: 1
Electric dark correction enabled: true
Nonlinearity correction enabled: false
Boxcar width: 0
XAxis mode: Wavelengths
Number of Pixels in Spectrum: 2048
>>>>>Begin Spectral Data<<<<<
223.165	-19.5
223.4	-19.5
223.635	-19.5
223.869	-17.5
224.104	-20.5
224.338	-15.5
224.573	-15.5
224.808	-21.5
225.042	-5.5
225.277	-16.5
225.511	0.5
225.746	14.5
225.98	7.5
226.215	16.5
226.449	16.5
226.683	11.5
226.918	27.5
227.152	37.5
227.387	32.5
227.621	21.5
227.856	40.5
228.09	48.5
228.324	52.5
228.559	51.5
228.793	68.5
229.027	92.5
229.262	103.5
229.496	109.5
229.73	121.5
229.964	164.5
230.199	123.5
230.433	119.5
230.667	116.5
230.901	113.5
231.136	104.5
231.37	114.5
231.604	115.5
231.838	111.5
232.072	119.5
232.306	113.5
232.541	113.5
232.775	118.5
233.009	121.5
233.243	103.5
233.477	109.5
233.711	120.5
233.945	115.5
234.179	109.5
234.413	103.5
234.647	106.5
234.881	120.5
235.115	132.5
235.349	117.5
235.583	114.5
235.817	116.5
236.051	127.5
236.285	135.5
236.519	144.5
236.753	141.5
236.987	150.5
237.221	181.5
237.455	240.5
237.689	190.5
237.922	141.5
238.156	146.5
238.39	135.5
238.624	131.5
238.858	125.5
239.091	116.5
239.325	111.5
239.559	128.5
239.793	130.5
240.027	129.5
240.26	157.5
240.494	161.5
240.728	141.5
240.961	141.5
241.195	134.5
241.429	156.5
241.662	152.5
241.896	142.5
242.13	151.5
242.363	136.5
242.597	128.5
242.83	135.5
243.064	134.5
243.298	152.5
243.531	134.5
243.765	130.5
243.998	132.5
244.232	146.5
244.465	142.5
244.699	143.5
244.932	150.5
245.166	137.5
245.399	139.5
245.633	137.5
245.866	155.5
246.099	166.5
246.333	134.5
246.566	152.5
246.8	152.5
247.033	161.5
247.266	170.5
247.5	165.5
247.733	185.5
247.966	184.5
248.2	172.5
248.433	182.5
248.666	187.5
248.899	189.5
249.133	195.5
249.366	226.5
249.599	207.5
249.832	184.5
250.066	186.5
250.299	185.5
250.532	213.5
250.765	205.5
250.998	207.5
251.231	226.5
251.465	209.5
251.698	215.5
251.931	203.5
252.164	204.5
252.397	195.5
252.63	214.5
252.863	231.5
253.096	226.5
253.329	231.5
253.562	243.5
253.795	236.5
254.028	232.5
254.261	223.5
254.494	245.5
254.727	263.5
254.96	296.5
255.193	285.5
255.426	269.5
255.659	251.5
255.892	234.5
256.124	242.5
256.357	267.5
256.59	237.5
256.823	226.5
257.056	223.5
257.289	243.5
257.521	217.5
257.754	219.5
257.987	224.5
258.22	217.5
258.452	213.5
258.685	219.5
258.918	213.5
259.151	218.5
259.383	233.5
259.616	247.5
259.849	233.5
260.081	251.5
260.314	267.5
260.547	287.5
260.779	249.5
261.012	247.5
261.244	233.5
261.477	228.5
261.71	218.5
261.942	236.5
262.175	253.5
262.407	234.5
262.64	244.5
262.872	236.5
263.105	203.5
263.337	226.5
263.57	243.5
263.802	225.5
264.035	222.5
264.267	216.5
264.499	239.5
264.732	227.5
264.964	218.5
265.197	232.5
265.429	204.5
265.661	221.5
265.894	206.5
266.126	228.5
266.358	216.5
266.591	210.5
266.823	226.5
267.055	255.5
267.287	246.5
267.52	233.5
267.752	221.5
267.984	223.5
268.216	228.5
268.448	246.5
268.681	239.5
268.913	258.5
269.145	269.5
269.377	276.5
269.609	287.5
269.841	282.5
270.073	270.5
270.306	322.5
270.538	331.5
270.77	322.5
271.002	332.5
271.234	327.5
271.466	319.5
271.698	330.5
271.93	313.5
272.162	331.5
272.394	349.5
272.626	306.5
272.858	292.5
273.09	287.5
273.322	286.5
273.553	274.5
273.785	286.5
274.017	283.5
274.249	264.5
274.481	264.5
274.713	286.5
274.945	282.5
275.176	280.5
275.408	266.5
275.64	291.5
275.872	275.5
276.104	272.5
276.335	287.5
276.567	292.5
276.799	306.5
277.031	325.5
277.262	350.5
277.494	328.5
277.726	295.5
277.957	285.5
278.189	298.5
278.421	277.5
278.652	278.5
278.884	285.5
279.115	272.5
279.347	266.5
279.579	274.5
279.81	251.5
280.042	272.5
280.273	267.5
280.505	259.5
280.736	275.5
280.968	273.5
281.199	272.5
281.431	276.5
281.662	260.5
281.894	272.5
282.125	291.5
282.356	300.5
282.588	317.5
282.819	332.5
283.051	277.5
283.282	260.5
283.513	271.5
283.745	268.5
283.976	281.5
284.207	307.5
284.439	285.5
284.67	302.5
284.901	298.5
285.132	290.5
285.364	273.5
285.595	290.5
285.826	295.5
286.057	286.5
286.288	282.5
286.52	271.5
286.751	280.5
286.982	284.5
287.213	282.5
287.444	300.5
287.675	298.5
287.906	302.5
288.138	311.5
288.369	332.5
288.6	301.5
288.831	301.5
289.062	322.5
289.293	293.5
289.524	298.5
289.755	270.5
289.986	278.5
290.217	292.5
290.448	296.5
290.679	268.5
290.91	268.5
291.141	301.5
291.371	296.5
291.602	302.5
291.833	298.5
292.064	302.5
292.295	298.5
292.526	298.5
292.757	293.5
292.987	290.5
293.218	278.5
293.449	280.5
293.68	301.5
293.91	287.5
294.141	286.5
294.372	287.5
294.603	289.5
294.833	298.5
295.064	288.5
295.295	298.5
295.525	293.5
295.756	293.5
295.987	290.5
296.217	323.5
296.448	328.5
296.679	306.5
296.909	302.5
297.14	290.5
297.37	295.5
297.601	288.5
297.831	298.5
298.062	306.5
298.292	305.5
298.523	303.5
298.753	310.5
298.984	300.5
299.214	299.5
299.445	322.5
299.675	322.5
299.905	303.5
300.136	323.5
300.366	312.5
300.597	309.5
300.827	325.5
301.057	328.5
301.288	323.5
301.518	325.5
301.748	301.5
301.979	322.5
302.209	338.5
302.439	324.5
302.669	324.5
302.9	338.5
303.13	309.5
303.36	312.5
303.59	320.5
303.82	327.5
304.051	352.5
304.281	337.5
304.511	320.5
304.741	330.5
304.971	294.5
305.201	330.5
305.431	328.5
305.661	327.5
305.891	342.5
306.121	317.5
306.352	304.5
306.582	335.5
306.812	338.5
307.042	342.5
307.272	332.5
307.502	325.5
307.731	351.5
307.961	342.5
308.191	334.5
308.421	316.5
308.651	342.5
308.881	351.5
309.111	341.5
309.341	341.5
309.571	356.5
309.8	365.5
310.03	388.5
310.26	387.5
310.49	397.5
310.72	395.5
310.949	421.5
311.179	416.5
311.409	376.5
311.639	386.5
311.868	397.5
312.098	408.5
312.328	405.5
312.557	414.5
312.787	409.5
313.017	417.5
313.246	404.5
313.476	390.5
313.706	393.5
313.935	398.5
314.165	407.5
314.394	394.5
314.624	408.5
314.853	384.5
315.083	395.5
315.312	379.5
315.542	398.5
315.771	383.5
316.001	381.5
316.23	396.5
316.46	390.5
316.689	386.5
316.919	404.5
317.148	388.5
317.377	399.5
317.607	382.5
317.836	386.5
318.065	379.5
318.295	375.5
318.524	381.5
318.753	395.5
318.983	374.5
319.212	405.5
319.441	378.5
319.67	394.5
319.9	417.5
320.129	380.5
320.358	388.5
320.587	397.5
320.816	389.5
321.046	417.5
321.275	403.5
321.504	405.5
321.733	405.5
321.962	421.5
322.191	431.5
322.42	467.5
322.649	457.5
322.878	472.5
323.108	469.5
323.337	518.5
323.566	547.5
323.795	565.5
324.024	621.5
324.253	775.5
324.482	1130.5
324.71	1754.5
324.939	2346.5
325.168	2030.5
325.397	1054.5
325.626	722.5
325.855	609.5
326.084	558.5
326.313	533.5
326.542	555.5
326.77	613.5
326.999	748.5
327.228	1038.5
327.457	1480.5
327.686	1756.5
327.914	1204.5
328.143	781.5
328.372	676.5
328.6	620.5
328.829	615.5
329.058	622.5
329.287	611.5
329.515	590.5
329.744	534.5
329.972	533.5
330.201	555.5
330.43	590.5
330.658	594.5
330.887	632.5
331.115	619.5
331.344	543.5
331.572	528.5
331.801	479.5
332.03	492.5
332.258	489.5
332.486	463.5
332.715	442.5
332.943	432.5
333.172	438.5
333.4	431.5
333.629	469.5
333.857	471.5
334.085	459.5
334.314	514.5
334.542	514.5
334.771	510.5
334.999	488.5
335.227	476.5
335.455	459.5
335.684	439.5
335.912	459.5
336.14	446.5
336.369	431.5
336.597	447.5
336.825	461.5
337.053	438.5
337.281	451.5
337.51	423.5
337.738	444.5
337.966	444.5
338.194	418.5
338.422	422.5
338.65	432.5
338.878	422.5
339.106	423.5
339.334	425.5
339.562	421.5
339.79	407.5
340.018	409.5
340.246	427.5
340.474	419.5
340.702	422.5
340.93	397.5
341.158	420.5
341.386	422.5
341.614	416.5
341.842	419.5
342.07	429.5
342.298	422.5
342.526	399.5
342.754	394.5
342.981	378.5
343.209	419.5
343.437	413.5
343.665	400.5
343.893	434.5
344.12	400.5
344.348	423.5
344.576	414.5
344.804	422.5
345.031	442.5
345.259	442.5
345.487	427.5
345.714	424.5
345.942	419.5
346.17	420.5
346.397	407.5
346.625	391.5
346.853	417.5
347.08	409.5
347.308	402.5
347.535	420.5
347.763	432.5
347.99	418.5
348.218	425.5
348.445	410.5
348.673	433.5
348.9	411.5
349.128	397.5
349.355	366.5
349.583	396.5
349.81	392.5
350.037	381.5
350.265	387.5
350.492	388.5
350.72	380.5
350.947	399.5
351.174	428.5
351.402	404.5
351.629	402.5
351.856	426.5
352.083	404.5
352.311	442.5
352.538	447.5
352.765	453.5
352.992	407.5
353.22	414.5
353.447	376.5
353.674	380.5
353.901	392.5
354.128	381.5
354.355	395.5
354.583	395.5
354.81	370.5
355.037	375.5
355.264	390.5
355.491	354.5
355.718	364.5
355.945	351.5
356.172	362.5
356.399	377.5
356.626	359.5
356.853	359.5
357.08	361.5
357.307	375.5
357.534	364.5
357.761	366.5
357.988	347.5
358.215	345.5
358.441	377.5
358.668	358.5
358.895	377.5
359.122	376.5
359.349	389.5
359.576	402.5
359.802	431.5
360.029	465.5
360.256	463.5
360.483	418.5
360.709	402.5
360.936	387.5
361.163	388.5
361.39	407.5
361.616	399.5
361.843	413.5
362.07	405.5
362.296	419.5
362.523	383.5
362.749	379.5
362.976	384.5
363.203	379.5
363.429	365.5
363.656	390.5
363.882	383.5
364.109	349.5
364.335	376.5
364.562	351.5
364.788	367.5
365.015	383.5
365.241	383.5
365.468	395.5
365.694	398.5
365.92	397.5
366.147	385.5
366.373	362.5
366.599	370.5
366.826	368.5
367.052	370.5
367.278	378.5
367.505	384.5
367.731	396.5
367.957	367.5
368.184	357.5
368.41	386.5
368.636	380.5
368.862	382.5
369.089	391.5
369.315	379.5
369.541	377.5
369.767	373.5
369.993	383.5
370.219	367.5
370.445	359.5
370.672	366.5
370.898	376.5
371.124	351.5
371.35	364.5
371.576	375.5
371.802	356.5
372.028	364.5
372.254	364.5
372.48	352.5
372.706	364.5
372.932	343.5
373.158	363.5
373.384	347.5
373.61	366.5
373.835	365.5
374.061	364.5
374.287	355.5
374.513	364.5
374.739	374.5
374.965	359.5
375.191	374.5
375.416	364.5
375.642	354.5
375.868	367.5
376.094	359.5
376.319	363.5
376.545	354.5
376.771	361.5
376.997	351.5
377.222	351.5
377.448	359.5
377.674	359.5
377.899	356.5
378.125	322.5
378.35	347.5
378.576	368.5
378.802	341.5
379.027	358.5
379.253	363.5
379.478	330.5
379.704	370.5
379.929	347.5
380.155	349.5
380.38	367.5
380.606	365.5
380.831	350.5
381.057	352.5
381.282	351.5
381.507	363.5
381.733	346.5
381.958	337.5
382.184	367.5
382.409	373.5
382.634	355.5
382.86	367.5
383.085	360.5
383.31	353.5
383.535	389.5
383.761	358.5
383.986	349.5
384.211	370.5
384.436	352.5
384.662	382.5
384.887	358.5
385.112	374.5
385.337	364.5
385.562	378.5
385.787	370.5
386.013	386.5
386.238	379.5
386.463	382.5
386.688	351.5
386.913	374.5
387.138	370.5
387.363	382.5
387.588	360.5
387.813	388.5
388.038	382.5
388.263	369.5
388.488	375.5
388.713	373.5
388.938	384.5
389.163	376.5
389.387	365.5
389.612	361.5
389.837	376.5
390.062	372.5
390.287	371.5
390.512	349.5
390.736	378.5
390.961	375.5
391.186	371.5
391.411	371.5
391.636	371.5
391.86	373.5
392.085	378.5
392.31	374.5
392.534	366.5
392.759	384.5
392.984	357.5
393.208	361.5
393.433	371.5
393.658	360.5
393.882	382.5
394.107	364.5
394.331	368.5
394.556	351.5
394.78	376.5
395.005	370.5
395.229	394.5
395.454	384.5
395.678	388.5
395.903	392.5
396.127	404.5
396.352	397.5
396.576	396.5
396.801	394.5
397.025	388.5
397.249	395.5
397.474	349.5
397.698	380.5
397.922	390.5
398.147	421.5
398.371	414.5
398.595	418.5
398.82	406.5
399.044	409.5
399.268	411.5
399.492	437.5
399.717	452.5
399.941	486.5
400.165	501.5
400.389	493.5
400.613	475.5
400.837	445.5
401.062	426.5
401.286	413.5
401.51	434.5
401.734	416.5
401.958	418.5
402.182	425.5
402.406	445.5
402.63	426.5
402.854	416.5
403.078	404.5
403.302	426.5
403.526	422.5
403.75	420.5
403.974	401.5
404.198	414.5
404.422	423.5
404.645	451.5
404.869	450.5
405.093	451.5
405.317	494.5
405.541	516.5
405.765	487.5
405.988	435.5
406.212	454.5
406.436	459.5
406.66	508.5
406.883	466.5
407.107	498.5
407.331	512.5
407.555	593.5
407.778	577.5
408.002	525.5
408.226	489.5
408.449	475.5
408.673	504.5
408.896	487.5
409.12	544.5
409.344	525.5
409.567	455.5
409.791	422.5
410.014	430.5
410.238	437.5
410.461	431.5
410.685	440.5
410.908	446.5
411.132	495.5
411.355	510.5
411.578	478.5
411.802	457.5
412.025	446.5
412.249	430.5
412.472	444.5
412.695	483.5
412.919	474.5
413.142	435.5
413.365	408.5
413.589	420.5
413.812	422.5
414.035	408.5
414.258	408.5
414.482	424.5
414.705	415.5
414.928	405.5
415.151	392.5
415.374	401.5
415.597	401.5
415.821	390.5
416.044	390.5
416.267	395.5
416.49	409.5
416.713	390.5
416.936	410.5
417.159	401.5
417.382	392.5
417.605	418.5
417.828	406.5
418.051	436.5
418.274	441.5
418.497	419.5
418.72	392.5
418.943	388.5
419.166	418.5
419.389	443.5
419.611	414.5
419.834	418.5
420.057	415.5
420.28	420.5
420.503	424.5
420.726	420.5
420.948	441.5
421.171	476.5
421.394	510.5
421.617	444.5
421.839	416.5
422.062	444.5
422.285	442.5
422.507	478.5
422.73	538.5
422.953	532.5
423.175	467.5
423.398	460.5
423.621	446.5
423.843	452.5
424.066	473.5
424.288	479.5
424.511	476.5
424.733	534.5
424.956	579.5
425.178	581.5
425.401	575.5
425.623	604.5
425.846	506.5
426.068	458.5
426.291	465.5
426.513	458.5
426.735	461.5
426.958	520.5
427.18	594.5
427.402	696.5
427.625	761.5
427.847	696.5
428.069	600.5
428.292	493.5
428.514	488.5
428.736	462.5
428.958	420.5
429.181	412.5
429.403	447.5
429.625	448.5
429.847	491.5
430.069	535.5
430.292	526.5
430.514	445.5
430.736	417.5
430.958	424.5
431.18	408.5
431.402	398.5
431.624	412.5
431.846	414.5
432.068	392.5
432.29	405.5
432.512	398.5
432.734	412.5
432.956	406.5
433.178	404.5
433.4	389.5
433.622	407.5
433.844	420.5
434.066	400.5
434.287	399.5
434.509	420.5
434.731	390.5
434.953	410.5
435.175	446.5
435.397	476.5
435.618	479.5
435.84	540.5
436.062	618.5
436.284	640.5
436.505	569.5
436.727	492.5
436.949	447.5
437.17	420.5
437.392	452.5
437.614	448.5
437.835	487.5
438.057	584.5
438.278	657.5
438.5	668.5
438.721	705.5
438.943	673.5
439.165	563.5
439.386	515.5
439.608	484.5
439.829	484.5
440.05	502.5
440.272	575.5
440.493	529.5
440.715	455.5
440.936	439.5
441.158	439.5
441.379	455.5
441.6	447.5
441.822	474.5
442.043	503.5
442.264	579.5
442.486	621.5
442.707	536.5
442.928	504.5
443.149	483.5
443.371	503.5
443.592	531.5
443.813	617.5
444.034	690.5
444.255	548.5
444.476	487.5
444.698	475.5
444.919	479.5
445.14	585.5
445.361	559.5
445.582	522.5
445.803	559.5
446.024	678.5
446.245	674.5
446.466	627.5
446.687	507.5
446.908	487.5
447.129	444.5
447.35	438.5
447.571	438.5
447.792	443.5
448.013	447.5
448.234	454.5
448.455	511.5
448.675	625.5
448.896	695.5
449.117	604.5
449.338	588.5
449.559	657.5
449.779	754.5
450	590.5
450.221	484.5
450.442	453.5
450.662	457.5
450.883	456.5
451.104	450.5
451.324	453.5
451.545	429.5
451.766	406.5
451.986	388.5
452.207	411.5
452.428	383.5
452.648	403.5
452.869	371.5
453.089	412.5
453.31	394.5
453.53	393.5
453.751	374.5
453.971	384.5
454.192	409.5
454.412	408.5
454.633	391.5
454.853	376.5
455.073	390.5
455.294	402.5
455.514	488.5
455.734	474.5
455.955	382.5
456.175	386.5
456.395	365.5
456.616	364.5
456.836	375.5
457.056	365.5
457.276	354.5
457.497	379.5
457.717	367.5
457.937	378.5
458.157	362.5
458.377	365.5
458.598	400.5
458.818	453.5
459.038	527.5
459.258	569.5
459.478	459.5
459.698	419.5
459.918	399.5
460.138	387.5
460.358	394.5
460.578	408.5
460.798	395.5
461.018	388.5
461.238	397.5
461.458	399.5
461.678	394.5
461.898	394.5
462.118	393.5
462.338	396.5
462.558	383.5
462.777	399.5
462.997	428.5
463.217	424.5
463.437	410.5
463.657	426.5
463.876	415.5
464.096	399.5
464.316	418.5
464.536	438.5
464.755	422.5
464.975	422.5
465.195	479.5
465.414	529.5
465.634	482.5
465.854	447.5
466.073	429.5
466.293	424.5
466.512	399.5
466.732	390.5
466.951	401.5
467.171	394.5
467.391	404.5
467.61	400.5
467.829	399.5
468.049	387.5
468.268	402.5
468.488	370.5
468.707	363.5
468.927	374.5
469.146	379.5
469.365	396.5
469.585	388.5
469.804	386.5
470.023	395.5
470.243	415.5
470.462	403.5
470.681	407.5
470.901	427.5
471.12	376.5
471.339	406.5
471.558	413.5
471.777	391.5
471.997	389.5
472.216	400.5
472.435	420.5
472.654	405.5
472.873	378.5
473.092	388.5
473.311	400.5
473.53	404.5
473.749	400.5
473.968	471.5
474.187	563.5
474.406	580.5
474.625	448.5
474.844	434.5
475.063	390.5
475.282	404.5
475.501	399.5
475.72	411.5
475.939	403.5
476.158	383.5
476.377	419.5
476.596	376.5
476.814	410.5
477.033	417.5
477.252	432.5
477.471	416.5
477.69	422.5
477.908	412.5
478.127	421.5
478.346	422.5
478.564	446.5
478.783	430.5
479.002	428.5
479.22	448.5
479.439	462.5
479.658	472.5
479.876	462.5
480.095	483.5
480.313	498.5
480.532	499.5
480.751	479.5
480.969	488.5
481.188	542.5
481.406	559.5
481.624	493.5
481.843	484.5
482.061	487.5
482.28	462.5
482.498	453.5
482.717	452.5
482.935	454.5
483.153	469.5
483.372	474.5
483.59	450.5
483.808	461.5
484.027	472.5
484.245	450.5
484.463	483.5
484.681	493.5
484.9	462.5
485.118	475.5
485.336	477.5
485.554	480.5
485.772	479.5
485.99	474.5
486.209	501.5
486.427	488.5
486.645	485.5
486.863	520.5
487.081	517.5
487.299	482.5
487.517	488.5
487.735	482.5
487.953	474.5
488.171	513.5
488.389	519.5
488.607	489.5
488.825	487.5
489.043	522.5
489.261	530.5
489.479	512.5
489.696	516.5
489.914	520.5
490.132	527.5
490.35	534.5
490.568	519.5
490.786	541.5
491.003	538.5
491.221	559.5
491.439	553.5
491.657	563.5
491.874	576.5
492.092	591.5
492.31	570.5
492.527	574.5
492.745	586.5
492.963	595.5
493.18	584.5
493.398	591.5
493.615	585.5
493.833	579.5
494.05	579.5
494.268	570.5
494.485	610.5
494.703	575.5
494.92	594.5
495.138	578.5
495.355	583.5
495.573	575.5
495.79	602.5
496.008	596.5
496.225	579.5
496.442	576.5
496.66	610.5
496.877	581.5
497.094	587.5
497.312	603.5
497.529	596.5
497.746	599.5
497.963	614.5
498.181	651.5
498.398	644.5
498.615	648.5
498.832	678.5
499.049	646.5
499.267	645.5
499.484	669.5
499.701	681.5
499.918	680.5
500.135	698.5
500.352	742.5
500.569	739.5
500.786	747.5
501.003	728.5
501.22	735.5
501.437	691.5
501.654	687.5
501.871	709.5
502.088	694.5
502.305	653.5
502.522	638.5
502.739	649.5
502.956	611.5
503.172	618.5
503.389	606.5
503.606	603.5
503.823	620.5
504.04	612.5
504.256	568.5
504.473	605.5
504.69	581.5
504.907	539.5
505.123	610.5
505.34	576.5
505.557	579.5
505.773	599.5
505.99	590.5
506.207	582.5
506.423	571.5
506.64	575.5
506.856	577.5
507.073	560.5
507.289	582.5
507.506	568.5
507.722	580.5
507.939	590.5
508.155	549.5
508.372	572.5
508.588	527.5
508.805	542.5
509.021	555.5
509.238	572.5
509.454	589.5
509.67	588.5
509.887	590.5
510.103	555.5
510.319	594.5
510.536	674.5
510.752	1121.5
510.968	871.5
511.184	582.5
511.401	553.5
511.617	553.5
511.833	528.5
512.049	527.5
512.265	516.5
512.481	545.5
512.698	516.5
512.914	514.5
513.13	509.5
513.346	524.5
513.562	513.5
513.778	525.5
513.994	548.5
514.21	557.5
514.426	590.5
514.642	628.5
514.858	639.5
515.074	655.5
515.29	829.5
515.506	1244.5
515.721	978.5
515.937	644.5
516.153	604.5
516.369	568.5
516.585	565.5
516.801	552.5
517.016	524.5
517.232	536.5
517.448	536.5
517.664	544.5
517.879	523.5
518.095	518.5
518.311	518.5
518.527	515.5
518.742	526.5
518.958	517.5
519.173	536.5
519.389	521.5
519.605	526.5
519.82	519.5
