Data from 1981.PennyLincolnUp.Lamp.En5.5.200Scan.071819.P1_HRD10591_16-42-30-959.txt Node
Date: Thu Jul 18 16:42:30 EDT 2019
User: cochatt
Spectrometer: HR+D1059
Trigger mode: 1
Integration Time (sec): 1.000000E-1
Scans to average: 1
Electric dark correction enabled: true
Nonlinearity correction enabled: false
Boxcar width: 0
XAxis mode: Wavelengths
Number of Pixels in Spectrum: 2048
>>>>>Begin Spectral Data<<<<<
223.165	-18.88
223.4	-18.88
223.635	-18.88
223.869	-17.88
224.104	-14.88
224.338	-10.88
224.573	-3.88
224.808	-13.88
225.042	-12.88
225.277	-4.88
225.511	0.12
225.746	-4.88
225.98	10.12
226.215	16.12
226.449	14.12
226.683	17.12
226.918	16.12
227.152	29.12
227.387	34.12
227.621	29.12
227.856	38.12
228.09	34.12
228.324	40.12
228.559	60.12
228.793	74.12
229.027	97.12
229.262	120.12
229.496	122.12
229.73	157.12
229.964	157.12
230.199	142.12
230.433	114.12
230.667	134.12
230.901	132.12
231.136	103.12
231.37	110.12
231.604	110.12
231.838	112.12
232.072	126.12
232.306	110.12
232.541	115.12
232.775	107.12
233.009	122.12
233.243	111.12
233.477	120.12
233.711	127.12
233.945	126.12
234.179	121.12
234.413	121.12
234.647	121.12
234.881	131.12
235.115	111.12
235.349	128.12
235.583	117.12
235.817	124.12
236.051	125.12
236.285	103.12
236.519	119.12
236.753	134.12
236.987	153.12
237.221	186.12
237.455	223.12
237.689	194.12
237.922	142.12
238.156	127.12
238.39	147.12
238.624	135.12
238.858	128.12
239.091	128.12
239.325	112.12
239.559	123.12
239.793	111.12
240.027	142.12
240.26	148.12
240.494	152.12
240.728	159.12
240.961	163.12
241.195	140.12
241.429	138.12
241.662	138.12
241.896	136.12
242.13	133.12
242.363	126.12
242.597	119.12
242.83	134.12
243.064	140.12
243.298	128.12
243.531	136.12
243.765	151.12
243.998	137.12
244.232	152.12
244.465	150.12
244.699	161.12
244.932	149.12
245.166	164.12
245.399	156.12
245.633	152.12
245.866	146.12
246.099	145.12
246.333	163.12
246.566	165.12
246.8	167.12
247.033	159.12
247.266	148.12
247.5	166.12
247.733	180.12
247.966	180.12
248.2	191.12
248.433	171.12
248.666	184.12
248.899	202.12
249.133	219.12
249.366	235.12
249.599	207.12
249.832	181.12
250.066	181.12
250.299	192.12
250.532	205.12
250.765	226.12
250.998	228.12
251.231	232.12
251.465	229.12
251.698	223.12
251.931	222.12
252.164	209.12
252.397	205.12
252.63	222.12
252.863	225.12
253.096	218.12
253.329	238.12
253.562	238.12
253.795	246.12
254.028	235.12
254.261	252.12
254.494	222.12
254.727	296.12
254.96	292.12
255.193	287.12
255.426	263.12
255.659	246.12
255.892	242.12
256.124	247.12
256.357	250.12
256.59	232.12
256.823	221.12
257.056	202.12
257.289	214.12
257.521	213.12
257.754	238.12
257.987	217.12
258.22	231.12
258.452	196.12
258.685	212.12
258.918	226.12
259.151	225.12
259.383	225.12
259.616	235.12
259.849	238.12
260.081	238.12
260.314	280.12
260.547	267.12
260.779	250.12
261.012	237.12
261.244	252.12
261.477	246.12
261.71	234.12
261.942	245.12
262.175	262.12
262.407	240.12
262.64	236.12
262.872	229.12
263.105	222.12
263.337	227.12
263.57	218.12
263.802	221.12
264.035	212.12
264.267	215.12
264.499	215.12
264.732	221.12
264.964	230.12
265.197	225.12
265.429	235.12
265.661	233.12
265.894	217.12
266.126	215.12
266.358	222.12
266.591	221.12
266.823	227.12
267.055	238.12
267.287	254.12
267.52	223.12
267.752	235.12
267.984	220.12
268.216	237.12
268.448	235.12
268.681	246.12
268.913	248.12
269.145	275.12
269.377	290.12
269.609	271.12
269.841	310.12
270.073	288.12
270.306	311.12
270.538	323.12
270.77	310.12
271.002	304.12
271.234	315.12
271.466	316.12
271.698	337.12
271.93	323.12
272.162	343.12
272.394	335.12
272.626	326.12
272.858	286.12
273.09	308.12
273.322	288.12
273.553	302.12
273.785	279.12
274.017	270.12
274.249	274.12
274.481	281.12
274.713	265.12
274.945	268.12
275.176	272.12
275.408	272.12
275.64	280.12
275.872	280.12
276.104	290.12
276.335	282.12
276.567	272.12
276.799	309.12
277.031	324.12
277.262	340.12
277.494	341.12
277.726	308.12
277.957	309.12
278.189	290.12
278.421	288.12
278.652	295.12
278.884	291.12
279.115	293.12
279.347	282.12
279.579	278.12
279.81	251.12
280.042	278.12
280.273	266.12
280.505	281.12
280.736	268.12
280.968	272.12
281.199	268.12
281.431	278.12
281.662	265.12
281.894	286.12
282.125	281.12
282.356	302.12
282.588	304.12
282.819	326.12
283.051	286.12
283.282	262.12
283.513	280.12
283.745	302.12
283.976	290.12
284.207	268.12
284.439	280.12
284.67	278.12
284.901	288.12
285.132	273.12
285.364	310.12
285.595	286.12
285.826	285.12
286.057	281.12
286.288	276.12
286.52	298.12
286.751	276.12
286.982	274.12
287.213	286.12
287.444	295.12
287.675	306.12
287.906	295.12
288.138	326.12
288.369	298.12
288.6	320.12
288.831	308.12
289.062	274.12
289.293	307.12
289.524	298.12
289.755	293.12
289.986	278.12
290.217	296.12
290.448	283.12
290.679	293.12
290.91	293.12
291.141	283.12
291.371	288.12
291.602	267.12
291.833	300.12
292.064	280.12
292.295	276.12
292.526	293.12
292.757	287.12
292.987	293.12
293.218	278.12
293.449	291.12
293.68	294.12
293.91	280.12
294.141	292.12
294.372	291.12
294.603	289.12
294.833	304.12
295.064	301.12
295.295	289.12
295.525	289.12
295.756	320.12
295.987	316.12
296.217	329.12
296.448	340.12
296.679	310.12
296.909	288.12
297.14	277.12
297.37	311.12
297.601	307.12
297.831	300.12
298.062	310.12
298.292	312.12
298.523	302.12
298.753	295.12
298.984	306.12
299.214	303.12
299.445	311.12
299.675	294.12
299.905	320.12
300.136	309.12
300.366	295.12
300.597	319.12
300.827	319.12
301.057	322.12
301.288	316.12
301.518	350.12
301.748	320.12
301.979	326.12
302.209	337.12
302.439	323.12
302.669	343.12
302.9	336.12
303.13	333.12
303.36	327.12
303.59	318.12
303.82	343.12
304.051	323.12
304.281	321.12
304.511	311.12
304.741	320.12
304.971	314.12
305.201	318.12
305.431	330.12
305.661	322.12
305.891	333.12
306.121	332.12
306.352	336.12
306.582	346.12
306.812	351.12
307.042	334.12
307.272	328.12
307.502	346.12
307.731	344.12
307.961	328.12
308.191	327.12
308.421	344.12
308.651	335.12
308.881	343.12
309.111	366.12
309.341	355.12
309.571	372.12
309.8	366.12
310.03	397.12
310.26	383.12
310.49	386.12
310.72	394.12
310.949	428.12
311.179	415.12
311.409	403.12
311.639	381.12
311.868	377.12
312.098	389.12
312.328	417.12
312.557	429.12
312.787	422.12
313.017	427.12
313.246	394.12
313.476	378.12
313.706	403.12
313.935	370.12
314.165	413.12
314.394	418.12
314.624	398.12
314.853	409.12
315.083	394.12
315.312	388.12
315.542	365.12
315.771	388.12
316.001	380.12
316.23	375.12
316.46	382.12
316.689	391.12
316.919	377.12
317.148	406.12
317.377	395.12
317.607	406.12
317.836	400.12
318.065	397.12
318.295	382.12
318.524	372.12
318.753	375.12
318.983	368.12
319.212	404.12
319.441	409.12
319.67	394.12
319.9	400.12
320.129	396.12
320.358	400.12
320.587	398.12
320.816	410.12
321.046	422.12
321.275	422.12
321.504	418.12
321.733	423.12
321.962	424.12
322.191	452.12
322.42	474.12
322.649	450.12
322.878	471.12
323.108	482.12
323.337	515.12
323.566	531.12
323.795	600.12
324.024	670.12
324.253	804.12
324.482	1176.12
324.71	1796.12
324.939	2411.12
325.168	2077.12
325.397	1112.12
325.626	712.12
325.855	613.12
326.084	568.12
326.313	555.12
326.542	572.12
326.77	620.12
326.999	716.12
327.228	1041.12
327.457	1578.12
327.686	1812.12
327.914	1222.12
328.143	809.12
328.372	690.12
328.6	664.12
328.829	650.12
329.058	618.12
329.287	658.12
329.515	597.12
329.744	541.12
329.972	556.12
330.201	576.12
330.43	602.12
330.658	613.12
330.887	670.12
331.115	637.12
331.344	575.12
331.572	534.12
331.801	513.12
332.03	536.12
332.258	489.12
332.486	469.12
332.715	454.12
332.943	454.12
333.172	442.12
333.4	458.12
333.629	459.12
333.857	494.12
334.085	490.12
334.314	509.12
334.542	528.12
334.771	538.12
334.999	494.12
335.227	470.12
335.455	465.12
335.684	447.12
335.912	440.12
336.14	453.12
336.369	431.12
336.597	462.12
336.825	454.12
337.053	461.12
337.281	445.12
337.51	405.12
337.738	428.12
337.966	414.12
338.194	450.12
338.422	426.12
338.65	419.12
338.878	418.12
339.106	409.12
339.334	427.12
339.562	396.12
339.79	417.12
340.018	432.12
340.246	426.12
340.474	438.12
340.702	438.12
340.93	428.12
341.158	434.12
341.386	431.12
341.614	430.12
341.842	428.12
342.07	428.12
342.298	406.12
342.526	418.12
342.754	405.12
342.981	406.12
343.209	386.12
343.437	427.12
343.665	414.12
343.893	407.12
344.12	429.12
344.348	391.12
344.576	414.12
344.804	412.12
345.031	457.12
345.259	464.12
345.487	429.12
345.714	409.12
345.942	421.12
346.17	406.12
346.397	406.12
346.625	399.12
346.853	416.12
347.08	423.12
347.308	397.12
347.535	444.12
347.763	412.12
347.99	402.12
348.218	426.12
348.445	424.12
348.673	424.12
348.9	404.12
349.128	411.12
349.355	399.12
349.583	395.12
349.81	388.12
350.037	397.12
350.265	380.12
350.492	400.12
350.72	390.12
350.947	408.12
351.174	448.12
351.402	412.12
351.629	437.12
351.856	422.12
352.083	406.12
352.311	411.12
352.538	421.12
352.765	436.12
352.992	427.12
353.22	392.12
353.447	412.12
353.674	396.12
353.901	398.12
354.128	362.12
354.355	394.12
354.583	383.12
354.81	352.12
355.037	378.12
355.264	370.12
355.491	359.12
355.718	376.12
355.945	377.12
356.172	361.12
356.399	367.12
356.626	384.12
356.853	379.12
357.08	380.12
357.307	359.12
357.534	357.12
357.761	368.12
357.988	355.12
358.215	376.12
358.441	363.12
358.668	356.12
358.895	351.12
359.122	365.12
359.349	371.12
359.576	400.12
359.802	430.12
360.029	452.12
360.256	456.12
360.483	438.12
360.709	420.12
360.936	416.12
361.163	418.12
361.39	405.12
361.616	400.12
361.843	374.12
362.07	394.12
362.296	388.12
362.523	397.12
362.749	395.12
362.976	386.12
363.203	375.12
363.429	367.12
363.656	411.12
363.882	387.12
364.109	359.12
364.335	377.12
364.562	376.12
364.788	376.12
365.015	371.12
365.241	374.12
365.468	379.12
365.694	415.12
365.92	382.12
366.147	379.12
366.373	378.12
366.599	363.12
366.826	367.12
367.052	351.12
367.278	383.12
367.505	381.12
367.731	374.12
367.957	354.12
368.184	365.12
368.41	359.12
368.636	396.12
368.862	372.12
369.089	372.12
369.315	367.12
369.541	380.12
369.767	372.12
369.993	364.12
370.219	380.12
370.445	357.12
370.672	367.12
370.898	368.12
371.124	352.12
371.35	368.12
371.576	357.12
371.802	360.12
372.028	354.12
372.254	352.12
372.48	343.12
372.706	360.12
372.932	366.12
373.158	357.12
373.384	365.12
373.61	368.12
373.835	367.12
374.061	363.12
374.287	365.12
374.513	362.12
374.739	357.12
374.965	348.12
375.191	370.12
375.416	356.12
375.642	354.12
375.868	366.12
376.094	351.12
376.319	356.12
376.545	362.12
376.771	364.12
376.997	342.12
377.222	357.12
377.448	343.12
377.674	336.12
377.899	359.12
378.125	356.12
378.35	349.12
378.576	362.12
378.802	365.12
379.027	350.12
379.253	344.12
379.478	352.12
379.704	329.12
379.929	338.12
380.155	345.12
380.38	351.12
380.606	369.12
380.831	362.12
381.057	363.12
381.282	358.12
381.507	338.12
381.733	336.12
381.958	345.12
382.184	338.12
382.409	364.12
382.634	347.12
382.86	351.12
383.085	344.12
383.31	356.12
383.535	365.12
383.761	336.12
383.986	367.12
384.211	356.12
384.436	352.12
384.662	345.12
384.887	374.12
385.112	354.12
385.337	360.12
385.562	351.12
385.787	370.12
386.013	376.12
386.238	383.12
386.463	370.12
386.688	390.12
386.913	365.12
387.138	355.12
387.363	361.12
387.588	378.12
387.813	352.12
388.038	363.12
388.263	376.12
388.488	338.12
388.713	352.12
388.938	389.12
389.163	376.12
389.387	384.12
389.612	362.12
389.837	368.12
390.062	365.12
390.287	371.12
390.512	356.12
390.736	382.12
390.961	383.12
391.186	349.12
391.411	382.12
391.636	361.12
391.86	344.12
392.085	367.12
392.31	374.12
392.534	366.12
392.759	383.12
392.984	354.12
393.208	355.12
393.433	358.12
393.658	349.12
393.882	356.12
394.107	355.12
394.331	375.12
394.556	365.12
394.78	341.12
395.005	373.12
395.229	368.12
395.454	358.12
395.678	363.12
395.903	399.12
396.127	413.12
396.352	407.12
396.576	372.12
396.801	372.12
397.025	378.12
397.249	380.12
397.474	379.12
397.698	405.12
397.922	409.12
398.147	410.12
398.371	424.12
398.595	395.12
398.82	383.12
399.044	401.12
399.268	432.12
399.492	416.12
399.717	432.12
399.941	471.12
400.165	476.12
400.389	503.12
400.613	484.12
400.837	442.12
401.062	412.12
401.286	424.12
401.51	406.12
401.734	408.12
401.958	406.12
402.182	392.12
402.406	407.12
402.63	439.12
402.854	415.12
403.078	406.12
403.302	421.12
403.526	420.12
403.75	411.12
403.974	411.12
404.198	419.12
404.422	417.12
404.645	416.12
404.869	418.12
405.093	454.12
405.317	507.12
405.541	528.12
405.765	487.12
405.988	443.12
406.212	466.12
406.436	481.12
406.66	485.12
406.883	452.12
407.107	488.12
407.331	512.12
407.555	568.12
407.778	559.12
408.002	519.12
408.226	468.12
408.449	464.12
408.673	471.12
408.896	512.12
409.12	519.12
409.344	498.12
409.567	431.12
409.791	434.12
410.014	403.12
410.238	424.12
410.461	434.12
410.685	444.12
410.908	431.12
411.132	468.12
411.355	492.12
411.578	483.12
411.802	416.12
412.025	418.12
412.249	413.12
412.472	445.12
412.695	480.12
412.919	478.12
413.142	446.12
413.365	418.12
413.589	397.12
413.812	392.12
414.035	422.12
414.258	400.12
414.482	420.12
414.705	374.12
414.928	387.12
415.151	392.12
415.374	372.12
415.597	387.12
415.821	403.12
416.044	401.12
416.267	390.12
416.49	391.12
416.713	390.12
416.936	389.12
417.159	409.12
417.382	402.12
417.605	409.12
417.828	438.12
418.051	446.12
418.274	401.12
418.497	386.12
418.72	388.12
418.943	396.12
419.166	416.12
419.389	416.12
419.611	436.12
419.834	416.12
420.057	418.12
420.28	407.12
420.503	413.12
420.726	421.12
420.948	416.12
421.171	488.12
421.394	507.12
421.617	446.12
421.839	413.12
422.062	411.12
422.285	441.12
422.507	481.12
422.73	563.12
422.953	535.12
423.175	456.12
423.398	441.12
423.621	439.12
423.843	438.12
424.066	444.12
424.288	455.12
424.511	485.12
424.733	541.12
424.956	591.12
425.178	583.12
425.401	586.12
425.623	588.12
425.846	483.12
426.068	468.12
426.291	470.12
426.513	483.12
426.735	488.12
426.958	508.12
427.18	550.12
427.402	687.12
427.625	767.12
427.847	670.12
428.069	597.12
428.292	510.12
428.514	474.12
428.736	446.12
428.958	436.12
429.181	439.12
429.403	420.12
429.625	420.12
429.847	482.12
430.069	532.12
430.292	554.12
430.514	445.12
430.736	427.12
430.958	433.12
431.18	410.12
431.402	407.12
431.624	396.12
431.846	400.12
432.068	392.12
432.29	403.12
432.512	406.12
432.734	396.12
432.956	424.12
433.178	422.12
433.4	411.12
433.622	395.12
433.844	397.12
434.066	399.12
434.287	388.12
434.509	400.12
434.731	395.12
434.953	411.12
435.175	424.12
435.397	468.12
435.618	470.12
435.84	511.12
436.062	578.12
436.284	638.12
436.505	529.12
436.727	483.12
436.949	447.12
437.17	426.12
437.392	434.12
437.614	460.12
437.835	487.12
438.057	562.12
438.278	664.12
438.5	670.12
438.721	725.12
438.943	678.12
439.165	567.12
439.386	492.12
439.608	479.12
439.829	485.12
440.05	526.12
440.272	548.12
440.493	536.12
440.715	477.12
440.936	440.12
441.158	446.12
441.379	439.12
441.6	438.12
441.822	475.12
442.043	494.12
442.264	559.12
442.486	642.12
442.707	527.12
442.928	485.12
443.149	487.12
443.371	533.12
443.592	552.12
443.813	628.12
444.034	662.12
444.255	557.12
444.476	504.12
444.698	447.12
444.919	465.12
445.14	563.12
445.361	532.12
445.582	518.12
445.803	579.12
446.024	676.12
446.245	664.12
446.466	611.12
446.687	503.12
446.908	478.12
447.129	456.12
447.35	431.12
447.571	436.12
447.792	441.12
448.013	437.12
448.234	440.12
448.455	510.12
448.675	614.12
448.896	709.12
449.117	603.12
449.338	576.12
449.559	655.12
449.779	719.12
450	578.12
450.221	477.12
450.442	433.12
450.662	436.12
450.883	419.12
451.104	456.12
451.324	437.12
451.545	419.12
451.766	378.12
451.986	399.12
452.207	392.12
452.428	366.12
452.648	396.12
452.869	396.12
453.089	392.12
453.31	434.12
453.53	405.12
453.751	382.12
453.971	408.12
454.192	408.12
454.412	394.12
454.633	379.12
454.853	370.12
455.073	376.12
455.294	408.12
455.514	470.12
455.734	458.12
455.955	406.12
456.175	364.12
456.395	372.12
456.616	364.12
456.836	363.12
457.056	379.12
457.276	350.12
457.497	362.12
457.717	354.12
457.937	390.12
458.157	386.12
458.377	367.12
458.598	392.12
458.818	456.12
459.038	544.12
459.258	543.12
459.478	446.12
459.698	421.12
459.918	412.12
460.138	390.12
460.358	393.12
460.578	401.12
460.798	400.12
461.018	400.12
461.238	377.12
461.458	401.12
461.678	393.12
461.898	407.12
462.118	382.12
462.338	390.12
462.558	412.12
462.777	396.12
462.997	404.12
463.217	423.12
463.437	430.12
463.657	407.12
463.876	384.12
464.096	411.12
464.316	411.12
464.536	411.12
464.755	417.12
464.975	428.12
465.195	475.12
465.414	539.12
465.634	480.12
465.854	448.12
466.073	408.12
466.293	401.12
466.512	381.12
466.732	394.12
466.951	382.12
467.171	370.12
467.391	368.12
467.61	398.12
467.829	398.12
468.049	396.12
468.268	408.12
468.488	386.12
468.707	411.12
468.927	364.12
469.146	364.12
469.365	367.12
469.585	381.12
469.804	388.12
470.023	392.12
470.243	407.12
470.462	383.12
470.681	418.12
470.901	414.12
471.12	386.12
471.339	386.12
471.558	385.12
471.777	392.12
471.997	400.12
472.216	413.12
472.435	431.12
472.654	416.12
472.873	420.12
473.092	403.12
473.311	387.12
473.53	373.12
473.749	416.12
473.968	453.12
474.187	544.12
474.406	564.12
474.625	454.12
474.844	424.12
475.063	418.12
475.282	408.12
475.501	389.12
475.72	387.12
475.939	406.12
476.158	390.12
476.377	389.12
476.596	415.12
476.814	412.12
477.033	399.12
477.252	425.12
477.471	411.12
477.69	399.12
477.908	416.12
478.127	412.12
478.346	442.12
478.564	430.12
478.783	427.12
479.002	438.12
479.22	456.12
479.439	458.12
479.658	484.12
479.876	475.12
480.095	474.12
480.313	502.12
480.532	494.12
480.751	473.12
480.969	481.12
481.188	544.12
481.406	567.12
481.624	511.12
481.843	495.12
482.061	482.12
482.28	462.12
482.498	465.12
482.717	458.12
482.935	442.12
483.153	467.12
483.372	460.12
483.59	455.12
483.808	456.12
484.027	457.12
484.245	465.12
484.463	469.12
484.681	451.12
484.9	462.12
485.118	463.12
485.336	468.12
485.554	447.12
485.772	470.12
485.99	474.12
486.209	488.12
486.427	477.12
486.645	490.12
486.863	519.12
487.081	514.12
487.299	512.12
487.517	487.12
487.735	516.12
487.953	495.12
488.171	492.12
488.389	487.12
488.607	496.12
488.825	519.12
489.043	495.12
489.261	511.12
489.479	489.12
489.696	488.12
489.914	483.12
490.132	516.12
490.35	507.12
490.568	502.12
490.786	538.12
491.003	533.12
491.221	534.12
491.439	552.12
491.657	536.12
491.874	538.12
492.092	566.12
492.31	577.12
492.527	566.12
492.745	582.12
492.963	572.12
493.18	584.12
493.398	579.12
493.615	585.12
493.833	575.12
494.05	582.12
494.268	591.12
494.485	602.12
494.703	589.12
494.92	592.12
495.138	555.12
495.355	574.12
495.573	571.12
495.79	591.12
496.008	592.12
496.225	582.12
496.442	568.12
496.66	586.12
496.877	574.12
497.094	598.12
497.312	603.12
497.529	599.12
497.746	602.12
497.963	598.12
498.181	636.12
498.398	634.12
498.615	626.12
498.832	659.12
499.049	647.12
499.267	651.12
499.484	642.12
499.701	677.12
499.918	691.12
500.135	686.12
500.352	718.12
500.569	726.12
500.786	713.12
501.003	717.12
501.22	718.12
501.437	698.12
501.654	736.12
501.871	683.12
