Data from 1981.PennyLincolnUp.Lamp.En5.5.200Scan.071819.P1_HRD10591_16-41-39-959.txt Node
Date: Thu Jul 18 16:41:39 EDT 2019
User: cochatt
Spectrometer: HR+D1059
Trigger mode: 1
Integration Time (sec): 1.000000E-1
Scans to average: 1
Electric dark correction enabled: true
Nonlinearity correction enabled: false
Boxcar width: 0
XAxis mode: Wavelengths
Number of Pixels in Spectrum: 2048
>>>>>Begin Spectral Data<<<<<
223.165	-17.56
223.4	-17.56
223.635	-17.56
223.869	-12.56
224.104	-12.56
224.338	-23.56
224.573	-20.56
224.808	-16.56
225.042	-4.56
225.277	7.44
225.511	-13.56
225.746	5.44
225.98	22.44
226.215	20.44
226.449	16.44
226.683	23.44
226.918	10.44
227.152	15.44
227.387	45.44
227.621	47.44
227.856	50.44
228.09	41.44
228.324	28.44
228.559	50.44
228.793	80.44
229.027	83.44
229.262	109.44
229.496	105.44
229.73	119.44
229.964	149.44
230.199	128.44
230.433	94.44
230.667	114.44
230.901	101.44
231.136	110.44
231.37	107.44
231.604	101.44
231.838	108.44
232.072	109.44
232.306	97.44
232.541	119.44
232.775	113.44
233.009	112.44
233.243	99.44
233.477	101.44
233.711	103.44
233.945	104.44
234.179	106.44
234.413	103.44
234.647	112.44
234.881	107.44
235.115	106.44
235.349	119.44
235.583	105.44
235.817	119.44
236.051	113.44
236.285	121.44
236.519	107.44
236.753	117.44
236.987	138.44
237.221	162.44
237.455	221.44
237.689	174.44
237.922	135.44
238.156	142.44
238.39	118.44
238.624	129.44
238.858	126.44
239.091	115.44
239.325	110.44
239.559	122.44
239.793	117.44
240.027	126.44
240.26	137.44
240.494	153.44
240.728	157.44
240.961	129.44
241.195	128.44
241.429	142.44
241.662	125.44
241.896	134.44
242.13	140.44
242.363	116.44
242.597	123.44
242.83	129.44
243.064	129.44
243.298	130.44
243.531	129.44
243.765	132.44
243.998	119.44
244.232	143.44
244.465	139.44
244.699	137.44
244.932	135.44
245.166	146.44
245.399	143.44
245.633	137.44
245.866	146.44
246.099	145.44
246.333	139.44
246.566	131.44
246.8	138.44
247.033	158.44
247.266	170.44
247.5	157.44
247.733	176.44
247.966	167.44
248.2	162.44
248.433	160.44
248.666	175.44
248.899	179.44
249.133	206.44
249.366	197.44
249.599	196.44
249.832	183.44
250.066	199.44
250.299	191.44
250.532	186.44
250.765	208.44
250.998	220.44
251.231	221.44
251.465	210.44
251.698	191.44
251.931	217.44
252.164	199.44
252.397	202.44
252.63	207.44
252.863	202.44
253.096	233.44
253.329	230.44
253.562	238.44
253.795	216.44
254.028	225.44
254.261	212.44
254.494	217.44
254.727	244.44
254.96	289.44
255.193	259.44
255.426	252.44
255.659	231.44
255.892	231.44
256.124	241.44
256.357	234.44
256.59	241.44
256.823	223.44
257.056	229.44
257.289	216.44
257.521	224.44
257.754	206.44
257.987	202.44
258.22	200.44
258.452	214.44
258.685	209.44
258.918	213.44
259.151	207.44
259.383	202.44
259.616	226.44
259.849	223.44
260.081	244.44
260.314	258.44
260.547	262.44
260.779	244.44
261.012	235.44
261.244	239.44
261.477	220.44
261.71	213.44
261.942	234.44
262.175	248.44
262.407	253.44
262.64	223.44
262.872	218.44
263.105	227.44
263.337	230.44
263.57	198.44
263.802	215.44
264.035	232.44
264.267	211.44
264.499	221.44
264.732	221.44
264.964	229.44
265.197	227.44
265.429	220.44
265.661	202.44
265.894	214.44
266.126	209.44
266.358	196.44
266.591	220.44
266.823	219.44
267.055	240.44
267.287	225.44
267.52	221.44
267.752	222.44
267.984	225.44
268.216	231.44
268.448	225.44
268.681	254.44
268.913	239.44
269.145	269.44
269.377	273.44
269.609	282.44
269.841	274.44
270.073	282.44
270.306	296.44
270.538	315.44
270.77	321.44
271.002	310.44
271.234	311.44
271.466	320.44
271.698	323.44
271.93	330.44
272.162	328.44
272.394	325.44
272.626	313.44
272.858	305.44
273.09	264.44
273.322	297.44
273.553	285.44
273.785	288.44
274.017	259.44
274.249	260.44
274.481	270.44
274.713	274.44
274.945	276.44
275.176	271.44
275.408	263.44
275.64	270.44
275.872	268.44
276.104	258.44
276.335	266.44
276.567	274.44
276.799	303.44
277.031	298.44
277.262	308.44
277.494	319.44
277.726	316.44
277.957	293.44
278.189	287.44
278.421	260.44
278.652	296.44
278.884	279.44
279.115	267.44
279.347	258.44
279.579	273.44
279.81	243.44
280.042	277.44
280.273	262.44
280.505	267.44
280.736	256.44
280.968	259.44
281.199	264.44
281.431	283.44
281.662	275.44
281.894	277.44
282.125	265.44
282.356	291.44
282.588	291.44
282.819	291.44
283.051	290.44
283.282	276.44
283.513	275.44
283.745	256.44
283.976	276.44
284.207	292.44
284.439	272.44
284.67	279.44
284.901	282.44
285.132	291.44
285.364	273.44
285.595	275.44
285.826	280.44
286.057	279.44
286.288	265.44
286.52	274.44
286.751	278.44
286.982	271.44
287.213	285.44
287.444	287.44
287.675	281.44
287.906	282.44
288.138	296.44
288.369	299.44
288.6	311.44
288.831	287.44
289.062	293.44
289.293	287.44
289.524	275.44
289.755	296.44
289.986	284.44
290.217	265.44
290.448	278.44
290.679	277.44
290.91	270.44
291.141	276.44
291.371	278.44
291.602	291.44
291.833	279.44
292.064	273.44
292.295	295.44
292.526	281.44
292.757	280.44
292.987	271.44
293.218	275.44
293.449	291.44
293.68	283.44
293.91	275.44
294.141	275.44
294.372	277.44
294.603	302.44
294.833	301.44
295.064	282.44
295.295	305.44
295.525	305.44
295.756	297.44
295.987	305.44
296.217	308.44
296.448	319.44
296.679	290.44
296.909	292.44
297.14	306.44
297.37	278.44
297.601	303.44
297.831	282.44
298.062	305.44
298.292	277.44
298.523	313.44
298.753	304.44
298.984	285.44
299.214	297.44
299.445	297.44
299.675	298.44
299.905	318.44
300.136	306.44
300.366	302.44
300.597	289.44
300.827	295.44
301.057	314.44
301.288	322.44
301.518	323.44
301.748	307.44
301.979	314.44
302.209	310.44
302.439	306.44
302.669	316.44
302.9	323.44
303.13	306.44
303.36	337.44
303.59	325.44
303.82	331.44
304.051	333.44
304.281	335.44
304.511	295.44
304.741	330.44
304.971	305.44
305.201	328.44
305.431	313.44
305.661	323.44
305.891	329.44
306.121	318.44
306.352	335.44
306.582	324.44
306.812	336.44
307.042	327.44
307.272	324.44
307.502	314.44
307.731	330.44
307.961	331.44
308.191	333.44
308.421	312.44
308.651	318.44
308.881	329.44
309.111	324.44
309.341	335.44
309.571	328.44
309.8	351.44
310.03	361.44
310.26	358.44
310.49	350.44
310.72	398.44
310.949	398.44
311.179	398.44
311.409	383.44
311.639	394.44
311.868	365.44
312.098	380.44
312.328	412.44
312.557	401.44
312.787	403.44
313.017	398.44
313.246	390.44
313.476	389.44
313.706	376.44
313.935	360.44
314.165	387.44
314.394	411.44
314.624	387.44
314.853	358.44
315.083	381.44
315.312	365.44
315.542	373.44
315.771	359.44
316.001	387.44
316.23	369.44
316.46	378.44
316.689	353.44
316.919	364.44
317.148	385.44
317.377	385.44
317.607	381.44
317.836	382.44
318.065	378.44
318.295	365.44
318.524	405.44
318.753	375.44
318.983	352.44
319.212	375.44
319.441	354.44
319.67	390.44
319.9	391.44
320.129	387.44
320.358	394.44
320.587	397.44
320.816	390.44
321.046	402.44
321.275	415.44
321.504	402.44
321.733	406.44
321.962	429.44
322.191	437.44
322.42	443.44
322.649	449.44
322.878	466.44
323.108	491.44
323.337	523.44
323.566	521.44
323.795	576.44
324.024	635.44
324.253	768.44
324.482	1140.44
324.71	1721.44
324.939	2394.44
325.168	1995.44
325.397	1072.44
325.626	730.44
325.855	588.44
326.084	547.44
326.313	548.44
326.542	536.44
326.77	588.44
326.999	706.44
327.228	1008.44
327.457	1482.44
327.686	1703.44
327.914	1145.44
328.143	803.44
328.372	660.44
328.6	616.44
328.829	586.44
329.058	631.44
329.287	614.44
329.515	594.44
329.744	527.44
329.972	541.44
330.201	565.44
330.43	591.44
330.658	617.44
330.887	650.44
331.115	625.44
331.344	538.44
331.572	500.44
331.801	493.44
332.03	472.44
332.258	448.44
332.486	447.44
332.715	432.44
332.943	432.44
333.172	413.44
333.4	418.44
333.629	453.44
333.857	463.44
334.085	472.44
334.314	480.44
334.542	502.44
334.771	517.44
334.999	484.44
335.227	447.44
335.455	433.44
335.684	435.44
335.912	433.44
336.14	418.44
336.369	431.44
336.597	433.44
336.825	437.44
337.053	411.44
337.281	402.44
337.51	403.44
337.738	417.44
337.966	417.44
338.194	419.44
338.422	406.44
338.65	394.44
338.878	413.44
339.106	401.44
339.334	411.44
339.562	398.44
339.79	398.44
340.018	394.44
340.246	421.44
340.474	410.44
340.702	426.44
340.93	410.44
341.158	411.44
341.386	397.44
341.614	395.44
341.842	415.44
342.07	409.44
342.298	407.44
342.526	388.44
342.754	387.44
342.981	368.44
343.209	391.44
343.437	373.44
343.665	401.44
343.893	402.44
344.12	388.44
344.348	395.44
344.576	413.44
344.804	406.44
345.031	409.44
345.259	433.44
345.487	415.44
345.714	413.44
345.942	400.44
346.17	388.44
346.397	397.44
346.625	396.44
346.853	392.44
347.08	381.44
347.308	409.44
347.535	397.44
347.763	411.44
347.99	400.44
348.218	405.44
348.445	403.44
348.673	413.44
348.9	395.44
349.128	381.44
349.355	365.44
349.583	377.44
349.81	377.44
350.037	385.44
350.265	377.44
350.492	379.44
350.72	372.44
350.947	378.44
351.174	387.44
351.402	400.44
351.629	413.44
351.856	408.44
352.083	403.44
352.311	417.44
352.538	420.44
352.765	414.44
352.992	408.44
353.22	395.44
353.447	393.44
353.674	374.44
353.901	361.44
354.128	363.44
354.355	373.44
354.583	364.44
354.81	357.44
355.037	357.44
355.264	353.44
355.491	349.44
355.718	355.44
355.945	385.44
356.172	368.44
356.399	340.44
356.626	360.44
356.853	360.44
357.08	359.44
357.307	331.44
357.534	334.44
357.761	330.44
357.988	370.44
358.215	353.44
358.441	363.44
358.668	360.44
358.895	381.44
359.122	373.44
359.349	359.44
359.576	373.44
359.802	409.44
360.029	432.44
360.256	465.44
360.483	432.44
360.709	411.44
360.936	396.44
361.163	395.44
361.39	389.44
361.616	389.44
361.843	395.44
362.07	377.44
362.296	373.44
362.523	406.44
362.749	377.44
362.976	383.44
363.203	369.44
363.429	359.44
363.656	367.44
363.882	360.44
364.109	370.44
364.335	355.44
364.562	341.44
364.788	356.44
365.015	350.44
365.241	353.44
365.468	371.44
365.694	357.44
365.92	356.44
366.147	381.44
366.373	365.44
366.599	357.44
366.826	350.44
367.052	363.44
367.278	359.44
367.505	347.44
367.731	355.44
367.957	372.44
368.184	375.44
368.41	377.44
368.636	375.44
368.862	375.44
369.089	375.44
369.315	366.44
369.541	367.44
369.767	360.44
369.993	352.44
370.219	369.44
370.445	353.44
370.672	351.44
370.898	352.44
371.124	331.44
371.35	356.44
371.576	349.44
371.802	334.44
372.028	343.44
372.254	351.44
372.48	354.44
372.706	353.44
372.932	330.44
373.158	354.44
373.384	370.44
373.61	354.44
373.835	340.44
374.061	341.44
374.287	354.44
374.513	348.44
374.739	354.44
374.965	346.44
375.191	341.44
375.416	352.44
375.642	361.44
375.868	338.44
376.094	344.44
376.319	345.44
376.545	331.44
376.771	346.44
376.997	347.44
377.222	342.44
377.448	325.44
377.674	335.44
377.899	343.44
378.125	356.44
378.35	347.44
378.576	346.44
378.802	346.44
379.027	341.44
379.253	354.44
379.478	321.44
379.704	333.44
379.929	348.44
380.155	350.44
380.38	343.44
380.606	352.44
380.831	346.44
381.057	358.44
381.282	321.44
381.507	325.44
381.733	348.44
381.958	326.44
382.184	345.44
382.409	339.44
382.634	344.44
382.86	357.44
383.085	356.44
383.31	353.44
383.535	354.44
383.761	335.44
383.986	350.44
384.211	350.44
384.436	362.44
384.662	345.44
384.887	351.44
385.112	328.44
385.337	350.44
385.562	361.44
385.787	349.44
386.013	360.44
386.238	375.44
386.463	377.44
386.688	361.44
386.913	351.44
387.138	349.44
387.363	377.44
387.588	364.44
387.813	357.44
388.038	348.44
388.263	361.44
388.488	362.44
388.713	349.44
388.938	360.44
389.163	367.44
389.387	375.44
389.612	359.44
389.837	343.44
390.062	374.44
390.287	357.44
390.512	362.44
390.736	351.44
390.961	351.44
391.186	345.44
391.411	367.44
391.636	377.44
391.86	358.44
392.085	362.44
392.31	362.44
392.534	336.44
392.759	370.44
392.984	354.44
393.208	351.44
393.433	352.44
393.658	361.44
393.882	355.44
394.107	358.44
394.331	379.44
394.556	361.44
394.78	335.44
395.005	349.44
395.229	346.44
395.454	341.44
395.678	373.44
395.903	373.44
396.127	400.44
396.352	395.44
396.576	371.44
396.801	363.44
397.025	356.44
397.249	370.44
397.474	365.44
397.698	376.44
397.922	387.44
398.147	397.44
398.371	406.44
398.595	397.44
398.82	382.44
399.044	409.44
399.268	405.44
399.492	436.44
399.717	427.44
399.941	471.44
400.165	471.44
400.389	482.44
400.613	453.44
400.837	429.44
401.062	418.44
401.286	393.44
401.51	389.44
401.734	415.44
401.958	397.44
402.182	414.44
402.406	407.44
402.63	389.44
402.854	414.44
403.078	405.44
403.302	411.44
403.526	409.44
403.75	415.44
403.974	393.44
404.198	398.44
404.422	410.44
404.645	421.44
404.869	413.44
405.093	445.44
405.317	460.44
405.541	514.44
405.765	464.44
405.988	442.44
406.212	439.44
406.436	441.44
406.66	445.44
406.883	454.44
407.107	474.44
407.331	503.44
407.555	572.44
407.778	555.44
408.002	489.44
408.226	472.44
408.449	451.44
408.673	468.44
408.896	479.44
409.12	503.44
409.344	480.44
409.567	437.44
409.791	431.44
410.014	435.44
410.238	419.44
410.461	423.44
410.685	413.44
410.908	433.44
411.132	444.44
411.355	471.44
411.578	460.44
411.802	430.44
412.025	411.44
412.249	415.44
412.472	425.44
412.695	468.44
412.919	437.44
413.142	413.44
413.365	399.44
413.589	387.44
413.812	395.44
414.035	399.44
414.258	379.44
414.482	376.44
414.705	381.44
414.928	389.44
415.151	370.44
415.374	381.44
415.597	381.44
415.821	391.44
416.044	386.44
416.267	387.44
416.49	386.44
416.713	384.44
416.936	376.44
417.159	388.44
417.382	393.44
417.605	381.44
417.828	390.44
418.051	417.44
418.274	396.44
418.497	389.44
418.72	380.44
418.943	380.44
419.166	402.44
419.389	394.44
419.611	414.44
419.834	414.44
420.057	405.44
420.28	409.44
420.503	409.44
420.726	402.44
420.948	424.44
421.171	471.44
421.394	493.44
421.617	437.44
421.839	431.44
422.062	417.44
422.285	436.44
422.507	475.44
422.73	538.44
422.953	521.44
423.175	449.44
423.398	443.44
423.621	433.44
423.843	427.44
424.066	459.44
424.288	441.44
424.511	479.44
424.733	496.44
424.956	565.44
425.178	565.44
425.401	547.44
425.623	577.44
425.846	493.44
426.068	465.44
426.291	462.44
426.513	463.44
426.735	466.44
426.958	500.44
427.18	566.44
427.402	678.44
427.625	751.44
427.847	639.44
428.069	586.44
428.292	513.44
428.514	474.44
428.736	423.44
428.958	417.44
429.181	406.44
429.403	418.44
429.625	416.44
429.847	448.44
430.069	530.44
430.292	510.44
430.514	447.44
430.736	406.44
430.958	395.44
431.18	401.44
431.402	388.44
431.624	385.44
431.846	383.44
432.068	381.44
432.29	388.44
432.512	409.44
432.734	402.44
432.956	410.44
433.178	406.44
433.4	411.44
433.622	401.44
433.844	395.44
434.066	395.44
434.287	382.44
434.509	383.44
434.731	392.44
434.953	408.44
435.175	427.44
435.397	447.44
435.618	457.44
435.84	490.44
436.062	578.44
436.284	630.44
436.505	528.44
436.727	466.44
436.949	436.44
437.17	422.44
437.392	425.44
437.614	417.44
437.835	464.44
438.057	562.44
438.278	669.44
438.5	635.44
438.721	685.44
438.943	666.44
439.165	520.44
439.386	484.44
439.608	458.44
439.829	461.44
440.05	495.44
440.272	546.44
440.493	502.44
440.715	456.44
440.936	445.44
441.158	410.44
441.379	431.44
441.6	435.44
441.822	443.44
442.043	484.44
442.264	554.44
442.486	594.44
442.707	511.44
442.928	471.44
443.149	489.44
443.371	496.44
443.592	533.44
443.813	616.44
444.034	646.44
444.255	545.44
444.476	478.44
444.698	466.44
444.919	473.44
445.14	594.44
445.361	530.44
445.582	498.44
445.803	571.44
446.024	631.44
446.245	650.44
446.466	591.44
446.687	489.44
446.908	457.44
447.129	431.44
447.35	447.44
447.571	422.44
447.792	418.44
448.013	430.44
448.234	447.44
448.455	509.44
448.675	585.44
448.896	676.44
449.117	602.44
449.338	579.44
449.559	643.44
449.779	688.44
450	569.44
450.221	466.44
450.442	435.44
450.662	419.44
450.883	439.44
451.104	439.44
451.324	426.44
451.545	414.44
451.766	405.44
451.986	370.44
452.207	361.44
452.428	383.44
452.648	381.44
452.869	399.44
453.089	395.44
453.31	388.44
453.53	394.44
453.751	377.44
453.971	381.44
454.192	421.44
454.412	398.44
454.633	391.44
454.853	361.44
455.073	368.44
455.294	405.44
455.514	456.44
455.734	447.44
455.955	381.44
456.175	360.44
456.395	368.44
456.616	352.44
456.836	351.44
457.056	351.44
457.276	343.44
457.497	344.44
457.717	348.44
457.937	337.44
458.157	368.44
458.377	375.44
458.598	391.44
458.818	442.44
459.038	522.44
459.258	517.44
459.478	454.44
459.698	418.44
459.918	388.44
460.138	383.44
460.358	390.44
460.578	388.44
460.798	374.44
461.018	386.44
461.238	385.44
461.458	391.44
461.678	391.44
461.898	382.44
462.118	373.44
462.338	372.44
462.558	374.44
462.777	395.44
462.997	390.44
463.217	405.44
463.437	414.44
463.657	377.44
463.876	395.44
464.096	398.44
464.316	390.44
464.536	403.44
464.755	417.44
464.975	401.44
465.195	462.44
465.414	535.44
465.634	450.44
465.854	434.44
466.073	405.44
466.293	387.44
466.512	373.44
466.732	371.44
466.951	382.44
467.171	367.44
467.391	378.44
467.61	403.44
467.829	374.44
468.049	379.44
468.268	393.44
468.488	347.44
468.707	381.44
468.927	381.44
469.146	367.44
469.365	373.44
469.585	369.44
469.804	365.44
470.023	382.44
470.243	385.44
470.462	397.44
470.681	412.44
470.901	397.44
471.12	386.44
471.339	374.44
471.558	382.44
471.777	386.44
471.997	378.44
472.216	399.44
472.435	417.44
472.654	410.44
472.873	374.44
473.092	382.44
473.311	393.44
473.53	391.44
473.749	385.44
473.968	435.44
474.187	542.44
474.406	563.44
474.625	450.44
474.844	403.44
475.063	379.44
475.282	382.44
475.501	381.44
475.72	409.44
475.939	393.44
476.158	403.44
476.377	394.44
476.596	389.44
476.814	398.44
477.033	414.44
477.252	406.44
477.471	407.44
477.69	418.44
477.908	444.44
478.127	414.44
478.346	407.44
478.564	420.44
478.783	417.44
479.002	429.44
479.22	417.44
479.439	435.44
479.658	463.44
479.876	467.44
480.095	466.44
480.313	486.44
480.532	511.44
480.751	474.44
480.969	474.44
481.188	519.44
481.406	546.44
481.624	497.44
481.843	440.44
482.061	451.44
482.28	457.44
482.498	452.44
482.717	442.44
482.935	448.44
483.153	460.44
483.372	475.44
483.59	445.44
483.808	458.44
484.027	441.44
484.245	447.44
484.463	441.44
484.681	462.44
484.9	451.44
485.118	466.44
485.336	451.44
485.554	472.44
485.772	457.44
485.99	464.44
486.209	451.44
486.427	456.44
486.645	475.44
486.863	498.44
487.081	491.44
487.299	493.44
487.517	499.44
487.735	455.44
487.953	483.44
488.171	495.44
488.389	495.44
488.607	491.44
488.825	478.44
489.043	482.44
489.261	478.44
489.479	516.44
489.696	495.44
489.914	474.44
490.132	511.44
490.35	495.44
490.568	502.44
490.786	516.44
491.003	528.44
491.221	509.44
491.439	534.44
491.657	539.44
491.874	525.44
492.092	554.44
492.31	549.44
492.527	559.44
492.745	558.44
492.963	533.44
493.18	555.44
493.398	594.44
493.615	593.44
493.833	577.44
494.05	551.44
494.268	569.44
494.485	560.44
494.703	567.44
494.92	561.44
495.138	555.44
495.355	559.44
495.573	582.44
495.79	598.44
496.008	588.44
496.225	553.44
496.442	559.44
496.66	573.44
496.877	586.44
497.094	565.44
497.312	589.44
497.529	599.44
497.746	598.44
497.963	603.44
498.181	612.44
498.398	591.44
498.615	614.44
498.832	642.44
499.049	645.44
499.267	651.44
499.484	643.44
499.701	664.44
499.918	680.44
500.135	692.44
500.352	680.44
500.569	711.44
500.786	698.44
501.003	709.44
501.22	672.44
501.437	685.44
501.654	687.44
501.871	711.44
