Data from 1981.PennyLincolnUp.Lamp.En5.5.200Scan.071819.P1_HRD10591_16-42-18-960.txt Node
Date: Thu Jul 18 16:42:18 EDT 2019
User: cochatt
Spectrometer: HR+D1059
Trigger mode: 1
Integration Time (sec): 1.000000E-1
Scans to average: 1
Electric dark correction enabled: true
Nonlinearity correction enabled: false
Boxcar width: 0
XAxis mode: Wavelengths
Number of Pixels in Spectrum: 2048
>>>>>Begin Spectral Data<<<<<
223.165	-11.25
223.4	-11.25
223.635	-11.25
223.869	-27.25
224.104	-14.25
224.338	0.75
224.573	-13.25
224.808	-15.25
225.042	-9.25
225.277	2.75
225.511	-5.25
225.746	-7.25
225.98	-0.25
226.215	10.75
226.449	15.75
226.683	7.75
226.918	40.75
227.152	24.75
227.387	29.75
227.621	20.75
227.856	24.75
228.09	35.75
228.324	59.75
228.559	42.75
228.793	66.75
229.027	97.75
229.262	95.75
229.496	121.75
229.73	130.75
229.964	146.75
230.199	124.75
230.433	104.75
230.667	105.75
230.901	115.75
231.136	110.75
231.37	111.75
231.604	103.75
231.838	108.75
232.072	89.75
232.306	115.75
232.541	114.75
232.775	98.75
233.009	111.75
233.243	101.75
233.477	115.75
233.711	115.75
233.945	101.75
234.179	93.75
234.413	109.75
234.647	129.75
234.881	99.75
235.115	117.75
235.349	116.75
235.583	119.75
235.817	111.75
236.051	113.75
236.285	128.75
236.519	114.75
236.753	128.75
236.987	149.75
237.221	186.75
237.455	231.75
237.689	188.75
237.922	147.75
238.156	137.75
238.39	125.75
238.624	127.75
238.858	128.75
239.091	121.75
239.325	138.75
239.559	122.75
239.793	129.75
240.027	121.75
240.26	151.75
240.494	146.75
240.728	157.75
240.961	152.75
241.195	128.75
241.429	142.75
241.662	137.75
241.896	113.75
242.13	128.75
242.363	145.75
242.597	129.75
242.83	133.75
243.064	145.75
243.298	130.75
243.531	139.75
243.765	124.75
243.998	124.75
244.232	138.75
244.465	124.75
244.699	150.75
244.932	145.75
245.166	148.75
245.399	146.75
245.633	153.75
245.866	147.75
246.099	149.75
246.333	147.75
246.566	156.75
246.8	151.75
247.033	158.75
247.266	159.75
247.5	156.75
247.733	162.75
247.966	181.75
248.2	161.75
248.433	171.75
248.666	173.75
248.899	192.75
249.133	216.75
249.366	218.75
249.599	182.75
249.832	196.75
250.066	196.75
250.299	180.75
250.532	192.75
250.765	212.75
250.998	224.75
251.231	218.75
251.465	207.75
251.698	209.75
251.931	208.75
252.164	209.75
252.397	202.75
252.63	204.75
252.863	203.75
253.096	228.75
253.329	244.75
253.562	216.75
253.795	232.75
254.028	219.75
254.261	240.75
254.494	230.75
254.727	260.75
254.96	296.75
255.193	288.75
255.426	248.75
255.659	250.75
255.892	265.75
256.124	236.75
256.357	238.75
256.59	247.75
256.823	230.75
257.056	220.75
257.289	230.75
257.521	212.75
257.754	201.75
257.987	213.75
258.22	202.75
258.452	201.75
258.685	190.75
258.918	212.75
259.151	210.75
259.383	217.75
259.616	229.75
259.849	234.75
260.081	238.75
260.314	261.75
260.547	260.75
260.779	256.75
261.012	213.75
261.244	238.75
261.477	221.75
261.71	216.75
261.942	240.75
262.175	252.75
262.407	233.75
262.64	242.75
262.872	217.75
263.105	226.75
263.337	217.75
263.57	220.75
263.802	210.75
264.035	218.75
264.267	217.75
264.499	202.75
264.732	229.75
264.964	202.75
265.197	209.75
265.429	201.75
265.661	206.75
265.894	217.75
266.126	216.75
266.358	199.75
266.591	203.75
266.823	234.75
267.055	229.75
267.287	217.75
267.52	231.75
267.752	229.75
267.984	230.75
268.216	221.75
268.448	237.75
268.681	234.75
268.913	254.75
269.145	249.75
269.377	254.75
269.609	273.75
269.841	252.75
270.073	268.75
270.306	280.75
270.538	316.75
270.77	326.75
271.002	310.75
271.234	294.75
271.466	318.75
271.698	309.75
271.93	327.75
272.162	318.75
272.394	313.75
272.626	322.75
272.858	296.75
273.09	270.75
273.322	287.75
273.553	263.75
273.785	265.75
274.017	264.75
274.249	279.75
274.481	267.75
274.713	273.75
274.945	263.75
275.176	279.75
275.408	265.75
275.64	254.75
275.872	239.75
276.104	265.75
276.335	267.75
276.567	285.75
276.799	281.75
277.031	309.75
277.262	309.75
277.494	314.75
277.726	290.75
277.957	291.75
278.189	279.75
278.421	280.75
278.652	262.75
278.884	275.75
279.115	267.75
279.347	258.75
279.579	270.75
279.81	241.75
280.042	231.75
280.273	248.75
280.505	268.75
280.736	275.75
280.968	257.75
281.199	245.75
281.431	242.75
281.662	278.75
281.894	271.75
282.125	272.75
282.356	293.75
282.588	274.75
282.819	294.75
283.051	255.75
283.282	257.75
283.513	265.75
283.745	278.75
283.976	264.75
284.207	273.75
284.439	276.75
284.67	275.75
284.901	279.75
285.132	264.75
285.364	262.75
285.595	265.75
285.826	270.75
286.057	273.75
286.288	281.75
286.52	294.75
286.751	282.75
286.982	280.75
287.213	252.75
287.444	272.75
287.675	285.75
287.906	288.75
288.138	280.75
288.369	277.75
288.6	276.75
288.831	285.75
289.062	290.75
289.293	278.75
289.524	300.75
289.755	297.75
289.986	290.75
290.217	285.75
290.448	268.75
290.679	276.75
290.91	274.75
291.141	262.75
291.371	266.75
291.602	270.75
291.833	259.75
292.064	271.75
292.295	288.75
292.526	274.75
292.757	285.75
292.987	273.75
293.218	283.75
293.449	274.75
293.68	291.75
293.91	276.75
294.141	263.75
294.372	261.75
294.603	286.75
294.833	288.75
295.064	285.75
295.295	287.75
295.525	296.75
295.756	291.75
295.987	295.75
296.217	295.75
296.448	314.75
296.679	285.75
296.909	286.75
297.14	283.75
297.37	283.75
297.601	279.75
297.831	291.75
298.062	311.75
298.292	282.75
298.523	289.75
298.753	276.75
298.984	281.75
299.214	295.75
299.445	284.75
299.675	307.75
299.905	304.75
300.136	304.75
300.366	306.75
300.597	310.75
300.827	305.75
301.057	309.75
301.288	325.75
301.518	319.75
301.748	312.75
301.979	307.75
302.209	311.75
302.439	321.75
302.669	329.75
302.9	303.75
303.13	302.75
303.36	311.75
303.59	312.75
303.82	310.75
304.051	310.75
304.281	316.75
304.511	324.75
304.741	326.75
304.971	310.75
305.201	321.75
305.431	310.75
305.661	325.75
305.891	300.75
306.121	335.75
306.352	326.75
306.582	334.75
306.812	323.75
307.042	311.75
307.272	318.75
307.502	311.75
307.731	314.75
307.961	313.75
308.191	314.75
308.421	342.75
308.651	333.75
308.881	326.75
309.111	326.75
309.341	327.75
309.571	343.75
309.8	349.75
310.03	360.75
310.26	386.75
310.49	388.75
310.72	390.75
310.949	411.75
311.179	412.75
311.409	389.75
311.639	380.75
311.868	392.75
312.098	379.75
312.328	384.75
312.557	406.75
312.787	422.75
313.017	420.75
313.246	392.75
313.476	388.75
313.706	358.75
313.935	388.75
314.165	399.75
314.394	400.75
314.624	395.75
314.853	390.75
315.083	366.75
315.312	361.75
315.542	359.75
315.771	359.75
316.001	362.75
316.23	370.75
316.46	366.75
316.689	362.75
316.919	345.75
317.148	385.75
317.377	382.75
317.607	371.75
317.836	377.75
318.065	355.75
318.295	354.75
318.524	378.75
318.753	361.75
318.983	374.75
319.212	392.75
319.441	389.75
319.67	392.75
319.9	383.75
320.129	368.75
320.358	374.75
320.587	383.75
320.816	400.75
321.046	381.75
321.275	386.75
321.504	386.75
321.733	422.75
321.962	417.75
322.191	416.75
322.42	437.75
322.649	438.75
322.878	457.75
323.108	504.75
323.337	503.75
323.566	526.75
323.795	589.75
324.024	642.75
324.253	812.75
324.482	1169.75
324.71	1807.75
324.939	2394.75
325.168	2065.75
325.397	1094.75
325.626	734.75
325.855	611.75
326.084	563.75
326.313	548.75
326.542	548.75
326.77	617.75
326.999	742.75
327.228	1026.75
327.457	1544.75
327.686	1795.75
327.914	1206.75
328.143	823.75
328.372	662.75
328.6	646.75
328.829	612.75
329.058	610.75
329.287	629.75
329.515	565.75
329.744	556.75
329.972	530.75
330.201	556.75
330.43	567.75
330.658	640.75
330.887	641.75
331.115	615.75
331.344	535.75
331.572	498.75
331.801	500.75
332.03	489.75
332.258	474.75
332.486	464.75
332.715	452.75
332.943	433.75
333.172	450.75
333.4	444.75
333.629	445.75
333.857	465.75
334.085	479.75
334.314	464.75
334.542	516.75
334.771	541.75
334.999	492.75
335.227	471.75
335.455	410.75
335.684	421.75
335.912	404.75
336.14	409.75
336.369	422.75
336.597	431.75
336.825	423.75
337.053	421.75
337.281	417.75
337.51	401.75
337.738	409.75
337.966	407.75
338.194	436.75
338.422	421.75
338.65	420.75
338.878	409.75
339.106	407.75
339.334	407.75
339.562	406.75
339.79	406.75
340.018	403.75
340.246	393.75
340.474	417.75
340.702	389.75
340.93	405.75
341.158	401.75
341.386	428.75
341.614	404.75
341.842	396.75
342.07	400.75
342.298	390.75
342.526	401.75
342.754	392.75
342.981	406.75
343.209	390.75
343.437	373.75
343.665	377.75
343.893	394.75
344.12	406.75
344.348	404.75
344.576	409.75
344.804	409.75
345.031	414.75
345.259	438.75
345.487	415.75
345.714	388.75
345.942	404.75
346.17	388.75
346.397	367.75
346.625	384.75
346.853	401.75
347.08	407.75
347.308	410.75
347.535	401.75
347.763	399.75
347.99	408.75
348.218	394.75
348.445	402.75
348.673	404.75
348.9	411.75
349.128	388.75
349.355	391.75
349.583	382.75
349.81	364.75
350.037	369.75
350.265	368.75
350.492	384.75
350.72	373.75
350.947	394.75
351.174	370.75
351.402	402.75
351.629	401.75
351.856	374.75
352.083	397.75
352.311	389.75
352.538	414.75
352.765	421.75
352.992	410.75
353.22	398.75
353.447	381.75
353.674	384.75
353.901	379.75
354.128	358.75
354.355	378.75
354.583	374.75
354.81	382.75
355.037	344.75
355.264	358.75
355.491	335.75
355.718	339.75
355.945	354.75
356.172	339.75
356.399	329.75
356.626	337.75
356.853	330.75
357.08	345.75
357.307	366.75
357.534	364.75
357.761	351.75
357.988	342.75
358.215	353.75
358.441	347.75
358.668	371.75
358.895	370.75
359.122	345.75
359.349	358.75
359.576	366.75
359.802	412.75
360.029	453.75
360.256	422.75
360.483	411.75
360.709	397.75
360.936	383.75
361.163	401.75
361.39	377.75
361.616	385.75
361.843	391.75
362.07	393.75
362.296	397.75
362.523	384.75
362.749	374.75
362.976	380.75
363.203	350.75
363.429	357.75
363.656	352.75
363.882	353.75
364.109	352.75
364.335	349.75
364.562	370.75
364.788	365.75
365.015	350.75
365.241	366.75
365.468	357.75
365.694	356.75
365.92	382.75
366.147	360.75
366.373	350.75
366.599	353.75
366.826	344.75
367.052	348.75
367.278	333.75
367.505	347.75
367.731	349.75
367.957	359.75
368.184	352.75
368.41	371.75
368.636	362.75
368.862	373.75
369.089	352.75
369.315	356.75
369.541	358.75
369.767	361.75
369.993	349.75
370.219	353.75
370.445	354.75
370.672	336.75
370.898	337.75
371.124	349.75
371.35	339.75
371.576	335.75
371.802	332.75
372.028	327.75
372.254	324.75
372.48	339.75
372.706	344.75
372.932	328.75
373.158	338.75
373.384	334.75
373.61	324.75
373.835	355.75
374.061	354.75
374.287	346.75
374.513	344.75
374.739	314.75
374.965	330.75
375.191	333.75
375.416	340.75
375.642	349.75
375.868	355.75
376.094	330.75
376.319	345.75
376.545	348.75
376.771	326.75
376.997	335.75
377.222	339.75
377.448	350.75
377.674	333.75
377.899	328.75
378.125	325.75
378.35	334.75
378.576	350.75
378.802	318.75
379.027	335.75
379.253	334.75
379.478	328.75
379.704	339.75
379.929	325.75
380.155	312.75
380.38	335.75
380.606	333.75
380.831	326.75
381.057	330.75
381.282	330.75
381.507	333.75
381.733	336.75
381.958	330.75
382.184	320.75
382.409	339.75
382.634	353.75
382.86	322.75
383.085	319.75
383.31	339.75
383.535	343.75
383.761	334.75
383.986	353.75
384.211	339.75
384.436	332.75
384.662	317.75
384.887	347.75
385.112	348.75
385.337	330.75
385.562	343.75
385.787	348.75
386.013	349.75
386.238	356.75
386.463	361.75
386.688	363.75
386.913	338.75
387.138	341.75
387.363	371.75
387.588	348.75
387.813	343.75
388.038	322.75
388.263	354.75
388.488	353.75
388.713	346.75
388.938	337.75
389.163	358.75
389.387	342.75
389.612	339.75
389.837	354.75
390.062	345.75
390.287	328.75
390.512	358.75
390.736	341.75
390.961	349.75
391.186	320.75
391.411	351.75
391.636	346.75
391.86	355.75
392.085	372.75
392.31	344.75
392.534	369.75
392.759	344.75
392.984	348.75
393.208	354.75
393.433	339.75
393.658	359.75
393.882	348.75
394.107	337.75
394.331	355.75
394.556	349.75
394.78	346.75
395.005	346.75
395.229	341.75
395.454	358.75
395.678	364.75
395.903	366.75
396.127	382.75
396.352	387.75
396.576	370.75
396.801	382.75
397.025	355.75
397.249	362.75
397.474	372.75
397.698	356.75
397.922	362.75
398.147	403.75
398.371	382.75
398.595	378.75
398.82	370.75
399.044	367.75
399.268	395.75
399.492	417.75
399.717	411.75
399.941	451.75
400.165	468.75
400.389	493.75
400.613	435.75
400.837	421.75
401.062	401.75
401.286	376.75
401.51	379.75
401.734	361.75
401.958	388.75
402.182	390.75
402.406	406.75
402.63	417.75
402.854	404.75
403.078	371.75
403.302	389.75
403.526	399.75
403.75	412.75
403.974	400.75
404.198	386.75
404.422	392.75
404.645	395.75
404.869	405.75
405.093	446.75
405.317	463.75
405.541	481.75
405.765	452.75
405.988	442.75
406.212	459.75
406.436	460.75
406.66	466.75
406.883	430.75
407.107	454.75
407.331	483.75
407.555	528.75
407.778	543.75
408.002	499.75
408.226	457.75
408.449	444.75
408.673	431.75
408.896	484.75
409.12	485.75
409.344	504.75
409.567	429.75
409.791	420.75
410.014	412.75
410.238	400.75
410.461	408.75
410.685	426.75
410.908	403.75
411.132	457.75
411.355	472.75
411.578	451.75
411.802	398.75
412.025	389.75
412.249	417.75
412.472	425.75
412.695	462.75
412.919	448.75
413.142	414.75
413.365	379.75
413.589	379.75
413.812	364.75
414.035	388.75
414.258	394.75
414.482	392.75
414.705	353.75
414.928	386.75
415.151	368.75
415.374	385.75
415.597	373.75
415.821	358.75
416.044	378.75
416.267	396.75
416.49	384.75
416.713	389.75
416.936	363.75
417.159	370.75
417.382	392.75
417.605	376.75
417.828	399.75
418.051	402.75
418.274	384.75
418.497	388.75
418.72	380.75
418.943	377.75
419.166	390.75
419.389	422.75
419.611	401.75
419.834	395.75
420.057	400.75
420.28	390.75
420.503	398.75
420.726	404.75
420.948	430.75
421.171	456.75
421.394	457.75
421.617	439.75
421.839	405.75
422.062	406.75
422.285	423.75
422.507	473.75
422.73	516.75
422.953	513.75
423.175	447.75
423.398	419.75
423.621	433.75
423.843	422.75
424.066	437.75
424.288	430.75
424.511	472.75
424.733	536.75
424.956	573.75
425.178	560.75
425.401	561.75
425.623	586.75
425.846	509.75
426.068	440.75
426.291	451.75
426.513	446.75
426.735	455.75
426.958	488.75
427.18	543.75
427.402	661.75
427.625	752.75
427.847	677.75
428.069	595.75
428.292	516.75
428.514	457.75
428.736	417.75
428.958	433.75
429.181	418.75
429.403	407.75
429.625	418.75
429.847	452.75
430.069	518.75
430.292	488.75
430.514	433.75
430.736	402.75
430.958	411.75
431.18	386.75
431.402	402.75
431.624	384.75
431.846	388.75
432.068	387.75
432.29	383.75
432.512	382.75
432.734	373.75
432.956	369.75
433.178	395.75
433.4	396.75
433.622	392.75
433.844	407.75
434.066	384.75
434.287	372.75
434.509	374.75
434.731	385.75
434.953	401.75
435.175	418.75
435.397	428.75
435.618	464.75
435.84	490.75
436.062	570.75
436.284	610.75
436.505	505.75
436.727	466.75
436.949	437.75
437.17	426.75
437.392	408.75
437.614	439.75
437.835	470.75
438.057	569.75
438.278	641.75
438.5	625.75
438.721	672.75
438.943	647.75
439.165	525.75
439.386	474.75
439.608	470.75
439.829	469.75
440.05	508.75
440.272	528.75
440.493	506.75
440.715	456.75
440.936	440.75
441.158	432.75
441.379	407.75
441.6	416.75
441.822	434.75
442.043	471.75
442.264	541.75
442.486	576.75
442.707	502.75
442.928	480.75
443.149	457.75
443.371	512.75
443.592	534.75
443.813	598.75
444.034	644.75
444.255	533.75
444.476	460.75
444.698	445.75
444.919	434.75
445.14	561.75
445.361	516.75
445.582	486.75
445.803	600.75
446.024	662.75
446.245	645.75
446.466	600.75
446.687	504.75
446.908	465.75
447.129	437.75
447.35	433.75
447.571	417.75
447.792	419.75
448.013	430.75
448.234	452.75
448.455	500.75
448.675	573.75
448.896	653.75
449.117	566.75
449.338	539.75
449.559	628.75
449.779	708.75
450	560.75
450.221	454.75
450.442	445.75
450.662	434.75
450.883	421.75
451.104	449.75
451.324	432.75
451.545	409.75
451.766	380.75
451.986	382.75
452.207	375.75
452.428	370.75
452.648	361.75
452.869	380.75
453.089	385.75
453.31	386.75
453.53	368.75
453.751	380.75
453.971	380.75
454.192	400.75
454.412	392.75
454.633	380.75
454.853	378.75
455.073	372.75
455.294	416.75
455.514	473.75
455.734	455.75
455.955	388.75
456.175	357.75
456.395	351.75
456.616	336.75
456.836	342.75
457.056	348.75
457.276	358.75
457.497	354.75
457.717	364.75
457.937	364.75
458.157	356.75
458.377	379.75
458.598	388.75
458.818	449.75
459.038	497.75
459.258	520.75
459.478	442.75
459.698	401.75
459.918	388.75
460.138	394.75
460.358	370.75
460.578	371.75
460.798	384.75
461.018	392.75
461.238	370.75
461.458	362.75
461.678	368.75
461.898	378.75
462.118	376.75
462.338	370.75
462.558	385.75
462.777	403.75
462.997	390.75
463.217	393.75
463.437	397.75
463.657	385.75
463.876	379.75
464.096	373.75
464.316	385.75
464.536	385.75
464.755	394.75
464.975	416.75
465.195	449.75
465.414	502.75
465.634	448.75
465.854	414.75
466.073	419.75
466.293	386.75
466.512	371.75
466.732	360.75
466.951	368.75
467.171	368.75
467.391	368.75
467.61	376.75
467.829	393.75
468.049	385.75
468.268	376.75
468.488	350.75
468.707	360.75
468.927	361.75
469.146	334.75
469.365	363.75
469.585	348.75
469.804	370.75
470.023	402.75
470.243	368.75
470.462	366.75
470.681	402.75
470.901	416.75
471.12	369.75
471.339	385.75
471.558	372.75
471.777	394.75
471.997	380.75
472.216	373.75
472.435	405.75
472.654	390.75
472.873	373.75
473.092	386.75
473.311	374.75
473.53	385.75
473.749	404.75
473.968	451.75
474.187	523.75
474.406	576.75
474.625	445.75
474.844	431.75
475.063	391.75
475.282	391.75
475.501	398.75
475.72	396.75
475.939	388.75
476.158	401.75
476.377	409.75
476.596	382.75
476.814	404.75
477.033	400.75
477.252	402.75
477.471	407.75
477.69	411.75
477.908	401.75
478.127	406.75
478.346	404.75
478.564	429.75
478.783	421.75
479.002	414.75
479.22	420.75
479.439	443.75
479.658	443.75
479.876	449.75
480.095	472.75
480.313	487.75
480.532	483.75
480.751	469.75
480.969	481.75
481.188	516.75
481.406	534.75
481.624	493.75
481.843	462.75
482.061	465.75
482.28	476.75
482.498	435.75
482.717	437.75
482.935	434.75
483.153	446.75
483.372	446.75
483.59	444.75
483.808	437.75
484.027	438.75
484.245	446.75
484.463	436.75
484.681	442.75
484.9	463.75
485.118	426.75
485.336	465.75
485.554	455.75
485.772	447.75
485.99	454.75
486.209	480.75
486.427	466.75
486.645	477.75
486.863	493.75
487.081	497.75
487.299	497.75
487.517	481.75
487.735	472.75
487.953	452.75
488.171	477.75
488.389	480.75
488.607	473.75
488.825	476.75
489.043	490.75
489.261	456.75
489.479	463.75
489.696	486.75
489.914	472.75
490.132	486.75
490.35	506.75
490.568	514.75
490.786	508.75
491.003	506.75
491.221	534.75
491.439	531.75
491.657	544.75
491.874	537.75
492.092	542.75
492.31	527.75
492.527	536.75
492.745	552.75
492.963	537.75
493.18	574.75
493.398	538.75
493.615	550.75
493.833	573.75
494.05	565.75
494.268	544.75
494.485	556.75
494.703	565.75
494.92	575.75
495.138	558.75
495.355	586.75
495.573	585.75
495.79	570.75
496.008	552.75
496.225	585.75
496.442	604.75
496.66	558.75
496.877	570.75
497.094	586.75
497.312	546.75
497.529	570.75
497.746	604.75
497.963	600.75
498.181	620.75
498.398	606.75
498.615	607.75
498.832	630.75
499.049	622.75
499.267	635.75
499.484	634.75
499.701	653.75
499.918	641.75
500.135	677.75
500.352	695.75
500.569	679.75
500.786	693.75
501.003	706.75
501.22	670.75
501.437	693.75
501.654	695.75
501.871	680.75
502.088	664.75
