Data from 1981.PennyLincolnUp.Lamp.En5.5.200Scan.071819.P1_HRD10591_16-43-14-960.txt Node
Date: Thu Jul 18 16:43:14 EDT 2019
User: cochatt
Spectrometer: HR+D1059
Trigger mode: 1
Integration Time (sec): 1.000000E-1
Scans to average: 1
Electric dark correction enabled: true
Nonlinearity correction enabled: false
Boxcar width: 0
XAxis mode: Wavelengths
Number of Pixels in Spectrum: 2048
>>>>>Begin Spectral Data<<<<<
223.165	-16.69
223.4	-16.69
223.635	-16.69
223.869	-23.69
224.104	-21.69
224.338	-11.69
224.573	-4.69
224.808	-12.69
225.042	11.31
225.277	-6.69
225.511	-7.69
225.746	-0.69
225.98	14.31
226.215	1.31
226.449	9.31
226.683	11.31
226.918	36.31
227.152	22.31
227.387	45.31
227.621	48.31
227.856	49.31
228.09	43.31
228.324	47.31
228.559	71.31
228.793	85.31
229.027	124.31
229.262	112.31
229.496	110.31
229.73	141.31
229.964	157.31
230.199	151.31
230.433	109.31
230.667	109.31
230.901	115.31
231.136	101.31
231.37	101.31
231.604	116.31
231.838	116.31
232.072	116.31
232.306	105.31
232.541	109.31
232.775	112.31
233.009	132.31
233.243	125.31
233.477	117.31
233.711	126.31
233.945	122.31
234.179	113.31
234.413	122.31
234.647	120.31
234.881	109.31
235.115	117.31
235.349	111.31
235.583	132.31
235.817	133.31
236.051	116.31
236.285	126.31
236.519	131.31
236.753	137.31
236.987	156.31
237.221	191.31
237.455	231.31
237.689	195.31
237.922	138.31
238.156	155.31
238.39	144.31
238.624	129.31
238.858	126.31
239.091	124.31
239.325	131.31
239.559	131.31
239.793	125.31
240.027	120.31
240.26	135.31
240.494	179.31
240.728	170.31
240.961	156.31
241.195	139.31
241.429	146.31
241.662	129.31
241.896	131.31
242.13	136.31
242.363	135.31
242.597	145.31
242.83	135.31
243.064	151.31
243.298	139.31
243.531	149.31
243.765	132.31
243.998	127.31
244.232	134.31
244.465	145.31
244.699	145.31
244.932	149.31
245.166	150.31
245.399	141.31
245.633	153.31
245.866	138.31
246.099	145.31
246.333	143.31
246.566	145.31
246.8	153.31
247.033	146.31
247.266	172.31
247.5	166.31
247.733	176.31
247.966	170.31
248.2	164.31
248.433	179.31
248.666	182.31
248.899	190.31
249.133	214.31
249.366	208.31
249.599	213.31
249.832	198.31
250.066	192.31
250.299	185.31
250.532	192.31
250.765	216.31
250.998	246.31
251.231	240.31
251.465	228.31
251.698	221.31
251.931	207.31
252.164	211.31
252.397	199.31
252.63	223.31
252.863	224.31
253.096	233.31
253.329	243.31
253.562	233.31
253.795	233.31
254.028	231.31
254.261	246.31
254.494	265.31
254.727	269.31
254.96	297.31
255.193	291.31
255.426	268.31
255.659	259.31
255.892	245.31
256.124	240.31
256.357	251.31
256.59	243.31
256.823	222.31
257.056	237.31
257.289	225.31
257.521	207.31
257.754	232.31
257.987	222.31
258.22	229.31
258.452	229.31
258.685	234.31
258.918	216.31
259.151	213.31
259.383	236.31
259.616	237.31
259.849	248.31
260.081	263.31
260.314	277.31
260.547	271.31
260.779	248.31
261.012	249.31
261.244	253.31
261.477	239.31
261.71	239.31
261.942	243.31
262.175	253.31
262.407	246.31
262.64	234.31
262.872	238.31
263.105	244.31
263.337	223.31
263.57	239.31
263.802	233.31
264.035	237.31
264.267	225.31
264.499	211.31
264.732	240.31
264.964	228.31
265.197	229.31
265.429	224.31
265.661	208.31
265.894	224.31
266.126	228.31
266.358	223.31
266.591	250.31
266.823	245.31
267.055	236.31
267.287	248.31
267.52	238.31
267.752	222.31
267.984	244.31
268.216	243.31
268.448	228.31
268.681	264.31
268.913	248.31
269.145	266.31
269.377	280.31
269.609	288.31
269.841	301.31
270.073	297.31
270.306	308.31
270.538	335.31
270.77	351.31
271.002	328.31
271.234	332.31
271.466	335.31
271.698	333.31
271.93	354.31
272.162	343.31
272.394	335.31
272.626	338.31
272.858	304.31
273.09	291.31
273.322	295.31
273.553	276.31
273.785	267.31
274.017	297.31
274.249	294.31
274.481	277.31
274.713	289.31
274.945	287.31
275.176	263.31
275.408	302.31
275.64	287.31
275.872	269.31
276.104	267.31
276.335	290.31
276.567	293.31
276.799	307.31
277.031	309.31
277.262	357.31
277.494	338.31
277.726	327.31
277.957	318.31
278.189	318.31
278.421	298.31
278.652	299.31
278.884	270.31
279.115	264.31
279.347	283.31
279.579	273.31
279.81	294.31
280.042	287.31
280.273	287.31
280.505	268.31
280.736	264.31
280.968	270.31
281.199	281.31
281.431	277.31
281.662	269.31
281.894	285.31
282.125	288.31
282.356	287.31
282.588	323.31
282.819	317.31
283.051	292.31
283.282	285.31
283.513	275.31
283.745	287.31
283.976	273.31
284.207	303.31
284.439	282.31
284.67	300.31
284.901	292.31
285.132	301.31
285.364	280.31
285.595	299.31
285.826	272.31
286.057	287.31
286.288	287.31
286.52	284.31
286.751	302.31
286.982	304.31
287.213	278.31
287.444	278.31
287.675	289.31
287.906	293.31
288.138	312.31
288.369	281.31
288.6	316.31
288.831	313.31
289.062	302.31
289.293	319.31
289.524	319.31
289.755	305.31
289.986	306.31
290.217	285.31
290.448	304.31
290.679	292.31
290.91	297.31
291.141	294.31
291.371	307.31
291.602	295.31
291.833	293.31
292.064	297.31
292.295	290.31
292.526	269.31
292.757	313.31
292.987	291.31
293.218	277.31
293.449	292.31
293.68	286.31
293.91	299.31
294.141	275.31
294.372	300.31
294.603	286.31
294.833	299.31
295.064	293.31
295.295	302.31
295.525	316.31
295.756	302.31
295.987	333.31
296.217	329.31
296.448	352.31
296.679	312.31
296.909	308.31
297.14	313.31
297.37	296.31
297.601	275.31
297.831	298.31
298.062	320.31
298.292	297.31
298.523	329.31
298.753	323.31
298.984	292.31
299.214	299.31
299.445	313.31
299.675	309.31
299.905	322.31
300.136	321.31
300.366	312.31
300.597	313.31
300.827	315.31
301.057	335.31
301.288	323.31
301.518	330.31
301.748	345.31
301.979	317.31
302.209	340.31
302.439	326.31
302.669	338.31
302.9	318.31
303.13	333.31
303.36	340.31
303.59	332.31
303.82	349.31
304.051	328.31
304.281	327.31
304.511	325.31
304.741	320.31
304.971	322.31
305.201	320.31
305.431	324.31
305.661	343.31
305.891	323.31
306.121	340.31
306.352	335.31
306.582	344.31
306.812	323.31
307.042	325.31
307.272	332.31
307.502	333.31
307.731	355.31
307.961	344.31
308.191	337.31
308.421	337.31
308.651	329.31
308.881	351.31
309.111	366.31
309.341	365.31
309.571	363.31
309.8	374.31
310.03	370.31
310.26	389.31
310.49	399.31
310.72	417.31
310.949	411.31
311.179	426.31
311.409	407.31
311.639	393.31
311.868	391.31
312.098	412.31
312.328	399.31
312.557	437.31
312.787	435.31
313.017	423.31
313.246	417.31
313.476	398.31
313.706	374.31
313.935	412.31
314.165	422.31
314.394	427.31
314.624	420.31
314.853	409.31
315.083	422.31
315.312	395.31
315.542	395.31
315.771	381.31
316.001	364.31
316.23	373.31
316.46	379.31
316.689	410.31
316.919	406.31
317.148	407.31
317.377	422.31
317.607	399.31
317.836	393.31
318.065	382.31
318.295	387.31
318.524	380.31
318.753	391.31
318.983	385.31
319.212	391.31
319.441	400.31
319.67	392.31
319.9	381.31
320.129	388.31
320.358	395.31
320.587	405.31
320.816	423.31
321.046	432.31
321.275	419.31
321.504	397.31
321.733	444.31
321.962	448.31
322.191	422.31
322.42	474.31
322.649	459.31
322.878	508.31
323.108	512.31
323.337	551.31
323.566	575.31
323.795	591.31
324.024	673.31
324.253	829.31
324.482	1212.31
324.71	1845.31
324.939	2535.31
325.168	2174.31
325.397	1134.31
325.626	771.31
325.855	628.31
326.084	573.31
326.313	572.31
326.542	589.31
326.77	649.31
326.999	767.31
327.228	1059.31
327.457	1576.31
327.686	1885.31
327.914	1250.31
328.143	828.31
328.372	714.31
328.6	678.31
328.829	617.31
329.058	658.31
329.287	638.31
329.515	599.31
329.744	577.31
329.972	561.31
330.201	596.31
330.43	615.31
330.658	665.31
330.887	687.31
331.115	635.31
331.344	600.31
331.572	542.31
331.801	527.31
332.03	493.31
332.258	508.31
332.486	464.31
332.715	463.31
332.943	481.31
333.172	465.31
333.4	479.31
333.629	484.31
333.857	490.31
334.085	493.31
334.314	507.31
334.542	520.31
334.771	548.31
334.999	504.31
335.227	488.31
335.455	464.31
335.684	444.31
335.912	433.31
336.14	445.31
336.369	436.31
336.597	460.31
336.825	470.31
337.053	429.31
337.281	438.31
337.51	439.31
337.738	438.31
337.966	438.31
338.194	457.31
338.422	423.31
338.65	413.31
338.878	432.31
339.106	415.31
339.334	414.31
339.562	448.31
339.79	413.31
340.018	449.31
340.246	417.31
340.474	438.31
340.702	424.31
340.93	420.31
341.158	407.31
341.386	420.31
341.614	429.31
341.842	416.31
342.07	422.31
342.298	422.31
342.526	421.31
342.754	413.31
342.981	419.31
343.209	402.31
343.437	397.31
343.665	404.31
343.893	439.31
344.12	426.31
344.348	409.31
344.576	423.31
344.804	430.31
345.031	422.31
345.259	448.31
345.487	451.31
345.714	410.31
345.942	420.31
346.17	429.31
346.397	436.31
346.625	428.31
346.853	424.31
347.08	429.31
347.308	405.31
347.535	423.31
347.763	428.31
347.99	425.31
348.218	419.31
348.445	443.31
348.673	423.31
348.9	411.31
349.128	422.31
349.355	408.31
349.583	407.31
349.81	392.31
350.037	407.31
350.265	397.31
350.492	413.31
350.72	409.31
350.947	397.31
351.174	400.31
351.402	437.31
351.629	427.31
351.856	415.31
352.083	425.31
352.311	440.31
352.538	436.31
352.765	432.31
352.992	439.31
353.22	417.31
353.447	395.31
353.674	407.31
353.901	379.31
354.128	381.31
354.355	376.31
354.583	397.31
354.81	390.31
355.037	361.31
355.264	373.31
355.491	379.31
355.718	384.31
355.945	363.31
356.172	366.31
356.399	381.31
356.626	356.31
356.853	371.31
357.08	376.31
357.307	359.31
357.534	376.31
357.761	351.31
357.988	375.31
358.215	368.31
358.441	366.31
358.668	374.31
358.895	373.31
359.122	379.31
359.349	388.31
359.576	400.31
359.802	429.31
360.029	463.31
360.256	475.31
360.483	453.31
360.709	412.31
360.936	399.31
361.163	387.31
361.39	407.31
361.616	411.31
361.843	395.31
362.07	397.31
362.296	394.31
362.523	399.31
362.749	396.31
362.976	386.31
363.203	376.31
363.429	375.31
363.656	393.31
363.882	391.31
364.109	374.31
364.335	376.31
364.562	367.31
364.788	374.31
365.015	381.31
365.241	377.31
365.468	390.31
365.694	375.31
365.92	377.31
366.147	384.31
366.373	378.31
366.599	351.31
366.826	364.31
367.052	359.31
367.278	384.31
367.505	359.31
367.731	375.31
367.957	373.31
368.184	367.31
368.41	382.31
368.636	384.31
368.862	383.31
369.089	385.31
369.315	366.31
369.541	369.31
369.767	369.31
369.993	337.31
370.219	354.31
370.445	383.31
370.672	359.31
370.898	359.31
371.124	354.31
371.35	368.31
371.576	368.31
371.802	370.31
372.028	366.31
372.254	355.31
372.48	356.31
372.706	360.31
372.932	363.31
373.158	336.31
373.384	350.31
373.61	350.31
373.835	364.31
374.061	362.31
374.287	358.31
374.513	366.31
374.739	365.31
374.965	360.31
375.191	344.31
375.416	346.31
375.642	366.31
375.868	360.31
376.094	360.31
376.319	349.31
376.545	376.31
376.771	366.31
376.997	353.31
377.222	354.31
377.448	353.31
377.674	348.31
377.899	359.31
378.125	354.31
378.35	337.31
378.576	344.31
378.802	347.31
379.027	363.31
379.253	351.31
379.478	340.31
379.704	340.31
379.929	361.31
380.155	342.31
380.38	359.31
380.606	347.31
380.831	343.31
381.057	360.31
381.282	342.31
381.507	348.31
381.733	367.31
381.958	340.31
382.184	337.31
382.409	351.31
382.634	356.31
382.86	357.31
383.085	376.31
383.31	376.31
383.535	372.31
383.761	364.31
383.986	355.31
384.211	365.31
384.436	361.31
384.662	349.31
384.887	360.31
385.112	355.31
385.337	365.31
385.562	373.31
385.787	360.31
386.013	391.31
386.238	383.31
386.463	371.31
386.688	353.31
386.913	368.31
387.138	363.31
387.363	357.31
387.588	361.31
387.813	362.31
388.038	375.31
388.263	373.31
388.488	376.31
388.713	389.31
388.938	376.31
389.163	374.31
389.387	377.31
389.612	344.31
389.837	353.31
390.062	369.31
390.287	367.31
390.512	342.31
390.736	366.31
390.961	356.31
391.186	358.31
391.411	371.31
391.636	363.31
391.86	367.31
392.085	364.31
392.31	377.31
392.534	391.31
392.759	377.31
392.984	371.31
393.208	374.31
393.433	358.31
393.658	362.31
393.882	368.31
394.107	372.31
394.331	373.31
394.556	374.31
394.78	356.31
395.005	361.31
395.229	353.31
395.454	376.31
395.678	370.31
395.903	403.31
396.127	404.31
396.352	410.31
396.576	375.31
396.801	387.31
397.025	375.31
397.249	376.31
397.474	378.31
397.698	379.31
397.922	399.31
398.147	414.31
398.371	409.31
398.595	404.31
398.82	391.31
399.044	397.31
399.268	413.31
399.492	415.31
399.717	433.31
399.941	452.31
400.165	486.31
400.389	507.31
400.613	454.31
400.837	429.31
401.062	406.31
401.286	433.31
401.51	405.31
401.734	409.31
401.958	414.31
402.182	426.31
402.406	442.31
402.63	409.31
402.854	427.31
403.078	425.31
403.302	422.31
403.526	423.31
403.75	427.31
403.974	438.31
404.198	425.31
404.422	428.31
404.645	429.31
404.869	452.31
405.093	447.31
405.317	496.31
405.541	524.31
405.765	488.31
405.988	447.31
406.212	446.31
406.436	480.31
406.66	505.31
406.883	486.31
407.107	486.31
407.331	518.31
407.555	593.31
407.778	578.31
408.002	496.31
408.226	475.31
408.449	449.31
408.673	459.31
408.896	494.31
409.12	541.31
409.344	499.31
409.567	464.31
409.791	439.31
410.014	427.31
410.238	431.31
410.461	434.31
410.685	429.31
410.908	440.31
411.132	478.31
411.355	509.31
411.578	467.31
411.802	431.31
412.025	419.31
412.249	440.31
412.472	446.31
412.695	481.31
412.919	495.31
413.142	441.31
413.365	402.31
413.589	431.31
413.812	395.31
414.035	423.31
414.258	399.31
414.482	396.31
414.705	400.31
414.928	400.31
415.151	398.31
415.374	380.31
415.597	401.31
415.821	389.31
416.044	391.31
416.267	401.31
416.49	396.31
416.713	392.31
416.936	389.31
417.159	393.31
417.382	392.31
417.605	402.31
417.828	424.31
418.051	415.31
418.274	407.31
418.497	396.31
418.72	385.31
418.943	379.31
419.166	394.31
419.389	415.31
419.611	437.31
419.834	425.31
420.057	414.31
420.28	405.31
420.503	445.31
420.726	414.31
420.948	451.31
421.171	465.31
421.394	512.31
421.617	454.31
421.839	409.31
422.062	427.31
422.285	437.31
422.507	476.31
422.73	573.31
422.953	537.31
423.175	480.31
423.398	466.31
423.621	453.31
423.843	465.31
424.066	456.31
424.288	467.31
424.511	501.31
424.733	531.31
424.956	614.31
425.178	565.31
425.401	591.31
425.623	591.31
425.846	532.31
426.068	486.31
426.291	474.31
426.513	488.31
426.735	469.31
426.958	555.31
427.18	599.31
427.402	685.31
427.625	799.31
427.847	693.31
428.069	612.31
428.292	531.31
428.514	474.31
428.736	447.31
428.958	468.31
429.181	432.31
429.403	449.31
429.625	475.31
429.847	481.31
430.069	530.31
430.292	547.31
430.514	460.31
430.736	410.31
430.958	421.31
431.18	423.31
431.402	410.31
431.624	404.31
431.846	388.31
432.068	398.31
432.29	413.31
432.512	398.31
432.734	393.31
432.956	407.31
433.178	433.31
433.4	425.31
433.622	428.31
433.844	395.31
434.066	403.31
434.287	401.31
434.509	395.31
434.731	400.31
434.953	407.31
435.175	431.31
435.397	448.31
435.618	465.31
435.84	501.31
436.062	611.31
436.284	642.31
436.505	553.31
436.727	496.31
436.949	446.31
437.17	457.31
437.392	432.31
437.614	459.31
437.835	507.31
438.057	598.31
438.278	659.31
438.5	639.31
438.721	709.31
438.943	685.31
439.165	541.31
439.386	509.31
439.608	488.31
439.829	507.31
440.05	526.31
440.272	571.31
440.493	539.31
440.715	481.31
440.936	465.31
441.158	445.31
441.379	450.31
441.6	429.31
441.822	466.31
442.043	507.31
442.264	589.31
442.486	623.31
442.707	524.31
442.928	507.31
443.149	491.31
443.371	531.31
443.592	569.31
443.813	654.31
444.034	667.31
444.255	567.31
444.476	499.31
444.698	491.31
444.919	456.31
445.14	570.31
445.361	539.31
445.582	532.31
445.803	588.31
446.024	675.31
446.245	669.31
446.466	637.31
446.687	548.31
446.908	494.31
447.129	443.31
447.35	443.31
447.571	425.31
447.792	443.31
448.013	475.31
448.234	457.31
448.455	531.31
448.675	648.31
448.896	702.31
449.117	615.31
449.338	584.31
449.559	667.31
449.779	715.31
450	599.31
450.221	499.31
450.442	455.31
450.662	461.31
450.883	456.31
451.104	444.31
451.324	451.31
451.545	445.31
451.766	396.31
451.986	402.31
452.207	389.31
452.428	378.31
452.648	415.31
452.869	400.31
453.089	406.31
453.31	415.31
453.53	405.31
453.751	401.31
453.971	395.31
454.192	421.31
454.412	400.31
454.633	400.31
454.853	390.31
455.073	381.31
455.294	421.31
455.514	498.31
455.734	459.31
455.955	391.31
456.175	372.31
456.395	377.31
456.616	348.31
456.836	351.31
457.056	344.31
457.276	363.31
457.497	378.31
457.717	353.31
457.937	378.31
458.157	360.31
458.377	396.31
458.598	417.31
458.818	438.31
459.038	551.31
459.258	545.31
459.478	455.31
459.698	421.31
459.918	389.31
460.138	387.31
460.358	383.31
460.578	393.31
460.798	415.31
461.018	407.31
461.238	389.31
461.458	379.31
461.678	387.31
461.898	397.31
462.118	397.31
462.338	392.31
462.558	388.31
462.777	395.31
462.997	374.31
463.217	408.31
463.437	399.31
463.657	429.31
463.876	413.31
464.096	409.31
464.316	406.31
464.536	423.31
464.755	424.31
464.975	441.31
465.195	477.31
465.414	539.31
465.634	496.31
465.854	445.31
466.073	420.31
466.293	413.31
466.512	397.31
466.732	384.31
466.951	391.31
467.171	410.31
467.391	389.31
467.61	393.31
467.829	407.31
468.049	392.31
468.268	398.31
468.488	388.31
468.707	397.31
468.927	380.31
469.146	356.31
469.365	370.31
469.585	382.31
469.804	409.31
470.023	398.31
470.243	399.31
470.462	413.31
470.681	410.31
470.901	399.31
471.12	395.31
471.339	388.31
471.558	401.31
471.777	396.31
471.997	387.31
472.216	397.31
472.435	431.31
472.654	421.31
472.873	405.31
473.092	404.31
473.311	396.31
473.53	419.31
473.749	405.31
473.968	452.31
474.187	568.31
474.406	558.31
474.625	453.31
474.844	425.31
475.063	419.31
475.282	401.31
475.501	409.31
475.72	418.31
475.939	421.31
476.158	407.31
476.377	404.31
476.596	425.31
476.814	423.31
477.033	423.31
477.252	422.31
477.471	419.31
477.69	427.31
477.908	423.31
478.127	420.31
478.346	437.31
478.564	423.31
478.783	435.31
479.002	440.31
479.22	446.31
479.439	457.31
479.658	490.31
479.876	471.31
480.095	472.31
480.313	480.31
480.532	498.31
480.751	460.31
480.969	490.31
481.188	570.31
481.406	586.31
481.624	527.31
481.843	496.31
482.061	477.31
482.28	491.31
482.498	479.31
482.717	464.31
482.935	470.31
483.153	471.31
483.372	471.31
483.59	465.31
483.808	451.31
484.027	473.31
484.245	469.31
484.463	454.31
484.681	466.31
484.9	475.31
485.118	480.31
485.336	485.31
485.554	468.31
485.772	472.31
485.99	460.31
486.209	489.31
486.427	484.31
486.645	486.31
486.863	508.31
487.081	513.31
487.299	515.31
487.517	508.31
487.735	489.31
487.953	507.31
488.171	499.31
488.389	516.31
488.607	504.31
488.825	509.31
489.043	507.31
489.261	499.31
489.479	496.31
489.696	504.31
489.914	501.31
490.132	518.31
490.35	533.31
490.568	505.31
490.786	534.31
491.003	557.31
491.221	543.31
491.439	567.31
491.657	580.31
491.874	563.31
492.092	583.31
492.31	582.31
492.527	573.31
492.745	569.31
492.963	573.31
493.18	575.31
493.398	587.31
493.615	590.31
493.833	573.31
494.05	591.31
494.268	570.31
494.485	579.31
494.703	576.31
494.92	604.31
495.138	597.31
495.355	587.31
495.573	602.31
495.79	597.31
496.008	605.31
496.225	573.31
496.442	591.31
496.66	601.31
496.877	602.31
497.094	614.31
497.312	604.31
497.529	607.31
497.746	620.31
497.963	623.31
498.181	633.31
498.398	640.31
498.615	650.31
498.832	664.31
499.049	661.31
499.267	627.31
499.484	655.31
499.701	687.31
499.918	677.31
500.135	701.31
500.352	739.31
500.569	717.31
500.786	731.31
501.003	709.31
501.22	717.31
501.437	711.31
501.654	683.31
501.871	713.31
