Data from 1981.PennyLincolnUp.Lamp.En5.5.200Scan.071819.P1_HRD10591_16-41-58-959.txt Node
Date: Thu Jul 18 16:41:58 EDT 2019
User: cochatt
Spectrometer: HR+D1059
Trigger mode: 1
Integration Time (sec): 1.000000E-1
Scans to average: 1
Electric dark correction enabled: true
Nonlinearity correction enabled: false
Boxcar width: 0
XAxis mode: Wavelengths
Number of Pixels in Spectrum: 2048
>>>>>Begin Spectral Data<<<<<
223.165	-9.25
223.4	-9.25
223.635	-9.25
223.869	-19.25
224.104	-25.25
224.338	-18.25
224.573	-10.25
224.808	-2.25
225.042	-19.25
225.277	-7.25
225.511	1.75
225.746	-8.25
225.98	2.75
226.215	9.75
226.449	19.75
226.683	17.75
226.918	35.75
227.152	31.75
227.387	34.75
227.621	31.75
227.856	43.75
228.09	36.75
228.324	45.75
228.559	53.75
228.793	62.75
229.027	91.75
229.262	114.75
229.496	113.75
229.73	140.75
229.964	155.75
230.199	126.75
230.433	109.75
230.667	122.75
230.901	120.75
231.136	94.75
231.37	98.75
231.604	109.75
231.838	103.75
232.072	101.75
232.306	105.75
232.541	115.75
232.775	122.75
233.009	98.75
233.243	113.75
233.477	109.75
233.711	115.75
233.945	118.75
234.179	119.75
234.413	126.75
234.647	113.75
234.881	122.75
235.115	129.75
235.349	114.75
235.583	122.75
235.817	113.75
236.051	116.75
236.285	125.75
236.519	136.75
236.753	134.75
236.987	146.75
237.221	182.75
237.455	223.75
237.689	183.75
237.922	145.75
238.156	122.75
238.39	129.75
238.624	131.75
238.858	126.75
239.091	129.75
239.325	137.75
239.559	127.75
239.793	122.75
240.027	125.75
240.26	129.75
240.494	153.75
240.728	161.75
240.961	157.75
241.195	153.75
241.429	158.75
241.662	135.75
241.896	139.75
242.13	122.75
242.363	126.75
242.597	148.75
242.83	128.75
243.064	129.75
243.298	127.75
243.531	132.75
243.765	149.75
243.998	135.75
244.232	148.75
244.465	149.75
244.699	131.75
244.932	149.75
245.166	148.75
245.399	148.75
245.633	146.75
245.866	135.75
246.099	146.75
246.333	151.75
246.566	143.75
246.8	135.75
247.033	159.75
247.266	156.75
247.5	147.75
247.733	171.75
247.966	188.75
248.2	153.75
248.433	159.75
248.666	171.75
248.899	204.75
249.133	214.75
249.366	205.75
249.599	203.75
249.832	196.75
250.066	182.75
250.299	193.75
250.532	187.75
250.765	216.75
250.998	235.75
251.231	222.75
251.465	228.75
251.698	212.75
251.931	194.75
252.164	207.75
252.397	212.75
252.63	191.75
252.863	218.75
253.096	228.75
253.329	234.75
253.562	237.75
253.795	236.75
254.028	210.75
254.261	239.75
254.494	232.75
254.727	262.75
254.96	290.75
255.193	272.75
255.426	250.75
255.659	237.75
255.892	255.75
256.124	245.75
256.357	235.75
256.59	231.75
256.823	233.75
257.056	223.75
257.289	223.75
257.521	231.75
257.754	221.75
257.987	196.75
258.22	210.75
258.452	217.75
258.685	219.75
258.918	218.75
259.151	219.75
259.383	227.75
259.616	219.75
259.849	242.75
260.081	248.75
260.314	254.75
260.547	271.75
260.779	247.75
261.012	249.75
261.244	223.75
261.477	228.75
261.71	225.75
261.942	224.75
262.175	248.75
262.407	220.75
262.64	229.75
262.872	225.75
263.105	230.75
263.337	228.75
263.57	218.75
263.802	227.75
264.035	229.75
264.267	217.75
264.499	204.75
264.732	201.75
264.964	229.75
265.197	205.75
265.429	216.75
265.661	214.75
265.894	205.75
266.126	237.75
266.358	207.75
266.591	224.75
266.823	230.75
267.055	230.75
267.287	231.75
267.52	221.75
267.752	219.75
267.984	228.75
268.216	235.75
268.448	237.75
268.681	224.75
268.913	245.75
269.145	270.75
269.377	266.75
269.609	282.75
269.841	267.75
270.073	279.75
270.306	329.75
270.538	345.75
270.77	331.75
271.002	315.75
271.234	325.75
271.466	312.75
271.698	306.75
271.93	319.75
272.162	347.75
272.394	329.75
272.626	305.75
272.858	288.75
273.09	292.75
273.322	286.75
273.553	275.75
273.785	278.75
274.017	267.75
274.249	279.75
274.481	279.75
274.713	277.75
274.945	283.75
275.176	272.75
275.408	286.75
275.64	265.75
275.872	262.75
276.104	251.75
276.335	270.75
276.567	273.75
276.799	298.75
277.031	295.75
277.262	309.75
277.494	334.75
277.726	313.75
277.957	317.75
278.189	307.75
278.421	281.75
278.652	279.75
278.884	267.75
279.115	279.75
279.347	262.75
279.579	272.75
279.81	278.75
280.042	269.75
280.273	282.75
280.505	263.75
280.736	251.75
280.968	261.75
281.199	264.75
281.431	255.75
281.662	271.75
281.894	266.75
282.125	282.75
282.356	272.75
282.588	309.75
282.819	311.75
283.051	272.75
283.282	251.75
283.513	280.75
283.745	278.75
283.976	277.75
284.207	279.75
284.439	295.75
284.67	262.75
284.901	285.75
285.132	289.75
285.364	269.75
285.595	277.75
285.826	266.75
286.057	285.75
286.288	274.75
286.52	265.75
286.751	265.75
286.982	276.75
287.213	281.75
287.444	285.75
287.675	300.75
287.906	290.75
288.138	314.75
288.369	308.75
288.6	286.75
288.831	294.75
289.062	289.75
289.293	284.75
289.524	291.75
289.755	280.75
289.986	281.75
290.217	282.75
290.448	286.75
290.679	277.75
290.91	283.75
291.141	287.75
291.371	284.75
291.602	307.75
291.833	282.75
292.064	278.75
292.295	280.75
292.526	271.75
292.757	270.75
292.987	288.75
293.218	279.75
293.449	285.75
293.68	278.75
293.91	296.75
294.141	313.75
294.372	307.75
294.603	286.75
294.833	291.75
295.064	282.75
295.295	287.75
295.525	295.75
295.756	287.75
295.987	307.75
296.217	334.75
296.448	319.75
296.679	279.75
296.909	294.75
297.14	289.75
297.37	300.75
297.601	297.75
297.831	299.75
298.062	295.75
298.292	275.75
298.523	309.75
298.753	307.75
298.984	302.75
299.214	308.75
299.445	283.75
299.675	299.75
299.905	299.75
300.136	314.75
300.366	299.75
300.597	321.75
300.827	300.75
301.057	309.75
301.288	310.75
301.518	331.75
301.748	329.75
301.979	319.75
302.209	316.75
302.439	331.75
302.669	315.75
302.9	308.75
303.13	325.75
303.36	335.75
303.59	338.75
303.82	344.75
304.051	318.75
304.281	313.75
304.511	327.75
304.741	308.75
304.971	321.75
305.201	309.75
305.431	299.75
305.661	322.75
305.891	319.75
306.121	308.75
306.352	337.75
306.582	328.75
306.812	340.75
307.042	290.75
307.272	309.75
307.502	321.75
307.731	334.75
307.961	329.75
308.191	331.75
308.421	313.75
308.651	366.75
308.881	340.75
309.111	348.75
309.341	346.75
309.571	352.75
309.8	379.75
310.03	397.75
310.26	379.75
310.49	396.75
310.72	403.75
310.949	396.75
311.179	408.75
311.409	375.75
311.639	365.75
311.868	381.75
312.098	390.75
312.328	397.75
312.557	400.75
312.787	418.75
313.017	398.75
313.246	391.75
313.476	377.75
313.706	378.75
313.935	393.75
314.165	407.75
314.394	400.75
314.624	397.75
314.853	371.75
315.083	363.75
315.312	390.75
315.542	364.75
315.771	364.75
316.001	363.75
316.23	374.75
316.46	375.75
316.689	373.75
316.919	376.75
317.148	383.75
317.377	404.75
317.607	362.75
317.836	383.75
318.065	379.75
318.295	383.75
318.524	371.75
318.753	369.75
318.983	371.75
319.212	363.75
319.441	394.75
319.67	402.75
319.9	380.75
320.129	389.75
320.358	387.75
320.587	389.75
320.816	407.75
321.046	408.75
321.275	415.75
321.504	417.75
321.733	393.75
321.962	446.75
322.191	423.75
322.42	458.75
322.649	441.75
322.878	474.75
323.108	455.75
323.337	506.75
323.566	513.75
323.795	584.75
324.024	635.75
324.253	798.75
324.482	1141.75
324.71	1725.75
324.939	2377.75
325.168	2013.75
325.397	1065.75
325.626	727.75
325.855	609.75
326.084	553.75
326.313	538.75
326.542	541.75
326.77	597.75
326.999	710.75
327.228	1007.75
327.457	1492.75
327.686	1729.75
327.914	1180.75
328.143	775.75
328.372	663.75
328.6	625.75
328.829	606.75
329.058	630.75
329.287	630.75
329.515	550.75
329.744	524.75
329.972	515.75
330.201	553.75
330.43	569.75
330.658	598.75
330.887	638.75
331.115	629.75
331.344	543.75
331.572	509.75
331.801	502.75
332.03	471.75
332.258	483.75
332.486	450.75
332.715	441.75
332.943	437.75
333.172	459.75
333.4	445.75
333.629	457.75
333.857	457.75
334.085	484.75
334.314	498.75
334.542	507.75
334.771	517.75
334.999	471.75
335.227	447.75
335.455	460.75
335.684	443.75
335.912	439.75
336.14	421.75
336.369	429.75
336.597	426.75
336.825	449.75
337.053	441.75
337.281	404.75
337.51	417.75
337.738	434.75
337.966	414.75
338.194	416.75
338.422	437.75
338.65	407.75
338.878	393.75
339.106	417.75
339.334	419.75
339.562	401.75
339.79	405.75
340.018	419.75
340.246	428.75
340.474	429.75
340.702	441.75
340.93	416.75
341.158	385.75
341.386	399.75
341.614	410.75
341.842	408.75
342.07	407.75
342.298	391.75
342.526	380.75
342.754	402.75
342.981	400.75
343.209	386.75
343.437	405.75
343.665	399.75
343.893	385.75
344.12	415.75
344.348	400.75
344.576	411.75
344.804	427.75
345.031	449.75
345.259	431.75
345.487	411.75
345.714	417.75
345.942	414.75
346.17	408.75
346.397	408.75
346.625	394.75
346.853	379.75
347.08	405.75
347.308	400.75
347.535	417.75
347.763	421.75
347.99	436.75
348.218	409.75
348.445	402.75
348.673	410.75
348.9	389.75
349.128	385.75
349.355	389.75
349.583	389.75
349.81	378.75
350.037	376.75
350.265	375.75
350.492	395.75
350.72	364.75
350.947	399.75
351.174	394.75
351.402	399.75
351.629	401.75
351.856	383.75
352.083	407.75
352.311	419.75
352.538	410.75
352.765	400.75
352.992	409.75
353.22	394.75
353.447	392.75
353.674	390.75
353.901	360.75
354.128	366.75
354.355	375.75
354.583	371.75
354.81	342.75
355.037	352.75
355.264	364.75
355.491	366.75
355.718	349.75
355.945	350.75
356.172	340.75
356.399	360.75
356.626	347.75
356.853	358.75
357.08	373.75
357.307	351.75
357.534	359.75
357.761	358.75
357.988	383.75
358.215	366.75
358.441	370.75
358.668	348.75
358.895	357.75
359.122	373.75
359.349	383.75
359.576	389.75
359.802	419.75
360.029	457.75
360.256	469.75
360.483	423.75
360.709	386.75
360.936	389.75
361.163	403.75
361.39	410.75
361.616	397.75
361.843	412.75
362.07	378.75
362.296	381.75
362.523	394.75
362.749	377.75
362.976	380.75
363.203	392.75
363.429	382.75
363.656	379.75
363.882	349.75
364.109	361.75
364.335	372.75
364.562	373.75
364.788	373.75
365.015	377.75
365.241	369.75
365.468	364.75
365.694	366.75
365.92	384.75
366.147	357.75
366.373	355.75
366.599	356.75
366.826	359.75
367.052	364.75
367.278	350.75
367.505	373.75
367.731	377.75
367.957	388.75
368.184	363.75
368.41	371.75
368.636	356.75
368.862	359.75
369.089	375.75
369.315	371.75
369.541	344.75
369.767	361.75
369.993	364.75
370.219	339.75
370.445	364.75
370.672	346.75
370.898	372.75
371.124	371.75
371.35	360.75
371.576	353.75
371.802	344.75
372.028	356.75
372.254	360.75
372.48	340.75
372.706	359.75
372.932	336.75
373.158	344.75
373.384	359.75
373.61	373.75
373.835	367.75
374.061	344.75
374.287	367.75
374.513	357.75
374.739	369.75
374.965	356.75
375.191	344.75
375.416	354.75
375.642	374.75
375.868	346.75
376.094	364.75
376.319	337.75
376.545	325.75
376.771	346.75
376.997	347.75
377.222	346.75
377.448	338.75
377.674	335.75
377.899	356.75
378.125	340.75
378.35	364.75
378.576	335.75
378.802	333.75
379.027	346.75
379.253	342.75
379.478	338.75
379.704	349.75
379.929	345.75
380.155	346.75
380.38	363.75
380.606	334.75
380.831	339.75
381.057	349.75
381.282	344.75
381.507	313.75
381.733	347.75
381.958	356.75
382.184	334.75
382.409	338.75
382.634	338.75
382.86	349.75
383.085	358.75
383.31	339.75
383.535	330.75
383.761	353.75
383.986	353.75
384.211	338.75
384.436	362.75
384.662	352.75
384.887	376.75
385.112	350.75
385.337	343.75
385.562	359.75
385.787	333.75
386.013	373.75
386.238	377.75
386.463	359.75
386.688	366.75
386.913	354.75
387.138	332.75
387.363	357.75
387.588	346.75
387.813	346.75
388.038	353.75
388.263	358.75
388.488	377.75
388.713	365.75
388.938	359.75
389.163	337.75
389.387	352.75
389.612	356.75
389.837	353.75
390.062	339.75
390.287	347.75
390.512	344.75
390.736	350.75
390.961	351.75
391.186	359.75
391.411	358.75
391.636	370.75
391.86	359.75
392.085	353.75
392.31	361.75
392.534	361.75
392.759	350.75
392.984	355.75
393.208	358.75
393.433	377.75
393.658	366.75
393.882	339.75
394.107	371.75
394.331	357.75
394.556	356.75
394.78	359.75
395.005	359.75
395.229	364.75
395.454	356.75
395.678	383.75
395.903	352.75
396.127	407.75
396.352	392.75
396.576	381.75
396.801	362.75
397.025	365.75
397.249	350.75
397.474	364.75
397.698	371.75
397.922	397.75
398.147	403.75
398.371	421.75
398.595	382.75
398.82	387.75
399.044	405.75
399.268	388.75
399.492	417.75
399.717	457.75
399.941	452.75
400.165	479.75
400.389	501.75
400.613	456.75
400.837	433.75
401.062	418.75
401.286	408.75
401.51	404.75
401.734	405.75
401.958	392.75
402.182	396.75
402.406	415.75
402.63	410.75
402.854	427.75
403.078	408.75
403.302	414.75
403.526	417.75
403.75	429.75
403.974	402.75
404.198	404.75
404.422	433.75
404.645	423.75
404.869	426.75
405.093	442.75
405.317	469.75
405.541	513.75
405.765	464.75
405.988	433.75
406.212	454.75
406.436	473.75
406.66	471.75
406.883	458.75
407.107	465.75
407.331	520.75
407.555	569.75
407.778	551.75
408.002	505.75
408.226	464.75
408.449	467.75
408.673	474.75
408.896	478.75
409.12	510.75
409.344	468.75
409.567	408.75
409.791	428.75
410.014	426.75
410.238	417.75
410.461	400.75
410.685	427.75
410.908	443.75
411.132	456.75
411.355	499.75
411.578	474.75
411.802	405.75
412.025	435.75
412.249	433.75
412.472	433.75
412.695	461.75
412.919	443.75
413.142	384.75
413.365	404.75
413.589	405.75
413.812	383.75
414.035	392.75
414.258	388.75
414.482	400.75
414.705	398.75
414.928	381.75
415.151	377.75
415.374	371.75
415.597	374.75
415.821	386.75
416.044	387.75
416.267	387.75
416.49	392.75
416.713	368.75
416.936	377.75
417.159	387.75
417.382	377.75
417.605	393.75
417.828	408.75
418.051	414.75
418.274	421.75
418.497	392.75
418.72	389.75
418.943	371.75
419.166	394.75
419.389	398.75
419.611	402.75
419.834	403.75
420.057	421.75
420.28	424.75
420.503	405.75
420.726	385.75
420.948	439.75
421.171	468.75
421.394	487.75
421.617	444.75
421.839	396.75
422.062	420.75
422.285	426.75
422.507	482.75
422.73	553.75
422.953	517.75
423.175	454.75
423.398	425.75
423.621	423.75
423.843	440.75
424.066	460.75
424.288	450.75
424.511	481.75
424.733	518.75
424.956	583.75
425.178	578.75
425.401	565.75
425.623	589.75
425.846	492.75
426.068	461.75
426.291	462.75
426.513	449.75
426.735	473.75
426.958	498.75
427.18	601.75
427.402	687.75
427.625	767.75
427.847	675.75
428.069	576.75
428.292	518.75
428.514	459.75
428.736	447.75
428.958	431.75
429.181	431.75
429.403	421.75
429.625	433.75
429.847	471.75
430.069	512.75
430.292	509.75
430.514	455.75
430.736	429.75
430.958	394.75
431.18	403.75
431.402	390.75
431.624	385.75
431.846	379.75
432.068	386.75
432.29	389.75
432.512	392.75
432.734	374.75
432.956	390.75
433.178	398.75
433.4	397.75
433.622	372.75
433.844	416.75
434.066	387.75
434.287	401.75
434.509	367.75
434.731	398.75
434.953	411.75
435.175	418.75
435.397	455.75
435.618	459.75
435.84	513.75
436.062	566.75
436.284	630.75
436.505	530.75
436.727	464.75
436.949	431.75
437.17	428.75
437.392	448.75
437.614	450.75
437.835	466.75
438.057	558.75
438.278	645.75
438.5	653.75
438.721	669.75
438.943	662.75
439.165	540.75
439.386	491.75
439.608	471.75
439.829	479.75
440.05	503.75
440.272	538.75
440.493	513.75
440.715	451.75
440.936	443.75
441.158	433.75
441.379	419.75
441.6	432.75
441.822	435.75
442.043	494.75
442.264	580.75
442.486	617.75
442.707	509.75
442.928	477.75
443.149	480.75
443.371	509.75
443.592	543.75
443.813	608.75
444.034	638.75
444.255	548.75
444.476	473.75
444.698	442.75
444.919	446.75
445.14	589.75
445.361	529.75
445.582	486.75
445.803	556.75
446.024	649.75
446.245	672.75
446.466	600.75
446.687	500.75
446.908	441.75
447.129	437.75
447.35	423.75
447.571	433.75
447.792	428.75
448.013	438.75
448.234	446.75
448.455	489.75
448.675	581.75
448.896	661.75
449.117	563.75
449.338	558.75
449.559	643.75
449.779	696.75
450	581.75
450.221	492.75
450.442	430.75
450.662	427.75
450.883	419.75
451.104	441.75
451.324	426.75
451.545	433.75
451.766	385.75
451.986	402.75
452.207	386.75
452.428	388.75
452.648	369.75
452.869	378.75
453.089	395.75
453.31	377.75
453.53	381.75
453.751	389.75
453.971	385.75
454.192	405.75
454.412	385.75
454.633	365.75
454.853	349.75
455.073	378.75
455.294	403.75
455.514	464.75
455.734	459.75
455.955	381.75
456.175	356.75
456.395	356.75
456.616	350.75
456.836	377.75
457.056	374.75
457.276	346.75
457.497	369.75
457.717	360.75
457.937	358.75
458.157	352.75
458.377	377.75
458.598	380.75
458.818	452.75
459.038	528.75
459.258	536.75
459.478	445.75
459.698	402.75
459.918	382.75
460.138	366.75
460.358	411.75
460.578	385.75
460.798	385.75
461.018	389.75
461.238	376.75
461.458	379.75
461.678	373.75
461.898	390.75
462.118	381.75
462.338	397.75
462.558	380.75
462.777	387.75
462.997	415.75
463.217	399.75
463.437	392.75
463.657	380.75
463.876	405.75
464.096	401.75
464.316	407.75
464.536	403.75
464.755	417.75
464.975	403.75
465.195	466.75
465.414	543.75
465.634	471.75
465.854	418.75
466.073	420.75
466.293	381.75
466.512	356.75
466.732	373.75
466.951	365.75
467.171	381.75
467.391	377.75
467.61	383.75
467.829	391.75
468.049	399.75
468.268	375.75
468.488	375.75
468.707	373.75
468.927	357.75
469.146	374.75
469.365	384.75
469.585	372.75
469.804	402.75
470.023	364.75
470.243	385.75
470.462	405.75
470.681	419.75
470.901	414.75
471.12	366.75
471.339	366.75
471.558	383.75
471.777	377.75
471.997	385.75
472.216	373.75
472.435	420.75
472.654	403.75
472.873	393.75
473.092	395.75
473.311	395.75
473.53	386.75
473.749	411.75
473.968	436.75
474.187	545.75
474.406	541.75
474.625	448.75
474.844	420.75
475.063	410.75
475.282	396.75
475.501	398.75
475.72	395.75
475.939	382.75
476.158	387.75
476.377	401.75
476.596	396.75
476.814	403.75
477.033	399.75
477.252	395.75
477.471	392.75
477.69	415.75
477.908	402.75
478.127	422.75
478.346	404.75
478.564	426.75
478.783	409.75
479.002	424.75
479.22	446.75
479.439	446.75
479.658	462.75
479.876	443.75
480.095	456.75
480.313	485.75
480.532	467.75
480.751	460.75
480.969	484.75
481.188	522.75
481.406	574.75
481.624	500.75
481.843	491.75
482.061	452.75
482.28	461.75
482.498	453.75
482.717	445.75
482.935	454.75
483.153	457.75
483.372	460.75
483.59	450.75
483.808	453.75
484.027	462.75
484.245	468.75
484.463	461.75
484.681	453.75
484.9	451.75
485.118	474.75
485.336	461.75
485.554	449.75
485.772	474.75
485.99	473.75
486.209	479.75
486.427	464.75
486.645	484.75
486.863	502.75
487.081	489.75
487.299	473.75
487.517	497.75
487.735	515.75
487.953	509.75
488.171	477.75
488.389	480.75
488.607	473.75
488.825	479.75
489.043	497.75
489.261	462.75
489.479	495.75
489.696	489.75
489.914	488.75
490.132	510.75
490.35	514.75
490.568	515.75
490.786	518.75
491.003	525.75
491.221	550.75
491.439	542.75
491.657	539.75
491.874	553.75
492.092	570.75
492.31	558.75
492.527	565.75
492.745	572.75
492.963	584.75
493.18	585.75
493.398	568.75
493.615	584.75
493.833	577.75
494.05	579.75
494.268	561.75
494.485	573.75
494.703	562.75
494.92	582.75
495.138	569.75
495.355	579.75
495.573	569.75
495.79	571.75
496.008	599.75
496.225	575.75
496.442	615.75
496.66	580.75
496.877	606.75
497.094	580.75
497.312	578.75
497.529	570.75
497.746	599.75
497.963	605.75
498.181	641.75
498.398	630.75
498.615	622.75
498.832	636.75
499.049	623.75
499.267	653.75
499.484	663.75
499.701	655.75
499.918	671.75
500.135	678.75
500.352	704.75
500.569	694.75
500.786	691.75
501.003	710.75
501.22	740.75
501.437	679.75
501.654	695.75
501.871	709.75
502.088	666.75
