Data from 1981.PennyLincolnUp.Lamp.En5.5.200Scan.071819.P1_HRD10591_16-42-47-959.txt Node
Date: Thu Jul 18 16:42:47 EDT 2019
User: cochatt
Spectrometer: HR+D1059
Trigger mode: 1
Integration Time (sec): 1.000000E-1
Scans to average: 1
Electric dark correction enabled: true
Nonlinearity correction enabled: false
Boxcar width: 0
XAxis mode: Wavelengths
Number of Pixels in Spectrum: 2048
>>>>>Begin Spectral Data<<<<<
223.165	-13.94
223.4	-13.94
223.635	-13.94
223.869	-27.94
224.104	-10.94
224.338	-21.94
224.573	-28.94
224.808	11.06
225.042	-13.94
225.277	-2.94
225.511	-0.94
225.746	9.06
225.98	5.06
226.215	15.06
226.449	18.06
226.683	13.06
226.918	23.06
227.152	27.06
227.387	32.06
227.621	46.06
227.856	33.06
228.09	43.06
228.324	41.06
228.559	49.06
228.793	61.06
229.027	90.06
229.262	115.06
229.496	114.06
229.73	129.06
229.964	168.06
230.199	131.06
230.433	118.06
230.667	119.06
230.901	118.06
231.136	119.06
231.37	95.06
231.604	113.06
231.838	114.06
232.072	113.06
232.306	119.06
232.541	118.06
232.775	102.06
233.009	107.06
233.243	117.06
233.477	115.06
233.711	110.06
233.945	119.06
234.179	123.06
234.413	128.06
234.647	115.06
234.881	113.06
235.115	97.06
235.349	111.06
235.583	121.06
235.817	121.06
236.051	128.06
236.285	130.06
236.519	115.06
236.753	127.06
236.987	155.06
237.221	185.06
237.455	226.06
237.689	188.06
237.922	139.06
238.156	136.06
238.39	134.06
238.624	125.06
238.858	126.06
239.091	123.06
239.325	120.06
239.559	120.06
239.793	133.06
240.027	134.06
240.26	164.06
240.494	163.06
240.728	163.06
240.961	152.06
241.195	157.06
241.429	128.06
241.662	161.06
241.896	124.06
242.13	137.06
242.363	131.06
242.597	132.06
242.83	135.06
243.064	155.06
243.298	142.06
243.531	128.06
243.765	135.06
243.998	136.06
244.232	138.06
244.465	137.06
244.699	147.06
244.932	154.06
245.166	142.06
245.399	143.06
245.633	141.06
245.866	163.06
246.099	149.06
246.333	156.06
246.566	159.06
246.8	141.06
247.033	161.06
247.266	156.06
247.5	171.06
247.733	165.06
247.966	177.06
248.2	167.06
248.433	189.06
248.666	169.06
248.899	200.06
249.133	226.06
249.366	214.06
249.599	207.06
249.832	199.06
250.066	197.06
250.299	201.06
250.532	171.06
250.765	208.06
250.998	228.06
251.231	251.06
251.465	232.06
251.698	230.06
251.931	211.06
252.164	218.06
252.397	199.06
252.63	204.06
252.863	227.06
253.096	230.06
253.329	240.06
253.562	251.06
253.795	237.06
254.028	224.06
254.261	242.06
254.494	263.06
254.727	292.06
254.96	307.06
255.193	311.06
255.426	269.06
255.659	263.06
255.892	247.06
256.124	251.06
256.357	258.06
256.59	228.06
256.823	243.06
257.056	216.06
257.289	228.06
257.521	224.06
257.754	226.06
257.987	214.06
258.22	220.06
258.452	228.06
258.685	198.06
258.918	239.06
259.151	233.06
259.383	232.06
259.616	227.06
259.849	239.06
260.081	252.06
260.314	259.06
260.547	280.06
260.779	281.06
261.012	246.06
261.244	242.06
261.477	241.06
261.71	241.06
261.942	256.06
262.175	253.06
262.407	242.06
262.64	223.06
262.872	213.06
263.105	242.06
263.337	235.06
263.57	204.06
263.802	216.06
264.035	204.06
264.267	230.06
264.499	217.06
264.732	229.06
264.964	230.06
265.197	209.06
265.429	217.06
265.661	236.06
265.894	235.06
266.126	228.06
266.358	211.06
266.591	222.06
266.823	228.06
267.055	244.06
267.287	243.06
267.52	223.06
267.752	253.06
267.984	229.06
268.216	234.06
268.448	250.06
268.681	239.06
268.913	267.06
269.145	282.06
269.377	286.06
269.609	292.06
269.841	273.06
270.073	284.06
270.306	303.06
270.538	324.06
270.77	325.06
271.002	321.06
271.234	316.06
271.466	332.06
271.698	352.06
271.93	343.06
272.162	347.06
272.394	360.06
272.626	330.06
272.858	331.06
273.09	304.06
273.322	293.06
273.553	280.06
273.785	273.06
274.017	275.06
274.249	282.06
274.481	291.06
274.713	278.06
274.945	272.06
275.176	275.06
275.408	273.06
275.64	283.06
275.872	256.06
276.104	265.06
276.335	283.06
276.567	289.06
276.799	295.06
277.031	324.06
277.262	331.06
277.494	347.06
277.726	318.06
277.957	299.06
278.189	306.06
278.421	296.06
278.652	294.06
278.884	283.06
279.115	266.06
279.347	268.06
279.579	266.06
279.81	275.06
280.042	268.06
280.273	270.06
280.505	263.06
280.736	275.06
280.968	272.06
281.199	274.06
281.431	291.06
281.662	281.06
281.894	269.06
282.125	289.06
282.356	293.06
282.588	314.06
282.819	306.06
283.051	290.06
283.282	284.06
283.513	272.06
283.745	300.06
283.976	269.06
284.207	286.06
284.439	283.06
284.67	279.06
284.901	292.06
285.132	297.06
285.364	273.06
285.595	294.06
285.826	284.06
286.057	274.06
286.288	298.06
286.52	292.06
286.751	283.06
286.982	283.06
287.213	292.06
287.444	311.06
287.675	321.06
287.906	307.06
288.138	308.06
288.369	316.06
288.6	299.06
288.831	308.06
289.062	289.06
289.293	297.06
289.524	298.06
289.755	299.06
289.986	300.06
290.217	300.06
290.448	290.06
290.679	281.06
290.91	282.06
291.141	278.06
291.371	297.06
291.602	303.06
291.833	275.06
292.064	292.06
292.295	322.06
292.526	283.06
292.757	312.06
292.987	287.06
293.218	269.06
293.449	276.06
293.68	297.06
293.91	312.06
294.141	285.06
294.372	277.06
294.603	295.06
294.833	306.06
295.064	293.06
295.295	301.06
295.525	305.06
295.756	280.06
295.987	309.06
296.217	321.06
296.448	323.06
296.679	308.06
296.909	312.06
297.14	293.06
297.37	309.06
297.601	288.06
297.831	323.06
298.062	309.06
298.292	300.06
298.523	289.06
298.753	306.06
298.984	310.06
299.214	299.06
299.445	304.06
299.675	329.06
299.905	307.06
300.136	320.06
300.366	306.06
300.597	321.06
300.827	325.06
301.057	331.06
301.288	341.06
301.518	337.06
301.748	331.06
301.979	340.06
302.209	333.06
302.439	332.06
302.669	335.06
302.9	339.06
303.13	315.06
303.36	334.06
303.59	337.06
303.82	351.06
304.051	342.06
304.281	329.06
304.511	333.06
304.741	364.06
304.971	328.06
305.201	323.06
305.431	320.06
305.661	332.06
305.891	331.06
306.121	346.06
306.352	333.06
306.582	338.06
306.812	337.06
307.042	335.06
307.272	359.06
307.502	354.06
307.731	327.06
307.961	341.06
308.191	344.06
308.421	324.06
308.651	335.06
308.881	354.06
309.111	358.06
309.341	338.06
309.571	363.06
309.8	403.06
310.03	387.06
310.26	405.06
310.49	395.06
310.72	396.06
310.949	402.06
311.179	409.06
311.409	390.06
311.639	381.06
311.868	394.06
312.098	386.06
312.328	398.06
312.557	405.06
312.787	447.06
313.017	426.06
313.246	422.06
313.476	394.06
313.706	378.06
313.935	397.06
314.165	417.06
314.394	420.06
314.624	421.06
314.853	426.06
315.083	401.06
315.312	383.06
315.542	394.06
315.771	375.06
316.001	379.06
316.23	382.06
316.46	371.06
316.689	384.06
316.919	393.06
317.148	401.06
317.377	392.06
317.607	408.06
317.836	375.06
318.065	383.06
318.295	363.06
318.524	385.06
318.753	399.06
318.983	410.06
319.212	380.06
319.441	406.06
319.67	391.06
319.9	396.06
320.129	388.06
320.358	403.06
320.587	399.06
320.816	400.06
321.046	443.06
321.275	414.06
321.504	413.06
321.733	418.06
321.962	435.06
322.191	435.06
322.42	476.06
322.649	484.06
322.878	490.06
323.108	522.06
323.337	540.06
323.566	551.06
323.795	588.06
324.024	631.06
324.253	809.06
324.482	1215.06
324.71	1828.06
324.939	2530.06
325.168	2127.06
325.397	1103.06
325.626	729.06
325.855	657.06
326.084	573.06
326.313	583.06
326.542	576.06
326.77	646.06
326.999	756.06
327.228	1053.06
327.457	1586.06
327.686	1826.06
327.914	1230.06
328.143	825.06
328.372	717.06
328.6	672.06
328.829	638.06
329.058	645.06
329.287	646.06
329.515	610.06
329.744	566.06
329.972	575.06
330.201	588.06
330.43	619.06
330.658	639.06
330.887	663.06
331.115	645.06
331.344	588.06
331.572	515.06
331.801	505.06
332.03	537.06
332.258	500.06
332.486	479.06
332.715	441.06
332.943	460.06
333.172	441.06
333.4	443.06
333.629	480.06
333.857	476.06
334.085	495.06
334.314	510.06
334.542	539.06
334.771	554.06
334.999	492.06
335.227	464.06
335.455	455.06
335.684	454.06
335.912	457.06
336.14	446.06
336.369	452.06
336.597	452.06
336.825	449.06
337.053	432.06
337.281	420.06
337.51	444.06
337.738	469.06
337.966	437.06
338.194	425.06
338.422	455.06
338.65	437.06
338.878	422.06
339.106	418.06
339.334	443.06
339.562	437.06
339.79	436.06
340.018	428.06
340.246	438.06
340.474	435.06
340.702	419.06
340.93	424.06
341.158	414.06
341.386	433.06
341.614	430.06
341.842	433.06
342.07	427.06
342.298	409.06
342.526	408.06
342.754	404.06
342.981	417.06
343.209	406.06
343.437	394.06
343.665	400.06
343.893	409.06
344.12	418.06
344.348	423.06
344.576	449.06
344.804	422.06
345.031	461.06
345.259	477.06
345.487	448.06
345.714	436.06
345.942	432.06
346.17	424.06
346.397	399.06
346.625	412.06
346.853	411.06
347.08	407.06
347.308	436.06
347.535	433.06
347.763	424.06
347.99	419.06
348.218	443.06
348.445	441.06
348.673	435.06
348.9	440.06
349.128	412.06
349.355	418.06
349.583	414.06
349.81	401.06
350.037	391.06
350.265	393.06
350.492	404.06
350.72	421.06
350.947	425.06
351.174	411.06
351.402	446.06
351.629	423.06
351.856	402.06
352.083	423.06
352.311	428.06
352.538	416.06
352.765	416.06
352.992	426.06
353.22	416.06
353.447	407.06
353.674	407.06
353.901	413.06
354.128	401.06
354.355	376.06
354.583	383.06
354.81	379.06
355.037	379.06
355.264	365.06
355.491	355.06
355.718	362.06
355.945	375.06
356.172	351.06
356.399	356.06
356.626	360.06
356.853	370.06
357.08	377.06
357.307	360.06
357.534	373.06
357.761	383.06
357.988	384.06
358.215	396.06
358.441	371.06
358.668	374.06
358.895	376.06
359.122	394.06
359.349	394.06
359.576	422.06
359.802	437.06
360.029	457.06
360.256	449.06
360.483	450.06
360.709	412.06
360.936	402.06
361.163	408.06
361.39	379.06
361.616	418.06
361.843	403.06
362.07	406.06
362.296	421.06
362.523	398.06
362.749	399.06
362.976	395.06
363.203	394.06
363.429	379.06
363.656	379.06
363.882	379.06
364.109	381.06
364.335	361.06
364.562	403.06
364.788	397.06
365.015	389.06
365.241	367.06
365.468	381.06
365.694	376.06
365.92	364.06
366.147	374.06
366.373	381.06
366.599	370.06
366.826	364.06
367.052	391.06
367.278	371.06
367.505	370.06
367.731	373.06
367.957	377.06
368.184	376.06
368.41	377.06
368.636	375.06
368.862	380.06
369.089	382.06
369.315	361.06
369.541	364.06
369.767	377.06
369.993	364.06
370.219	359.06
370.445	342.06
370.672	371.06
370.898	358.06
371.124	354.06
371.35	359.06
371.576	359.06
371.802	358.06
372.028	365.06
372.254	359.06
372.48	363.06
372.706	354.06
372.932	355.06
373.158	364.06
373.384	360.06
373.61	379.06
373.835	385.06
374.061	358.06
374.287	367.06
374.513	371.06
374.739	374.06
374.965	359.06
375.191	349.06
375.416	370.06
375.642	349.06
375.868	345.06
376.094	362.06
376.319	349.06
376.545	357.06
376.771	364.06
376.997	341.06
377.222	340.06
377.448	372.06
377.674	349.06
377.899	347.06
378.125	337.06
378.35	346.06
378.576	343.06
378.802	357.06
379.027	334.06
379.253	339.06
379.478	349.06
379.704	365.06
379.929	370.06
380.155	347.06
380.38	346.06
380.606	365.06
380.831	341.06
381.057	369.06
381.282	390.06
381.507	365.06
381.733	366.06
381.958	349.06
382.184	343.06
382.409	325.06
382.634	357.06
382.86	374.06
383.085	359.06
383.31	364.06
383.535	356.06
383.761	360.06
383.986	371.06
384.211	376.06
384.436	371.06
384.662	353.06
384.887	381.06
385.112	367.06
385.337	376.06
385.562	380.06
385.787	378.06
386.013	386.06
386.238	384.06
386.463	376.06
386.688	363.06
386.913	375.06
387.138	366.06
387.363	343.06
387.588	360.06
387.813	369.06
388.038	362.06
388.263	358.06
388.488	380.06
388.713	377.06
388.938	374.06
389.163	383.06
389.387	373.06
389.612	378.06
389.837	375.06
390.062	378.06
390.287	356.06
390.512	386.06
390.736	371.06
390.961	379.06
391.186	357.06
391.411	356.06
391.636	349.06
391.86	375.06
392.085	356.06
392.31	363.06
392.534	364.06
392.759	372.06
392.984	374.06
393.208	364.06
393.433	365.06
393.658	351.06
393.882	369.06
394.107	387.06
394.331	371.06
394.556	359.06
394.78	373.06
395.005	351.06
395.229	351.06
395.454	396.06
395.678	362.06
395.903	373.06
396.127	403.06
396.352	424.06
396.576	399.06
396.801	379.06
397.025	386.06
397.249	379.06
397.474	385.06
397.698	391.06
397.922	415.06
398.147	434.06
398.371	416.06
398.595	418.06
398.82	413.06
399.044	421.06
399.268	407.06
399.492	435.06
399.717	445.06
399.941	466.06
400.165	499.06
400.389	501.06
400.613	474.06
400.837	452.06
401.062	420.06
401.286	419.06
401.51	436.06
401.734	426.06
401.958	405.06
402.182	411.06
402.406	437.06
402.63	417.06
402.854	412.06
403.078	439.06
403.302	427.06
403.526	440.06
403.75	445.06
403.974	425.06
404.198	405.06
404.422	420.06
404.645	418.06
404.869	432.06
405.093	466.06
405.317	507.06
405.541	529.06
405.765	503.06
405.988	466.06
406.212	477.06
406.436	483.06
406.66	497.06
406.883	470.06
407.107	507.06
407.331	513.06
407.555	566.06
407.778	579.06
408.002	510.06
408.226	491.06
408.449	462.06
408.673	477.06
408.896	517.06
409.12	522.06
409.344	495.06
409.567	469.06
409.791	447.06
410.014	456.06
410.238	446.06
410.461	417.06
410.685	443.06
410.908	454.06
411.132	460.06
411.355	520.06
411.578	474.06
411.802	436.06
412.025	430.06
412.249	450.06
412.472	435.06
412.695	469.06
412.919	492.06
413.142	434.06
413.365	436.06
413.589	427.06
413.812	403.06
414.035	376.06
414.258	415.06
414.482	437.06
414.705	396.06
414.928	400.06
415.151	395.06
415.374	399.06
415.597	401.06
415.821	375.06
416.044	406.06
416.267	404.06
416.49	410.06
416.713	406.06
416.936	405.06
417.159	383.06
417.382	398.06
417.605	405.06
417.828	419.06
418.051	440.06
418.274	433.06
418.497	417.06
418.72	396.06
418.943	394.06
419.166	421.06
419.389	432.06
419.611	441.06
419.834	423.06
420.057	433.06
420.28	410.06
420.503	445.06
420.726	425.06
420.948	439.06
421.171	481.06
421.394	513.06
421.617	453.06
421.839	440.06
422.062	435.06
422.285	464.06
422.507	501.06
422.73	571.06
422.953	548.06
423.175	468.06
423.398	439.06
423.621	465.06
423.843	442.06
424.066	473.06
424.288	465.06
424.511	485.06
424.733	557.06
424.956	626.06
425.178	582.06
425.401	587.06
425.623	605.06
425.846	511.06
426.068	495.06
426.291	479.06
426.513	471.06
426.735	478.06
426.958	551.06
427.18	617.06
427.402	719.06
427.625	815.06
427.847	694.06
428.069	617.06
428.292	542.06
428.514	483.06
428.736	456.06
428.958	457.06
429.181	452.06
429.403	465.06
429.625	453.06
429.847	503.06
430.069	525.06
430.292	521.06
430.514	470.06
430.736	447.06
430.958	418.06
431.18	400.06
431.402	417.06
431.624	403.06
431.846	401.06
432.068	410.06
432.29	381.06
432.512	394.06
432.734	401.06
432.956	417.06
433.178	420.06
433.4	412.06
433.622	396.06
433.844	391.06
434.066	387.06
434.287	390.06
434.509	394.06
434.731	405.06
434.953	435.06
435.175	423.06
435.397	465.06
435.618	467.06
435.84	544.06
436.062	611.06
436.284	660.06
436.505	541.06
436.727	495.06
436.949	465.06
437.17	443.06
437.392	440.06
437.614	450.06
437.835	497.06
438.057	591.06
438.278	681.06
438.5	685.06
438.721	741.06
438.943	714.06
439.165	561.06
439.386	521.06
439.608	500.06
439.829	501.06
440.05	534.06
440.272	596.06
440.493	523.06
440.715	466.06
440.936	462.06
441.158	451.06
441.379	447.06
441.6	452.06
441.822	491.06
442.043	504.06
442.264	563.06
442.486	600.06
442.707	533.06
442.928	512.06
443.149	489.06
443.371	533.06
443.592	563.06
443.813	624.06
444.034	695.06
444.255	561.06
444.476	495.06
444.698	488.06
444.919	481.06
445.14	562.06
445.361	528.06
445.582	503.06
445.803	601.06
446.024	679.06
446.245	700.06
446.466	629.06
446.687	546.06
446.908	495.06
447.129	462.06
447.35	453.06
447.571	447.06
447.792	450.06
448.013	453.06
448.234	455.06
448.455	517.06
448.675	618.06
448.896	695.06
449.117	596.06
449.338	590.06
449.559	691.06
449.779	753.06
450	591.06
450.221	499.06
450.442	450.06
450.662	431.06
450.883	444.06
451.104	447.06
451.324	444.06
451.545	446.06
451.766	415.06
451.986	417.06
452.207	391.06
452.428	386.06
452.648	393.06
452.869	386.06
453.089	405.06
453.31	401.06
453.53	391.06
453.751	394.06
453.971	402.06
454.192	411.06
454.412	402.06
454.633	412.06
454.853	377.06
455.073	385.06
455.294	429.06
455.514	490.06
455.734	479.06
455.955	418.06
456.175	381.06
456.395	367.06
456.616	376.06
456.836	381.06
457.056	362.06
457.276	358.06
457.497	374.06
457.717	361.06
457.937	377.06
458.157	370.06
458.377	365.06
458.598	398.06
458.818	438.06
459.038	545.06
459.258	555.06
459.478	460.06
459.698	409.06
459.918	403.06
460.138	404.06
460.358	409.06
460.578	391.06
460.798	403.06
461.018	426.06
461.238	385.06
461.458	401.06
461.678	389.06
461.898	428.06
462.118	414.06
462.338	413.06
462.558	374.06
462.777	397.06
462.997	423.06
463.217	412.06
463.437	423.06
463.657	428.06
463.876	400.06
464.096	405.06
464.316	399.06
464.536	421.06
464.755	437.06
464.975	425.06
465.195	484.06
465.414	557.06
465.634	499.06
465.854	425.06
466.073	431.06
466.293	407.06
466.512	399.06
466.732	388.06
466.951	409.06
467.171	371.06
467.391	388.06
467.61	421.06
467.829	399.06
468.049	409.06
468.268	391.06
468.488	380.06
468.707	378.06
468.927	377.06
469.146	388.06
469.365	383.06
469.585	373.06
469.804	401.06
470.023	405.06
470.243	395.06
470.462	418.06
470.681	420.06
470.901	419.06
471.12	411.06
471.339	392.06
471.558	406.06
471.777	405.06
471.997	396.06
472.216	402.06
472.435	436.06
472.654	427.06
472.873	388.06
473.092	393.06
473.311	391.06
473.53	415.06
473.749	404.06
473.968	455.06
474.187	583.06
474.406	584.06
474.625	492.06
474.844	415.06
475.063	400.06
475.282	400.06
475.501	420.06
475.72	438.06
475.939	433.06
476.158	428.06
476.377	411.06
476.596	397.06
476.814	418.06
477.033	433.06
477.252	419.06
477.471	403.06
477.69	414.06
477.908	436.06
478.127	456.06
478.346	436.06
478.564	426.06
478.783	452.06
479.002	436.06
479.22	455.06
479.439	475.06
479.658	469.06
479.876	485.06
480.095	485.06
480.313	499.06
480.532	499.06
480.751	476.06
480.969	501.06
481.188	577.06
481.406	610.06
481.624	521.06
481.843	499.06
482.061	502.06
482.28	459.06
482.498	463.06
482.717	463.06
482.935	485.06
483.153	461.06
483.372	460.06
483.59	476.06
483.808	481.06
484.027	477.06
484.245	477.06
484.463	475.06
484.681	474.06
484.9	491.06
485.118	465.06
485.336	464.06
485.554	482.06
485.772	476.06
485.99	461.06
486.209	487.06
486.427	483.06
486.645	497.06
486.863	505.06
487.081	495.06
487.299	513.06
487.517	499.06
487.735	499.06
487.953	500.06
488.171	539.06
488.389	500.06
488.607	532.06
488.825	509.06
489.043	528.06
489.261	492.06
489.479	513.06
489.696	513.06
489.914	505.06
490.132	529.06
490.35	538.06
490.568	540.06
490.786	543.06
491.003	548.06
491.221	569.06
491.439	543.06
491.657	563.06
491.874	591.06
492.092	571.06
492.31	592.06
492.527	595.06
492.745	585.06
492.963	588.06
493.18	593.06
493.398	583.06
493.615	593.06
493.833	597.06
494.05	597.06
494.268	589.06
494.485	598.06
494.703	597.06
494.92	605.06
495.138	607.06
495.355	616.06
495.573	597.06
495.79	601.06
496.008	592.06
496.225	589.06
496.442	602.06
496.66	591.06
496.877	592.06
497.094	593.06
497.312	621.06
497.529	612.06
497.746	607.06
497.963	626.06
498.181	659.06
498.398	628.06
498.615	645.06
498.832	653.06
499.049	632.06
499.267	651.06
499.484	657.06
499.701	689.06
499.918	681.06
500.135	707.06
500.352	715.06
500.569	731.06
500.786	746.06
501.003	744.06
501.22	715.06
501.437	733.06
501.654	746.06
501.871	721.06
