Data from 1981.PennyLincolnUp.Lamp.En5.5.200Scan.071819.P1_HRD10591_16-43-21-959.txt Node
Date: Thu Jul 18 16:43:21 EDT 2019
User: cochatt
Spectrometer: HR+D1059
Trigger mode: 1
Integration Time (sec): 1.000000E-1
Scans to average: 1
Electric dark correction enabled: true
Nonlinearity correction enabled: false
Boxcar width: 0
XAxis mode: Wavelengths
Number of Pixels in Spectrum: 2048
>>>>>Begin Spectral Data<<<<<
223.165	-12.25
223.4	-12.25
223.635	-12.25
223.869	-24.25
224.104	-22.25
224.338	-7.25
224.573	-29.25
224.808	-12.25
225.042	2.75
225.277	-14.25
225.511	4.75
225.746	2.75
225.98	15.75
226.215	8.75
226.449	23.75
226.683	17.75
226.918	16.75
227.152	28.75
227.387	23.75
227.621	39.75
227.856	41.75
228.09	38.75
228.324	38.75
228.559	43.75
228.793	78.75
229.027	104.75
229.262	103.75
229.496	120.75
229.73	150.75
229.964	164.75
230.199	134.75
230.433	102.75
230.667	126.75
230.901	111.75
231.136	118.75
231.37	110.75
231.604	125.75
231.838	112.75
232.072	106.75
232.306	121.75
232.541	118.75
232.775	112.75
233.009	125.75
233.243	126.75
233.477	123.75
233.711	122.75
233.945	126.75
234.179	123.75
234.413	109.75
234.647	121.75
234.881	126.75
235.115	121.75
235.349	127.75
235.583	126.75
235.817	127.75
236.051	129.75
236.285	128.75
236.519	114.75
236.753	128.75
236.987	156.75
237.221	197.75
237.455	250.75
237.689	210.75
237.922	151.75
238.156	131.75
238.39	116.75
238.624	128.75
238.858	132.75
239.091	122.75
239.325	116.75
239.559	130.75
239.793	132.75
240.027	149.75
240.26	148.75
240.494	173.75
240.728	152.75
240.961	164.75
241.195	147.75
241.429	145.75
241.662	132.75
241.896	138.75
242.13	136.75
242.363	145.75
242.597	143.75
242.83	136.75
243.064	141.75
243.298	151.75
243.531	143.75
243.765	130.75
243.998	141.75
244.232	156.75
244.465	144.75
244.699	154.75
244.932	156.75
245.166	131.75
245.399	152.75
245.633	150.75
245.866	152.75
246.099	136.75
246.333	155.75
246.566	164.75
246.8	172.75
247.033	141.75
247.266	164.75
247.5	155.75
247.733	168.75
247.966	195.75
248.2	169.75
248.433	169.75
248.666	179.75
248.899	195.75
249.133	203.75
249.366	216.75
249.599	220.75
249.832	194.75
250.066	181.75
250.299	188.75
250.532	206.75
250.765	221.75
250.998	237.75
251.231	229.75
251.465	237.75
251.698	236.75
251.931	230.75
252.164	210.75
252.397	218.75
252.63	218.75
252.863	221.75
253.096	227.75
253.329	245.75
253.562	255.75
253.795	243.75
254.028	235.75
254.261	230.75
254.494	247.75
254.727	287.75
254.96	295.75
255.193	299.75
255.426	269.75
255.659	247.75
255.892	258.75
256.124	244.75
256.357	248.75
256.59	243.75
256.823	230.75
257.056	242.75
257.289	235.75
257.521	213.75
257.754	214.75
257.987	226.75
258.22	238.75
258.452	229.75
258.685	230.75
258.918	226.75
259.151	234.75
259.383	241.75
259.616	233.75
259.849	256.75
260.081	251.75
260.314	258.75
260.547	279.75
260.779	266.75
261.012	260.75
261.244	238.75
261.477	235.75
261.71	234.75
261.942	265.75
262.175	248.75
262.407	261.75
262.64	249.75
262.872	223.75
263.105	210.75
263.337	243.75
263.57	219.75
263.802	222.75
264.035	231.75
264.267	233.75
264.499	219.75
264.732	227.75
264.964	211.75
265.197	230.75
265.429	209.75
265.661	223.75
265.894	208.75
266.126	234.75
266.358	222.75
266.591	249.75
266.823	252.75
267.055	254.75
267.287	242.75
267.52	238.75
267.752	246.75
267.984	235.75
268.216	239.75
268.448	237.75
268.681	246.75
268.913	278.75
269.145	281.75
269.377	311.75
269.609	293.75
269.841	280.75
270.073	291.75
270.306	316.75
270.538	341.75
270.77	351.75
271.002	308.75
271.234	332.75
271.466	302.75
271.698	327.75
271.93	338.75
272.162	332.75
272.394	342.75
272.626	344.75
272.858	329.75
273.09	314.75
273.322	303.75
273.553	309.75
273.785	306.75
274.017	291.75
274.249	285.75
274.481	272.75
274.713	293.75
274.945	306.75
275.176	284.75
275.408	274.75
275.64	292.75
275.872	272.75
276.104	290.75
276.335	284.75
276.567	286.75
276.799	304.75
277.031	331.75
277.262	330.75
277.494	339.75
277.726	324.75
277.957	326.75
278.189	294.75
278.421	293.75
278.652	297.75
278.884	291.75
279.115	289.75
279.347	301.75
279.579	275.75
279.81	270.75
280.042	277.75
280.273	298.75
280.505	275.75
280.736	272.75
280.968	275.75
281.199	291.75
281.431	277.75
281.662	274.75
281.894	281.75
282.125	289.75
282.356	316.75
282.588	320.75
282.819	316.75
283.051	307.75
283.282	268.75
283.513	276.75
283.745	312.75
283.976	299.75
284.207	293.75
284.439	286.75
284.67	280.75
284.901	279.75
285.132	288.75
285.364	279.75
285.595	285.75
285.826	287.75
286.057	282.75
286.288	295.75
286.52	292.75
286.751	284.75
286.982	290.75
287.213	307.75
287.444	284.75
287.675	292.75
287.906	303.75
288.138	325.75
288.369	319.75
288.6	308.75
288.831	296.75
289.062	298.75
289.293	280.75
289.524	309.75
289.755	309.75
289.986	286.75
290.217	278.75
290.448	297.75
290.679	284.75
290.91	308.75
291.141	300.75
291.371	290.75
291.602	316.75
291.833	306.75
292.064	306.75
292.295	288.75
292.526	292.75
292.757	282.75
292.987	293.75
293.218	279.75
293.449	294.75
293.68	308.75
293.91	306.75
294.141	299.75
294.372	284.75
294.603	321.75
294.833	306.75
295.064	282.75
295.295	307.75
295.525	299.75
295.756	309.75
295.987	310.75
296.217	351.75
296.448	357.75
296.679	326.75
296.909	284.75
297.14	303.75
297.37	299.75
297.601	308.75
297.831	322.75
298.062	302.75
298.292	313.75
298.523	307.75
298.753	322.75
298.984	303.75
299.214	300.75
299.445	310.75
299.675	296.75
299.905	338.75
300.136	314.75
300.366	318.75
300.597	325.75
300.827	316.75
301.057	333.75
301.288	354.75
301.518	328.75
301.748	325.75
301.979	322.75
302.209	343.75
302.439	330.75
302.669	333.75
302.9	325.75
303.13	336.75
303.36	329.75
303.59	336.75
303.82	334.75
304.051	367.75
304.281	343.75
304.511	334.75
304.741	333.75
304.971	320.75
305.201	338.75
305.431	322.75
305.661	332.75
305.891	341.75
306.121	324.75
306.352	326.75
306.582	344.75
306.812	338.75
307.042	322.75
307.272	336.75
307.502	336.75
307.731	358.75
307.961	347.75
308.191	345.75
308.421	348.75
308.651	347.75
308.881	345.75
309.111	349.75
309.341	352.75
309.571	361.75
309.8	404.75
310.03	406.75
310.26	391.75
310.49	404.75
310.72	422.75
310.949	436.75
311.179	422.75
311.409	400.75
311.639	384.75
311.868	408.75
312.098	412.75
312.328	398.75
312.557	428.75
312.787	440.75
313.017	425.75
313.246	396.75
313.476	400.75
313.706	398.75
313.935	395.75
314.165	394.75
314.394	426.75
314.624	426.75
314.853	411.75
315.083	388.75
315.312	394.75
315.542	400.75
315.771	392.75
316.001	373.75
316.23	386.75
316.46	383.75
316.689	388.75
316.919	411.75
317.148	416.75
317.377	398.75
317.607	415.75
317.836	390.75
318.065	412.75
318.295	388.75
318.524	382.75
318.753	387.75
318.983	380.75
319.212	388.75
319.441	416.75
319.67	407.75
319.9	394.75
320.129	402.75
320.358	383.75
320.587	408.75
320.816	415.75
321.046	424.75
321.275	431.75
321.504	416.75
321.733	427.75
321.962	418.75
322.191	488.75
322.42	471.75
322.649	488.75
322.878	495.75
323.108	500.75
323.337	531.75
323.566	579.75
323.795	622.75
324.024	677.75
324.253	850.75
324.482	1238.75
324.71	1892.75
324.939	2634.75
325.168	2230.75
325.397	1155.75
325.626	758.75
325.855	642.75
326.084	578.75
326.313	574.75
326.542	576.75
326.77	628.75
326.999	774.75
327.228	1116.75
327.457	1620.75
327.686	1936.75
327.914	1273.75
328.143	847.75
328.372	734.75
328.6	686.75
328.829	657.75
329.058	668.75
329.287	662.75
329.515	642.75
329.744	578.75
329.972	564.75
330.201	589.75
330.43	614.75
330.658	654.75
330.887	689.75
331.115	692.75
331.344	571.75
331.572	536.75
331.801	537.75
332.03	526.75
332.258	478.75
332.486	449.75
332.715	479.75
332.943	478.75
333.172	458.75
333.4	473.75
333.629	468.75
333.857	494.75
334.085	504.75
334.314	517.75
334.542	548.75
334.771	568.75
334.999	503.75
335.227	476.75
335.455	457.75
335.684	452.75
335.912	445.75
336.14	438.75
336.369	431.75
336.597	464.75
336.825	458.75
337.053	438.75
337.281	451.75
337.51	438.75
337.738	430.75
337.966	449.75
338.194	453.75
338.422	443.75
338.65	440.75
338.878	423.75
339.106	450.75
339.334	414.75
339.562	415.75
339.79	411.75
340.018	437.75
340.246	446.75
340.474	428.75
340.702	438.75
340.93	435.75
341.158	429.75
341.386	414.75
341.614	423.75
341.842	434.75
342.07	426.75
342.298	428.75
342.526	420.75
342.754	435.75
342.981	407.75
343.209	416.75
343.437	413.75
343.665	438.75
343.893	422.75
344.12	444.75
344.348	413.75
344.576	435.75
344.804	434.75
345.031	444.75
345.259	454.75
345.487	435.75
345.714	434.75
345.942	429.75
346.17	405.75
346.397	407.75
346.625	399.75
346.853	398.75
347.08	427.75
347.308	415.75
347.535	446.75
347.763	431.75
347.99	443.75
348.218	421.75
348.445	454.75
348.673	454.75
348.9	429.75
349.128	391.75
349.355	400.75
349.583	402.75
349.81	398.75
350.037	394.75
350.265	404.75
350.492	388.75
350.72	399.75
350.947	421.75
351.174	411.75
351.402	418.75
351.629	434.75
351.856	433.75
352.083	443.75
352.311	414.75
352.538	438.75
352.765	453.75
352.992	414.75
353.22	442.75
353.447	414.75
353.674	418.75
353.901	389.75
354.128	396.75
354.355	362.75
354.583	394.75
354.81	376.75
355.037	363.75
355.264	380.75
355.491	382.75
355.718	357.75
355.945	371.75
356.172	364.75
356.399	372.75
356.626	371.75
356.853	375.75
357.08	375.75
357.307	356.75
357.534	378.75
357.761	392.75
357.988	372.75
358.215	371.75
358.441	377.75
358.668	369.75
358.895	394.75
359.122	382.75
359.349	414.75
359.576	411.75
359.802	434.75
360.029	460.75
360.256	477.75
360.483	435.75
360.709	427.75
360.936	415.75
361.163	418.75
361.39	406.75
361.616	399.75
361.843	420.75
362.07	392.75
362.296	406.75
362.523	415.75
362.749	395.75
362.976	416.75
363.203	404.75
363.429	385.75
363.656	378.75
363.882	380.75
364.109	369.75
364.335	368.75
364.562	388.75
364.788	364.75
365.015	375.75
365.241	400.75
365.468	402.75
365.694	374.75
365.92	371.75
366.147	362.75
366.373	382.75
366.599	357.75
366.826	363.75
367.052	359.75
367.278	371.75
367.505	370.75
367.731	376.75
367.957	364.75
368.184	377.75
368.41	371.75
368.636	379.75
368.862	383.75
369.089	370.75
369.315	394.75
369.541	383.75
369.767	366.75
369.993	374.75
370.219	382.75
370.445	385.75
370.672	359.75
370.898	371.75
371.124	358.75
371.35	376.75
371.576	374.75
371.802	352.75
372.028	356.75
372.254	362.75
372.48	374.75
372.706	364.75
372.932	351.75
373.158	355.75
373.384	371.75
373.61	364.75
373.835	366.75
374.061	358.75
374.287	382.75
374.513	379.75
374.739	364.75
374.965	360.75
375.191	371.75
375.416	387.75
375.642	365.75
375.868	374.75
376.094	352.75
376.319	362.75
376.545	403.75
376.771	361.75
376.997	364.75
377.222	344.75
377.448	365.75
377.674	366.75
377.899	350.75
378.125	359.75
378.35	356.75
378.576	345.75
378.802	338.75
379.027	349.75
379.253	337.75
379.478	352.75
379.704	364.75
379.929	352.75
380.155	370.75
380.38	342.75
380.606	365.75
380.831	357.75
381.057	359.75
381.282	345.75
381.507	362.75
381.733	330.75
381.958	357.75
382.184	349.75
382.409	372.75
382.634	358.75
382.86	349.75
383.085	344.75
383.31	362.75
383.535	353.75
383.761	352.75
383.986	382.75
384.211	369.75
384.436	354.75
384.662	362.75
384.887	368.75
385.112	355.75
385.337	400.75
385.562	384.75
385.787	384.75
386.013	381.75
386.238	381.75
386.463	385.75
386.688	379.75
386.913	365.75
387.138	386.75
387.363	365.75
387.588	357.75
387.813	372.75
388.038	377.75
388.263	364.75
388.488	388.75
388.713	372.75
388.938	374.75
389.163	376.75
389.387	384.75
389.612	373.75
389.837	367.75
390.062	367.75
390.287	373.75
390.512	376.75
390.736	370.75
390.961	378.75
391.186	356.75
391.411	374.75
391.636	382.75
391.86	380.75
392.085	373.75
392.31	377.75
392.534	362.75
392.759	383.75
392.984	360.75
393.208	356.75
393.433	355.75
393.658	375.75
393.882	374.75
394.107	371.75
394.331	377.75
394.556	372.75
394.78	375.75
395.005	378.75
395.229	363.75
395.454	374.75
395.678	402.75
395.903	378.75
396.127	391.75
396.352	413.75
396.576	384.75
396.801	388.75
397.025	364.75
397.249	381.75
397.474	382.75
397.698	397.75
397.922	399.75
398.147	406.75
398.371	424.75
398.595	402.75
398.82	392.75
399.044	412.75
399.268	437.75
399.492	428.75
399.717	441.75
399.941	473.75
400.165	489.75
400.389	521.75
400.613	484.75
400.837	441.75
401.062	424.75
401.286	412.75
401.51	436.75
401.734	407.75
401.958	437.75
402.182	438.75
402.406	433.75
402.63	436.75
402.854	436.75
403.078	419.75
403.302	426.75
403.526	451.75
403.75	455.75
403.974	439.75
404.198	403.75
404.422	415.75
404.645	447.75
404.869	432.75
405.093	466.75
405.317	481.75
405.541	520.75
405.765	487.75
405.988	465.75
406.212	438.75
406.436	502.75
406.66	518.75
406.883	482.75
407.107	514.75
407.331	518.75
407.555	595.75
407.778	578.75
408.002	548.75
408.226	476.75
408.449	492.75
408.673	500.75
408.896	515.75
409.12	534.75
409.344	510.75
409.567	468.75
409.791	445.75
410.014	422.75
410.238	422.75
410.461	438.75
410.685	436.75
410.908	446.75
411.132	493.75
411.355	534.75
411.578	489.75
411.802	452.75
412.025	438.75
412.249	433.75
412.472	443.75
412.695	494.75
412.919	495.75
413.142	441.75
413.365	410.75
413.589	423.75
413.812	426.75
414.035	406.75
414.258	399.75
414.482	392.75
414.705	416.75
414.928	410.75
415.151	403.75
415.374	378.75
415.597	409.75
415.821	380.75
416.044	419.75
416.267	407.75
416.49	405.75
416.713	399.75
416.936	410.75
417.159	390.75
417.382	420.75
417.605	425.75
417.828	423.75
418.051	430.75
418.274	428.75
418.497	391.75
418.72	400.75
418.943	406.75
419.166	423.75
419.389	422.75
419.611	426.75
419.834	429.75
420.057	429.75
420.28	428.75
420.503	412.75
420.726	419.75
420.948	447.75
421.171	472.75
421.394	509.75
421.617	456.75
421.839	429.75
422.062	434.75
422.285	447.75
422.507	502.75
422.73	567.75
422.953	541.75
423.175	504.75
423.398	452.75
423.621	452.75
423.843	472.75
424.066	454.75
424.288	468.75
424.511	474.75
424.733	552.75
424.956	587.75
425.178	587.75
425.401	587.75
425.623	586.75
425.846	524.75
426.068	478.75
426.291	466.75
426.513	482.75
426.735	483.75
426.958	536.75
427.18	608.75
427.402	711.75
427.625	796.75
427.847	710.75
428.069	598.75
428.292	527.75
428.514	490.75
428.736	454.75
428.958	446.75
429.181	430.75
429.403	432.75
429.625	458.75
429.847	502.75
430.069	564.75
430.292	549.75
430.514	452.75
430.736	434.75
430.958	420.75
431.18	422.75
431.402	403.75
431.624	402.75
431.846	385.75
432.068	393.75
432.29	420.75
432.512	429.75
432.734	401.75
432.956	415.75
433.178	428.75
433.4	438.75
433.622	430.75
433.844	418.75
434.066	412.75
434.287	395.75
434.509	403.75
434.731	415.75
434.953	429.75
435.175	446.75
435.397	465.75
435.618	493.75
435.84	511.75
436.062	628.75
436.284	676.75
436.505	566.75
436.727	502.75
436.949	467.75
437.17	452.75
437.392	448.75
437.614	454.75
437.835	515.75
438.057	598.75
438.278	666.75
438.5	682.75
438.721	725.75
438.943	701.75
439.165	578.75
439.386	506.75
439.608	518.75
439.829	499.75
440.05	548.75
440.272	570.75
440.493	516.75
440.715	479.75
440.936	462.75
441.158	443.75
441.379	423.75
441.6	477.75
441.822	478.75
442.043	519.75
442.264	586.75
442.486	624.75
442.707	520.75
442.928	498.75
443.149	486.75
443.371	522.75
443.592	550.75
443.813	631.75
444.034	681.75
444.255	575.75
444.476	482.75
444.698	476.75
444.919	463.75
445.14	562.75
445.361	545.75
445.582	510.75
445.803	572.75
446.024	708.75
446.245	719.75
446.466	644.75
446.687	546.75
446.908	502.75
447.129	468.75
447.35	453.75
447.571	454.75
447.792	447.75
448.013	451.75
448.234	479.75
448.455	522.75
448.675	627.75
448.896	712.75
449.117	638.75
449.338	594.75
449.559	686.75
449.779	715.75
450	592.75
450.221	494.75
450.442	462.75
450.662	469.75
450.883	463.75
451.104	488.75
451.324	434.75
451.545	440.75
451.766	389.75
451.986	382.75
452.207	397.75
452.428	394.75
452.648	397.75
452.869	398.75
453.089	410.75
453.31	400.75
453.53	402.75
453.751	408.75
453.971	415.75
454.192	440.75
454.412	412.75
454.633	388.75
454.853	404.75
455.073	387.75
455.294	424.75
455.514	490.75
455.734	493.75
455.955	410.75
456.175	375.75
456.395	376.75
456.616	378.75
456.836	371.75
457.056	374.75
457.276	352.75
457.497	360.75
457.717	365.75
457.937	378.75
458.157	371.75
458.377	382.75
458.598	405.75
458.818	458.75
459.038	553.75
459.258	560.75
459.478	462.75
459.698	424.75
459.918	407.75
460.138	394.75
460.358	390.75
460.578	400.75
460.798	401.75
461.018	406.75
461.238	389.75
461.458	402.75
461.678	418.75
461.898	411.75
462.118	379.75
462.338	388.75
462.558	408.75
462.777	404.75
462.997	394.75
463.217	398.75
463.437	417.75
463.657	401.75
463.876	422.75
464.096	400.75
464.316	414.75
464.536	415.75
464.755	422.75
464.975	455.75
465.195	505.75
465.414	561.75
465.634	519.75
465.854	444.75
466.073	431.75
466.293	400.75
466.512	401.75
466.732	370.75
466.951	399.75
467.171	385.75
467.391	402.75
467.61	414.75
467.829	422.75
468.049	408.75
468.268	401.75
468.488	384.75
468.707	374.75
468.927	379.75
469.146	352.75
469.365	388.75
469.585	373.75
469.804	391.75
470.023	406.75
470.243	414.75
470.462	408.75
470.681	416.75
470.901	410.75
471.12	410.75
471.339	395.75
471.558	413.75
471.777	418.75
471.997	405.75
472.216	414.75
472.435	443.75
472.654	418.75
472.873	414.75
473.092	420.75
473.311	390.75
473.53	378.75
473.749	423.75
473.968	456.75
474.187	540.75
474.406	578.75
474.625	479.75
474.844	419.75
475.063	407.75
475.282	420.75
475.501	416.75
475.72	408.75
475.939	403.75
476.158	429.75
476.377	430.75
476.596	421.75
476.814	412.75
477.033	405.75
477.252	434.75
477.471	419.75
477.69	423.75
477.908	441.75
478.127	419.75
478.346	423.75
478.564	406.75
478.783	450.75
479.002	439.75
479.22	438.75
479.439	456.75
479.658	482.75
479.876	491.75
480.095	499.75
480.313	520.75
480.532	486.75
480.751	495.75
480.969	498.75
481.188	547.75
481.406	611.75
481.624	531.75
481.843	490.75
482.061	491.75
482.28	492.75
482.498	488.75
482.717	458.75
482.935	458.75
483.153	466.75
483.372	470.75
483.59	487.75
483.808	478.75
484.027	486.75
484.245	483.75
484.463	466.75
484.681	476.75
484.9	478.75
485.118	507.75
485.336	472.75
485.554	491.75
485.772	493.75
485.99	496.75
486.209	477.75
486.427	499.75
486.645	498.75
486.863	520.75
487.081	524.75
487.299	521.75
487.517	528.75
487.735	502.75
487.953	484.75
488.171	518.75
488.389	494.75
488.607	528.75
488.825	494.75
489.043	526.75
489.261	516.75
489.479	516.75
489.696	518.75
489.914	489.75
490.132	526.75
490.35	540.75
490.568	546.75
490.786	552.75
491.003	538.75
491.221	550.75
491.439	560.75
491.657	572.75
491.874	572.75
492.092	556.75
492.31	590.75
492.527	598.75
492.745	571.75
492.963	600.75
493.18	588.75
493.398	592.75
493.615	601.75
493.833	612.75
494.05	598.75
494.268	621.75
494.485	593.75
494.703	614.75
494.92	586.75
495.138	587.75
495.355	616.75
495.573	613.75
495.79	628.75
496.008	622.75
496.225	610.75
496.442	602.75
496.66	619.75
496.877	593.75
497.094	620.75
497.312	608.75
497.529	622.75
497.746	610.75
497.963	646.75
498.181	639.75
498.398	648.75
498.615	641.75
498.832	655.75
499.049	659.75
499.267	655.75
499.484	666.75
499.701	692.75
499.918	692.75
500.135	731.75
500.352	724.75
500.569	729.75
500.786	731.75
501.003	744.75
501.22	738.75
501.437	720.75
501.654	719.75
501.871	733.75
