Data from 1981.PennyLincolnUp.Lamp.En5.5.200Scan.071819.P1_HRD10591_16-43-34-960.txt Node
Date: Thu Jul 18 16:43:34 EDT 2019
User: cochatt
Spectrometer: HR+D1059
Trigger mode: 1
Integration Time (sec): 1.000000E-1
Scans to average: 1
Electric dark correction enabled: true
Nonlinearity correction enabled: false
Boxcar width: 0
XAxis mode: Wavelengths
Number of Pixels in Spectrum: 2048
>>>>>Begin Spectral Data<<<<<
223.165	-0.69
223.4	-0.69
223.635	-0.69
223.869	-28.69
224.104	-19.69
224.338	-6.69
224.573	-11.69
224.808	-19.69
225.042	-3.69
225.277	-6.69
225.511	-4.69
225.746	-0.69
225.98	3.31
226.215	3.31
226.449	6.31
226.683	26.31
226.918	35.31
227.152	28.31
227.387	39.31
227.621	31.31
227.856	35.31
228.09	41.31
228.324	56.31
228.559	44.31
228.793	59.31
229.027	97.31
229.262	105.31
229.496	126.31
229.73	147.31
229.964	165.31
230.199	138.31
230.433	107.31
230.667	123.31
230.901	113.31
231.136	109.31
231.37	115.31
231.604	109.31
231.838	116.31
232.072	108.31
232.306	110.31
232.541	103.31
232.775	117.31
233.009	106.31
233.243	101.31
233.477	90.31
233.711	114.31
233.945	115.31
234.179	132.31
234.413	135.31
234.647	119.31
234.881	111.31
235.115	120.31
235.349	127.31
235.583	126.31
235.817	131.31
236.051	135.31
236.285	132.31
236.519	135.31
236.753	147.31
236.987	149.31
237.221	191.31
237.455	234.31
237.689	178.31
237.922	151.31
238.156	147.31
238.39	131.31
238.624	131.31
238.858	142.31
239.091	129.31
239.325	123.31
239.559	115.31
239.793	135.31
240.027	141.31
240.26	136.31
240.494	154.31
240.728	147.31
240.961	165.31
241.195	147.31
241.429	140.31
241.662	135.31
241.896	131.31
242.13	129.31
242.363	120.31
242.597	131.31
242.83	140.31
243.064	131.31
243.298	150.31
243.531	140.31
243.765	148.31
243.998	140.31
244.232	135.31
244.465	152.31
244.699	149.31
244.932	158.31
245.166	139.31
245.399	154.31
245.633	140.31
245.866	154.31
246.099	144.31
246.333	145.31
246.566	152.31
246.8	154.31
247.033	172.31
247.266	156.31
247.5	171.31
247.733	162.31
247.966	164.31
248.2	183.31
248.433	170.31
248.666	170.31
248.899	194.31
249.133	217.31
249.366	219.31
249.599	210.31
249.832	192.31
250.066	193.31
250.299	194.31
250.532	203.31
250.765	213.31
250.998	223.31
251.231	250.31
251.465	213.31
251.698	203.31
251.931	205.31
252.164	204.31
252.397	219.31
252.63	207.31
252.863	223.31
253.096	234.31
253.329	233.31
253.562	231.31
253.795	236.31
254.028	234.31
254.261	232.31
254.494	235.31
254.727	270.31
254.96	289.31
255.193	309.31
255.426	289.31
255.659	251.31
255.892	228.31
256.124	258.31
256.357	246.31
256.59	250.31
256.823	226.31
257.056	229.31
257.289	216.31
257.521	229.31
257.754	223.31
257.987	221.31
258.22	204.31
258.452	219.31
258.685	210.31
258.918	229.31
259.151	228.31
259.383	235.31
259.616	228.31
259.849	241.31
260.081	233.31
260.314	282.31
260.547	286.31
260.779	273.31
261.012	265.31
261.244	236.31
261.477	248.31
261.71	243.31
261.942	239.31
262.175	252.31
262.407	267.31
262.64	237.31
262.872	232.31
263.105	218.31
263.337	219.31
263.57	217.31
263.802	219.31
264.035	220.31
264.267	234.31
264.499	216.31
264.732	232.31
264.964	225.31
265.197	232.31
265.429	205.31
265.661	211.31
265.894	211.31
266.126	232.31
266.358	228.31
266.591	220.31
266.823	217.31
267.055	234.31
267.287	239.31
267.52	229.31
267.752	237.31
267.984	246.31
268.216	231.31
268.448	239.31
268.681	261.31
268.913	269.31
269.145	277.31
269.377	289.31
269.609	295.31
269.841	289.31
270.073	302.31
270.306	299.31
270.538	358.31
270.77	345.31
271.002	330.31
271.234	339.31
271.466	330.31
271.698	315.31
271.93	347.31
272.162	350.31
272.394	348.31
272.626	343.31
272.858	304.31
273.09	307.31
273.322	303.31
273.553	285.31
273.785	288.31
274.017	297.31
274.249	283.31
274.481	265.31
274.713	287.31
274.945	301.31
275.176	288.31
275.408	281.31
275.64	273.31
275.872	268.31
276.104	289.31
276.335	268.31
276.567	287.31
276.799	301.31
277.031	328.31
277.262	353.31
277.494	339.31
277.726	317.31
277.957	310.31
278.189	291.31
278.421	298.31
278.652	294.31
278.884	284.31
279.115	255.31
279.347	287.31
279.579	284.31
279.81	276.31
280.042	284.31
280.273	276.31
280.505	284.31
280.736	274.31
280.968	267.31
281.199	276.31
281.431	273.31
281.662	251.31
281.894	280.31
282.125	288.31
282.356	289.31
282.588	300.31
282.819	331.31
283.051	284.31
283.282	277.31
283.513	277.31
283.745	275.31
283.976	280.31
284.207	282.31
284.439	275.31
284.67	278.31
284.901	287.31
285.132	281.31
285.364	283.31
285.595	279.31
285.826	288.31
286.057	285.31
286.288	291.31
286.52	275.31
286.751	276.31
286.982	291.31
287.213	275.31
287.444	275.31
287.675	299.31
287.906	293.31
288.138	317.31
288.369	308.31
288.6	313.31
288.831	322.31
289.062	287.31
289.293	299.31
289.524	294.31
289.755	307.31
289.986	270.31
290.217	289.31
290.448	291.31
290.679	292.31
290.91	294.31
291.141	315.31
291.371	303.31
291.602	311.31
291.833	298.31
292.064	277.31
292.295	304.31
292.526	296.31
292.757	297.31
292.987	295.31
293.218	291.31
293.449	299.31
293.68	280.31
293.91	283.31
294.141	275.31
294.372	284.31
294.603	273.31
294.833	312.31
295.064	292.31
295.295	303.31
295.525	304.31
295.756	306.31
295.987	328.31
296.217	336.31
296.448	352.31
296.679	303.31
296.909	301.31
297.14	294.31
297.37	315.31
297.601	318.31
297.831	301.31
298.062	309.31
298.292	285.31
298.523	316.31
298.753	318.31
298.984	303.31
299.214	295.31
299.445	307.31
299.675	309.31
299.905	321.31
300.136	319.31
300.366	307.31
300.597	310.31
300.827	323.31
301.057	332.31
301.288	335.31
301.518	322.31
301.748	305.31
301.979	324.31
302.209	327.31
302.439	324.31
302.669	346.31
302.9	328.31
303.13	316.31
303.36	340.31
303.59	341.31
303.82	342.31
304.051	335.31
304.281	343.31
304.511	342.31
304.741	317.31
304.971	297.31
305.201	340.31
305.431	314.31
305.661	329.31
305.891	333.31
306.121	356.31
306.352	340.31
306.582	341.31
306.812	344.31
307.042	345.31
307.272	353.31
307.502	333.31
307.731	335.31
307.961	327.31
308.191	327.31
308.421	344.31
308.651	349.31
308.881	345.31
309.111	362.31
309.341	341.31
309.571	365.31
309.8	375.31
310.03	389.31
310.26	391.31
310.49	382.31
310.72	404.31
310.949	444.31
311.179	423.31
311.409	385.31
311.639	416.31
311.868	379.31
312.098	405.31
312.328	387.31
312.557	428.31
312.787	429.31
313.017	427.31
313.246	408.31
313.476	391.31
313.706	396.31
313.935	402.31
314.165	414.31
314.394	415.31
314.624	417.31
314.853	420.31
315.083	412.31
315.312	386.31
315.542	348.31
315.771	398.31
316.001	389.31
316.23	395.31
316.46	391.31
316.689	396.31
316.919	405.31
317.148	405.31
317.377	413.31
317.607	406.31
317.836	387.31
318.065	393.31
318.295	392.31
318.524	378.31
318.753	372.31
318.983	368.31
319.212	397.31
319.441	403.31
319.67	405.31
319.9	403.31
320.129	401.31
320.358	397.31
320.587	401.31
320.816	441.31
321.046	424.31
321.275	412.31
321.504	418.31
321.733	425.31
321.962	442.31
322.191	438.31
322.42	438.31
322.649	464.31
322.878	488.31
323.108	516.31
323.337	527.31
323.566	573.31
323.795	601.31
324.024	696.31
324.253	837.31
324.482	1210.31
324.71	1873.31
324.939	2609.31
325.168	2200.31
325.397	1155.31
325.626	769.31
325.855	642.31
326.084	591.31
326.313	568.31
326.542	585.31
326.77	658.31
326.999	755.31
327.228	1083.31
327.457	1651.31
327.686	1938.31
327.914	1287.31
328.143	795.31
328.372	717.31
328.6	672.31
328.829	638.31
329.058	658.31
329.287	676.31
329.515	625.31
329.744	579.31
329.972	583.31
330.201	585.31
330.43	650.31
330.658	636.31
330.887	707.31
331.115	637.31
331.344	569.31
331.572	514.31
331.801	539.31
332.03	499.31
332.258	489.31
332.486	478.31
332.715	458.31
332.943	472.31
333.172	491.31
333.4	458.31
333.629	472.31
333.857	473.31
334.085	516.31
334.314	504.31
334.542	551.31
334.771	551.31
334.999	524.31
335.227	471.31
335.455	466.31
335.684	439.31
335.912	452.31
336.14	464.31
336.369	447.31
336.597	451.31
336.825	447.31
337.053	452.31
337.281	427.31
337.51	435.31
337.738	433.31
337.966	431.31
338.194	459.31
338.422	438.31
338.65	456.31
338.878	451.31
339.106	432.31
339.334	427.31
339.562	416.31
339.79	404.31
340.018	417.31
340.246	432.31
340.474	445.31
340.702	423.31
340.93	413.31
341.158	424.31
341.386	422.31
341.614	433.31
341.842	423.31
342.07	411.31
342.298	401.31
342.526	412.31
342.754	382.31
342.981	392.31
343.209	415.31
343.437	421.31
343.665	409.31
343.893	435.31
344.12	421.31
344.348	428.31
344.576	424.31
344.804	440.31
345.031	440.31
345.259	480.31
345.487	452.31
345.714	431.31
345.942	448.31
346.17	420.31
346.397	427.31
346.625	411.31
346.853	408.31
347.08	407.31
347.308	415.31
347.535	431.31
347.763	419.31
347.99	423.31
348.218	440.31
348.445	431.31
348.673	423.31
348.9	412.31
349.128	409.31
349.355	390.31
349.583	384.31
349.81	404.31
350.037	395.31
350.265	401.31
350.492	402.31
350.72	375.31
350.947	394.31
351.174	426.31
351.402	425.31
351.629	420.31
351.856	426.31
352.083	421.31
352.311	407.31
352.538	425.31
352.765	443.31
352.992	431.31
353.22	415.31
353.447	413.31
353.674	402.31
353.901	411.31
354.128	381.31
354.355	376.31
354.583	387.31
354.81	367.31
355.037	359.31
355.264	369.31
355.491	371.31
355.718	375.31
355.945	376.31
356.172	384.31
356.399	359.31
356.626	362.31
356.853	383.31
357.08	371.31
357.307	356.31
357.534	364.31
357.761	361.31
357.988	363.31
358.215	369.31
358.441	362.31
358.668	367.31
358.895	373.31
359.122	383.31
359.349	389.31
359.576	411.31
359.802	407.31
360.029	447.31
360.256	470.31
360.483	460.31
360.709	404.31
360.936	403.31
361.163	409.31
361.39	399.31
361.616	411.31
361.843	403.31
362.07	395.31
362.296	418.31
362.523	395.31
362.749	408.31
362.976	367.31
363.203	373.31
363.429	384.31
363.656	378.31
363.882	376.31
364.109	364.31
364.335	371.31
364.562	381.31
364.788	383.31
365.015	385.31
365.241	359.31
365.468	369.31
365.694	399.31
365.92	384.31
366.147	372.31
366.373	363.31
366.599	357.31
366.826	375.31
367.052	381.31
367.278	377.31
367.505	379.31
367.731	378.31
367.957	354.31
368.184	376.31
368.41	394.31
368.636	386.31
368.862	393.31
369.089	380.31
369.315	377.31
369.541	375.31
369.767	368.31
369.993	379.31
370.219	377.31
370.445	375.31
370.672	369.31
370.898	365.31
371.124	356.31
371.35	359.31
371.576	327.31
371.802	373.31
372.028	364.31
372.254	374.31
372.48	365.31
372.706	398.31
372.932	369.31
373.158	362.31
373.384	354.31
373.61	378.31
373.835	359.31
374.061	352.31
374.287	342.31
374.513	354.31
374.739	350.31
374.965	373.31
375.191	357.31
375.416	353.31
375.642	352.31
375.868	368.31
376.094	353.31
376.319	351.31
376.545	346.31
376.771	341.31
376.997	355.31
377.222	357.31
377.448	347.31
377.674	350.31
377.899	353.31
378.125	354.31
378.35	346.31
378.576	347.31
378.802	351.31
379.027	341.31
379.253	347.31
379.478	347.31
379.704	353.31
379.929	362.31
380.155	357.31
380.38	357.31
380.606	352.31
380.831	363.31
381.057	378.31
381.282	366.31
381.507	375.31
381.733	357.31
381.958	361.31
382.184	354.31
382.409	369.31
382.634	361.31
382.86	360.31
383.085	350.31
383.31	368.31
383.535	364.31
383.761	360.31
383.986	361.31
384.211	364.31
384.436	353.31
384.662	361.31
384.887	367.31
385.112	355.31
385.337	351.31
385.562	371.31
385.787	357.31
386.013	361.31
386.238	371.31
386.463	381.31
386.688	387.31
386.913	373.31
387.138	364.31
387.363	375.31
387.588	363.31
387.813	373.31
388.038	371.31
388.263	379.31
388.488	393.31
388.713	373.31
388.938	377.31
389.163	377.31
389.387	383.31
389.612	353.31
389.837	360.31
390.062	359.31
390.287	356.31
390.512	355.31
390.736	353.31
390.961	385.31
391.186	373.31
391.411	364.31
391.636	365.31
391.86	389.31
392.085	377.31
392.31	367.31
392.534	380.31
392.759	385.31
392.984	383.31
393.208	357.31
393.433	372.31
393.658	364.31
393.882	360.31
394.107	379.31
394.331	378.31
394.556	386.31
394.78	361.31
395.005	371.31
395.229	379.31
395.454	371.31
395.678	361.31
395.903	393.31
396.127	411.31
396.352	417.31
396.576	387.31
396.801	375.31
397.025	379.31
397.249	392.31
397.474	388.31
397.698	379.31
397.922	405.31
398.147	403.31
398.371	407.31
398.595	420.31
398.82	396.31
399.044	397.31
399.268	389.31
399.492	420.31
399.717	452.31
399.941	465.31
400.165	491.31
400.389	508.31
400.613	447.31
400.837	417.31
401.062	415.31
401.286	437.31
401.51	424.31
401.734	410.31
401.958	417.31
402.182	400.31
402.406	426.31
402.63	420.31
402.854	445.31
403.078	413.31
403.302	422.31
403.526	425.31
403.75	427.31
403.974	433.31
404.198	416.31
404.422	435.31
404.645	432.31
404.869	424.31
405.093	436.31
405.317	499.31
405.541	527.31
405.765	498.31
405.988	458.31
406.212	457.31
406.436	485.31
406.66	486.31
406.883	463.31
407.107	488.31
407.331	525.31
407.555	567.31
407.778	567.31
408.002	527.31
408.226	461.31
408.449	472.31
408.673	464.31
408.896	509.31
409.12	532.31
409.344	503.31
409.567	448.31
409.791	435.31
410.014	426.31
410.238	421.31
410.461	426.31
410.685	450.31
410.908	467.31
411.132	481.31
411.355	513.31
411.578	494.31
411.802	449.31
412.025	441.31
412.249	436.31
412.472	453.31
412.695	491.31
412.919	470.31
413.142	435.31
413.365	410.31
413.589	411.31
413.812	411.31
414.035	411.31
414.258	416.31
414.482	403.31
414.705	411.31
414.928	393.31
415.151	391.31
415.374	382.31
415.597	389.31
415.821	391.31
416.044	405.31
416.267	405.31
416.49	417.31
416.713	388.31
416.936	398.31
417.159	421.31
417.382	393.31
417.605	405.31
417.828	419.31
418.051	435.31
418.274	400.31
418.497	410.31
418.72	389.31
418.943	401.31
419.166	412.31
419.389	445.31
419.611	420.31
419.834	431.31
420.057	428.31
420.28	427.31
420.503	438.31
420.726	419.31
420.948	475.31
421.171	478.31
421.394	511.31
421.617	436.31
421.839	405.31
422.062	419.31
422.285	457.31
422.507	486.31
422.73	551.31
422.953	553.31
423.175	476.31
423.398	431.31
423.621	449.31
423.843	463.31
424.066	465.31
424.288	478.31
424.511	479.31
424.733	530.31
424.956	597.31
425.178	610.31
425.401	585.31
425.623	617.31
425.846	512.31
426.068	495.31
426.291	472.31
426.513	467.31
426.735	489.31
426.958	520.31
427.18	608.31
427.402	707.31
427.625	773.31
427.847	716.31
428.069	605.31
428.292	528.31
428.514	498.31
428.736	461.31
428.958	436.31
429.181	428.31
429.403	437.31
429.625	462.31
429.847	483.31
430.069	527.31
430.292	539.31
430.514	468.31
430.736	423.31
430.958	425.31
431.18	426.31
431.402	407.31
431.624	391.31
431.846	390.31
432.068	382.31
432.29	393.31
432.512	404.31
432.734	426.31
432.956	414.31
433.178	395.31
433.4	446.31
433.622	419.31
433.844	387.31
434.066	395.31
434.287	400.31
434.509	396.31
434.731	412.31
434.953	433.31
435.175	426.31
435.397	469.31
435.618	468.31
435.84	521.31
436.062	617.31
436.284	659.31
436.505	542.31
436.727	515.31
436.949	455.31
437.17	431.31
437.392	448.31
437.614	476.31
437.835	498.31
438.057	601.31
438.278	654.31
438.5	651.31
438.721	721.31
438.943	681.31
439.165	567.31
439.386	496.31
439.608	482.31
439.829	483.31
440.05	515.31
440.272	596.31
440.493	545.31
440.715	483.31
440.936	451.31
441.158	458.31
441.379	460.31
441.6	454.31
441.822	481.31
442.043	512.31
442.264	593.31
442.486	633.31
442.707	517.31
442.928	483.31
443.149	496.31
443.371	544.31
443.592	563.31
443.813	659.31
444.034	674.31
444.255	561.31
444.476	511.31
444.698	464.31
444.919	477.31
445.14	583.31
445.361	529.31
445.582	516.31
445.803	612.31
446.024	687.31
446.245	695.31
446.466	630.31
446.687	541.31
446.908	477.31
447.129	457.31
447.35	447.31
447.571	444.31
447.792	435.31
448.013	435.31
448.234	471.31
448.455	529.31
448.675	608.31
448.896	703.31
449.117	597.31
449.338	583.31
449.559	662.31
449.779	756.31
450	604.31
450.221	501.31
450.442	480.31
450.662	447.31
450.883	457.31
451.104	474.31
451.324	427.31
451.545	437.31
451.766	416.31
451.986	396.31
452.207	415.31
452.428	398.31
452.648	400.31
452.869	401.31
453.089	429.31
453.31	435.31
453.53	399.31
453.751	400.31
453.971	404.31
454.192	409.31
454.412	400.31
454.633	405.31
454.853	387.31
455.073	398.31
455.294	433.31
455.514	478.31
455.734	451.31
455.955	403.31
456.175	385.31
456.395	359.31
456.616	363.31
456.836	363.31
457.056	365.31
457.276	369.31
457.497	367.31
457.717	370.31
457.937	364.31
458.157	378.31
458.377	404.31
458.598	402.31
458.818	467.31
459.038	574.31
459.258	556.31
459.478	461.31
459.698	403.31
459.918	400.31
460.138	408.31
460.358	391.31
460.578	389.31
460.798	408.31
461.018	390.31
461.238	396.31
461.458	397.31
461.678	394.31
461.898	388.31
462.118	401.31
462.338	398.31
462.558	410.31
462.777	412.31
462.997	427.31
463.217	403.31
463.437	414.31
463.657	423.31
463.876	400.31
464.096	385.31
464.316	407.31
464.536	421.31
464.755	414.31
464.975	434.31
465.195	502.31
465.414	563.31
465.634	481.31
465.854	432.31
466.073	405.31
466.293	387.31
466.512	387.31
466.732	405.31
466.951	397.31
467.171	391.31
467.391	398.31
467.61	403.31
467.829	383.31
468.049	416.31
468.268	415.31
468.488	407.31
468.707	372.31
468.927	369.31
469.146	361.31
469.365	395.31
469.585	401.31
469.804	395.31
470.023	409.31
470.243	411.31
470.462	406.31
470.681	418.31
470.901	401.31
471.12	389.31
471.339	395.31
471.558	411.31
471.777	401.31
471.997	381.31
472.216	398.31
472.435	452.31
472.654	417.31
472.873	411.31
473.092	407.31
473.311	398.31
473.53	402.31
473.749	427.31
473.968	473.31
474.187	553.31
474.406	595.31
474.625	485.31
474.844	423.31
475.063	419.31
475.282	414.31
475.501	417.31
475.72	428.31
475.939	415.31
476.158	427.31
476.377	430.31
476.596	424.31
476.814	447.31
477.033	417.31
477.252	434.31
477.471	434.31
477.69	409.31
477.908	409.31
478.127	428.31
478.346	443.31
478.564	444.31
478.783	433.31
479.002	434.31
479.22	425.31
479.439	449.31
479.658	464.31
479.876	485.31
480.095	480.31
480.313	492.31
480.532	507.31
480.751	502.31
480.969	527.31
481.188	549.31
481.406	595.31
481.624	515.31
481.843	486.31
482.061	499.31
482.28	488.31
482.498	460.31
482.717	441.31
482.935	459.31
483.153	462.31
483.372	458.31
483.59	462.31
483.808	468.31
484.027	461.31
484.245	447.31
484.463	461.31
484.681	475.31
484.9	470.31
485.118	459.31
485.336	463.31
485.554	484.31
485.772	504.31
485.99	475.31
486.209	482.31
486.427	475.31
486.645	501.31
486.863	514.31
487.081	519.31
487.299	508.31
487.517	509.31
487.735	517.31
487.953	515.31
488.171	502.31
488.389	519.31
488.607	507.31
488.825	509.31
489.043	498.31
489.261	498.31
489.479	506.31
489.696	505.31
489.914	512.31
490.132	507.31
490.35	521.31
490.568	519.31
490.786	539.31
491.003	549.31
491.221	566.31
491.439	561.31
491.657	576.31
491.874	578.31
492.092	583.31
492.31	579.31
492.527	586.31
492.745	575.31
492.963	564.31
493.18	591.31
493.398	581.31
493.615	586.31
493.833	599.31
494.05	580.31
494.268	612.31
494.485	601.31
494.703	593.31
494.92	614.31
495.138	588.31
495.355	614.31
495.573	610.31
495.79	603.31
496.008	614.31
496.225	607.31
496.442	628.31
496.66	616.31
496.877	590.31
497.094	615.31
497.312	601.31
497.529	605.31
497.746	617.31
497.963	637.31
498.181	661.31
498.398	639.31
498.615	628.31
498.832	629.31
499.049	633.31
499.267	639.31
499.484	636.31
499.701	665.31
499.918	696.31
500.135	680.31
500.352	723.31
500.569	748.31
500.786	723.31
501.003	729.31
501.22	731.31
501.437	739.31
501.654	708.31
501.871	718.31
