Data from 1981.PennyLincolnUp.Lamp.En5.5.200Scan.071819.P1_HRD10591_16-42-45-961.txt Node
Date: Thu Jul 18 16:42:45 EDT 2019
User: cochatt
Spectrometer: HR+D1059
Trigger mode: 1
Integration Time (sec): 1.000000E-1
Scans to average: 1
Electric dark correction enabled: true
Nonlinearity correction enabled: false
Boxcar width: 0
XAxis mode: Wavelengths
Number of Pixels in Spectrum: 2048
>>>>>Begin Spectral Data<<<<<
223.165	-0.56
223.4	-0.56
223.635	-0.56
223.869	-20.56
224.104	-20.56
224.338	-10.56
224.573	-18.56
224.808	-23.56
225.042	5.44
225.277	-13.56
225.511	-1.56
225.746	3.44
225.98	5.44
226.215	14.44
226.449	12.44
226.683	5.44
226.918	30.44
227.152	32.44
227.387	25.44
227.621	31.44
227.856	40.44
228.09	49.44
228.324	58.44
228.559	49.44
228.793	62.44
229.027	111.44
229.262	113.44
229.496	118.44
229.73	140.44
229.964	146.44
230.199	141.44
230.433	118.44
230.667	119.44
230.901	113.44
231.136	112.44
231.37	99.44
231.604	109.44
231.838	103.44
232.072	102.44
232.306	99.44
232.541	125.44
232.775	114.44
233.009	115.44
233.243	115.44
233.477	118.44
233.711	121.44
233.945	123.44
234.179	101.44
234.413	101.44
234.647	99.44
234.881	115.44
235.115	123.44
235.349	115.44
235.583	126.44
235.817	132.44
236.051	135.44
236.285	135.44
236.519	130.44
236.753	137.44
236.987	153.44
237.221	186.44
237.455	233.44
237.689	205.44
237.922	138.44
238.156	144.44
238.39	144.44
238.624	127.44
238.858	108.44
239.091	129.44
239.325	125.44
239.559	130.44
239.793	135.44
240.027	128.44
240.26	143.44
240.494	176.44
240.728	154.44
240.961	153.44
241.195	147.44
241.429	135.44
241.662	139.44
241.896	135.44
242.13	142.44
242.363	130.44
242.597	144.44
242.83	137.44
243.064	141.44
243.298	142.44
243.531	130.44
243.765	125.44
243.998	133.44
244.232	141.44
244.465	138.44
244.699	125.44
244.932	159.44
245.166	144.44
245.399	151.44
245.633	158.44
245.866	161.44
246.099	153.44
246.333	151.44
246.566	142.44
246.8	152.44
247.033	162.44
247.266	156.44
247.5	151.44
247.733	175.44
247.966	186.44
248.2	172.44
248.433	183.44
248.666	189.44
248.899	179.44
249.133	205.44
249.366	203.44
249.599	207.44
249.832	189.44
250.066	168.44
250.299	194.44
250.532	204.44
250.765	207.44
250.998	217.44
251.231	248.44
251.465	222.44
251.698	212.44
251.931	213.44
252.164	209.44
252.397	225.44
252.63	229.44
252.863	215.44
253.096	227.44
253.329	237.44
253.562	253.44
253.795	241.44
254.028	213.44
254.261	236.44
254.494	256.44
254.727	261.44
254.96	310.44
255.193	290.44
255.426	267.44
255.659	236.44
255.892	249.44
256.124	258.44
256.357	252.44
256.59	229.44
256.823	231.44
257.056	215.44
257.289	236.44
257.521	231.44
257.754	221.44
257.987	226.44
258.22	226.44
258.452	219.44
258.685	217.44
258.918	234.44
259.151	230.44
259.383	225.44
259.616	248.44
259.849	225.44
260.081	246.44
260.314	270.44
260.547	273.44
260.779	265.44
261.012	255.44
261.244	240.44
261.477	248.44
261.71	237.44
261.942	251.44
262.175	237.44
262.407	259.44
262.64	233.44
262.872	221.44
263.105	223.44
263.337	229.44
263.57	226.44
263.802	231.44
264.035	222.44
264.267	236.44
264.499	211.44
264.732	226.44
264.964	230.44
265.197	210.44
265.429	242.44
265.661	210.44
265.894	224.44
266.126	213.44
266.358	259.44
266.591	214.44
266.823	235.44
267.055	225.44
267.287	245.44
267.52	233.44
267.752	232.44
267.984	241.44
268.216	236.44
268.448	247.44
268.681	250.44
268.913	266.44
269.145	271.44
269.377	301.44
269.609	286.44
269.841	271.44
270.073	277.44
270.306	293.44
270.538	356.44
270.77	330.44
271.002	331.44
271.234	305.44
271.466	308.44
271.698	326.44
271.93	337.44
272.162	337.44
272.394	341.44
272.626	336.44
272.858	316.44
273.09	311.44
273.322	281.44
273.553	294.44
273.785	272.44
274.017	278.44
274.249	270.44
274.481	284.44
274.713	293.44
274.945	284.44
275.176	272.44
275.408	291.44
275.64	285.44
275.872	295.44
276.104	272.44
276.335	275.44
276.567	284.44
276.799	312.44
277.031	339.44
277.262	339.44
277.494	334.44
277.726	329.44
277.957	317.44
278.189	289.44
278.421	307.44
278.652	270.44
278.884	271.44
279.115	293.44
279.347	283.44
279.579	281.44
279.81	282.44
280.042	265.44
280.273	289.44
280.505	308.44
280.736	269.44
280.968	270.44
281.199	263.44
281.431	276.44
281.662	284.44
281.894	291.44
282.125	289.44
282.356	311.44
282.588	318.44
282.819	324.44
283.051	283.44
283.282	273.44
283.513	286.44
283.745	278.44
283.976	305.44
284.207	281.44
284.439	285.44
284.67	289.44
284.901	283.44
285.132	261.44
285.364	258.44
285.595	295.44
285.826	273.44
286.057	275.44
286.288	294.44
286.52	296.44
286.751	291.44
286.982	284.44
287.213	267.44
287.444	295.44
287.675	302.44
287.906	289.44
288.138	295.44
288.369	315.44
288.6	316.44
288.831	306.44
289.062	299.44
289.293	288.44
289.524	317.44
289.755	286.44
289.986	293.44
290.217	290.44
290.448	289.44
290.679	301.44
290.91	292.44
291.141	310.44
291.371	290.44
291.602	310.44
291.833	286.44
292.064	275.44
292.295	284.44
292.526	290.44
292.757	287.44
292.987	296.44
293.218	283.44
293.449	300.44
293.68	285.44
293.91	299.44
294.141	312.44
294.372	289.44
294.603	294.44
294.833	289.44
295.064	298.44
295.295	290.44
295.525	271.44
295.756	309.44
295.987	302.44
296.217	349.44
296.448	336.44
296.679	314.44
296.909	298.44
297.14	303.44
297.37	295.44
297.601	309.44
297.831	282.44
298.062	308.44
298.292	305.44
298.523	294.44
298.753	315.44
298.984	309.44
299.214	299.44
299.445	300.44
299.675	309.44
299.905	311.44
300.136	302.44
300.366	301.44
300.597	319.44
300.827	324.44
301.057	317.44
301.288	328.44
301.518	334.44
301.748	335.44
301.979	329.44
302.209	324.44
302.439	325.44
302.669	324.44
302.9	332.44
303.13	324.44
303.36	329.44
303.59	312.44
303.82	334.44
304.051	325.44
304.281	335.44
304.511	325.44
304.741	326.44
304.971	319.44
305.201	310.44
305.431	340.44
305.661	338.44
305.891	311.44
306.121	325.44
306.352	321.44
306.582	353.44
306.812	351.44
307.042	325.44
307.272	321.44
307.502	333.44
307.731	354.44
307.961	343.44
308.191	349.44
308.421	344.44
308.651	334.44
308.881	337.44
309.111	353.44
309.341	353.44
309.571	364.44
309.8	374.44
310.03	389.44
310.26	367.44
310.49	391.44
310.72	406.44
310.949	421.44
311.179	414.44
311.409	396.44
311.639	397.44
311.868	391.44
312.098	390.44
312.328	405.44
312.557	404.44
312.787	428.44
313.017	417.44
313.246	407.44
313.476	417.44
313.706	393.44
313.935	402.44
314.165	423.44
314.394	411.44
314.624	407.44
314.853	415.44
315.083	422.44
315.312	400.44
315.542	389.44
315.771	385.44
316.001	384.44
316.23	366.44
316.46	389.44
316.689	389.44
316.919	395.44
317.148	401.44
317.377	384.44
317.607	388.44
317.836	397.44
318.065	377.44
318.295	385.44
318.524	363.44
318.753	395.44
318.983	375.44
319.212	370.44
319.441	397.44
319.67	386.44
319.9	384.44
320.129	402.44
320.358	406.44
320.587	404.44
320.816	400.44
321.046	425.44
321.275	422.44
321.504	415.44
321.733	412.44
321.962	444.44
322.191	439.44
322.42	451.44
322.649	469.44
322.878	477.44
323.108	490.44
323.337	523.44
323.566	547.44
323.795	580.44
324.024	691.44
324.253	839.44
324.482	1261.44
324.71	1839.44
324.939	2549.44
325.168	2167.44
325.397	1143.44
325.626	769.44
325.855	634.44
326.084	589.44
326.313	561.44
326.542	563.44
326.77	623.44
326.999	771.44
327.228	1105.44
327.457	1586.44
327.686	1908.44
327.914	1247.44
328.143	833.44
328.372	723.44
328.6	659.44
328.829	638.44
329.058	672.44
329.287	659.44
329.515	612.44
329.744	572.44
329.972	571.44
330.201	587.44
330.43	636.44
330.658	656.44
330.887	655.44
331.115	652.44
331.344	573.44
331.572	549.44
331.801	516.44
332.03	530.44
332.258	504.44
332.486	483.44
332.715	457.44
332.943	459.44
333.172	450.44
333.4	471.44
333.629	462.44
333.857	453.44
334.085	483.44
334.314	499.44
334.542	548.44
334.771	584.44
334.999	487.44
335.227	467.44
335.455	484.44
335.684	439.44
335.912	425.44
336.14	419.44
336.369	436.44
336.597	455.44
336.825	423.44
337.053	429.44
337.281	430.44
337.51	444.44
337.738	448.44
337.966	430.44
338.194	453.44
338.422	430.44
338.65	409.44
338.878	417.44
339.106	415.44
339.334	423.44
339.562	413.44
339.79	438.44
340.018	418.44
340.246	442.44
340.474	417.44
340.702	450.44
340.93	450.44
341.158	437.44
341.386	428.44
341.614	420.44
341.842	407.44
342.07	444.44
342.298	421.44
342.526	402.44
342.754	416.44
342.981	392.44
343.209	415.44
343.437	414.44
343.665	411.44
343.893	423.44
344.12	410.44
344.348	413.44
344.576	418.44
344.804	435.44
345.031	441.44
345.259	444.44
345.487	430.44
345.714	441.44
345.942	405.44
346.17	425.44
346.397	415.44
346.625	413.44
346.853	413.44
347.08	398.44
347.308	419.44
347.535	426.44
347.763	423.44
347.99	406.44
348.218	403.44
348.445	421.44
348.673	438.44
348.9	415.44
349.128	407.44
349.355	399.44
349.583	412.44
349.81	385.44
350.037	375.44
350.265	394.44
350.492	411.44
350.72	393.44
350.947	403.44
351.174	415.44
351.402	417.44
351.629	394.44
351.856	422.44
352.083	411.44
352.311	428.44
352.538	421.44
352.765	433.44
352.992	407.44
353.22	413.44
353.447	404.44
353.674	389.44
353.901	393.44
354.128	381.44
354.355	369.44
354.583	395.44
354.81	367.44
355.037	383.44
355.264	362.44
355.491	375.44
355.718	370.44
355.945	364.44
356.172	371.44
356.399	357.44
356.626	363.44
356.853	357.44
357.08	367.44
357.307	371.44
357.534	377.44
357.761	372.44
357.988	381.44
358.215	355.44
358.441	367.44
358.668	375.44
358.895	385.44
359.122	375.44
359.349	375.44
359.576	398.44
359.802	444.44
360.029	469.44
360.256	458.44
360.483	460.44
360.709	408.44
360.936	399.44
361.163	409.44
361.39	409.44
361.616	416.44
361.843	394.44
362.07	393.44
362.296	419.44
362.523	395.44
362.749	393.44
362.976	395.44
363.203	391.44
363.429	397.44
363.656	374.44
363.882	369.44
364.109	367.44
364.335	364.44
364.562	365.44
364.788	383.44
365.015	383.44
365.241	391.44
365.468	398.44
365.694	386.44
365.92	399.44
366.147	381.44
366.373	368.44
366.599	366.44
366.826	357.44
367.052	379.44
367.278	371.44
367.505	393.44
367.731	364.44
367.957	360.44
368.184	366.44
368.41	394.44
368.636	393.44
368.862	391.44
369.089	365.44
369.315	385.44
369.541	371.44
369.767	359.44
369.993	355.44
370.219	351.44
370.445	363.44
370.672	364.44
370.898	367.44
371.124	361.44
371.35	358.44
371.576	381.44
371.802	349.44
372.028	363.44
372.254	344.44
372.48	370.44
372.706	368.44
372.932	353.44
373.158	360.44
373.384	375.44
373.61	369.44
373.835	371.44
374.061	357.44
374.287	350.44
374.513	373.44
374.739	369.44
374.965	360.44
375.191	375.44
375.416	348.44
375.642	355.44
375.868	374.44
376.094	346.44
376.319	335.44
376.545	357.44
376.771	331.44
376.997	349.44
377.222	353.44
377.448	362.44
377.674	351.44
377.899	347.44
378.125	326.44
378.35	355.44
378.576	367.44
378.802	342.44
379.027	354.44
379.253	345.44
379.478	359.44
379.704	357.44
379.929	353.44
380.155	343.44
380.38	354.44
380.606	343.44
380.831	356.44
381.057	352.44
381.282	359.44
381.507	357.44
381.733	353.44
381.958	360.44
382.184	351.44
382.409	361.44
382.634	369.44
382.86	371.44
383.085	355.44
383.31	375.44
383.535	360.44
383.761	375.44
383.986	367.44
384.211	354.44
384.436	378.44
384.662	371.44
384.887	355.44
385.112	350.44
385.337	375.44
385.562	378.44
385.787	377.44
386.013	385.44
386.238	373.44
386.463	384.44
386.688	395.44
386.913	360.44
387.138	363.44
387.363	369.44
387.588	360.44
387.813	361.44
388.038	380.44
388.263	371.44
388.488	369.44
388.713	345.44
388.938	371.44
389.163	369.44
389.387	357.44
389.612	358.44
389.837	361.44
390.062	351.44
390.287	353.44
390.512	391.44
390.736	375.44
390.961	363.44
391.186	375.44
391.411	385.44
391.636	338.44
391.86	367.44
392.085	381.44
392.31	379.44
392.534	378.44
392.759	378.44
392.984	342.44
393.208	362.44
393.433	377.44
393.658	353.44
393.882	350.44
394.107	355.44
394.331	360.44
394.556	379.44
394.78	372.44
395.005	349.44
395.229	377.44
395.454	372.44
395.678	389.44
395.903	385.44
396.127	400.44
396.352	399.44
396.576	381.44
396.801	369.44
397.025	380.44
397.249	386.44
397.474	372.44
397.698	387.44
397.922	396.44
398.147	412.44
398.371	420.44
398.595	404.44
398.82	398.44
399.044	398.44
399.268	430.44
399.492	435.44
399.717	451.44
399.941	465.44
400.165	471.44
400.389	485.44
400.613	446.44
400.837	427.44
401.062	435.44
401.286	421.44
401.51	422.44
401.734	399.44
401.958	429.44
402.182	434.44
402.406	420.44
402.63	391.44
402.854	397.44
403.078	412.44
403.302	407.44
403.526	425.44
403.75	415.44
403.974	413.44
404.198	433.44
404.422	412.44
404.645	417.44
404.869	437.44
405.093	453.44
405.317	517.44
405.541	531.44
405.765	471.44
405.988	461.44
406.212	485.44
406.436	477.44
406.66	477.44
406.883	459.44
407.107	480.44
407.331	527.44
407.555	588.44
407.778	580.44
408.002	522.44
408.226	485.44
408.449	466.44
408.673	464.44
408.896	502.44
409.12	537.44
409.344	482.44
409.567	445.44
409.791	428.44
410.014	417.44
410.238	434.44
410.461	409.44
410.685	411.44
410.908	445.44
411.132	454.44
411.355	480.44
411.578	476.44
411.802	421.44
412.025	420.44
412.249	444.44
412.472	469.44
412.695	504.44
412.919	491.44
413.142	429.44
413.365	395.44
413.589	422.44
413.812	409.44
414.035	394.44
414.258	397.44
414.482	387.44
414.705	390.44
414.928	398.44
415.151	398.44
415.374	408.44
415.597	391.44
415.821	401.44
416.044	395.44
416.267	415.44
416.49	407.44
416.713	395.44
416.936	389.44
417.159	389.44
417.382	425.44
417.605	413.44
417.828	420.44
418.051	421.44
418.274	416.44
418.497	410.44
418.72	407.44
418.943	406.44
419.166	409.44
419.389	433.44
419.611	405.44
419.834	413.44
420.057	424.44
420.28	421.44
420.503	423.44
420.726	430.44
420.948	442.44
421.171	486.44
421.394	492.44
421.617	442.44
421.839	424.44
422.062	430.44
422.285	426.44
422.507	504.44
422.73	545.44
422.953	543.44
423.175	487.44
423.398	451.44
423.621	450.44
423.843	481.44
424.066	461.44
424.288	468.44
424.511	487.44
424.733	527.44
424.956	601.44
425.178	593.44
425.401	579.44
425.623	599.44
425.846	513.44
426.068	479.44
426.291	474.44
426.513	467.44
426.735	493.44
426.958	545.44
427.18	634.44
427.402	709.44
427.625	784.44
427.847	695.44
428.069	596.44
428.292	552.44
428.514	489.44
428.736	444.44
428.958	454.44
429.181	414.44
429.403	440.44
429.625	438.44
429.847	483.44
430.069	529.44
430.292	519.44
430.514	448.44
430.736	445.44
430.958	425.44
431.18	417.44
431.402	414.44
431.624	400.44
431.846	374.44
432.068	410.44
432.29	386.44
432.512	396.44
432.734	421.44
432.956	412.44
433.178	414.44
433.4	426.44
433.622	398.44
433.844	407.44
434.066	407.44
434.287	408.44
434.509	419.44
434.731	382.44
434.953	422.44
435.175	426.44
435.397	454.44
435.618	459.44
435.84	481.44
436.062	573.44
436.284	650.44
436.505	554.44
436.727	491.44
436.949	445.44
437.17	430.44
437.392	444.44
437.614	443.44
437.835	502.44
438.057	597.44
438.278	673.44
438.5	659.44
438.721	735.44
438.943	695.44
439.165	553.44
439.386	497.44
439.608	511.44
439.829	495.44
440.05	519.44
440.272	571.44
440.493	535.44
440.715	470.44
440.936	433.44
441.158	445.44
441.379	426.44
441.6	445.44
441.822	458.44
442.043	516.44
442.264	578.44
442.486	612.44
442.707	513.44
442.928	486.44
443.149	494.44
443.371	514.44
443.592	553.44
443.813	618.44
444.034	669.44
444.255	569.44
444.476	505.44
444.698	477.44
444.919	462.44
445.14	524.44
445.361	491.44
445.582	517.44
445.803	579.44
446.024	695.44
446.245	709.44
446.466	639.44
446.687	511.44
446.908	475.44
447.129	466.44
447.35	461.44
447.571	444.44
447.792	431.44
448.013	466.44
448.234	469.44
448.455	534.44
448.675	608.44
448.896	711.44
449.117	614.44
449.338	548.44
449.559	679.44
449.779	757.44
450	619.44
450.221	515.44
450.442	460.44
450.662	433.44
450.883	451.44
451.104	466.44
451.324	473.44
451.545	424.44
451.766	422.44
451.986	394.44
452.207	387.44
452.428	386.44
452.648	411.44
452.869	401.44
453.089	414.44
453.31	397.44
453.53	392.44
453.751	389.44
453.971	381.44
454.192	413.44
454.412	411.44
454.633	399.44
454.853	381.44
455.073	364.44
455.294	405.44
455.514	490.44
455.734	458.44
455.955	409.44
456.175	380.44
456.395	373.44
456.616	377.44
456.836	369.44
457.056	364.44
457.276	334.44
457.497	370.44
457.717	359.44
457.937	383.44
458.157	380.44
458.377	391.44
458.598	410.44
458.818	483.44
459.038	529.44
459.258	546.44
459.478	458.44
459.698	403.44
459.918	411.44
460.138	382.44
460.358	378.44
460.578	376.44
460.798	399.44
461.018	408.44
461.238	396.44
461.458	380.44
461.678	378.44
461.898	397.44
462.118	387.44
462.338	402.44
462.558	399.44
462.777	407.44
462.997	387.44
463.217	402.44
463.437	423.44
463.657	405.44
463.876	395.44
464.096	406.44
464.316	403.44
464.536	406.44
464.755	425.44
464.975	426.44
465.195	470.44
465.414	564.44
465.634	481.44
465.854	444.44
466.073	417.44
466.293	393.44
466.512	384.44
466.732	399.44
466.951	381.44
467.171	373.44
467.391	393.44
467.61	397.44
467.829	392.44
468.049	411.44
468.268	414.44
468.488	374.44
468.707	360.44
468.927	389.44
469.146	367.44
469.365	385.44
469.585	397.44
469.804	370.44
470.023	391.44
470.243	391.44
470.462	413.44
470.681	426.44
470.901	413.44
471.12	383.44
471.339	386.44
471.558	413.44
471.777	402.44
471.997	383.44
472.216	413.44
472.435	440.44
472.654	424.44
472.873	409.44
473.092	393.44
473.311	394.44
473.53	410.44
473.749	407.44
473.968	464.44
474.187	569.44
474.406	562.44
474.625	455.44
474.844	428.44
475.063	417.44
475.282	415.44
475.501	403.44
475.72	417.44
475.939	404.44
476.158	413.44
476.377	416.44
476.596	385.44
476.814	431.44
477.033	422.44
477.252	408.44
477.471	435.44
477.69	418.44
477.908	439.44
478.127	420.44
478.346	430.44
478.564	425.44
478.783	434.44
479.002	426.44
479.22	433.44
479.439	449.44
479.658	487.44
479.876	478.44
480.095	500.44
480.313	500.44
480.532	483.44
480.751	468.44
480.969	524.44
481.188	549.44
481.406	591.44
481.624	541.44
481.843	488.44
482.061	470.44
482.28	485.44
482.498	473.44
482.717	469.44
482.935	464.44
483.153	461.44
483.372	478.44
483.59	465.44
483.808	482.44
484.027	444.44
484.245	459.44
484.463	487.44
484.681	466.44
484.9	468.44
485.118	465.44
485.336	481.44
485.554	459.44
485.772	469.44
485.99	515.44
486.209	471.44
486.427	465.44
486.645	492.44
486.863	527.44
487.081	512.44
487.299	498.44
487.517	485.44
487.735	482.44
487.953	473.44
488.171	519.44
488.389	484.44
488.607	505.44
488.825	478.44
489.043	486.44
489.261	513.44
489.479	524.44
489.696	515.44
489.914	499.44
490.132	523.44
490.35	545.44
490.568	534.44
490.786	526.44
491.003	535.44
491.221	568.44
491.439	557.44
491.657	565.44
491.874	580.44
492.092	574.44
492.31	581.44
492.527	562.44
492.745	565.44
492.963	571.44
493.18	551.44
493.398	582.44
493.615	587.44
493.833	579.44
494.05	597.44
494.268	597.44
494.485	583.44
494.703	589.44
494.92	601.44
495.138	604.44
495.355	577.44
495.573	597.44
495.79	590.44
496.008	603.44
496.225	601.44
496.442	593.44
496.66	593.44
496.877	580.44
497.094	587.44
497.312	589.44
497.529	620.44
497.746	610.44
497.963	648.44
498.181	613.44
498.398	642.44
498.615	657.44
498.832	632.44
499.049	649.44
499.267	672.44
499.484	656.44
499.701	675.44
499.918	700.44
500.135	715.44
500.352	727.44
500.569	742.44
500.786	736.44
501.003	732.44
501.22	714.44
501.437	738.44
501.654	707.44
501.871	742.44
