Data from 1981.PennyLincolnUp.Lamp.En5.5.200Scan.071819.P1_HRD10591_16-40-31-958.txt Node
Date: Thu Jul 18 16:40:31 EDT 2019
User: cochatt
Spectrometer: HR+D1059
Trigger mode: 1
Integration Time (sec): 1.000000E-1
Scans to average: 1
Electric dark correction enabled: true
Nonlinearity correction enabled: false
Boxcar width: 0
XAxis mode: Wavelengths
Number of Pixels in Spectrum: 2048
>>>>>Begin Spectral Data<<<<<
223.165	-20.62
223.4	-20.62
223.635	-20.62
223.869	-10.62
224.104	-9.62
224.338	-15.62
224.573	-18.62
224.808	-17.62
225.042	-15.62
225.277	-8.62
225.511	-0.62
225.746	22.38
225.98	9.38
226.215	5.38
226.449	9.38
226.683	18.38
226.918	21.38
227.152	31.38
227.387	42.38
227.621	26.38
227.856	31.38
228.09	54.38
228.324	49.38
228.559	54.38
228.793	62.38
229.027	82.38
229.262	102.38
229.496	98.38
229.73	114.38
229.964	136.38
230.199	112.38
230.433	100.38
230.667	97.38
230.901	100.38
231.136	97.38
231.37	95.38
231.604	107.38
231.838	93.38
232.072	112.38
232.306	86.38
232.541	92.38
232.775	115.38
233.009	105.38
233.243	109.38
233.477	96.38
233.711	98.38
233.945	111.38
234.179	101.38
234.413	96.38
234.647	117.38
234.881	106.38
235.115	106.38
235.349	100.38
235.583	99.38
235.817	98.38
236.051	118.38
236.285	112.38
236.519	115.38
236.753	96.38
236.987	123.38
237.221	139.38
237.455	176.38
237.689	146.38
237.922	125.38
238.156	127.38
238.39	118.38
238.624	119.38
238.858	112.38
239.091	96.38
239.325	119.38
239.559	100.38
239.793	112.38
240.027	135.38
240.26	123.38
240.494	143.38
240.728	122.38
240.961	140.38
241.195	126.38
241.429	113.38
241.662	118.38
241.896	108.38
242.13	128.38
242.363	118.38
242.597	107.38
242.83	116.38
243.064	115.38
243.298	120.38
243.531	115.38
243.765	113.38
243.998	119.38
244.232	119.38
244.465	123.38
244.699	120.38
244.932	136.38
245.166	135.38
245.399	130.38
245.633	118.38
245.866	146.38
246.099	117.38
246.333	133.38
246.566	130.38
246.8	160.38
247.033	138.38
247.266	142.38
247.5	130.38
247.733	138.38
247.966	154.38
248.2	144.38
248.433	156.38
248.666	161.38
248.899	158.38
249.133	168.38
249.366	166.38
249.599	180.38
249.832	169.38
250.066	136.38
250.299	156.38
250.532	161.38
250.765	174.38
250.998	190.38
251.231	190.38
251.465	195.38
251.698	177.38
251.931	185.38
252.164	179.38
252.397	161.38
252.63	158.38
252.863	171.38
253.096	184.38
253.329	185.38
253.562	199.38
253.795	195.38
254.028	169.38
254.261	177.38
254.494	193.38
254.727	208.38
254.96	231.38
255.193	228.38
255.426	215.38
255.659	204.38
255.892	211.38
256.124	180.38
256.357	191.38
256.59	196.38
256.823	183.38
257.056	186.38
257.289	192.38
257.521	184.38
257.754	209.38
257.987	201.38
258.22	174.38
258.452	195.38
258.685	195.38
258.918	185.38
259.151	194.38
259.383	180.38
259.616	184.38
259.849	192.38
260.081	201.38
260.314	201.38
260.547	224.38
260.779	213.38
261.012	193.38
261.244	199.38
261.477	193.38
261.71	193.38
261.942	183.38
262.175	190.38
262.407	198.38
262.64	178.38
262.872	188.38
263.105	188.38
263.337	177.38
263.57	195.38
263.802	180.38
264.035	188.38
264.267	202.38
264.499	192.38
264.732	186.38
264.964	207.38
265.197	190.38
265.429	174.38
265.661	196.38
265.894	203.38
266.126	173.38
266.358	192.38
266.591	185.38
266.823	190.38
267.055	197.38
267.287	203.38
267.52	186.38
267.752	178.38
267.984	193.38
268.216	196.38
268.448	190.38
268.681	201.38
268.913	212.38
269.145	200.38
269.377	210.38
269.609	242.38
269.841	212.38
270.073	232.38
270.306	241.38
270.538	251.38
270.77	263.38
271.002	250.38
271.234	226.38
271.466	235.38
271.698	254.38
271.93	270.38
272.162	259.38
272.394	255.38
272.626	240.38
272.858	238.38
273.09	236.38
273.322	201.38
273.553	214.38
273.785	224.38
274.017	221.38
274.249	241.38
274.481	209.38
274.713	214.38
274.945	222.38
275.176	221.38
275.408	244.38
275.64	235.38
275.872	206.38
276.104	234.38
276.335	234.38
276.567	233.38
276.799	236.38
277.031	226.38
277.262	259.38
277.494	260.38
277.726	247.38
277.957	252.38
278.189	228.38
278.421	242.38
278.652	228.38
278.884	234.38
279.115	237.38
279.347	232.38
279.579	215.38
279.81	211.38
280.042	240.38
280.273	222.38
280.505	222.38
280.736	211.38
280.968	214.38
281.199	224.38
281.431	224.38
281.662	207.38
281.894	218.38
282.125	218.38
282.356	219.38
282.588	246.38
282.819	238.38
283.051	234.38
283.282	225.38
283.513	223.38
283.745	229.38
283.976	218.38
284.207	209.38
284.439	231.38
284.67	228.38
284.901	235.38
285.132	224.38
285.364	223.38
285.595	219.38
285.826	233.38
286.057	239.38
286.288	258.38
286.52	230.38
286.751	231.38
286.982	238.38
287.213	246.38
287.444	234.38
287.675	230.38
287.906	236.38
288.138	243.38
288.369	221.38
288.6	237.38
288.831	224.38
289.062	226.38
289.293	239.38
289.524	228.38
289.755	264.38
289.986	245.38
290.217	238.38
290.448	234.38
290.679	221.38
290.91	223.38
291.141	235.38
291.371	229.38
291.602	248.38
291.833	229.38
292.064	233.38
292.295	228.38
292.526	243.38
292.757	235.38
292.987	246.38
293.218	255.38
293.449	243.38
293.68	248.38
293.91	251.38
294.141	249.38
294.372	241.38
294.603	243.38
294.833	242.38
295.064	249.38
295.295	226.38
295.525	226.38
295.756	256.38
295.987	260.38
296.217	251.38
296.448	263.38
296.679	258.38
296.909	256.38
297.14	244.38
297.37	234.38
297.601	243.38
297.831	235.38
298.062	229.38
298.292	254.38
298.523	240.38
298.753	243.38
298.984	269.38
299.214	228.38
299.445	240.38
299.675	229.38
299.905	268.38
300.136	248.38
300.366	249.38
300.597	267.38
300.827	257.38
301.057	265.38
301.288	267.38
301.518	276.38
301.748	274.38
301.979	266.38
302.209	287.38
302.439	261.38
302.669	258.38
302.9	256.38
303.13	258.38
303.36	286.38
303.59	273.38
303.82	269.38
304.051	283.38
304.281	275.38
304.511	264.38
304.741	267.38
304.971	260.38
305.201	274.38
305.431	259.38
305.661	268.38
305.891	258.38
306.121	257.38
306.352	271.38
306.582	295.38
306.812	262.38
307.042	261.38
307.272	266.38
307.502	277.38
307.731	264.38
307.961	277.38
308.191	272.38
308.421	251.38
308.651	290.38
308.881	281.38
309.111	278.38
309.341	293.38
309.571	287.38
309.8	293.38
310.03	302.38
310.26	292.38
310.49	297.38
310.72	303.38
310.949	332.38
311.179	330.38
311.409	313.38
311.639	293.38
311.868	307.38
312.098	308.38
312.328	302.38
312.557	310.38
312.787	312.38
313.017	303.38
313.246	312.38
313.476	295.38
313.706	306.38
313.935	314.38
314.165	320.38
314.394	337.38
314.624	324.38
314.853	311.38
315.083	313.38
315.312	299.38
315.542	288.38
315.771	299.38
316.001	295.38
316.23	319.38
316.46	300.38
316.689	307.38
316.919	292.38
317.148	327.38
317.377	308.38
317.607	324.38
317.836	307.38
318.065	299.38
318.295	290.38
318.524	302.38
318.753	309.38
318.983	314.38
319.212	325.38
319.441	302.38
319.67	309.38
319.9	311.38
320.129	310.38
320.358	314.38
320.587	319.38
320.816	318.38
321.046	336.38
321.275	323.38
321.504	308.38
321.733	324.38
321.962	343.38
322.191	314.38
322.42	335.38
322.649	349.38
322.878	354.38
323.108	361.38
323.337	377.38
323.566	404.38
323.795	416.38
324.024	446.38
324.253	529.38
324.482	790.38
324.71	1116.38
324.939	1553.38
325.168	1322.38
325.397	693.38
325.626	515.38
325.855	424.38
326.084	408.38
326.313	392.38
326.542	399.38
326.77	454.38
326.999	505.38
327.228	697.38
327.457	992.38
327.686	1145.38
327.914	754.38
328.143	538.38
328.372	471.38
328.6	446.38
328.829	446.38
329.058	431.38
329.287	427.38
329.515	400.38
329.744	395.38
329.972	378.38
330.201	395.38
330.43	421.38
330.658	418.38
330.887	440.38
331.115	430.38
331.344	408.38
331.572	391.38
331.801	370.38
332.03	378.38
332.258	372.38
332.486	344.38
332.715	342.38
332.943	349.38
333.172	360.38
333.4	362.38
333.629	369.38
333.857	355.38
334.085	366.38
334.314	377.38
334.542	386.38
334.771	381.38
334.999	374.38
335.227	371.38
335.455	370.38
335.684	341.38
335.912	347.38
336.14	345.38
336.369	362.38
336.597	351.38
336.825	352.38
337.053	342.38
337.281	337.38
337.51	335.38
337.738	330.38
337.966	346.38
338.194	346.38
338.422	339.38
338.65	336.38
338.878	361.38
339.106	326.38
339.334	337.38
339.562	326.38
339.79	330.38
340.018	330.38
340.246	348.38
340.474	345.38
340.702	339.38
340.93	326.38
341.158	334.38
341.386	339.38
341.614	332.38
341.842	334.38
342.07	334.38
342.298	340.38
342.526	330.38
342.754	324.38
342.981	324.38
343.209	326.38
343.437	344.38
343.665	336.38
343.893	353.38
344.12	352.38
344.348	356.38
344.576	321.38
344.804	344.38
345.031	344.38
345.259	361.38
345.487	345.38
345.714	361.38
345.942	352.38
346.17	337.38
346.397	318.38
346.625	324.38
346.853	328.38
347.08	319.38
347.308	331.38
347.535	335.38
347.763	314.38
347.99	328.38
348.218	340.38
348.445	338.38
348.673	346.38
348.9	336.38
349.128	308.38
349.355	326.38
349.583	309.38
349.81	310.38
350.037	340.38
350.265	333.38
350.492	322.38
350.72	315.38
350.947	314.38
351.174	321.38
351.402	305.38
351.629	316.38
351.856	318.38
352.083	325.38
352.311	332.38
352.538	305.38
352.765	343.38
352.992	323.38
353.22	332.38
353.447	327.38
353.674	320.38
353.901	331.38
354.128	310.38
354.355	306.38
354.583	314.38
354.81	303.38
355.037	313.38
355.264	329.38
355.491	299.38
355.718	316.38
355.945	324.38
356.172	292.38
356.399	308.38
356.626	299.38
356.853	296.38
357.08	309.38
357.307	291.38
357.534	300.38
357.761	297.38
357.988	291.38
358.215	297.38
358.441	301.38
358.668	284.38
358.895	309.38
359.122	324.38
359.349	314.38
359.576	307.38
359.802	335.38
360.029	333.38
360.256	345.38
360.483	335.38
360.709	335.38
360.936	337.38
361.163	327.38
361.39	312.38
361.616	322.38
361.843	315.38
362.07	314.38
362.296	324.38
362.523	315.38
362.749	300.38
362.976	286.38
363.203	323.38
363.429	304.38
363.656	302.38
363.882	299.38
364.109	309.38
364.335	317.38
364.562	294.38
364.788	313.38
365.015	306.38
365.241	296.38
365.468	302.38
365.694	293.38
365.92	302.38
366.147	311.38
366.373	294.38
366.599	306.38
366.826	302.38
367.052	323.38
367.278	295.38
367.505	302.38
367.731	296.38
367.957	289.38
368.184	293.38
368.41	294.38
368.636	312.38
368.862	323.38
369.089	301.38
369.315	290.38
369.541	307.38
369.767	302.38
369.993	300.38
370.219	304.38
370.445	306.38
370.672	305.38
370.898	308.38
371.124	316.38
371.35	292.38
371.576	312.38
371.802	317.38
372.028	316.38
372.254	300.38
372.48	313.38
372.706	308.38
372.932	310.38
373.158	304.38
373.384	282.38
373.61	288.38
373.835	306.38
374.061	314.38
374.287	306.38
374.513	312.38
374.739	312.38
374.965	308.38
375.191	297.38
375.416	320.38
375.642	293.38
375.868	291.38
376.094	315.38
376.319	313.38
376.545	279.38
376.771	302.38
376.997	280.38
377.222	307.38
377.448	286.38
377.674	299.38
377.899	300.38
378.125	285.38
378.35	298.38
378.576	286.38
378.802	290.38
379.027	308.38
379.253	292.38
379.478	308.38
379.704	285.38
379.929	291.38
380.155	303.38
380.38	299.38
380.606	291.38
380.831	296.38
381.057	313.38
381.282	304.38
381.507	314.38
381.733	309.38
381.958	292.38
382.184	286.38
382.409	298.38
382.634	302.38
382.86	314.38
383.085	294.38
383.31	326.38
383.535	298.38
383.761	288.38
383.986	297.38
384.211	312.38
384.436	318.38
384.662	296.38
384.887	304.38
385.112	318.38
385.337	315.38
385.562	326.38
385.787	331.38
386.013	323.38
386.238	297.38
386.463	308.38
386.688	318.38
386.913	312.38
387.138	322.38
387.363	320.38
387.588	335.38
387.813	321.38
388.038	328.38
388.263	318.38
388.488	309.38
388.713	306.38
388.938	330.38
389.163	329.38
389.387	321.38
389.612	312.38
389.837	310.38
390.062	329.38
390.287	304.38
390.512	322.38
390.736	323.38
390.961	323.38
391.186	320.38
391.411	325.38
391.636	313.38
391.86	299.38
392.085	319.38
392.31	304.38
392.534	319.38
392.759	331.38
392.984	319.38
393.208	319.38
393.433	319.38
393.658	325.38
393.882	315.38
394.107	326.38
394.331	304.38
394.556	300.38
394.78	320.38
395.005	322.38
395.229	314.38
395.454	338.38
395.678	310.38
395.903	329.38
396.127	314.38
396.352	338.38
396.576	338.38
396.801	326.38
397.025	326.38
397.249	311.38
397.474	318.38
397.698	339.38
397.922	344.38
398.147	358.38
398.371	345.38
398.595	329.38
398.82	344.38
399.044	345.38
399.268	353.38
399.492	354.38
399.717	371.38
399.941	402.38
400.165	408.38
400.389	426.38
400.613	403.38
400.837	386.38
401.062	362.38
401.286	348.38
401.51	355.38
401.734	342.38
401.958	331.38
402.182	359.38
402.406	352.38
402.63	369.38
402.854	355.38
403.078	347.38
403.302	362.38
403.526	354.38
403.75	353.38
403.974	355.38
404.198	368.38
404.422	353.38
404.645	374.38
404.869	366.38
405.093	370.38
405.317	376.38
405.541	414.38
405.765	382.38
405.988	363.38
406.212	377.38
406.436	386.38
406.66	393.38
406.883	402.38
407.107	402.38
407.331	425.38
407.555	463.38
407.778	466.38
408.002	428.38
408.226	400.38
408.449	394.38
408.673	395.38
408.896	415.38
409.12	430.38
409.344	412.38
409.567	348.38
409.791	355.38
410.014	353.38
410.238	341.38
410.461	344.38
410.685	377.38
410.908	383.38
411.132	390.38
411.355	401.38
411.578	406.38
411.802	366.38
412.025	355.38
412.249	336.38
412.472	375.38
412.695	407.38
412.919	387.38
413.142	341.38
413.365	331.38
413.589	331.38
413.812	335.38
414.035	306.38
414.258	336.38
414.482	336.38
414.705	344.38
414.928	326.38
415.151	341.38
415.374	335.38
415.597	339.38
415.821	327.38
416.044	339.38
416.267	310.38
416.49	346.38
416.713	326.38
416.936	327.38
417.159	341.38
417.382	347.38
417.605	343.38
417.828	329.38
418.051	359.38
418.274	361.38
418.497	341.38
418.72	331.38
418.943	324.38
419.166	346.38
419.389	349.38
419.611	348.38
419.834	345.38
420.057	339.38
420.28	346.38
420.503	338.38
420.726	331.38
420.948	358.38
421.171	388.38
421.394	412.38
421.617	369.38
421.839	366.38
422.062	354.38
422.285	357.38
422.507	386.38
422.73	444.38
422.953	442.38
423.175	383.38
423.398	363.38
423.621	368.38
423.843	365.38
424.066	396.38
424.288	370.38
424.511	377.38
424.733	434.38
424.956	465.38
425.178	451.38
425.401	455.38
425.623	465.38
425.846	411.38
426.068	375.38
426.291	376.38
426.513	392.38
426.735	380.38
426.958	424.38
427.18	471.38
427.402	602.38
427.625	601.38
427.847	505.38
428.069	457.38
428.292	403.38
428.514	395.38
428.736	372.38
428.958	361.38
429.181	376.38
429.403	357.38
429.625	370.38
429.847	376.38
430.069	430.38
430.292	431.38
430.514	354.38
430.736	330.38
430.958	345.38
431.18	320.38
431.402	346.38
431.624	340.38
431.846	324.38
432.068	315.38
432.29	332.38
432.512	320.38
432.734	363.38
432.956	340.38
433.178	343.38
433.4	336.38
433.622	316.38
433.844	322.38
434.066	320.38
434.287	325.38
434.509	343.38
434.731	332.38
434.953	349.38
435.175	364.38
435.397	358.38
435.618	374.38
435.84	417.38
436.062	472.38
436.284	508.38
436.505	441.38
436.727	390.38
436.949	372.38
437.17	348.38
437.392	345.38
437.614	382.38
437.835	384.38
438.057	440.38
438.278	530.38
438.5	554.38
438.721	569.38
438.943	537.38
439.165	436.38
439.386	388.38
439.608	387.38
439.829	366.38
440.05	410.38
440.272	442.38
440.493	395.38
440.715	361.38
440.936	368.38
441.158	343.38
441.379	362.38
441.6	366.38
441.822	366.38
442.043	395.38
442.264	454.38
442.486	476.38
442.707	424.38
442.928	401.38
443.149	404.38
443.371	405.38
443.592	452.38
443.813	506.38
444.034	557.38
444.255	447.38
444.476	406.38
444.698	374.38
444.919	366.38
445.14	474.38
445.361	444.38
445.582	407.38
445.803	446.38
446.024	509.38
446.245	531.38
446.466	483.38
446.687	410.38
446.908	376.38
447.129	382.38
447.35	347.38
447.571	336.38
447.792	352.38
448.013	355.38
448.234	380.38
448.455	393.38
448.675	491.38
448.896	563.38
449.117	485.38
449.338	463.38
449.559	533.38
449.779	596.38
450	465.38
450.221	401.38
450.442	368.38
450.662	357.38
450.883	355.38
451.104	348.38
451.324	367.38
451.545	348.38
451.766	316.38
451.986	323.38
452.207	325.38
452.428	319.38
452.648	311.38
452.869	299.38
453.089	318.38
453.31	331.38
453.53	311.38
453.751	308.38
453.971	314.38
454.192	329.38
454.412	329.38
454.633	320.38
454.853	315.38
455.073	323.38
455.294	335.38
455.514	396.38
455.734	359.38
455.955	329.38
456.175	309.38
456.395	302.38
456.616	299.38
456.836	298.38
457.056	309.38
457.276	314.38
457.497	296.38
457.717	319.38
457.937	297.38
458.157	304.38
458.377	304.38
458.598	327.38
458.818	366.38
459.038	408.38
459.258	417.38
459.478	380.38
459.698	350.38
459.918	336.38
460.138	342.38
460.358	319.38
460.578	326.38
460.798	326.38
461.018	342.38
461.238	343.38
461.458	347.38
461.678	337.38
461.898	349.38
462.118	318.38
462.338	338.38
462.558	343.38
462.777	340.38
462.997	337.38
463.217	357.38
463.437	362.38
463.657	344.38
463.876	345.38
464.096	357.38
464.316	354.38
464.536	336.38
464.755	352.38
464.975	344.38
465.195	377.38
465.414	416.38
465.634	374.38
465.854	362.38
466.073	347.38
466.293	336.38
466.512	337.38
466.732	322.38
466.951	312.38
467.171	324.38
467.391	329.38
467.61	333.38
467.829	345.38
468.049	325.38
468.268	331.38
468.488	325.38
468.707	313.38
468.927	318.38
469.146	301.38
469.365	321.38
469.585	307.38
469.804	319.38
470.023	328.38
470.243	319.38
470.462	339.38
470.681	339.38
470.901	334.38
471.12	327.38
471.339	319.38
471.558	339.38
471.777	318.38
471.997	325.38
472.216	329.38
472.435	337.38
472.654	335.38
472.873	337.38
473.092	323.38
473.311	318.38
473.53	332.38
473.749	344.38
473.968	376.38
474.187	416.38
474.406	437.38
474.625	370.38
474.844	327.38
475.063	350.38
475.282	340.38
475.501	319.38
475.72	332.38
475.939	338.38
476.158	327.38
476.377	331.38
476.596	330.38
476.814	348.38
477.033	347.38
477.252	342.38
477.471	359.38
477.69	333.38
477.908	359.38
478.127	368.38
478.346	357.38
478.564	342.38
478.783	363.38
479.002	378.38
479.22	354.38
479.439	361.38
479.658	402.38
479.876	390.38
480.095	386.38
480.313	422.38
480.532	378.38
480.751	383.38
480.969	395.38
481.188	423.38
481.406	418.38
481.624	398.38
481.843	384.38
482.061	374.38
482.28	380.38
482.498	384.38
482.717	404.38
482.935	399.38
483.153	358.38
483.372	374.38
483.59	376.38
483.808	386.38
484.027	385.38
484.245	407.38
484.463	372.38
484.681	380.38
484.9	400.38
485.118	404.38
485.336	393.38
485.554	396.38
485.772	402.38
485.99	406.38
486.209	393.38
486.427	384.38
486.645	408.38
486.863	403.38
487.081	415.38
487.299	432.38
487.517	419.38
487.735	412.38
487.953	409.38
488.171	412.38
488.389	411.38
488.607	431.38
488.825	403.38
489.043	416.38
489.261	426.38
489.479	427.38
489.696	430.38
489.914	414.38
490.132	416.38
490.35	438.38
490.568	432.38
490.786	427.38
491.003	454.38
491.221	427.38
491.439	457.38
491.657	443.38
491.874	441.38
492.092	450.38
492.31	475.38
492.527	443.38
492.745	453.38
492.963	454.38
493.18	471.38
493.398	479.38
493.615	457.38
493.833	461.38
494.05	474.38
494.268	474.38
494.485	469.38
494.703	473.38
494.92	467.38
495.138	458.38
495.355	455.38
495.573	460.38
495.79	462.38
496.008	471.38
496.225	467.38
496.442	466.38
496.66	472.38
496.877	499.38
497.094	483.38
497.312	491.38
497.529	484.38
497.746	512.38
497.963	515.38
498.181	518.38
498.398	519.38
498.615	536.38
498.832	527.38
499.049	529.38
499.267	536.38
499.484	564.38
499.701	577.38
499.918	594.38
500.135	595.38
500.352	606.38
500.569	588.38
500.786	620.38
501.003	633.38
501.22	595.38
501.437	590.38
501.654	588.38
501.871	581.38
502.088	569.38
