Data from 1981.PennyLincolnUp.Lamp.En5.5.200Scan.071819.P1_HRD10591_16-42-17-959.txt Node
Date: Thu Jul 18 16:42:17 EDT 2019
User: cochatt
Spectrometer: HR+D1059
Trigger mode: 1
Integration Time (sec): 1.000000E-1
Scans to average: 1
Electric dark correction enabled: true
Nonlinearity correction enabled: false
Boxcar width: 0
XAxis mode: Wavelengths
Number of Pixels in Spectrum: 2048
>>>>>Begin Spectral Data<<<<<
223.165	-18.06
223.4	-18.06
223.635	-18.06
223.869	-9.06
224.104	-15.06
224.338	-5.06
224.573	-12.06
224.808	-19.06
225.042	-13.06
225.277	0.94
225.511	-11.06
225.746	-0.06
225.98	0.94
226.215	7.94
226.449	13.94
226.683	20.94
226.918	28.94
227.152	28.94
227.387	20.94
227.621	38.94
227.856	50.94
228.09	52.94
228.324	45.94
228.559	51.94
228.793	69.94
229.027	107.94
229.262	113.94
229.496	121.94
229.73	129.94
229.964	142.94
230.199	149.94
230.433	127.94
230.667	119.94
230.901	102.94
231.136	115.94
231.37	108.94
231.604	115.94
231.838	101.94
232.072	120.94
232.306	101.94
232.541	123.94
232.775	102.94
233.009	128.94
233.243	116.94
233.477	108.94
233.711	119.94
233.945	115.94
234.179	124.94
234.413	102.94
234.647	123.94
234.881	115.94
235.115	110.94
235.349	127.94
235.583	122.94
235.817	125.94
236.051	130.94
236.285	142.94
236.519	127.94
236.753	139.94
236.987	139.94
237.221	201.94
237.455	250.94
237.689	197.94
237.922	148.94
238.156	128.94
238.39	140.94
238.624	128.94
238.858	115.94
239.091	128.94
239.325	136.94
239.559	129.94
239.793	151.94
240.027	136.94
240.26	143.94
240.494	171.94
240.728	153.94
240.961	156.94
241.195	155.94
241.429	156.94
241.662	143.94
241.896	146.94
242.13	143.94
242.363	149.94
242.597	146.94
242.83	128.94
243.064	142.94
243.298	137.94
243.531	132.94
243.765	151.94
243.998	148.94
244.232	170.94
244.465	153.94
244.699	149.94
244.932	151.94
245.166	151.94
245.399	152.94
245.633	156.94
245.866	145.94
246.099	145.94
246.333	144.94
246.566	152.94
246.8	163.94
247.033	165.94
247.266	168.94
247.5	159.94
247.733	171.94
247.966	160.94
248.2	166.94
248.433	181.94
248.666	173.94
248.899	192.94
249.133	204.94
249.366	231.94
249.599	200.94
249.832	186.94
250.066	190.94
250.299	206.94
250.532	195.94
250.765	225.94
250.998	243.94
251.231	232.94
251.465	223.94
251.698	222.94
251.931	206.94
252.164	219.94
252.397	217.94
252.63	208.94
252.863	220.94
253.096	245.94
253.329	234.94
253.562	253.94
253.795	225.94
254.028	239.94
254.261	221.94
254.494	237.94
254.727	270.94
254.96	312.94
255.193	296.94
255.426	273.94
255.659	250.94
255.892	260.94
256.124	251.94
256.357	251.94
256.59	242.94
256.823	231.94
257.056	224.94
257.289	201.94
257.521	224.94
257.754	224.94
257.987	220.94
258.22	229.94
258.452	211.94
258.685	235.94
258.918	228.94
259.151	231.94
259.383	233.94
259.616	235.94
259.849	241.94
260.081	261.94
260.314	250.94
260.547	269.94
260.779	272.94
261.012	268.94
261.244	233.94
261.477	249.94
261.71	229.94
261.942	251.94
262.175	228.94
262.407	227.94
262.64	231.94
262.872	231.94
263.105	239.94
263.337	237.94
263.57	239.94
263.802	237.94
264.035	232.94
264.267	223.94
264.499	217.94
264.732	228.94
264.964	237.94
265.197	229.94
265.429	238.94
265.661	213.94
265.894	239.94
266.126	217.94
266.358	209.94
266.591	210.94
266.823	230.94
267.055	233.94
267.287	248.94
267.52	233.94
267.752	231.94
267.984	225.94
268.216	248.94
268.448	232.94
268.681	252.94
268.913	264.94
269.145	281.94
269.377	283.94
269.609	299.94
269.841	301.94
270.073	288.94
270.306	329.94
270.538	332.94
270.77	341.94
271.002	329.94
271.234	310.94
271.466	321.94
271.698	342.94
271.93	360.94
272.162	331.94
272.394	347.94
272.626	332.94
272.858	306.94
273.09	298.94
273.322	296.94
273.553	273.94
273.785	289.94
274.017	291.94
274.249	281.94
274.481	261.94
274.713	284.94
274.945	273.94
275.176	277.94
275.408	262.94
275.64	273.94
275.872	272.94
276.104	289.94
276.335	277.94
276.567	276.94
276.799	308.94
277.031	333.94
277.262	320.94
277.494	335.94
277.726	311.94
277.957	305.94
278.189	292.94
278.421	300.94
278.652	285.94
278.884	283.94
279.115	281.94
279.347	279.94
279.579	289.94
279.81	266.94
280.042	278.94
280.273	279.94
280.505	277.94
280.736	261.94
280.968	268.94
281.199	283.94
281.431	276.94
281.662	279.94
281.894	273.94
282.125	285.94
282.356	311.94
282.588	329.94
282.819	309.94
283.051	298.94
283.282	273.94
283.513	295.94
283.745	293.94
283.976	287.94
284.207	282.94
284.439	318.94
284.67	283.94
284.901	280.94
285.132	275.94
285.364	291.94
285.595	274.94
285.826	283.94
286.057	288.94
286.288	288.94
286.52	297.94
286.751	279.94
286.982	278.94
287.213	276.94
287.444	287.94
287.675	293.94
287.906	303.94
288.138	303.94
288.369	316.94
288.6	315.94
288.831	308.94
289.062	295.94
289.293	295.94
289.524	299.94
289.755	291.94
289.986	277.94
290.217	286.94
290.448	296.94
290.679	301.94
290.91	307.94
291.141	304.94
291.371	289.94
291.602	276.94
291.833	275.94
292.064	300.94
292.295	288.94
292.526	302.94
292.757	300.94
292.987	279.94
293.218	289.94
293.449	304.94
293.68	294.94
293.91	287.94
294.141	280.94
294.372	310.94
294.603	286.94
294.833	297.94
295.064	280.94
295.295	299.94
295.525	273.94
295.756	299.94
295.987	316.94
296.217	326.94
296.448	336.94
296.679	316.94
296.909	290.94
297.14	287.94
297.37	303.94
297.601	313.94
297.831	327.94
298.062	295.94
298.292	295.94
298.523	311.94
298.753	312.94
298.984	312.94
299.214	302.94
299.445	298.94
299.675	311.94
299.905	324.94
300.136	299.94
300.366	325.94
300.597	304.94
300.827	313.94
301.057	333.94
301.288	340.94
301.518	336.94
301.748	320.94
301.979	327.94
302.209	347.94
302.439	335.94
302.669	329.94
302.9	321.94
303.13	309.94
303.36	327.94
303.59	334.94
303.82	342.94
304.051	345.94
304.281	329.94
304.511	324.94
304.741	337.94
304.971	320.94
305.201	330.94
305.431	323.94
305.661	347.94
305.891	318.94
306.121	323.94
306.352	343.94
306.582	337.94
306.812	343.94
307.042	324.94
307.272	323.94
307.502	331.94
307.731	336.94
307.961	336.94
308.191	337.94
308.421	348.94
308.651	352.94
308.881	340.94
309.111	337.94
309.341	344.94
309.571	373.94
309.8	383.94
310.03	405.94
310.26	397.94
310.49	406.94
310.72	392.94
310.949	417.94
311.179	416.94
311.409	406.94
311.639	387.94
311.868	389.94
312.098	387.94
312.328	404.94
312.557	427.94
312.787	435.94
313.017	427.94
313.246	416.94
313.476	400.94
313.706	392.94
313.935	391.94
314.165	418.94
314.394	429.94
314.624	418.94
314.853	417.94
315.083	394.94
315.312	404.94
315.542	396.94
315.771	376.94
316.001	380.94
316.23	387.94
316.46	363.94
316.689	371.94
316.919	402.94
317.148	421.94
317.377	408.94
317.607	388.94
317.836	418.94
318.065	385.94
318.295	383.94
318.524	411.94
318.753	390.94
318.983	387.94
319.212	397.94
319.441	394.94
319.67	412.94
319.9	404.94
320.129	398.94
320.358	390.94
320.587	409.94
320.816	413.94
321.046	417.94
321.275	438.94
321.504	417.94
321.733	421.94
321.962	441.94
322.191	461.94
322.42	459.94
322.649	488.94
322.878	489.94
323.108	512.94
323.337	550.94
323.566	568.94
323.795	598.94
324.024	674.94
324.253	816.94
324.482	1180.94
324.71	1849.94
324.939	2523.94
325.168	2130.94
325.397	1123.94
325.626	756.94
325.855	641.94
326.084	592.94
326.313	569.94
326.542	571.94
326.77	613.94
326.999	774.94
327.228	1037.94
327.457	1617.94
327.686	1852.94
327.914	1234.94
328.143	823.94
328.372	711.94
328.6	645.94
328.829	627.94
329.058	645.94
329.287	640.94
329.515	595.94
329.744	553.94
329.972	550.94
330.201	597.94
330.43	602.94
330.658	653.94
330.887	666.94
331.115	633.94
331.344	574.94
331.572	521.94
331.801	518.94
332.03	518.94
332.258	458.94
332.486	467.94
332.715	451.94
332.943	461.94
333.172	477.94
333.4	459.94
333.629	475.94
333.857	472.94
334.085	489.94
334.314	508.94
334.542	539.94
334.771	540.94
334.999	530.94
335.227	485.94
335.455	440.94
335.684	441.94
335.912	432.94
336.14	444.94
336.369	433.94
336.597	461.94
336.825	445.94
337.053	464.94
337.281	442.94
337.51	458.94
337.738	453.94
337.966	430.94
338.194	424.94
338.422	432.94
338.65	416.94
338.878	422.94
339.106	428.94
339.334	441.94
339.562	423.94
339.79	427.94
340.018	409.94
340.246	430.94
340.474	436.94
340.702	424.94
340.93	430.94
341.158	417.94
341.386	424.94
341.614	438.94
341.842	439.94
342.07	427.94
342.298	435.94
342.526	422.94
342.754	421.94
342.981	398.94
343.209	414.94
343.437	412.94
343.665	412.94
343.893	429.94
344.12	409.94
344.348	406.94
344.576	423.94
344.804	428.94
345.031	431.94
345.259	441.94
345.487	440.94
345.714	409.94
345.942	401.94
346.17	424.94
346.397	425.94
346.625	413.94
346.853	399.94
347.08	401.94
347.308	418.94
347.535	425.94
347.763	432.94
347.99	444.94
348.218	435.94
348.445	433.94
348.673	424.94
348.9	419.94
349.128	415.94
349.355	397.94
349.583	397.94
349.81	397.94
350.037	400.94
350.265	400.94
350.492	400.94
350.72	394.94
350.947	417.94
351.174	424.94
351.402	428.94
351.629	418.94
351.856	414.94
352.083	419.94
352.311	437.94
352.538	432.94
352.765	440.94
352.992	418.94
353.22	424.94
353.447	409.94
353.674	411.94
353.901	376.94
354.128	389.94
354.355	387.94
354.583	380.94
354.81	394.94
355.037	381.94
355.264	392.94
355.491	389.94
355.718	352.94
355.945	359.94
356.172	359.94
356.399	357.94
356.626	356.94
356.853	382.94
357.08	364.94
357.307	371.94
357.534	362.94
357.761	365.94
357.988	365.94
358.215	374.94
358.441	371.94
358.668	378.94
358.895	382.94
359.122	390.94
359.349	387.94
359.576	423.94
359.802	427.94
360.029	446.94
360.256	441.94
360.483	458.94
360.709	413.94
360.936	393.94
361.163	384.94
361.39	413.94
361.616	416.94
361.843	404.94
362.07	396.94
362.296	412.94
362.523	406.94
362.749	405.94
362.976	395.94
363.203	373.94
363.429	378.94
363.656	379.94
363.882	386.94
364.109	387.94
364.335	382.94
364.562	389.94
364.788	379.94
365.015	382.94
365.241	390.94
365.468	400.94
365.694	371.94
365.92	375.94
366.147	382.94
366.373	383.94
366.599	364.94
366.826	365.94
367.052	374.94
367.278	371.94
367.505	364.94
367.731	379.94
367.957	381.94
368.184	379.94
368.41	399.94
368.636	386.94
368.862	393.94
369.089	382.94
369.315	380.94
369.541	358.94
369.767	380.94
369.993	375.94
370.219	375.94
370.445	358.94
370.672	363.94
370.898	358.94
371.124	357.94
371.35	361.94
371.576	365.94
371.802	361.94
372.028	356.94
372.254	347.94
372.48	357.94
372.706	342.94
372.932	364.94
373.158	357.94
373.384	357.94
373.61	384.94
373.835	361.94
374.061	367.94
374.287	378.94
374.513	363.94
374.739	373.94
374.965	381.94
375.191	367.94
375.416	367.94
375.642	360.94
375.868	364.94
376.094	383.94
376.319	359.94
376.545	351.94
376.771	375.94
376.997	358.94
377.222	366.94
377.448	379.94
377.674	353.94
377.899	353.94
378.125	353.94
378.35	349.94
378.576	357.94
378.802	348.94
379.027	357.94
379.253	334.94
379.478	338.94
379.704	340.94
379.929	351.94
380.155	364.94
380.38	366.94
380.606	358.94
380.831	353.94
381.057	342.94
381.282	356.94
381.507	352.94
381.733	358.94
381.958	362.94
382.184	357.94
382.409	354.94
382.634	349.94
382.86	350.94
383.085	356.94
383.31	358.94
383.535	365.94
383.761	353.94
383.986	374.94
384.211	346.94
384.436	370.94
384.662	355.94
384.887	376.94
385.112	379.94
385.337	366.94
385.562	361.94
385.787	365.94
386.013	379.94
386.238	364.94
386.463	393.94
386.688	385.94
386.913	373.94
387.138	373.94
387.363	381.94
387.588	365.94
387.813	373.94
388.038	359.94
388.263	380.94
388.488	379.94
388.713	375.94
388.938	375.94
389.163	365.94
389.387	381.94
389.612	361.94
389.837	371.94
390.062	371.94
390.287	363.94
390.512	365.94
390.736	336.94
390.961	347.94
391.186	380.94
391.411	361.94
391.636	367.94
391.86	380.94
392.085	366.94
392.31	343.94
392.534	350.94
392.759	387.94
392.984	374.94
393.208	375.94
393.433	380.94
393.658	379.94
393.882	360.94
394.107	367.94
394.331	346.94
394.556	373.94
394.78	355.94
395.005	391.94
395.229	357.94
395.454	373.94
395.678	401.94
395.903	392.94
396.127	390.94
396.352	412.94
396.576	403.94
396.801	385.94
397.025	368.94
397.249	366.94
397.474	386.94
397.698	388.94
397.922	397.94
398.147	412.94
398.371	431.94
398.595	414.94
398.82	412.94
399.044	415.94
399.268	424.94
399.492	451.94
399.717	461.94
399.941	449.94
400.165	503.94
400.389	507.94
400.613	495.94
400.837	433.94
401.062	439.94
401.286	423.94
401.51	411.94
401.734	406.94
401.958	404.94
402.182	411.94
402.406	421.94
402.63	423.94
402.854	413.94
403.078	423.94
403.302	431.94
403.526	439.94
403.75	415.94
403.974	426.94
404.198	441.94
404.422	449.94
404.645	422.94
404.869	461.94
405.093	462.94
405.317	504.94
405.541	536.94
405.765	489.94
405.988	459.94
406.212	456.94
406.436	493.94
406.66	490.94
406.883	461.94
407.107	495.94
407.331	515.94
407.555	591.94
407.778	576.94
408.002	528.94
408.226	480.94
408.449	479.94
408.673	484.94
408.896	506.94
409.12	565.94
409.344	489.94
409.567	475.94
409.791	445.94
410.014	452.94
410.238	428.94
410.461	430.94
410.685	457.94
410.908	438.94
411.132	473.94
411.355	487.94
411.578	476.94
411.802	433.94
412.025	419.94
412.249	442.94
412.472	473.94
412.695	460.94
412.919	463.94
413.142	450.94
413.365	417.94
413.589	418.94
413.812	405.94
414.035	415.94
414.258	417.94
414.482	408.94
414.705	396.94
414.928	378.94
415.151	400.94
415.374	408.94
415.597	381.94
415.821	404.94
416.044	392.94
416.267	418.94
416.49	397.94
416.713	393.94
416.936	388.94
417.159	406.94
417.382	381.94
417.605	398.94
417.828	413.94
418.051	425.94
418.274	406.94
418.497	398.94
418.72	412.94
418.943	377.94
419.166	413.94
419.389	418.94
419.611	428.94
419.834	445.94
420.057	437.94
420.28	441.94
420.503	411.94
420.726	437.94
420.948	461.94
421.171	469.94
421.394	479.94
421.617	454.94
421.839	428.94
422.062	426.94
422.285	443.94
422.507	491.94
422.73	579.94
422.953	535.94
423.175	472.94
423.398	464.94
423.621	444.94
423.843	455.94
424.066	473.94
424.288	462.94
424.511	462.94
424.733	546.94
424.956	586.94
425.178	576.94
425.401	557.94
425.623	614.94
425.846	519.94
426.068	488.94
426.291	457.94
426.513	456.94
426.735	466.94
426.958	541.94
427.18	603.94
427.402	731.94
427.625	789.94
427.847	705.94
428.069	611.94
428.292	529.94
428.514	482.94
428.736	457.94
428.958	456.94
429.181	421.94
429.403	429.94
429.625	445.94
429.847	469.94
430.069	533.94
430.292	525.94
430.514	463.94
430.736	426.94
430.958	395.94
431.18	421.94
431.402	408.94
431.624	407.94
431.846	406.94
432.068	406.94
432.29	417.94
432.512	411.94
432.734	409.94
432.956	430.94
433.178	429.94
433.4	441.94
433.622	421.94
433.844	402.94
434.066	392.94
434.287	391.94
434.509	401.94
434.731	403.94
434.953	417.94
435.175	438.94
435.397	470.94
435.618	464.94
435.84	516.94
436.062	584.94
436.284	672.94
436.505	556.94
436.727	494.94
436.949	455.94
437.17	429.94
437.392	433.94
437.614	455.94
437.835	493.94
438.057	600.94
438.278	677.94
438.5	670.94
438.721	711.94
438.943	695.94
439.165	553.94
439.386	511.94
439.608	509.94
439.829	504.94
440.05	533.94
440.272	563.94
440.493	526.94
440.715	489.94
440.936	455.94
441.158	443.94
441.379	430.94
441.6	464.94
441.822	459.94
442.043	520.94
442.264	571.94
442.486	610.94
442.707	520.94
442.928	496.94
443.149	504.94
443.371	527.94
443.592	556.94
443.813	641.94
444.034	678.94
444.255	565.94
444.476	502.94
444.698	472.94
444.919	462.94
445.14	578.94
445.361	540.94
445.582	535.94
445.803	605.94
446.024	661.94
446.245	691.94
446.466	641.94
446.687	536.94
446.908	509.94
447.129	451.94
447.35	448.94
447.571	450.94
447.792	430.94
448.013	455.94
448.234	499.94
448.455	519.94
448.675	614.94
448.896	702.94
449.117	595.94
449.338	579.94
449.559	638.94
449.779	728.94
450	642.94
450.221	504.94
450.442	460.94
450.662	441.94
450.883	446.94
451.104	458.94
451.324	469.94
451.545	431.94
451.766	388.94
451.986	408.94
452.207	401.94
452.428	382.94
452.648	391.94
452.869	377.94
453.089	399.94
453.31	428.94
453.53	390.94
453.751	401.94
453.971	425.94
454.192	407.94
454.412	401.94
454.633	403.94
454.853	386.94
455.073	380.94
455.294	436.94
455.514	479.94
455.734	459.94
455.955	400.94
456.175	385.94
456.395	364.94
456.616	377.94
456.836	352.94
457.056	351.94
457.276	364.94
457.497	382.94
457.717	364.94
457.937	373.94
458.157	383.94
458.377	381.94
458.598	415.94
458.818	475.94
459.038	548.94
459.258	557.94
459.478	462.94
459.698	435.94
459.918	399.94
460.138	403.94
460.358	405.94
460.578	419.94
460.798	405.94
461.018	413.94
461.238	393.94
461.458	401.94
461.678	396.94
461.898	401.94
462.118	407.94
462.338	385.94
462.558	389.94
462.777	410.94
462.997	390.94
463.217	398.94
463.437	413.94
463.657	401.94
463.876	425.94
464.096	406.94
464.316	432.94
464.536	407.94
464.755	428.94
464.975	447.94
465.195	489.94
465.414	565.94
465.634	492.94
465.854	443.94
466.073	423.94
466.293	423.94
466.512	423.94
466.732	406.94
466.951	380.94
467.171	383.94
467.391	424.94
467.61	407.94
467.829	420.94
468.049	410.94
468.268	404.94
468.488	401.94
468.707	397.94
468.927	373.94
469.146	381.94
469.365	381.94
469.585	408.94
469.804	386.94
470.023	405.94
470.243	405.94
470.462	406.94
470.681	426.94
470.901	424.94
471.12	403.94
471.339	397.94
471.558	389.94
471.777	400.94
471.997	405.94
472.216	410.94
472.435	447.94
472.654	432.94
472.873	405.94
473.092	398.94
473.311	394.94
473.53	405.94
473.749	409.94
473.968	468.94
474.187	569.94
474.406	610.94
474.625	479.94
474.844	421.94
475.063	402.94
475.282	398.94
475.501	394.94
475.72	400.94
475.939	408.94
476.158	414.94
476.377	407.94
476.596	389.94
476.814	418.94
477.033	410.94
477.252	408.94
477.471	415.94
477.69	405.94
477.908	415.94
478.127	429.94
478.346	425.94
478.564	425.94
478.783	436.94
479.002	411.94
479.22	445.94
479.439	461.94
479.658	480.94
479.876	478.94
480.095	488.94
480.313	533.94
480.532	496.94
480.751	488.94
480.969	489.94
481.188	553.94
481.406	598.94
481.624	526.94
481.843	501.94
482.061	491.94
482.28	473.94
482.498	465.94
482.717	465.94
482.935	468.94
483.153	473.94
483.372	469.94
483.59	479.94
483.808	447.94
484.027	477.94
484.245	481.94
484.463	462.94
484.681	480.94
484.9	487.94
485.118	477.94
485.336	458.94
485.554	459.94
485.772	478.94
485.99	478.94
486.209	480.94
486.427	477.94
486.645	496.94
486.863	524.94
487.081	518.94
487.299	523.94
487.517	487.94
487.735	515.94
487.953	509.94
488.171	499.94
488.389	503.94
488.607	523.94
488.825	523.94
489.043	509.94
489.261	522.94
489.479	528.94
489.696	500.94
489.914	519.94
490.132	517.94
490.35	499.94
490.568	534.94
490.786	532.94
491.003	550.94
491.221	573.94
491.439	557.94
491.657	558.94
491.874	580.94
492.092	584.94
492.31	603.94
492.527	588.94
492.745	564.94
492.963	584.94
493.18	583.94
493.398	572.94
493.615	579.94
493.833	581.94
494.05	606.94
494.268	593.94
494.485	589.94
494.703	580.94
494.92	607.94
495.138	605.94
495.355	601.94
495.573	609.94
495.79	603.94
496.008	589.94
496.225	595.94
496.442	592.94
496.66	584.94
496.877	597.94
497.094	606.94
497.312	609.94
497.529	606.94
497.746	616.94
497.963	602.94
498.181	643.94
498.398	655.94
498.615	660.94
498.832	637.94
499.049	660.94
499.267	635.94
499.484	681.94
499.701	665.94
499.918	701.94
500.135	687.94
500.352	715.94
500.569	705.94
500.786	708.94
501.003	738.94
501.22	712.94
501.437	715.94
501.654	695.94
501.871	717.94
