Data from 1981.PennyLincolnUp.Lamp.En5.5.200Scan.071819.P1_HRD10591_16-43-04-963.txt Node
Date: Thu Jul 18 16:43:04 EDT 2019
User: cochatt
Spectrometer: HR+D1059
Trigger mode: 1
Integration Time (sec): 1.000000E-1
Scans to average: 1
Electric dark correction enabled: true
Nonlinearity correction enabled: false
Boxcar width: 0
XAxis mode: Wavelengths
Number of Pixels in Spectrum: 2048
>>>>>Begin Spectral Data<<<<<
223.165	-24.81
223.4	-24.81
223.635	-24.81
223.869	-8.81
224.104	-12.81
224.338	-0.81
224.573	-8.81
224.808	-9.81
225.042	-3.81
225.277	-11.81
225.511	-0.81
225.746	3.19
225.98	1.19
226.215	1.19
226.449	2.19
226.683	19.19
226.918	26.19
227.152	29.19
227.387	41.19
227.621	21.19
227.856	36.19
228.09	39.19
228.324	49.19
228.559	46.19
228.793	66.19
229.027	104.19
229.262	91.19
229.496	105.19
229.73	138.19
229.964	143.19
230.199	130.19
230.433	111.19
230.667	120.19
230.901	110.19
231.136	114.19
231.37	95.19
231.604	107.19
231.838	98.19
232.072	104.19
232.306	98.19
232.541	106.19
232.775	96.19
233.009	117.19
233.243	107.19
233.477	117.19
233.711	98.19
233.945	103.19
234.179	110.19
234.413	106.19
234.647	124.19
234.881	113.19
235.115	121.19
235.349	113.19
235.583	124.19
235.817	129.19
236.051	120.19
236.285	116.19
236.519	120.19
236.753	130.19
236.987	132.19
237.221	171.19
237.455	244.19
237.689	194.19
237.922	161.19
238.156	145.19
238.39	126.19
238.624	129.19
238.858	135.19
239.091	123.19
239.325	125.19
239.559	134.19
239.793	122.19
240.027	142.19
240.26	150.19
240.494	151.19
240.728	139.19
240.961	153.19
241.195	154.19
241.429	135.19
241.662	135.19
241.896	128.19
242.13	133.19
242.363	133.19
242.597	124.19
242.83	143.19
243.064	139.19
243.298	137.19
243.531	150.19
243.765	131.19
243.998	141.19
244.232	137.19
244.465	127.19
244.699	129.19
244.932	135.19
245.166	146.19
245.399	153.19
245.633	139.19
245.866	133.19
246.099	135.19
246.333	155.19
246.566	150.19
246.8	160.19
247.033	148.19
247.266	153.19
247.5	167.19
247.733	159.19
247.966	190.19
248.2	164.19
248.433	189.19
248.666	183.19
248.899	192.19
249.133	200.19
249.366	203.19
249.599	210.19
249.832	183.19
250.066	205.19
250.299	189.19
250.532	187.19
250.765	205.19
250.998	230.19
251.231	235.19
251.465	223.19
251.698	214.19
251.931	209.19
252.164	199.19
252.397	206.19
252.63	197.19
252.863	225.19
253.096	230.19
253.329	229.19
253.562	212.19
253.795	214.19
254.028	248.19
254.261	231.19
254.494	259.19
254.727	263.19
254.96	304.19
255.193	302.19
255.426	261.19
255.659	244.19
255.892	232.19
256.124	231.19
256.357	265.19
256.59	241.19
256.823	227.19
257.056	232.19
257.289	207.19
257.521	216.19
257.754	190.19
257.987	236.19
258.22	218.19
258.452	233.19
258.685	209.19
258.918	224.19
259.151	217.19
259.383	210.19
259.616	223.19
259.849	237.19
260.081	239.19
260.314	272.19
260.547	261.19
260.779	283.19
261.012	248.19
261.244	237.19
261.477	255.19
261.71	232.19
261.942	232.19
262.175	275.19
262.407	244.19
262.64	222.19
262.872	221.19
263.105	219.19
263.337	221.19
263.57	227.19
263.802	215.19
264.035	222.19
264.267	210.19
264.499	227.19
264.732	238.19
264.964	220.19
265.197	229.19
265.429	214.19
265.661	225.19
265.894	224.19
266.126	222.19
266.358	216.19
266.591	207.19
266.823	226.19
267.055	218.19
267.287	237.19
267.52	219.19
267.752	253.19
267.984	225.19
268.216	230.19
268.448	240.19
268.681	237.19
268.913	264.19
269.145	257.19
269.377	295.19
269.609	282.19
269.841	279.19
270.073	283.19
270.306	318.19
270.538	351.19
270.77	334.19
271.002	317.19
271.234	308.19
271.466	328.19
271.698	330.19
271.93	324.19
272.162	349.19
272.394	326.19
272.626	320.19
272.858	306.19
273.09	313.19
273.322	269.19
273.553	303.19
273.785	277.19
274.017	271.19
274.249	297.19
274.481	288.19
274.713	286.19
274.945	281.19
275.176	274.19
275.408	286.19
275.64	288.19
275.872	286.19
276.104	267.19
276.335	277.19
276.567	267.19
276.799	294.19
277.031	331.19
277.262	329.19
277.494	342.19
277.726	311.19
277.957	320.19
278.189	298.19
278.421	288.19
278.652	294.19
278.884	291.19
279.115	278.19
279.347	256.19
279.579	272.19
279.81	281.19
280.042	280.19
280.273	263.19
280.505	265.19
280.736	261.19
280.968	261.19
281.199	269.19
281.431	287.19
281.662	267.19
281.894	256.19
282.125	289.19
282.356	282.19
282.588	318.19
282.819	307.19
283.051	269.19
283.282	274.19
283.513	240.19
283.745	280.19
283.976	271.19
284.207	289.19
284.439	289.19
284.67	287.19
284.901	276.19
285.132	267.19
285.364	293.19
285.595	291.19
285.826	289.19
286.057	283.19
286.288	288.19
286.52	268.19
286.751	281.19
286.982	279.19
287.213	274.19
287.444	294.19
287.675	305.19
287.906	285.19
288.138	301.19
288.369	298.19
288.6	316.19
288.831	297.19
289.062	287.19
289.293	303.19
289.524	305.19
289.755	291.19
289.986	286.19
290.217	298.19
290.448	286.19
290.679	301.19
290.91	277.19
291.141	280.19
291.371	293.19
291.602	270.19
291.833	287.19
292.064	296.19
292.295	287.19
292.526	286.19
292.757	283.19
292.987	296.19
293.218	294.19
293.449	290.19
293.68	295.19
293.91	281.19
294.141	295.19
294.372	282.19
294.603	296.19
294.833	285.19
295.064	296.19
295.295	292.19
295.525	298.19
295.756	303.19
295.987	305.19
296.217	323.19
296.448	338.19
296.679	316.19
296.909	291.19
297.14	302.19
297.37	276.19
297.601	310.19
297.831	301.19
298.062	296.19
298.292	290.19
298.523	304.19
298.753	299.19
298.984	287.19
299.214	294.19
299.445	308.19
299.675	303.19
299.905	311.19
300.136	323.19
300.366	309.19
300.597	314.19
300.827	318.19
301.057	303.19
301.288	333.19
301.518	325.19
301.748	321.19
301.979	337.19
302.209	315.19
302.439	317.19
302.669	318.19
302.9	325.19
303.13	331.19
303.36	322.19
303.59	331.19
303.82	326.19
304.051	329.19
304.281	335.19
304.511	328.19
304.741	323.19
304.971	289.19
305.201	317.19
305.431	326.19
305.661	320.19
305.891	312.19
306.121	336.19
306.352	334.19
306.582	323.19
306.812	347.19
307.042	346.19
307.272	337.19
307.502	332.19
307.731	339.19
307.961	350.19
308.191	326.19
308.421	331.19
308.651	351.19
308.881	346.19
309.111	353.19
309.341	343.19
309.571	343.19
309.8	362.19
310.03	382.19
310.26	372.19
310.49	374.19
310.72	386.19
310.949	408.19
311.179	431.19
311.409	372.19
311.639	384.19
311.868	399.19
312.098	407.19
312.328	402.19
312.557	410.19
312.787	429.19
313.017	403.19
313.246	404.19
313.476	389.19
313.706	384.19
313.935	394.19
314.165	387.19
314.394	413.19
314.624	406.19
314.853	418.19
315.083	391.19
315.312	391.19
315.542	374.19
315.771	375.19
316.001	368.19
316.23	377.19
316.46	383.19
316.689	387.19
316.919	372.19
317.148	384.19
317.377	391.19
317.607	386.19
317.836	375.19
318.065	397.19
318.295	380.19
318.524	384.19
318.753	389.19
318.983	385.19
319.212	379.19
319.441	394.19
319.67	390.19
319.9	408.19
320.129	400.19
320.358	390.19
320.587	401.19
320.816	404.19
321.046	406.19
321.275	401.19
321.504	394.19
321.733	404.19
321.962	424.19
322.191	444.19
322.42	446.19
322.649	490.19
322.878	486.19
323.108	486.19
323.337	529.19
323.566	559.19
323.795	594.19
324.024	660.19
324.253	837.19
324.482	1194.19
324.71	1805.19
324.939	2537.19
325.168	2113.19
325.397	1114.19
325.626	760.19
325.855	625.19
326.084	586.19
326.313	553.19
326.542	560.19
326.77	617.19
326.999	754.19
327.228	1045.19
327.457	1593.19
327.686	1855.19
327.914	1250.19
328.143	831.19
328.372	712.19
328.6	641.19
328.829	629.19
329.058	635.19
329.287	648.19
329.515	593.19
329.744	557.19
329.972	535.19
330.201	552.19
330.43	608.19
330.658	642.19
330.887	691.19
331.115	634.19
331.344	556.19
331.572	517.19
331.801	522.19
332.03	516.19
332.258	492.19
332.486	461.19
332.715	447.19
332.943	459.19
333.172	443.19
333.4	446.19
333.629	483.19
333.857	493.19
334.085	490.19
334.314	493.19
334.542	513.19
334.771	535.19
334.999	500.19
335.227	449.19
335.455	453.19
335.684	441.19
335.912	430.19
336.14	429.19
336.369	451.19
336.597	465.19
336.825	440.19
337.053	436.19
337.281	421.19
337.51	421.19
337.738	430.19
337.966	420.19
338.194	447.19
338.422	433.19
338.65	430.19
338.878	413.19
339.106	425.19
339.334	413.19
339.562	407.19
339.79	413.19
340.018	426.19
340.246	430.19
340.474	423.19
340.702	431.19
340.93	413.19
341.158	425.19
341.386	431.19
341.614	427.19
341.842	433.19
342.07	415.19
342.298	422.19
342.526	420.19
342.754	415.19
342.981	392.19
343.209	385.19
343.437	421.19
343.665	403.19
343.893	422.19
344.12	411.19
344.348	414.19
344.576	430.19
344.804	418.19
345.031	411.19
345.259	457.19
345.487	454.19
345.714	442.19
345.942	414.19
346.17	418.19
346.397	418.19
346.625	413.19
346.853	407.19
347.08	392.19
347.308	420.19
347.535	405.19
347.763	421.19
347.99	423.19
348.218	432.19
348.445	405.19
348.673	408.19
348.9	421.19
349.128	398.19
349.355	393.19
349.583	382.19
349.81	393.19
350.037	391.19
350.265	386.19
350.492	386.19
350.72	380.19
350.947	395.19
351.174	407.19
351.402	411.19
351.629	414.19
351.856	422.19
352.083	419.19
352.311	414.19
352.538	443.19
352.765	426.19
352.992	418.19
353.22	395.19
353.447	409.19
353.674	390.19
353.901	391.19
354.128	382.19
354.355	369.19
354.583	370.19
354.81	359.19
355.037	363.19
355.264	375.19
355.491	368.19
355.718	363.19
355.945	351.19
356.172	361.19
356.399	353.19
356.626	367.19
356.853	360.19
357.08	367.19
357.307	359.19
357.534	366.19
357.761	358.19
357.988	383.19
358.215	361.19
358.441	367.19
358.668	385.19
358.895	355.19
359.122	383.19
359.349	383.19
359.576	403.19
359.802	430.19
360.029	449.19
360.256	475.19
360.483	443.19
360.709	414.19
360.936	399.19
361.163	407.19
361.39	398.19
361.616	423.19
361.843	407.19
362.07	397.19
362.296	384.19
362.523	393.19
362.749	388.19
362.976	380.19
363.203	370.19
363.429	367.19
363.656	385.19
363.882	365.19
364.109	365.19
364.335	369.19
364.562	359.19
364.788	367.19
365.015	375.19
365.241	394.19
365.468	379.19
365.694	394.19
365.92	375.19
366.147	365.19
366.373	379.19
366.599	365.19
366.826	371.19
367.052	357.19
367.278	369.19
367.505	377.19
367.731	370.19
367.957	372.19
368.184	379.19
368.41	373.19
368.636	377.19
368.862	378.19
369.089	387.19
369.315	353.19
369.541	365.19
369.767	361.19
369.993	377.19
370.219	355.19
370.445	357.19
370.672	353.19
370.898	354.19
371.124	366.19
371.35	367.19
371.576	352.19
371.802	337.19
372.028	347.19
372.254	353.19
372.48	361.19
372.706	354.19
372.932	348.19
373.158	358.19
373.384	344.19
373.61	353.19
373.835	349.19
374.061	359.19
374.287	348.19
374.513	375.19
374.739	366.19
374.965	368.19
375.191	358.19
375.416	369.19
375.642	339.19
375.868	343.19
376.094	347.19
376.319	352.19
376.545	343.19
376.771	340.19
376.997	336.19
377.222	350.19
377.448	344.19
377.674	349.19
377.899	327.19
378.125	331.19
378.35	357.19
378.576	362.19
378.802	329.19
379.027	327.19
379.253	336.19
379.478	340.19
379.704	333.19
379.929	338.19
380.155	356.19
380.38	353.19
380.606	349.19
380.831	341.19
381.057	343.19
381.282	333.19
381.507	345.19
381.733	335.19
381.958	346.19
382.184	352.19
382.409	354.19
382.634	352.19
382.86	344.19
383.085	336.19
383.31	347.19
383.535	345.19
383.761	369.19
383.986	349.19
384.211	365.19
384.436	365.19
384.662	348.19
384.887	364.19
385.112	347.19
385.337	379.19
385.562	357.19
385.787	372.19
386.013	373.19
386.238	382.19
386.463	375.19
386.688	379.19
386.913	371.19
387.138	365.19
387.363	354.19
387.588	363.19
387.813	360.19
388.038	355.19
388.263	374.19
388.488	354.19
388.713	352.19
388.938	376.19
389.163	389.19
389.387	362.19
389.612	365.19
389.837	385.19
390.062	356.19
390.287	379.19
390.512	374.19
390.736	365.19
390.961	359.19
391.186	360.19
391.411	367.19
391.636	362.19
391.86	387.19
392.085	372.19
392.31	347.19
392.534	367.19
392.759	390.19
392.984	363.19
393.208	363.19
393.433	358.19
393.658	361.19
393.882	351.19
394.107	369.19
394.331	365.19
394.556	362.19
394.78	354.19
395.005	369.19
395.229	360.19
395.454	346.19
395.678	373.19
395.903	367.19
396.127	408.19
396.352	382.19
396.576	373.19
396.801	382.19
397.025	373.19
397.249	359.19
397.474	385.19
397.698	386.19
397.922	399.19
398.147	402.19
398.371	406.19
398.595	409.19
398.82	381.19
399.044	386.19
399.268	403.19
399.492	435.19
399.717	430.19
399.941	459.19
400.165	504.19
400.389	504.19
400.613	473.19
400.837	445.19
401.062	429.19
401.286	414.19
401.51	424.19
401.734	402.19
401.958	411.19
402.182	426.19
402.406	418.19
402.63	416.19
402.854	409.19
403.078	401.19
403.302	423.19
403.526	421.19
403.75	419.19
403.974	436.19
404.198	392.19
404.422	445.19
404.645	431.19
404.869	420.19
405.093	449.19
405.317	453.19
405.541	524.19
405.765	473.19
405.988	462.19
406.212	457.19
406.436	463.19
406.66	482.19
406.883	470.19
407.107	472.19
407.331	535.19
407.555	564.19
407.778	564.19
408.002	522.19
408.226	465.19
408.449	455.19
408.673	494.19
408.896	482.19
409.12	534.19
409.344	509.19
409.567	447.19
409.791	432.19
410.014	415.19
410.238	409.19
410.461	421.19
410.685	435.19
410.908	432.19
411.132	452.19
411.355	509.19
411.578	489.19
411.802	445.19
412.025	417.19
412.249	441.19
412.472	457.19
412.695	487.19
412.919	460.19
413.142	431.19
413.365	409.19
413.589	424.19
413.812	399.19
414.035	391.19
414.258	400.19
414.482	381.19
414.705	387.19
414.928	390.19
415.151	400.19
415.374	394.19
415.597	375.19
415.821	386.19
416.044	381.19
416.267	387.19
416.49	385.19
416.713	406.19
416.936	385.19
417.159	389.19
417.382	399.19
417.605	405.19
417.828	419.19
418.051	401.19
418.274	407.19
418.497	404.19
418.72	398.19
418.943	407.19
419.166	401.19
419.389	434.19
419.611	400.19
419.834	432.19
420.057	418.19
420.28	438.19
420.503	403.19
420.726	406.19
420.948	437.19
421.171	468.19
421.394	471.19
421.617	441.19
421.839	409.19
422.062	424.19
422.285	442.19
422.507	511.19
422.73	569.19
422.953	528.19
423.175	461.19
423.398	442.19
423.621	443.19
423.843	453.19
424.066	452.19
424.288	459.19
424.511	468.19
424.733	517.19
424.956	592.19
425.178	580.19
425.401	567.19
425.623	588.19
425.846	523.19
426.068	494.19
426.291	457.19
426.513	465.19
426.735	489.19
426.958	525.19
427.18	586.19
427.402	681.19
427.625	799.19
427.847	695.19
428.069	592.19
428.292	546.19
428.514	482.19
428.736	451.19
428.958	453.19
429.181	423.19
429.403	447.19
429.625	418.19
429.847	463.19
430.069	529.19
430.292	537.19
430.514	445.19
430.736	412.19
430.958	418.19
431.18	414.19
431.402	396.19
431.624	391.19
431.846	391.19
432.068	394.19
432.29	381.19
432.512	395.19
432.734	404.19
432.956	415.19
433.178	409.19
433.4	411.19
433.622	427.19
433.844	387.19
434.066	390.19
434.287	389.19
434.509	403.19
434.731	400.19
434.953	412.19
435.175	414.19
435.397	454.19
435.618	456.19
435.84	519.19
436.062	591.19
436.284	664.19
436.505	552.19
436.727	473.19
436.949	469.19
437.17	437.19
437.392	435.19
437.614	449.19
437.835	495.19
438.057	592.19
438.278	672.19
438.5	681.19
438.721	711.19
438.943	677.19
439.165	537.19
439.386	498.19
439.608	501.19
439.829	489.19
440.05	518.19
440.272	567.19
440.493	511.19
440.715	474.19
440.936	423.19
441.158	453.19
441.379	431.19
441.6	455.19
441.822	469.19
442.043	513.19
442.264	570.19
442.486	607.19
442.707	521.19
442.928	483.19
443.149	483.19
443.371	517.19
443.592	524.19
443.813	621.19
444.034	679.19
444.255	557.19
444.476	465.19
444.698	495.19
444.919	464.19
445.14	576.19
445.361	497.19
445.582	537.19
445.803	558.19
446.024	669.19
446.245	689.19
446.466	611.19
446.687	502.19
446.908	481.19
447.129	452.19
447.35	439.19
447.571	443.19
447.792	447.19
448.013	437.19
448.234	454.19
448.455	512.19
448.675	627.19
448.896	701.19
449.117	617.19
449.338	560.19
449.559	649.19
449.779	719.19
450	580.19
450.221	507.19
450.442	475.19
450.662	435.19
450.883	439.19
451.104	456.19
451.324	455.19
451.545	424.19
451.766	413.19
451.986	411.19
452.207	399.19
452.428	375.19
452.648	372.19
452.869	390.19
453.089	391.19
453.31	414.19
453.53	394.19
453.751	353.19
453.971	391.19
454.192	399.19
454.412	417.19
454.633	395.19
454.853	378.19
455.073	374.19
455.294	407.19
455.514	469.19
455.734	463.19
455.955	405.19
456.175	391.19
456.395	356.19
456.616	363.19
456.836	365.19
457.056	368.19
457.276	369.19
457.497	336.19
457.717	362.19
457.937	368.19
458.157	373.19
458.377	368.19
458.598	393.19
458.818	459.19
459.038	527.19
459.258	564.19
459.478	465.19
459.698	397.19
459.918	383.19
460.138	399.19
460.358	396.19
460.578	390.19
460.798	390.19
461.018	393.19
461.238	376.19
461.458	386.19
461.678	376.19
461.898	372.19
462.118	375.19
462.338	386.19
462.558	383.19
462.777	401.19
462.997	385.19
463.217	393.19
463.437	405.19
463.657	393.19
463.876	394.19
464.096	396.19
464.316	408.19
464.536	426.19
464.755	417.19
464.975	421.19
465.195	486.19
465.414	539.19
465.634	474.19
465.854	421.19
466.073	426.19
466.293	395.19
466.512	374.19
466.732	405.19
466.951	381.19
467.171	385.19
467.391	376.19
467.61	385.19
467.829	408.19
468.049	396.19
468.268	387.19
468.488	372.19
468.707	373.19
468.927	369.19
469.146	357.19
469.365	374.19
469.585	385.19
469.804	377.19
470.023	383.19
470.243	385.19
470.462	409.19
470.681	422.19
470.901	413.19
471.12	381.19
471.339	414.19
471.558	394.19
471.777	402.19
471.997	375.19
472.216	399.19
472.435	427.19
472.654	408.19
472.873	375.19
473.092	405.19
473.311	390.19
473.53	406.19
473.749	406.19
473.968	425.19
474.187	568.19
474.406	571.19
474.625	478.19
474.844	413.19
475.063	407.19
475.282	395.19
475.501	387.19
475.72	394.19
475.939	411.19
476.158	397.19
476.377	393.19
476.596	400.19
476.814	410.19
477.033	401.19
477.252	426.19
477.471	394.19
477.69	389.19
477.908	417.19
478.127	421.19
478.346	418.19
478.564	412.19
478.783	425.19
479.002	434.19
479.22	441.19
479.439	448.19
479.658	482.19
479.876	478.19
480.095	475.19
480.313	509.19
480.532	478.19
480.751	449.19
480.969	475.19
481.188	567.19
481.406	590.19
481.624	505.19
481.843	478.19
482.061	473.19
482.28	444.19
482.498	478.19
482.717	463.19
482.935	447.19
483.153	459.19
483.372	463.19
483.59	458.19
483.808	465.19
484.027	460.19
484.245	463.19
484.463	464.19
484.681	489.19
484.9	465.19
485.118	470.19
485.336	491.19
485.554	488.19
485.772	468.19
485.99	479.19
486.209	482.19
486.427	484.19
486.645	489.19
486.863	514.19
487.081	503.19
487.299	481.19
487.517	512.19
487.735	493.19
487.953	463.19
488.171	498.19
488.389	505.19
488.607	506.19
488.825	500.19
489.043	519.19
489.261	509.19
489.479	495.19
489.696	518.19
489.914	495.19
490.132	509.19
490.35	505.19
490.568	521.19
490.786	496.19
491.003	530.19
491.221	527.19
491.439	537.19
491.657	544.19
491.874	565.19
492.092	582.19
492.31	582.19
492.527	570.19
492.745	601.19
492.963	565.19
493.18	561.19
493.398	574.19
493.615	574.19
493.833	559.19
494.05	594.19
494.268	587.19
494.485	585.19
494.703	564.19
494.92	586.19
495.138	577.19
495.355	590.19
495.573	593.19
495.79	574.19
496.008	602.19
496.225	595.19
496.442	580.19
496.66	573.19
496.877	585.19
497.094	584.19
497.312	607.19
497.529	596.19
497.746	582.19
497.963	611.19
498.181	633.19
498.398	639.19
498.615	623.19
498.832	651.19
499.049	631.19
499.267	669.19
499.484	663.19
499.701	659.19
499.918	676.19
500.135	706.19
500.352	716.19
500.569	715.19
500.786	721.19
501.003	734.19
501.22	727.19
501.437	718.19
501.654	711.19
501.871	717.19
502.088	689.19
