Data from 1981.PennyLincolnUp.Lamp.En5.5.200Scan.071819.P1_HRD10591_16-42-34-961.txt Node
Date: Thu Jul 18 16:42:34 EDT 2019
User: cochatt
Spectrometer: HR+D1059
Trigger mode: 1
Integration Time (sec): 1.000000E-1
Scans to average: 1
Electric dark correction enabled: true
Nonlinearity correction enabled: false
Boxcar width: 0
XAxis mode: Wavelengths
Number of Pixels in Spectrum: 2048
>>>>>Begin Spectral Data<<<<<
223.165	-8.19
223.4	-8.19
223.635	-8.19
223.869	-14.19
224.104	-18.19
224.338	-25.19
224.573	-31.19
224.808	-5.19
225.042	-13.19
225.277	-8.19
225.511	8.81
225.746	7.81
225.98	10.81
226.215	-5.19
226.449	17.81
226.683	28.81
226.918	32.81
227.152	21.81
227.387	39.81
227.621	43.81
227.856	31.81
228.09	54.81
228.324	54.81
228.559	57.81
228.793	67.81
229.027	95.81
229.262	107.81
229.496	111.81
229.73	143.81
229.964	153.81
230.199	135.81
230.433	122.81
230.667	117.81
230.901	104.81
231.136	114.81
231.37	117.81
231.604	114.81
231.838	109.81
232.072	124.81
232.306	118.81
232.541	117.81
232.775	97.81
233.009	115.81
233.243	121.81
233.477	105.81
233.711	113.81
233.945	114.81
234.179	121.81
234.413	119.81
234.647	122.81
234.881	122.81
235.115	114.81
235.349	122.81
235.583	127.81
235.817	122.81
236.051	129.81
236.285	127.81
236.519	127.81
236.753	121.81
236.987	139.81
237.221	170.81
237.455	235.81
237.689	199.81
237.922	142.81
238.156	134.81
238.39	135.81
238.624	136.81
238.858	131.81
239.091	131.81
239.325	143.81
239.559	122.81
239.793	132.81
240.027	159.81
240.26	138.81
240.494	141.81
240.728	146.81
240.961	148.81
241.195	162.81
241.429	115.81
241.662	148.81
241.896	139.81
242.13	140.81
242.363	144.81
242.597	141.81
242.83	141.81
243.064	147.81
243.298	148.81
243.531	143.81
243.765	142.81
243.998	130.81
244.232	146.81
244.465	147.81
244.699	149.81
244.932	162.81
245.166	158.81
245.399	138.81
245.633	163.81
245.866	137.81
246.099	145.81
246.333	149.81
246.566	150.81
246.8	145.81
247.033	161.81
247.266	149.81
247.5	170.81
247.733	175.81
247.966	177.81
248.2	181.81
248.433	163.81
248.666	210.81
248.899	201.81
249.133	204.81
249.366	215.81
249.599	217.81
249.832	200.81
250.066	186.81
250.299	204.81
250.532	200.81
250.765	221.81
250.998	221.81
251.231	242.81
251.465	211.81
251.698	207.81
251.931	214.81
252.164	210.81
252.397	208.81
252.63	189.81
252.863	191.81
253.096	226.81
253.329	235.81
253.562	241.81
253.795	236.81
254.028	234.81
254.261	220.81
254.494	259.81
254.727	282.81
254.96	315.81
255.193	298.81
255.426	273.81
255.659	253.81
255.892	249.81
256.124	234.81
256.357	254.81
256.59	243.81
256.823	228.81
257.056	239.81
257.289	223.81
257.521	225.81
257.754	232.81
257.987	219.81
258.22	227.81
258.452	220.81
258.685	211.81
258.918	229.81
259.151	218.81
259.383	226.81
259.616	226.81
259.849	213.81
260.081	257.81
260.314	253.81
260.547	277.81
260.779	251.81
261.012	268.81
261.244	249.81
261.477	228.81
261.71	236.81
261.942	233.81
262.175	241.81
262.407	253.81
262.64	227.81
262.872	209.81
263.105	238.81
263.337	215.81
263.57	211.81
263.802	224.81
264.035	205.81
264.267	226.81
264.499	227.81
264.732	204.81
264.964	212.81
265.197	206.81
265.429	232.81
265.661	238.81
265.894	210.81
266.126	223.81
266.358	222.81
266.591	206.81
266.823	220.81
267.055	241.81
267.287	229.81
267.52	231.81
267.752	228.81
267.984	227.81
268.216	225.81
268.448	241.81
268.681	219.81
268.913	248.81
269.145	259.81
269.377	269.81
269.609	286.81
269.841	280.81
270.073	282.81
270.306	316.81
270.538	332.81
270.77	335.81
271.002	332.81
271.234	318.81
271.466	317.81
271.698	341.81
271.93	315.81
272.162	358.81
272.394	353.81
272.626	311.81
272.858	326.81
273.09	290.81
273.322	309.81
273.553	287.81
273.785	287.81
274.017	273.81
274.249	265.81
274.481	278.81
274.713	291.81
274.945	282.81
275.176	277.81
275.408	270.81
275.64	265.81
275.872	258.81
276.104	286.81
276.335	271.81
276.567	266.81
276.799	292.81
277.031	330.81
277.262	349.81
277.494	345.81
277.726	321.81
277.957	291.81
278.189	297.81
278.421	281.81
278.652	269.81
278.884	268.81
279.115	273.81
279.347	285.81
279.579	266.81
279.81	271.81
280.042	266.81
280.273	269.81
280.505	267.81
280.736	282.81
280.968	269.81
281.199	269.81
281.431	277.81
281.662	265.81
281.894	270.81
282.125	278.81
282.356	298.81
282.588	303.81
282.819	311.81
283.051	283.81
283.282	277.81
283.513	288.81
283.745	273.81
283.976	264.81
284.207	283.81
284.439	286.81
284.67	273.81
284.901	283.81
285.132	282.81
285.364	298.81
285.595	276.81
285.826	267.81
286.057	278.81
286.288	281.81
286.52	295.81
286.751	294.81
286.982	286.81
287.213	275.81
287.444	289.81
287.675	294.81
287.906	306.81
288.138	314.81
288.369	290.81
288.6	307.81
288.831	296.81
289.062	300.81
289.293	289.81
289.524	294.81
289.755	279.81
289.986	279.81
290.217	296.81
290.448	289.81
290.679	297.81
290.91	293.81
291.141	269.81
291.371	306.81
291.602	281.81
291.833	262.81
292.064	299.81
292.295	298.81
292.526	296.81
292.757	280.81
292.987	281.81
293.218	286.81
293.449	286.81
293.68	286.81
293.91	293.81
294.141	295.81
294.372	293.81
294.603	295.81
294.833	302.81
295.064	286.81
295.295	285.81
295.525	283.81
295.756	296.81
295.987	317.81
296.217	328.81
296.448	344.81
296.679	299.81
296.909	300.81
297.14	301.81
297.37	281.81
297.601	303.81
297.831	302.81
298.062	286.81
298.292	316.81
298.523	300.81
298.753	318.81
298.984	297.81
299.214	300.81
299.445	306.81
299.675	333.81
299.905	316.81
300.136	307.81
300.366	294.81
300.597	309.81
300.827	323.81
301.057	317.81
301.288	328.81
301.518	315.81
301.748	313.81
301.979	319.81
302.209	326.81
302.439	327.81
302.669	331.81
302.9	318.81
303.13	313.81
303.36	322.81
303.59	344.81
303.82	342.81
304.051	340.81
304.281	337.81
304.511	323.81
304.741	306.81
304.971	335.81
305.201	307.81
305.431	319.81
305.661	325.81
305.891	311.81
306.121	350.81
306.352	347.81
306.582	347.81
306.812	349.81
307.042	322.81
307.272	322.81
307.502	333.81
307.731	322.81
307.961	330.81
308.191	350.81
308.421	325.81
308.651	337.81
308.881	348.81
309.111	357.81
309.341	344.81
309.571	351.81
309.8	361.81
310.03	375.81
310.26	371.81
310.49	389.81
310.72	390.81
310.949	420.81
311.179	404.81
311.409	396.81
311.639	380.81
311.868	394.81
312.098	391.81
312.328	387.81
312.557	404.81
312.787	423.81
313.017	443.81
313.246	407.81
313.476	381.81
313.706	369.81
313.935	382.81
314.165	393.81
314.394	403.81
314.624	401.81
314.853	392.81
315.083	385.81
315.312	385.81
315.542	377.81
315.771	385.81
316.001	377.81
316.23	364.81
316.46	388.81
316.689	376.81
316.919	406.81
317.148	403.81
317.377	393.81
317.607	393.81
317.836	391.81
318.065	366.81
318.295	391.81
318.524	373.81
318.753	367.81
318.983	389.81
319.212	376.81
319.441	389.81
319.67	398.81
319.9	398.81
320.129	375.81
320.358	361.81
320.587	401.81
320.816	385.81
321.046	404.81
321.275	418.81
321.504	411.81
321.733	421.81
321.962	411.81
322.191	454.81
322.42	447.81
322.649	468.81
322.878	481.81
323.108	491.81
323.337	526.81
323.566	539.81
323.795	596.81
324.024	638.81
324.253	830.81
324.482	1168.81
324.71	1768.81
324.939	2475.81
325.168	2102.81
325.397	1081.81
325.626	740.81
325.855	609.81
326.084	564.81
326.313	564.81
326.542	549.81
326.77	625.81
326.999	774.81
327.228	1075.81
327.457	1545.81
327.686	1823.81
327.914	1219.81
328.143	806.81
328.372	684.81
328.6	650.81
328.829	622.81
329.058	654.81
329.287	651.81
329.515	590.81
329.744	542.81
329.972	561.81
330.201	602.81
330.43	606.81
330.658	620.81
330.887	652.81
331.115	629.81
331.344	549.81
331.572	504.81
331.801	490.81
332.03	511.81
332.258	480.81
332.486	459.81
332.715	433.81
332.943	449.81
333.172	442.81
333.4	452.81
333.629	451.81
333.857	463.81
334.085	478.81
334.314	499.81
334.542	520.81
334.771	545.81
334.999	489.81
335.227	475.81
335.455	443.81
335.684	450.81
335.912	429.81
336.14	418.81
336.369	437.81
336.597	450.81
336.825	442.81
337.053	435.81
337.281	427.81
337.51	409.81
337.738	429.81
337.966	446.81
338.194	436.81
338.422	417.81
338.65	418.81
338.878	419.81
339.106	400.81
339.334	420.81
339.562	427.81
339.79	414.81
340.018	441.81
340.246	421.81
340.474	421.81
340.702	425.81
340.93	418.81
341.158	416.81
341.386	438.81
341.614	435.81
341.842	422.81
342.07	414.81
342.298	418.81
342.526	383.81
342.754	408.81
342.981	398.81
343.209	385.81
343.437	394.81
343.665	414.81
343.893	414.81
344.12	403.81
344.348	416.81
344.576	424.81
344.804	434.81
345.031	424.81
345.259	451.81
345.487	447.81
345.714	430.81
345.942	385.81
346.17	408.81
346.397	394.81
346.625	403.81
346.853	398.81
347.08	415.81
347.308	404.81
347.535	438.81
347.763	420.81
347.99	421.81
348.218	419.81
348.445	433.81
348.673	399.81
348.9	405.81
349.128	405.81
349.355	396.81
349.583	391.81
349.81	371.81
350.037	378.81
350.265	389.81
350.492	383.81
350.72	398.81
350.947	391.81
351.174	404.81
351.402	425.81
351.629	407.81
351.856	406.81
352.083	427.81
352.311	442.81
352.538	439.81
352.765	433.81
352.992	431.81
353.22	402.81
353.447	389.81
353.674	391.81
353.901	397.81
354.128	374.81
354.355	362.81
354.583	361.81
354.81	379.81
355.037	369.81
355.264	354.81
355.491	377.81
355.718	363.81
355.945	376.81
356.172	379.81
356.399	361.81
356.626	354.81
356.853	380.81
357.08	358.81
357.307	365.81
357.534	357.81
357.761	370.81
357.988	355.81
358.215	369.81
358.441	386.81
358.668	363.81
358.895	345.81
359.122	385.81
359.349	354.81
359.576	389.81
359.802	411.81
360.029	446.81
360.256	454.81
360.483	462.81
360.709	388.81
360.936	405.81
361.163	402.81
361.39	390.81
361.616	408.81
361.843	405.81
362.07	396.81
362.296	402.81
362.523	389.81
362.749	400.81
362.976	399.81
363.203	365.81
363.429	375.81
363.656	369.81
363.882	356.81
364.109	372.81
364.335	372.81
364.562	369.81
364.788	370.81
365.015	386.81
365.241	371.81
365.468	356.81
365.694	379.81
365.92	377.81
366.147	363.81
366.373	367.81
366.599	366.81
366.826	378.81
367.052	345.81
367.278	348.81
367.505	346.81
367.731	376.81
367.957	383.81
368.184	366.81
368.41	376.81
368.636	359.81
368.862	381.81
369.089	363.81
369.315	381.81
369.541	354.81
369.767	353.81
369.993	344.81
370.219	351.81
370.445	359.81
370.672	350.81
370.898	348.81
371.124	340.81
371.35	354.81
371.576	337.81
371.802	360.81
372.028	369.81
372.254	329.81
372.48	334.81
372.706	353.81
372.932	338.81
373.158	364.81
373.384	358.81
373.61	356.81
373.835	365.81
374.061	354.81
374.287	369.81
374.513	375.81
374.739	332.81
374.965	363.81
375.191	357.81
375.416	373.81
375.642	337.81
375.868	354.81
376.094	351.81
376.319	346.81
376.545	359.81
376.771	354.81
376.997	336.81
377.222	343.81
377.448	343.81
377.674	348.81
377.899	334.81
378.125	356.81
378.35	343.81
378.576	359.81
378.802	347.81
379.027	341.81
379.253	340.81
379.478	347.81
379.704	348.81
379.929	345.81
380.155	334.81
380.38	326.81
380.606	345.81
380.831	369.81
381.057	362.81
381.282	344.81
381.507	353.81
381.733	361.81
381.958	352.81
382.184	359.81
382.409	344.81
382.634	337.81
382.86	362.81
383.085	377.81
383.31	369.81
383.535	352.81
383.761	363.81
383.986	354.81
384.211	365.81
384.436	345.81
384.662	335.81
384.887	344.81
385.112	334.81
385.337	341.81
385.562	357.81
385.787	357.81
386.013	389.81
386.238	363.81
386.463	377.81
386.688	359.81
386.913	365.81
387.138	360.81
387.363	335.81
387.588	353.81
387.813	361.81
388.038	341.81
388.263	372.81
388.488	354.81
388.713	367.81
388.938	358.81
389.163	362.81
389.387	367.81
389.612	359.81
389.837	367.81
390.062	363.81
390.287	336.81
390.512	358.81
390.736	367.81
390.961	364.81
391.186	362.81
391.411	346.81
391.636	373.81
391.86	356.81
392.085	364.81
392.31	392.81
392.534	372.81
392.759	362.81
392.984	347.81
393.208	370.81
393.433	375.81
393.658	346.81
393.882	363.81
394.107	357.81
394.331	372.81
394.556	366.81
394.78	368.81
395.005	365.81
395.229	360.81
395.454	365.81
395.678	342.81
395.903	367.81
396.127	407.81
396.352	403.81
396.576	376.81
396.801	373.81
397.025	362.81
397.249	369.81
397.474	369.81
397.698	387.81
397.922	399.81
398.147	415.81
398.371	405.81
398.595	386.81
398.82	397.81
399.044	401.81
399.268	406.81
399.492	412.81
399.717	438.81
399.941	440.81
400.165	493.81
400.389	493.81
400.613	456.81
400.837	434.81
401.062	419.81
401.286	423.81
401.51	410.81
401.734	402.81
401.958	409.81
402.182	399.81
402.406	428.81
402.63	398.81
402.854	395.81
403.078	408.81
403.302	405.81
403.526	405.81
403.75	413.81
403.974	427.81
404.198	414.81
404.422	425.81
404.645	421.81
404.869	426.81
405.093	463.81
405.317	513.81
405.541	515.81
405.765	485.81
405.988	454.81
406.212	442.81
406.436	511.81
406.66	477.81
406.883	457.81
407.107	471.81
407.331	513.81
407.555	561.81
407.778	548.81
408.002	470.81
408.226	472.81
408.449	449.81
408.673	470.81
408.896	454.81
409.12	535.81
409.344	473.81
409.567	440.81
409.791	435.81
410.014	412.81
410.238	413.81
410.461	420.81
410.685	427.81
410.908	434.81
411.132	472.81
411.355	488.81
411.578	465.81
411.802	410.81
412.025	409.81
412.249	410.81
412.472	434.81
412.695	468.81
412.919	453.81
413.142	413.81
413.365	402.81
413.589	391.81
413.812	415.81
414.035	402.81
414.258	382.81
414.482	397.81
414.705	403.81
414.928	399.81
415.151	389.81
415.374	374.81
415.597	390.81
415.821	392.81
416.044	389.81
416.267	384.81
416.49	396.81
416.713	379.81
416.936	399.81
417.159	381.81
417.382	386.81
417.605	394.81
417.828	434.81
418.051	421.81
418.274	412.81
418.497	418.81
418.72	405.81
418.943	369.81
419.166	417.81
419.389	417.81
419.611	403.81
419.834	406.81
420.057	397.81
420.28	421.81
420.503	402.81
420.726	421.81
420.948	439.81
421.171	475.81
421.394	485.81
421.617	430.81
421.839	414.81
422.062	424.81
422.285	421.81
422.507	481.81
422.73	538.81
422.953	543.81
423.175	452.81
423.398	417.81
423.621	418.81
423.843	448.81
424.066	452.81
424.288	471.81
424.511	493.81
424.733	535.81
424.956	588.81
425.178	574.81
425.401	558.81
425.623	578.81
425.846	475.81
426.068	472.81
426.291	480.81
426.513	466.81
426.735	486.81
426.958	497.81
427.18	584.81
427.402	704.81
427.625	758.81
427.847	689.81
428.069	596.81
428.292	532.81
428.514	474.81
428.736	457.81
428.958	443.81
429.181	419.81
429.403	426.81
429.625	435.81
429.847	489.81
430.069	547.81
430.292	503.81
430.514	457.81
430.736	413.81
430.958	404.81
431.18	398.81
431.402	405.81
431.624	419.81
431.846	395.81
432.068	396.81
432.29	396.81
432.512	405.81
432.734	403.81
432.956	406.81
433.178	421.81
433.4	416.81
433.622	398.81
433.844	397.81
434.066	381.81
434.287	399.81
434.509	400.81
434.731	418.81
434.953	404.81
435.175	421.81
435.397	447.81
435.618	465.81
435.84	501.81
436.062	578.81
436.284	657.81
436.505	574.81
436.727	491.81
436.949	466.81
437.17	426.81
437.392	409.81
437.614	466.81
437.835	495.81
438.057	568.81
438.278	645.81
438.5	669.81
438.721	673.81
438.943	656.81
439.165	553.81
439.386	481.81
439.608	490.81
439.829	480.81
440.05	535.81
440.272	567.81
440.493	514.81
440.715	474.81
440.936	471.81
441.158	441.81
441.379	416.81
441.6	429.81
441.822	470.81
442.043	501.81
442.264	546.81
442.486	622.81
442.707	515.81
442.928	459.81
443.149	501.81
443.371	511.81
443.592	524.81
443.813	629.81
444.034	665.81
444.255	537.81
444.476	478.81
444.698	467.81
444.919	463.81
445.14	548.81
445.361	521.81
445.582	506.81
445.803	595.81
446.024	683.81
446.245	675.81
446.466	610.81
446.687	491.81
446.908	476.81
447.129	463.81
447.35	451.81
447.571	442.81
447.792	415.81
448.013	430.81
448.234	458.81
448.455	520.81
448.675	627.81
448.896	682.81
449.117	600.81
449.338	569.81
449.559	645.81
449.779	732.81
450	597.81
450.221	493.81
450.442	459.81
450.662	427.81
450.883	461.81
451.104	466.81
451.324	436.81
451.545	417.81
451.766	414.81
451.986	411.81
452.207	388.81
452.428	381.81
452.648	394.81
452.869	376.81
453.089	385.81
453.31	389.81
453.53	398.81
453.751	395.81
453.971	380.81
454.192	397.81
454.412	405.81
454.633	404.81
454.853	375.81
455.073	385.81
455.294	418.81
455.514	495.81
455.734	466.81
455.955	397.81
456.175	369.81
456.395	351.81
456.616	353.81
456.836	377.81
457.056	349.81
457.276	340.81
457.497	361.81
457.717	358.81
457.937	370.81
458.157	361.81
458.377	379.81
458.598	407.81
458.818	448.81
459.038	539.81
459.258	541.81
459.478	466.81
459.698	426.81
459.918	398.81
460.138	376.81
460.358	381.81
460.578	384.81
460.798	381.81
461.018	392.81
461.238	402.81
461.458	383.81
461.678	372.81
461.898	388.81
462.118	375.81
462.338	390.81
462.558	391.81
462.777	373.81
462.997	390.81
463.217	402.81
463.437	411.81
463.657	398.81
463.876	391.81
464.096	389.81
464.316	403.81
464.536	417.81
464.755	405.81
464.975	417.81
465.195	477.81
465.414	553.81
465.634	475.81
465.854	424.81
466.073	426.81
466.293	405.81
466.512	378.81
466.732	358.81
466.951	376.81
467.171	391.81
467.391	399.81
467.61	393.81
467.829	413.81
468.049	400.81
468.268	409.81
468.488	377.81
468.707	377.81
468.927	361.81
469.146	353.81
469.365	371.81
469.585	377.81
469.804	391.81
470.023	389.81
470.243	387.81
470.462	398.81
470.681	392.81
470.901	398.81
471.12	376.81
471.339	395.81
471.558	393.81
471.777	423.81
471.997	379.81
472.216	400.81
472.435	439.81
472.654	422.81
472.873	403.81
473.092	388.81
473.311	377.81
473.53	376.81
473.749	421.81
473.968	481.81
474.187	545.81
474.406	581.81
474.625	455.81
474.844	423.81
475.063	391.81
475.282	384.81
475.501	393.81
475.72	398.81
475.939	414.81
476.158	377.81
476.377	412.81
476.596	395.81
476.814	419.81
477.033	431.81
477.252	396.81
477.471	404.81
477.69	427.81
477.908	414.81
478.127	418.81
478.346	451.81
478.564	443.81
478.783	429.81
479.002	414.81
479.22	437.81
479.439	449.81
479.658	471.81
479.876	474.81
480.095	483.81
480.313	517.81
480.532	495.81
480.751	467.81
480.969	484.81
481.188	539.81
481.406	570.81
481.624	519.81
481.843	483.81
482.061	454.81
482.28	481.81
482.498	457.81
482.717	450.81
482.935	453.81
483.153	463.81
483.372	457.81
483.59	467.81
483.808	461.81
484.027	465.81
484.245	443.81
484.463	435.81
484.681	481.81
484.9	447.81
485.118	454.81
485.336	455.81
485.554	459.81
485.772	461.81
485.99	463.81
486.209	467.81
486.427	475.81
486.645	484.81
486.863	497.81
487.081	490.81
487.299	477.81
487.517	467.81
487.735	490.81
487.953	492.81
488.171	515.81
488.389	478.81
488.607	483.81
488.825	513.81
489.043	508.81
489.261	479.81
489.479	491.81
489.696	510.81
489.914	499.81
490.132	505.81
490.35	511.81
490.568	520.81
490.786	549.81
491.003	530.81
491.221	540.81
491.439	553.81
491.657	545.81
491.874	568.81
492.092	555.81
492.31	557.81
492.527	549.81
492.745	567.81
492.963	569.81
493.18	570.81
493.398	572.81
493.615	559.81
493.833	590.81
494.05	594.81
494.268	602.81
494.485	587.81
494.703	578.81
494.92	591.81
495.138	593.81
495.355	589.81
495.573	587.81
495.79	563.81
496.008	585.81
496.225	581.81
496.442	581.81
496.66	599.81
496.877	596.81
497.094	584.81
497.312	587.81
497.529	603.81
497.746	604.81
497.963	613.81
498.181	625.81
498.398	615.81
498.615	629.81
498.832	631.81
499.049	638.81
499.267	637.81
499.484	662.81
499.701	681.81
499.918	683.81
500.135	710.81
500.352	702.81
500.569	697.81
500.786	702.81
501.003	714.81
501.22	715.81
501.437	704.81
501.654	689.81
501.871	701.81
