Data from 1981.PennyLincolnUp.Lamp.En5.5.200Scan.071819.P1_HRD10591_16-41-33-959.txt Node
Date: Thu Jul 18 16:41:33 EDT 2019
User: cochatt
Spectrometer: HR+D1059
Trigger mode: 1
Integration Time (sec): 1.000000E-1
Scans to average: 1
Electric dark correction enabled: true
Nonlinearity correction enabled: false
Boxcar width: 0
XAxis mode: Wavelengths
Number of Pixels in Spectrum: 2048
>>>>>Begin Spectral Data<<<<<
223.165	-19.38
223.4	-19.38
223.635	-19.38
223.869	-13.38
224.104	-23.38
224.338	-4.38
224.573	-12.38
224.808	-17.38
225.042	0.62
225.277	-9.38
225.511	5.62
225.746	14.62
225.98	12.62
226.215	8.62
226.449	2.62
226.683	16.62
226.918	16.62
227.152	21.62
227.387	24.62
227.621	38.62
227.856	46.62
228.09	51.62
228.324	36.62
228.559	50.62
228.793	63.62
229.027	91.62
229.262	117.62
229.496	101.62
229.73	133.62
229.964	160.62
230.199	135.62
230.433	114.62
230.667	116.62
230.901	108.62
231.136	120.62
231.37	119.62
231.604	117.62
231.838	124.62
232.072	104.62
232.306	116.62
232.541	106.62
232.775	99.62
233.009	112.62
233.243	137.62
233.477	127.62
233.711	111.62
233.945	114.62
234.179	98.62
234.413	123.62
234.647	116.62
234.881	114.62
235.115	102.62
235.349	130.62
235.583	118.62
235.817	126.62
236.051	130.62
236.285	132.62
236.519	129.62
236.753	137.62
236.987	157.62
237.221	187.62
237.455	237.62
237.689	180.62
237.922	148.62
238.156	128.62
238.39	127.62
238.624	134.62
238.858	132.62
239.091	111.62
239.325	124.62
239.559	140.62
239.793	140.62
240.027	143.62
240.26	135.62
240.494	174.62
240.728	157.62
240.961	158.62
241.195	149.62
241.429	147.62
241.662	139.62
241.896	124.62
242.13	149.62
242.363	143.62
242.597	149.62
242.83	153.62
243.064	135.62
243.298	140.62
243.531	137.62
243.765	149.62
243.998	162.62
244.232	150.62
244.465	157.62
244.699	145.62
244.932	147.62
245.166	159.62
245.399	151.62
245.633	140.62
245.866	149.62
246.099	140.62
246.333	154.62
246.566	150.62
246.8	155.62
247.033	141.62
247.266	168.62
247.5	167.62
247.733	182.62
247.966	165.62
248.2	167.62
248.433	168.62
248.666	208.62
248.899	206.62
249.133	221.62
249.366	231.62
249.599	207.62
249.832	202.62
250.066	196.62
250.299	195.62
250.532	194.62
250.765	221.62
250.998	227.62
251.231	213.62
251.465	229.62
251.698	206.62
251.931	198.62
252.164	206.62
252.397	210.62
252.63	220.62
252.863	216.62
253.096	208.62
253.329	251.62
253.562	235.62
253.795	235.62
254.028	222.62
254.261	235.62
254.494	240.62
254.727	280.62
254.96	289.62
255.193	295.62
255.426	262.62
255.659	236.62
255.892	250.62
256.124	244.62
256.357	250.62
256.59	231.62
256.823	239.62
257.056	234.62
257.289	222.62
257.521	226.62
257.754	236.62
257.987	219.62
258.22	207.62
258.452	193.62
258.685	227.62
258.918	220.62
259.151	226.62
259.383	231.62
259.616	237.62
259.849	219.62
260.081	247.62
260.314	292.62
260.547	268.62
260.779	271.62
261.012	258.62
261.244	242.62
261.477	238.62
261.71	229.62
261.942	258.62
262.175	260.62
262.407	239.62
262.64	223.62
262.872	208.62
263.105	217.62
263.337	231.62
263.57	223.62
263.802	220.62
264.035	218.62
264.267	212.62
264.499	212.62
264.732	214.62
264.964	227.62
265.197	221.62
265.429	220.62
265.661	209.62
265.894	231.62
266.126	224.62
266.358	237.62
266.591	206.62
266.823	216.62
267.055	215.62
267.287	227.62
267.52	228.62
267.752	229.62
267.984	240.62
268.216	235.62
268.448	247.62
268.681	242.62
268.913	250.62
269.145	278.62
269.377	280.62
269.609	289.62
269.841	293.62
270.073	306.62
270.306	334.62
270.538	336.62
270.77	323.62
271.002	336.62
271.234	322.62
271.466	312.62
271.698	324.62
271.93	347.62
272.162	327.62
272.394	338.62
272.626	310.62
272.858	324.62
273.09	302.62
273.322	291.62
273.553	283.62
273.785	291.62
274.017	283.62
274.249	267.62
274.481	271.62
274.713	270.62
274.945	285.62
275.176	287.62
275.408	280.62
275.64	272.62
275.872	267.62
276.104	266.62
276.335	278.62
276.567	284.62
276.799	303.62
277.031	333.62
277.262	340.62
277.494	324.62
277.726	311.62
277.957	322.62
278.189	283.62
278.421	290.62
278.652	285.62
278.884	284.62
279.115	287.62
279.347	270.62
279.579	264.62
279.81	275.62
280.042	279.62
280.273	282.62
280.505	275.62
280.736	268.62
280.968	271.62
281.199	279.62
281.431	290.62
281.662	286.62
281.894	289.62
282.125	287.62
282.356	301.62
282.588	312.62
282.819	305.62
283.051	269.62
283.282	256.62
283.513	293.62
283.745	300.62
283.976	298.62
284.207	284.62
284.439	285.62
284.67	284.62
284.901	291.62
285.132	278.62
285.364	284.62
285.595	281.62
285.826	261.62
286.057	295.62
286.288	287.62
286.52	285.62
286.751	286.62
286.982	278.62
287.213	290.62
287.444	292.62
287.675	291.62
287.906	282.62
288.138	290.62
288.369	296.62
288.6	314.62
288.831	314.62
289.062	287.62
289.293	289.62
289.524	298.62
289.755	288.62
289.986	295.62
290.217	306.62
290.448	280.62
290.679	293.62
290.91	294.62
291.141	282.62
291.371	303.62
291.602	293.62
291.833	284.62
292.064	280.62
292.295	294.62
292.526	286.62
292.757	284.62
292.987	253.62
293.218	288.62
293.449	291.62
293.68	302.62
293.91	291.62
294.141	285.62
294.372	299.62
294.603	283.62
294.833	320.62
295.064	286.62
295.295	299.62
295.525	278.62
295.756	296.62
295.987	312.62
296.217	319.62
296.448	331.62
296.679	312.62
296.909	291.62
297.14	286.62
297.37	281.62
297.601	300.62
297.831	310.62
298.062	298.62
298.292	307.62
298.523	304.62
298.753	319.62
298.984	303.62
299.214	327.62
299.445	318.62
299.675	301.62
299.905	301.62
300.136	318.62
300.366	288.62
300.597	306.62
300.827	317.62
301.057	315.62
301.288	321.62
301.518	322.62
301.748	288.62
301.979	328.62
302.209	319.62
302.439	331.62
302.669	339.62
302.9	334.62
303.13	322.62
303.36	330.62
303.59	335.62
303.82	343.62
304.051	352.62
304.281	323.62
304.511	341.62
304.741	298.62
304.971	328.62
305.201	326.62
305.431	307.62
305.661	335.62
305.891	338.62
306.121	341.62
306.352	337.62
306.582	336.62
306.812	336.62
307.042	349.62
307.272	344.62
307.502	346.62
307.731	347.62
307.961	345.62
308.191	343.62
308.421	343.62
308.651	345.62
308.881	337.62
309.111	351.62
309.341	358.62
309.571	343.62
309.8	376.62
310.03	371.62
310.26	372.62
310.49	398.62
310.72	413.62
310.949	429.62
311.179	422.62
311.409	407.62
311.639	390.62
311.868	382.62
312.098	391.62
312.328	404.62
312.557	407.62
312.787	413.62
313.017	398.62
313.246	397.62
313.476	413.62
313.706	404.62
313.935	397.62
314.165	406.62
314.394	388.62
314.624	397.62
314.853	382.62
315.083	387.62
315.312	393.62
315.542	386.62
315.771	372.62
316.001	392.62
316.23	379.62
316.46	391.62
316.689	384.62
316.919	399.62
317.148	396.62
317.377	379.62
317.607	384.62
317.836	408.62
318.065	391.62
318.295	373.62
318.524	378.62
318.753	379.62
318.983	359.62
319.212	382.62
319.441	386.62
319.67	402.62
319.9	383.62
320.129	391.62
320.358	402.62
320.587	392.62
320.816	398.62
321.046	396.62
321.275	427.62
321.504	430.62
321.733	428.62
321.962	421.62
322.191	451.62
322.42	435.62
322.649	467.62
322.878	483.62
323.108	485.62
323.337	521.62
323.566	544.62
323.795	592.62
324.024	634.62
324.253	796.62
324.482	1164.62
324.71	1751.62
324.939	2431.62
325.168	2039.62
325.397	1091.62
325.626	733.62
325.855	613.62
326.084	580.62
326.313	520.62
326.542	587.62
326.77	606.62
326.999	717.62
327.228	998.62
327.457	1477.62
327.686	1741.62
327.914	1195.62
328.143	807.62
328.372	686.62
328.6	627.62
328.829	613.62
329.058	610.62
329.287	624.62
329.515	586.62
329.744	540.62
329.972	538.62
330.201	581.62
330.43	602.62
330.658	622.62
330.887	678.62
331.115	637.62
331.344	562.62
331.572	514.62
331.801	510.62
332.03	514.62
332.258	485.62
332.486	469.62
332.715	447.62
332.943	427.62
333.172	454.62
333.4	444.62
333.629	470.62
333.857	474.62
334.085	486.62
334.314	493.62
334.542	530.62
334.771	513.62
334.999	461.62
335.227	464.62
335.455	461.62
335.684	437.62
335.912	450.62
336.14	443.62
336.369	439.62
336.597	438.62
336.825	425.62
337.053	434.62
337.281	443.62
337.51	407.62
337.738	437.62
337.966	450.62
338.194	440.62
338.422	438.62
338.65	449.62
338.878	418.62
339.106	414.62
339.334	437.62
339.562	394.62
339.79	438.62
340.018	410.62
340.246	428.62
340.474	431.62
340.702	427.62
340.93	410.62
341.158	415.62
341.386	418.62
341.614	413.62
341.842	423.62
342.07	404.62
342.298	413.62
342.526	421.62
342.754	389.62
342.981	389.62
343.209	409.62
343.437	424.62
343.665	401.62
343.893	411.62
344.12	420.62
344.348	413.62
344.576	426.62
344.804	431.62
345.031	440.62
345.259	439.62
345.487	421.62
345.714	432.62
345.942	422.62
346.17	409.62
346.397	402.62
346.625	397.62
346.853	412.62
347.08	422.62
347.308	425.62
347.535	419.62
347.763	417.62
347.99	430.62
348.218	425.62
348.445	422.62
348.673	413.62
348.9	413.62
349.128	405.62
349.355	407.62
349.583	406.62
349.81	394.62
350.037	397.62
350.265	397.62
350.492	380.62
350.72	388.62
350.947	401.62
351.174	392.62
351.402	407.62
351.629	399.62
351.856	423.62
352.083	424.62
352.311	414.62
352.538	425.62
352.765	421.62
352.992	435.62
353.22	412.62
353.447	399.62
353.674	400.62
353.901	375.62
354.128	395.62
354.355	375.62
354.583	389.62
354.81	381.62
355.037	395.62
355.264	353.62
355.491	350.62
355.718	373.62
355.945	364.62
356.172	382.62
356.399	359.62
356.626	373.62
356.853	342.62
357.08	363.62
357.307	360.62
357.534	373.62
357.761	348.62
357.988	376.62
358.215	372.62
358.441	389.62
358.668	364.62
358.895	388.62
359.122	378.62
359.349	400.62
359.576	411.62
359.802	411.62
360.029	458.62
360.256	466.62
360.483	431.62
360.709	392.62
360.936	401.62
361.163	392.62
361.39	400.62
361.616	405.62
361.843	384.62
362.07	404.62
362.296	382.62
362.523	390.62
362.749	394.62
362.976	378.62
363.203	392.62
363.429	383.62
363.656	367.62
363.882	373.62
364.109	367.62
364.335	378.62
364.562	378.62
364.788	365.62
365.015	379.62
365.241	370.62
365.468	368.62
365.694	374.62
365.92	374.62
366.147	360.62
366.373	380.62
366.599	374.62
366.826	367.62
367.052	375.62
367.278	364.62
367.505	357.62
367.731	386.62
367.957	374.62
368.184	366.62
368.41	376.62
368.636	376.62
368.862	379.62
369.089	378.62
369.315	382.62
369.541	376.62
369.767	362.62
369.993	366.62
370.219	354.62
370.445	353.62
370.672	371.62
370.898	354.62
371.124	376.62
371.35	363.62
371.576	362.62
371.802	355.62
372.028	364.62
372.254	352.62
372.48	364.62
372.706	366.62
372.932	364.62
373.158	381.62
373.384	358.62
373.61	370.62
373.835	370.62
374.061	361.62
374.287	366.62
374.513	357.62
374.739	358.62
374.965	361.62
375.191	371.62
375.416	363.62
375.642	367.62
375.868	376.62
376.094	349.62
376.319	338.62
376.545	345.62
376.771	346.62
376.997	325.62
377.222	349.62
377.448	344.62
377.674	370.62
377.899	357.62
378.125	348.62
378.35	343.62
378.576	374.62
378.802	338.62
379.027	360.62
379.253	363.62
379.478	361.62
379.704	346.62
379.929	365.62
380.155	346.62
380.38	345.62
380.606	363.62
380.831	338.62
381.057	356.62
381.282	346.62
381.507	358.62
381.733	363.62
381.958	348.62
382.184	348.62
382.409	352.62
382.634	346.62
382.86	363.62
383.085	358.62
383.31	354.62
383.535	363.62
383.761	378.62
383.986	380.62
384.211	361.62
384.436	376.62
384.662	349.62
384.887	364.62
385.112	374.62
385.337	375.62
385.562	370.62
385.787	373.62
386.013	379.62
386.238	374.62
386.463	375.62
386.688	380.62
386.913	381.62
387.138	357.62
387.363	386.62
387.588	368.62
387.813	384.62
388.038	373.62
388.263	379.62
388.488	361.62
388.713	378.62
388.938	362.62
389.163	372.62
389.387	373.62
389.612	369.62
389.837	362.62
390.062	380.62
390.287	364.62
390.512	370.62
390.736	366.62
390.961	350.62
391.186	352.62
391.411	365.62
391.636	364.62
391.86	387.62
392.085	379.62
392.31	385.62
392.534	364.62
392.759	370.62
392.984	346.62
393.208	371.62
393.433	356.62
393.658	374.62
393.882	358.62
394.107	340.62
394.331	355.62
394.556	378.62
394.78	382.62
395.005	363.62
395.229	391.62
395.454	388.62
395.678	391.62
395.903	379.62
396.127	407.62
396.352	409.62
396.576	374.62
396.801	370.62
397.025	375.62
397.249	379.62
397.474	386.62
397.698	384.62
397.922	386.62
398.147	387.62
398.371	398.62
398.595	395.62
398.82	405.62
399.044	420.62
399.268	407.62
399.492	449.62
399.717	455.62
399.941	490.62
400.165	499.62
400.389	524.62
400.613	454.62
400.837	436.62
401.062	399.62
401.286	410.62
401.51	412.62
401.734	407.62
401.958	414.62
402.182	414.62
402.406	411.62
402.63	457.62
402.854	419.62
403.078	424.62
403.302	404.62
403.526	413.62
403.75	423.62
403.974	407.62
404.198	408.62
404.422	421.62
404.645	447.62
404.869	438.62
405.093	466.62
405.317	489.62
405.541	507.62
405.765	478.62
405.988	459.62
406.212	457.62
406.436	467.62
406.66	510.62
406.883	459.62
407.107	494.62
407.331	524.62
407.555	571.62
407.778	579.62
408.002	530.62
408.226	490.62
408.449	473.62
408.673	484.62
408.896	486.62
409.12	544.62
409.344	512.62
409.567	455.62
409.791	439.62
410.014	424.62
410.238	417.62
410.461	414.62
410.685	430.62
410.908	443.62
411.132	477.62
411.355	501.62
411.578	478.62
411.802	438.62
412.025	415.62
412.249	433.62
412.472	458.62
412.695	494.62
412.919	486.62
413.142	429.62
413.365	411.62
413.589	436.62
413.812	412.62
414.035	402.62
414.258	388.62
414.482	388.62
414.705	377.62
414.928	396.62
415.151	405.62
415.374	388.62
415.597	416.62
415.821	387.62
416.044	375.62
416.267	392.62
416.49	402.62
416.713	390.62
416.936	406.62
417.159	400.62
417.382	410.62
417.605	387.62
417.828	398.62
418.051	422.62
418.274	417.62
418.497	417.62
418.72	414.62
418.943	381.62
419.166	410.62
419.389	417.62
419.611	413.62
419.834	415.62
420.057	399.62
420.28	436.62
420.503	434.62
420.726	418.62
420.948	443.62
421.171	452.62
421.394	491.62
421.617	446.62
421.839	406.62
422.062	424.62
422.285	409.62
422.507	498.62
422.73	559.62
422.953	522.62
423.175	493.62
423.398	444.62
423.621	424.62
423.843	478.62
424.066	458.62
424.288	472.62
424.511	491.62
424.733	527.62
424.956	595.62
425.178	580.62
425.401	560.62
425.623	593.62
425.846	500.62
426.068	475.62
426.291	446.62
426.513	474.62
426.735	473.62
426.958	526.62
427.18	595.62
427.402	716.62
427.625	781.62
427.847	670.62
428.069	614.62
428.292	520.62
428.514	486.62
428.736	450.62
428.958	464.62
429.181	435.62
429.403	415.62
429.625	478.62
429.847	486.62
430.069	538.62
430.292	533.62
430.514	456.62
430.736	433.62
430.958	422.62
431.18	413.62
431.402	418.62
431.624	401.62
431.846	374.62
432.068	394.62
432.29	400.62
432.512	382.62
432.734	398.62
432.956	408.62
433.178	412.62
433.4	436.62
433.622	403.62
433.844	410.62
434.066	398.62
434.287	404.62
434.509	399.62
434.731	405.62
434.953	405.62
435.175	423.62
435.397	454.62
435.618	465.62
435.84	522.62
436.062	596.62
436.284	642.62
436.505	536.62
436.727	486.62
436.949	451.62
437.17	444.62
437.392	419.62
437.614	458.62
437.835	477.62
438.057	580.62
438.278	650.62
438.5	666.62
438.721	704.62
438.943	687.62
439.165	550.62
439.386	487.62
439.608	486.62
439.829	482.62
440.05	499.62
440.272	552.62
440.493	515.62
440.715	472.62
440.936	451.62
441.158	444.62
441.379	441.62
441.6	469.62
441.822	456.62
442.043	511.62
442.264	577.62
442.486	610.62
442.707	522.62
442.928	489.62
443.149	466.62
443.371	523.62
443.592	562.62
443.813	610.62
444.034	658.62
444.255	554.62
444.476	484.62
444.698	455.62
444.919	443.62
445.14	582.62
445.361	516.62
445.582	483.62
445.803	593.62
446.024	660.62
446.245	648.62
446.466	603.62
446.687	501.62
446.908	484.62
447.129	459.62
447.35	440.62
447.571	450.62
447.792	430.62
448.013	437.62
448.234	447.62
448.455	503.62
448.675	595.62
448.896	717.62
449.117	592.62
449.338	579.62
449.559	660.62
449.779	720.62
450	601.62
450.221	486.62
450.442	452.62
450.662	428.62
450.883	443.62
451.104	448.62
451.324	428.62
451.545	433.62
451.766	420.62
451.986	374.62
452.207	392.62
452.428	369.62
452.648	392.62
452.869	387.62
453.089	408.62
453.31	419.62
453.53	398.62
453.751	392.62
453.971	406.62
454.192	421.62
454.412	401.62
454.633	398.62
454.853	379.62
455.073	395.62
455.294	440.62
455.514	492.62
455.734	469.62
455.955	399.62
456.175	363.62
456.395	350.62
456.616	362.62
456.836	376.62
457.056	355.62
457.276	353.62
457.497	347.62
457.717	348.62
457.937	360.62
458.157	379.62
458.377	376.62
458.598	412.62
458.818	456.62
459.038	532.62
459.258	544.62
459.478	451.62
459.698	414.62
459.918	406.62
460.138	389.62
460.358	388.62
460.578	399.62
460.798	404.62
461.018	380.62
461.238	402.62
461.458	391.62
461.678	382.62
461.898	390.62
462.118	417.62
462.338	380.62
462.558	378.62
462.777	390.62
462.997	402.62
463.217	409.62
463.437	409.62
463.657	405.62
463.876	400.62
464.096	416.62
464.316	404.62
464.536	410.62
464.755	414.62
464.975	434.62
465.195	468.62
465.414	528.62
465.634	474.62
465.854	449.62
466.073	405.62
466.293	413.62
466.512	366.62
466.732	384.62
466.951	386.62
467.171	391.62
467.391	404.62
467.61	394.62
467.829	405.62
468.049	388.62
468.268	398.62
468.488	383.62
468.707	366.62
468.927	383.62
469.146	358.62
469.365	374.62
469.585	364.62
469.804	380.62
470.023	390.62
470.243	391.62
470.462	410.62
470.681	420.62
470.901	422.62
471.12	405.62
471.339	412.62
471.558	406.62
471.777	391.62
471.997	387.62
472.216	387.62
472.435	426.62
472.654	393.62
472.873	386.62
473.092	395.62
473.311	386.62
473.53	411.62
473.749	399.62
473.968	469.62
474.187	546.62
474.406	568.62
474.625	467.62
474.844	440.62
475.063	401.62
475.282	394.62
475.501	389.62
475.72	423.62
475.939	416.62
476.158	413.62
476.377	415.62
476.596	404.62
476.814	401.62
477.033	426.62
477.252	410.62
477.471	411.62
477.69	420.62
477.908	413.62
478.127	424.62
478.346	415.62
478.564	430.62
478.783	444.62
479.002	436.62
479.22	448.62
479.439	463.62
479.658	487.62
479.876	491.62
480.095	465.62
480.313	510.62
480.532	490.62
480.751	479.62
480.969	477.62
481.188	519.62
481.406	568.62
481.624	505.62
481.843	483.62
482.061	465.62
482.28	474.62
482.498	459.62
482.717	467.62
482.935	468.62
483.153	458.62
483.372	471.62
483.59	454.62
483.808	483.62
484.027	456.62
484.245	459.62
484.463	468.62
484.681	490.62
484.9	487.62
485.118	480.62
485.336	467.62
485.554	470.62
485.772	465.62
485.99	477.62
486.209	502.62
486.427	484.62
486.645	510.62
486.863	514.62
487.081	502.62
487.299	484.62
487.517	490.62
487.735	482.62
487.953	525.62
488.171	506.62
488.389	481.62
488.607	498.62
488.825	535.62
489.043	495.62
489.261	495.62
489.479	493.62
489.696	493.62
489.914	510.62
490.132	519.62
490.35	519.62
490.568	527.62
490.786	528.62
491.003	519.62
491.221	540.62
491.439	551.62
491.657	545.62
491.874	551.62
492.092	550.62
492.31	582.62
492.527	571.62
492.745	581.62
492.963	579.62
493.18	588.62
493.398	578.62
493.615	575.62
493.833	600.62
494.05	554.62
494.268	587.62
494.485	588.62
494.703	590.62
494.92	575.62
495.138	580.62
495.355	582.62
495.573	589.62
495.79	586.62
496.008	595.62
496.225	613.62
496.442	597.62
496.66	594.62
496.877	578.62
497.094	571.62
497.312	605.62
497.529	624.62
497.746	619.62
497.963	623.62
498.181	650.62
498.398	649.62
498.615	654.62
498.832	657.62
499.049	644.62
499.267	654.62
499.484	677.62
499.701	679.62
499.918	685.62
500.135	720.62
500.352	740.62
500.569	719.62
500.786	727.62
501.003	717.62
501.22	718.62
501.437	709.62
501.654	710.62
501.871	697.62
