Data from 1981.PennyLincolnUp.Lamp.En5.5.200Scan.071819.P1_HRD10591_16-43-19-960.txt Node
Date: Thu Jul 18 16:43:19 EDT 2019
User: cochatt
Spectrometer: HR+D1059
Trigger mode: 1
Integration Time (sec): 1.000000E-1
Scans to average: 1
Electric dark correction enabled: true
Nonlinearity correction enabled: false
Boxcar width: 0
XAxis mode: Wavelengths
Number of Pixels in Spectrum: 2048
>>>>>Begin Spectral Data<<<<<
223.165	-9.38
223.4	-9.38
223.635	-9.38
223.869	-12.38
224.104	-14.38
224.338	-15.38
224.573	-2.38
224.808	-20.38
225.042	-19.38
225.277	-2.38
225.511	-1.38
225.746	-1.38
225.98	4.62
226.215	22.62
226.449	10.62
226.683	21.62
226.918	15.62
227.152	23.62
227.387	29.62
227.621	40.62
227.856	50.62
228.09	44.62
228.324	60.62
228.559	50.62
228.793	71.62
229.027	111.62
229.262	114.62
229.496	123.62
229.73	134.62
229.964	168.62
230.199	146.62
230.433	119.62
230.667	107.62
230.901	119.62
231.136	104.62
231.37	118.62
231.604	106.62
231.838	108.62
232.072	110.62
232.306	128.62
232.541	120.62
232.775	99.62
233.009	110.62
233.243	108.62
233.477	122.62
233.711	115.62
233.945	118.62
234.179	117.62
234.413	118.62
234.647	113.62
234.881	100.62
235.115	132.62
235.349	126.62
235.583	136.62
235.817	112.62
236.051	129.62
236.285	140.62
236.519	124.62
236.753	123.62
236.987	152.62
237.221	187.62
237.455	241.62
237.689	198.62
237.922	142.62
238.156	137.62
238.39	139.62
238.624	149.62
238.858	130.62
239.091	131.62
239.325	120.62
239.559	142.62
239.793	130.62
240.027	133.62
240.26	135.62
240.494	169.62
240.728	170.62
240.961	174.62
241.195	149.62
241.429	126.62
241.662	135.62
241.896	136.62
242.13	134.62
242.363	140.62
242.597	137.62
242.83	134.62
243.064	125.62
243.298	146.62
243.531	143.62
243.765	137.62
243.998	143.62
244.232	140.62
244.465	142.62
244.699	145.62
244.932	142.62
245.166	141.62
245.399	152.62
245.633	140.62
245.866	150.62
246.099	153.62
246.333	145.62
246.566	157.62
246.8	161.62
247.033	162.62
247.266	164.62
247.5	178.62
247.733	164.62
247.966	174.62
248.2	181.62
248.433	190.62
248.666	194.62
248.899	195.62
249.133	211.62
249.366	226.62
249.599	196.62
249.832	186.62
250.066	189.62
250.299	199.62
250.532	215.62
250.765	202.62
250.998	229.62
251.231	251.62
251.465	227.62
251.698	221.62
251.931	213.62
252.164	203.62
252.397	217.62
252.63	211.62
252.863	209.62
253.096	243.62
253.329	248.62
253.562	247.62
253.795	245.62
254.028	243.62
254.261	221.62
254.494	234.62
254.727	259.62
254.96	312.62
255.193	296.62
255.426	281.62
255.659	254.62
255.892	260.62
256.124	248.62
256.357	247.62
256.59	246.62
256.823	233.62
257.056	236.62
257.289	221.62
257.521	214.62
257.754	213.62
257.987	220.62
258.22	218.62
258.452	211.62
258.685	221.62
258.918	227.62
259.151	224.62
259.383	242.62
259.616	244.62
259.849	251.62
260.081	248.62
260.314	281.62
260.547	271.62
260.779	279.62
261.012	262.62
261.244	264.62
261.477	252.62
261.71	267.62
261.942	236.62
262.175	252.62
262.407	260.62
262.64	240.62
262.872	244.62
263.105	220.62
263.337	222.62
263.57	222.62
263.802	210.62
264.035	228.62
264.267	213.62
264.499	242.62
264.732	237.62
264.964	254.62
265.197	228.62
265.429	204.62
265.661	223.62
265.894	229.62
266.126	237.62
266.358	230.62
266.591	233.62
266.823	237.62
267.055	244.62
267.287	244.62
267.52	251.62
267.752	225.62
267.984	235.62
268.216	241.62
268.448	219.62
268.681	254.62
268.913	276.62
269.145	283.62
269.377	291.62
269.609	290.62
269.841	309.62
270.073	283.62
270.306	329.62
270.538	333.62
270.77	338.62
271.002	343.62
271.234	333.62
271.466	317.62
271.698	333.62
271.93	359.62
272.162	383.62
272.394	341.62
272.626	328.62
272.858	320.62
273.09	320.62
273.322	291.62
273.553	263.62
273.785	287.62
274.017	274.62
274.249	280.62
274.481	266.62
274.713	289.62
274.945	293.62
275.176	293.62
275.408	279.62
275.64	274.62
275.872	275.62
276.104	293.62
276.335	292.62
276.567	308.62
276.799	288.62
277.031	331.62
277.262	345.62
277.494	344.62
277.726	323.62
277.957	318.62
278.189	295.62
278.421	287.62
278.652	287.62
278.884	289.62
279.115	282.62
279.347	295.62
279.579	278.62
279.81	281.62
280.042	290.62
280.273	289.62
280.505	280.62
280.736	296.62
280.968	286.62
281.199	264.62
281.431	275.62
281.662	284.62
281.894	290.62
282.125	280.62
282.356	306.62
282.588	316.62
282.819	332.62
283.051	303.62
283.282	289.62
283.513	302.62
283.745	296.62
283.976	285.62
284.207	289.62
284.439	291.62
284.67	300.62
284.901	294.62
285.132	289.62
285.364	306.62
285.595	281.62
285.826	270.62
286.057	280.62
286.288	280.62
286.52	296.62
286.751	284.62
286.982	312.62
287.213	301.62
287.444	287.62
287.675	301.62
287.906	308.62
288.138	333.62
288.369	296.62
288.6	295.62
288.831	296.62
289.062	294.62
289.293	292.62
289.524	289.62
289.755	299.62
289.986	285.62
290.217	290.62
290.448	300.62
290.679	289.62
290.91	307.62
291.141	297.62
291.371	285.62
291.602	293.62
291.833	299.62
292.064	296.62
292.295	299.62
292.526	286.62
292.757	306.62
292.987	291.62
293.218	291.62
293.449	300.62
293.68	324.62
293.91	313.62
294.141	316.62
294.372	270.62
294.603	304.62
294.833	300.62
295.064	295.62
295.295	293.62
295.525	307.62
295.756	308.62
295.987	311.62
296.217	344.62
296.448	339.62
296.679	320.62
296.909	305.62
297.14	282.62
297.37	314.62
297.601	318.62
297.831	314.62
298.062	315.62
298.292	301.62
298.523	323.62
298.753	309.62
298.984	321.62
299.214	317.62
299.445	318.62
299.675	330.62
299.905	298.62
300.136	333.62
300.366	315.62
300.597	311.62
300.827	324.62
301.057	354.62
301.288	336.62
301.518	324.62
301.748	333.62
301.979	361.62
302.209	335.62
302.439	337.62
302.669	335.62
302.9	346.62
303.13	338.62
303.36	327.62
303.59	345.62
303.82	352.62
304.051	337.62
304.281	335.62
304.511	330.62
304.741	344.62
304.971	333.62
305.201	332.62
305.431	342.62
305.661	348.62
305.891	326.62
306.121	355.62
306.352	356.62
306.582	331.62
306.812	330.62
307.042	345.62
307.272	327.62
307.502	346.62
307.731	332.62
307.961	339.62
308.191	372.62
308.421	344.62
308.651	352.62
308.881	347.62
309.111	363.62
309.341	344.62
309.571	352.62
309.8	380.62
310.03	372.62
310.26	406.62
310.49	412.62
310.72	398.62
310.949	438.62
311.179	449.62
311.409	394.62
311.639	386.62
311.868	402.62
312.098	407.62
312.328	411.62
312.557	438.62
312.787	438.62
313.017	419.62
313.246	412.62
313.476	382.62
313.706	413.62
313.935	401.62
314.165	437.62
314.394	429.62
314.624	432.62
314.853	418.62
315.083	412.62
315.312	396.62
315.542	390.62
315.771	374.62
316.001	388.62
316.23	367.62
316.46	379.62
316.689	378.62
316.919	425.62
317.148	399.62
317.377	404.62
317.607	421.62
317.836	418.62
318.065	390.62
318.295	391.62
318.524	396.62
318.753	395.62
318.983	378.62
319.212	384.62
319.441	408.62
319.67	406.62
319.9	411.62
320.129	424.62
320.358	398.62
320.587	424.62
320.816	435.62
321.046	436.62
321.275	426.62
321.504	424.62
321.733	417.62
321.962	430.62
322.191	446.62
322.42	460.62
322.649	479.62
322.878	500.62
323.108	510.62
323.337	565.62
323.566	564.62
323.795	629.62
324.024	685.62
324.253	881.62
324.482	1252.62
324.71	1885.62
324.939	2578.62
325.168	2185.62
325.397	1177.62
325.626	778.62
325.855	648.62
326.084	587.62
326.313	557.62
326.542	572.62
326.77	634.62
326.999	770.62
327.228	1076.62
327.457	1639.62
327.686	1883.62
327.914	1289.62
328.143	858.62
328.372	740.62
328.6	692.62
328.829	651.62
329.058	690.62
329.287	650.62
329.515	621.62
329.744	564.62
329.972	560.62
330.201	594.62
330.43	636.62
330.658	668.62
330.887	692.62
331.115	650.62
331.344	556.62
331.572	548.62
331.801	527.62
332.03	541.62
332.258	513.62
332.486	498.62
332.715	470.62
332.943	490.62
333.172	479.62
333.4	488.62
333.629	481.62
333.857	505.62
334.085	486.62
334.314	510.62
334.542	547.62
334.771	596.62
334.999	530.62
335.227	472.62
335.455	460.62
335.684	467.62
335.912	442.62
336.14	457.62
336.369	465.62
336.597	459.62
336.825	440.62
337.053	462.62
337.281	442.62
337.51	449.62
337.738	437.62
337.966	441.62
338.194	453.62
338.422	461.62
338.65	449.62
338.878	438.62
339.106	442.62
339.334	446.62
339.562	426.62
339.79	423.62
340.018	430.62
340.246	435.62
340.474	442.62
340.702	444.62
340.93	429.62
341.158	438.62
341.386	424.62
341.614	445.62
341.842	442.62
342.07	424.62
342.298	425.62
342.526	410.62
342.754	427.62
342.981	429.62
343.209	407.62
343.437	412.62
343.665	444.62
343.893	428.62
344.12	424.62
344.348	451.62
344.576	414.62
344.804	416.62
345.031	442.62
345.259	439.62
345.487	449.62
345.714	448.62
345.942	436.62
346.17	410.62
346.397	414.62
346.625	416.62
346.853	420.62
347.08	411.62
347.308	420.62
347.535	437.62
347.763	435.62
347.99	442.62
348.218	429.62
348.445	429.62
348.673	426.62
348.9	418.62
349.128	412.62
349.355	395.62
349.583	409.62
349.81	406.62
350.037	393.62
350.265	391.62
350.492	409.62
350.72	402.62
350.947	422.62
351.174	420.62
351.402	445.62
351.629	413.62
351.856	425.62
352.083	420.62
352.311	436.62
352.538	423.62
352.765	428.62
352.992	438.62
353.22	402.62
353.447	423.62
353.674	419.62
353.901	384.62
354.128	390.62
354.355	392.62
354.583	388.62
354.81	382.62
355.037	362.62
355.264	373.62
355.491	386.62
355.718	362.62
355.945	374.62
356.172	372.62
356.399	378.62
356.626	382.62
356.853	391.62
357.08	365.62
357.307	384.62
357.534	379.62
357.761	379.62
357.988	379.62
358.215	375.62
358.441	378.62
358.668	382.62
358.895	379.62
359.122	394.62
359.349	414.62
359.576	422.62
359.802	419.62
360.029	486.62
360.256	488.62
360.483	456.62
360.709	434.62
360.936	402.62
361.163	425.62
361.39	402.62
361.616	413.62
361.843	411.62
362.07	401.62
362.296	416.62
362.523	404.62
362.749	403.62
362.976	400.62
363.203	370.62
363.429	405.62
363.656	384.62
363.882	404.62
364.109	402.62
364.335	378.62
364.562	376.62
364.788	377.62
365.015	368.62
365.241	385.62
365.468	391.62
365.694	391.62
365.92	410.62
366.147	376.62
366.373	368.62
366.599	385.62
366.826	380.62
367.052	372.62
367.278	365.62
367.505	372.62
367.731	380.62
367.957	361.62
368.184	375.62
368.41	373.62
368.636	370.62
368.862	392.62
369.089	374.62
369.315	375.62
369.541	388.62
369.767	356.62
369.993	382.62
370.219	376.62
370.445	368.62
370.672	355.62
370.898	364.62
371.124	378.62
371.35	364.62
371.576	356.62
371.802	382.62
372.028	354.62
372.254	368.62
372.48	361.62
372.706	360.62
372.932	358.62
373.158	384.62
373.384	371.62
373.61	364.62
373.835	352.62
374.061	363.62
374.287	368.62
374.513	362.62
374.739	373.62
374.965	372.62
375.191	409.62
375.416	376.62
375.642	378.62
375.868	389.62
376.094	362.62
376.319	362.62
376.545	350.62
376.771	355.62
376.997	349.62
377.222	359.62
377.448	361.62
377.674	343.62
377.899	332.62
378.125	357.62
378.35	366.62
378.576	347.62
378.802	349.62
379.027	362.62
379.253	349.62
379.478	355.62
379.704	370.62
379.929	350.62
380.155	348.62
380.38	370.62
380.606	370.62
380.831	365.62
381.057	357.62
381.282	349.62
381.507	355.62
381.733	355.62
381.958	370.62
382.184	368.62
382.409	356.62
382.634	346.62
382.86	375.62
383.085	370.62
383.31	352.62
383.535	370.62
383.761	359.62
383.986	360.62
384.211	384.62
384.436	364.62
384.662	348.62
384.887	355.62
385.112	357.62
385.337	364.62
385.562	389.62
385.787	378.62
386.013	383.62
386.238	395.62
386.463	396.62
386.688	373.62
386.913	379.62
387.138	372.62
387.363	370.62
387.588	377.62
387.813	362.62
388.038	363.62
388.263	392.62
388.488	380.62
388.713	376.62
388.938	390.62
389.163	388.62
389.387	375.62
389.612	368.62
389.837	351.62
390.062	368.62
390.287	395.62
390.512	355.62
390.736	362.62
390.961	376.62
391.186	370.62
391.411	373.62
391.636	385.62
391.86	386.62
392.085	381.62
392.31	380.62
392.534	377.62
392.759	363.62
392.984	360.62
393.208	366.62
393.433	392.62
393.658	381.62
393.882	380.62
394.107	360.62
394.331	375.62
394.556	359.62
394.78	353.62
395.005	372.62
395.229	368.62
395.454	391.62
395.678	375.62
395.903	390.62
396.127	406.62
396.352	424.62
396.576	390.62
396.801	380.62
397.025	402.62
397.249	371.62
397.474	395.62
397.698	386.62
397.922	406.62
398.147	404.62
398.371	420.62
398.595	434.62
398.82	404.62
399.044	424.62
399.268	418.62
399.492	432.62
399.717	473.62
399.941	499.62
400.165	496.62
400.389	511.62
400.613	484.62
400.837	453.62
401.062	427.62
401.286	432.62
401.51	422.62
401.734	414.62
401.958	411.62
402.182	426.62
402.406	425.62
402.63	417.62
402.854	418.62
403.078	438.62
403.302	438.62
403.526	447.62
403.75	459.62
403.974	427.62
404.198	417.62
404.422	441.62
404.645	451.62
404.869	434.62
405.093	469.62
405.317	522.62
405.541	536.62
405.765	496.62
405.988	462.62
406.212	503.62
406.436	500.62
406.66	493.62
406.883	476.62
407.107	488.62
407.331	527.62
407.555	593.62
407.778	564.62
408.002	506.62
408.226	491.62
408.449	479.62
408.673	484.62
408.896	509.62
409.12	540.62
409.344	516.62
409.567	455.62
409.791	438.62
410.014	436.62
410.238	437.62
410.461	437.62
410.685	424.62
410.908	452.62
411.132	459.62
411.355	534.62
411.578	503.62
411.802	432.62
412.025	437.62
412.249	426.62
412.472	462.62
412.695	495.62
412.919	475.62
413.142	429.62
413.365	432.62
413.589	411.62
413.812	428.62
414.035	422.62
414.258	404.62
414.482	398.62
414.705	410.62
414.928	420.62
415.151	405.62
415.374	399.62
415.597	416.62
415.821	395.62
416.044	398.62
416.267	409.62
416.49	403.62
416.713	414.62
416.936	399.62
417.159	412.62
417.382	402.62
417.605	435.62
417.828	414.62
418.051	470.62
418.274	433.62
418.497	404.62
418.72	399.62
418.943	404.62
419.166	400.62
419.389	436.62
419.611	437.62
419.834	436.62
420.057	452.62
420.28	433.62
420.503	432.62
420.726	437.62
420.948	443.62
421.171	476.62
421.394	493.62
421.617	455.62
421.839	440.62
422.062	433.62
422.285	438.62
422.507	508.62
422.73	569.62
422.953	539.62
423.175	476.62
423.398	435.62
423.621	480.62
423.843	455.62
424.066	489.62
424.288	492.62
424.511	497.62
424.733	556.62
424.956	631.62
425.178	615.62
425.401	585.62
425.623	613.62
425.846	525.62
426.068	479.62
426.291	472.62
426.513	476.62
426.735	482.62
426.958	518.62
427.18	586.62
427.402	713.62
427.625	799.62
427.847	705.62
428.069	618.62
428.292	537.62
428.514	472.62
428.736	461.62
428.958	453.62
429.181	434.62
429.403	467.62
429.625	448.62
429.847	492.62
430.069	544.62
430.292	522.62
430.514	459.62
430.736	454.62
430.958	418.62
431.18	432.62
431.402	415.62
431.624	408.62
431.846	423.62
432.068	406.62
432.29	387.62
432.512	413.62
432.734	412.62
432.956	436.62
433.178	436.62
433.4	419.62
433.622	402.62
433.844	395.62
434.066	407.62
434.287	392.62
434.509	408.62
434.731	411.62
434.953	431.62
435.175	447.62
435.397	456.62
435.618	468.62
435.84	520.62
436.062	600.62
436.284	665.62
436.505	577.62
436.727	509.62
436.949	456.62
437.17	445.62
437.392	454.62
437.614	456.62
437.835	510.62
438.057	592.62
438.278	684.62
438.5	696.62
438.721	717.62
438.943	670.62
439.165	584.62
439.386	524.62
439.608	494.62
439.829	513.62
440.05	512.62
440.272	595.62
440.493	530.62
440.715	481.62
440.936	439.62
441.158	443.62
441.379	445.62
441.6	438.62
441.822	479.62
442.043	521.62
442.264	594.62
442.486	634.62
442.707	556.62
442.928	514.62
443.149	522.62
443.371	530.62
443.592	560.62
443.813	638.62
444.034	721.62
444.255	586.62
444.476	504.62
444.698	474.62
444.919	473.62
445.14	573.62
445.361	531.62
445.582	526.62
445.803	589.62
446.024	689.62
446.245	696.62
446.466	620.62
446.687	547.62
446.908	495.62
447.129	477.62
447.35	443.62
447.571	438.62
447.792	444.62
448.013	460.62
448.234	477.62
448.455	536.62
448.675	621.62
448.896	725.62
449.117	614.62
449.338	584.62
449.559	673.62
449.779	742.62
450	625.62
450.221	503.62
450.442	466.62
450.662	437.62
450.883	468.62
451.104	475.62
451.324	467.62
451.545	428.62
451.766	420.62
451.986	413.62
452.207	393.62
452.428	399.62
452.648	403.62
452.869	403.62
453.089	408.62
453.31	436.62
453.53	406.62
453.751	408.62
453.971	405.62
454.192	436.62
454.412	412.62
454.633	403.62
454.853	414.62
455.073	378.62
455.294	431.62
455.514	492.62
455.734	487.62
455.955	410.62
456.175	371.62
456.395	348.62
456.616	365.62
456.836	364.62
457.056	375.62
457.276	372.62
457.497	404.62
457.717	372.62
457.937	382.62
458.157	378.62
458.377	380.62
458.598	434.62
458.818	471.62
459.038	575.62
459.258	581.62
459.478	475.62
459.698	428.62
459.918	418.62
460.138	412.62
460.358	387.62
460.578	392.62
460.798	401.62
461.018	422.62
461.238	406.62
461.458	416.62
461.678	371.62
461.898	389.62
462.118	395.62
462.338	395.62
462.558	386.62
462.777	393.62
462.997	415.62
463.217	412.62
463.437	442.62
463.657	416.62
463.876	435.62
464.096	423.62
464.316	420.62
464.536	443.62
464.755	441.62
464.975	440.62
465.195	489.62
465.414	565.62
465.634	479.62
465.854	457.62
466.073	413.62
466.293	407.62
466.512	392.62
466.732	405.62
466.951	388.62
467.171	401.62
467.391	394.62
467.61	414.62
467.829	420.62
468.049	430.62
468.268	407.62
468.488	380.62
468.707	376.62
468.927	378.62
469.146	380.62
469.365	366.62
469.585	378.62
469.804	382.62
470.023	393.62
470.243	403.62
470.462	398.62
470.681	419.62
470.901	423.62
471.12	415.62
471.339	404.62
471.558	396.62
471.777	399.62
471.997	400.62
472.216	404.62
472.435	425.62
472.654	446.62
472.873	414.62
473.092	411.62
473.311	378.62
473.53	410.62
473.749	435.62
473.968	479.62
474.187	561.62
474.406	597.62
474.625	484.62
474.844	432.62
475.063	426.62
475.282	414.62
475.501	422.62
475.72	426.62
475.939	404.62
476.158	402.62
476.377	412.62
476.596	432.62
476.814	442.62
477.033	431.62
477.252	422.62
477.471	418.62
477.69	426.62
477.908	420.62
478.127	441.62
478.346	428.62
478.564	433.62
478.783	447.62
479.002	451.62
479.22	456.62
479.439	459.62
479.658	502.62
479.876	480.62
480.095	484.62
480.313	519.62
480.532	499.62
480.751	484.62
480.969	520.62
481.188	568.62
481.406	612.62
481.624	544.62
481.843	506.62
482.061	506.62
482.28	476.62
482.498	482.62
482.717	473.62
482.935	456.62
483.153	478.62
483.372	456.62
483.59	485.62
483.808	483.62
484.027	464.62
484.245	472.62
484.463	448.62
484.681	471.62
484.9	475.62
485.118	475.62
485.336	485.62
485.554	481.62
485.772	486.62
485.99	486.62
486.209	503.62
486.427	491.62
486.645	474.62
486.863	522.62
487.081	515.62
487.299	534.62
487.517	509.62
487.735	488.62
487.953	504.62
488.171	529.62
488.389	492.62
488.607	510.62
488.825	528.62
489.043	506.62
489.261	518.62
489.479	509.62
489.696	508.62
489.914	531.62
490.132	521.62
490.35	524.62
490.568	540.62
490.786	567.62
491.003	557.62
491.221	556.62
491.439	576.62
491.657	584.62
491.874	593.62
492.092	561.62
492.31	576.62
492.527	600.62
492.745	576.62
492.963	582.62
493.18	611.62
493.398	601.62
493.615	601.62
493.833	588.62
494.05	599.62
494.268	602.62
494.485	596.62
494.703	609.62
494.92	616.62
495.138	587.62
495.355	600.62
495.573	597.62
495.79	612.62
496.008	613.62
496.225	588.62
496.442	608.62
496.66	607.62
496.877	596.62
497.094	610.62
497.312	630.62
497.529	613.62
497.746	640.62
497.963	647.62
498.181	627.62
498.398	649.62
498.615	668.62
498.832	646.62
499.049	676.62
499.267	666.62
499.484	680.62
499.701	690.62
499.918	717.62
500.135	713.62
500.352	739.62
500.569	740.62
500.786	739.62
501.003	737.62
501.22	731.62
501.437	715.62
501.654	724.62
501.871	718.62
