Data from 1981.PennyLincolnUp.Lamp.En5.5.200Scan.071819.P1_HRD10591_16-42-49-961.txt Node
Date: Thu Jul 18 16:42:49 EDT 2019
User: cochatt
Spectrometer: HR+D1059
Trigger mode: 1
Integration Time (sec): 1.000000E-1
Scans to average: 1
Electric dark correction enabled: true
Nonlinearity correction enabled: false
Boxcar width: 0
XAxis mode: Wavelengths
Number of Pixels in Spectrum: 2048
>>>>>Begin Spectral Data<<<<<
223.165	-30.19
223.4	-30.19
223.635	-30.19
223.869	-16.19
224.104	-18.19
224.338	-11.19
224.573	-17.19
224.808	-11.19
225.042	-1.19
225.277	-10.19
225.511	-2.19
225.746	2.81
225.98	15.81
226.215	9.81
226.449	7.81
226.683	24.81
226.918	30.81
227.152	25.81
227.387	25.81
227.621	49.81
227.856	42.81
228.09	41.81
228.324	41.81
228.559	58.81
228.793	71.81
229.027	100.81
229.262	100.81
229.496	121.81
229.73	144.81
229.964	154.81
230.199	134.81
230.433	125.81
230.667	122.81
230.901	113.81
231.136	124.81
231.37	89.81
231.604	93.81
231.838	105.81
232.072	109.81
232.306	110.81
232.541	119.81
232.775	123.81
233.009	102.81
233.243	117.81
233.477	121.81
233.711	115.81
233.945	109.81
234.179	111.81
234.413	99.81
234.647	128.81
234.881	125.81
235.115	121.81
235.349	125.81
235.583	129.81
235.817	128.81
236.051	134.81
236.285	117.81
236.519	119.81
236.753	125.81
236.987	139.81
237.221	195.81
237.455	240.81
237.689	176.81
237.922	148.81
238.156	114.81
238.39	132.81
238.624	133.81
238.858	125.81
239.091	130.81
239.325	123.81
239.559	129.81
239.793	138.81
240.027	130.81
240.26	153.81
240.494	151.81
240.728	146.81
240.961	139.81
241.195	145.81
241.429	137.81
241.662	138.81
241.896	120.81
242.13	155.81
242.363	132.81
242.597	140.81
242.83	132.81
243.064	132.81
243.298	140.81
243.531	149.81
243.765	139.81
243.998	120.81
244.232	137.81
244.465	147.81
244.699	142.81
244.932	125.81
245.166	142.81
245.399	138.81
245.633	131.81
245.866	146.81
246.099	142.81
246.333	149.81
246.566	139.81
246.8	161.81
247.033	139.81
247.266	174.81
247.5	156.81
247.733	177.81
247.966	181.81
248.2	169.81
248.433	180.81
248.666	189.81
248.899	197.81
249.133	217.81
249.366	216.81
249.599	203.81
249.832	192.81
250.066	192.81
250.299	199.81
250.532	211.81
250.765	218.81
250.998	229.81
251.231	229.81
251.465	223.81
251.698	209.81
251.931	211.81
252.164	193.81
252.397	211.81
252.63	218.81
252.863	214.81
253.096	233.81
253.329	242.81
253.562	249.81
253.795	249.81
254.028	227.81
254.261	234.81
254.494	241.81
254.727	284.81
254.96	289.81
255.193	285.81
255.426	272.81
255.659	265.81
255.892	262.81
256.124	237.81
256.357	240.81
256.59	229.81
256.823	237.81
257.056	225.81
257.289	226.81
257.521	225.81
257.754	209.81
257.987	225.81
258.22	228.81
258.452	217.81
258.685	219.81
258.918	201.81
259.151	221.81
259.383	230.81
259.616	217.81
259.849	239.81
260.081	254.81
260.314	297.81
260.547	282.81
260.779	255.81
261.012	243.81
261.244	251.81
261.477	224.81
261.71	260.81
261.942	246.81
262.175	264.81
262.407	255.81
262.64	239.81
262.872	220.81
263.105	233.81
263.337	232.81
263.57	224.81
263.802	223.81
264.035	211.81
264.267	213.81
264.499	210.81
264.732	229.81
264.964	220.81
265.197	237.81
265.429	237.81
265.661	211.81
265.894	226.81
266.126	223.81
266.358	227.81
266.591	226.81
266.823	230.81
267.055	247.81
267.287	257.81
267.52	255.81
267.752	256.81
267.984	237.81
268.216	240.81
268.448	244.81
268.681	237.81
268.913	263.81
269.145	281.81
269.377	293.81
269.609	271.81
269.841	272.81
270.073	285.81
270.306	321.81
270.538	354.81
270.77	341.81
271.002	319.81
271.234	326.81
271.466	327.81
271.698	343.81
271.93	351.81
272.162	354.81
272.394	352.81
272.626	337.81
272.858	301.81
273.09	287.81
273.322	297.81
273.553	295.81
273.785	287.81
274.017	285.81
274.249	276.81
274.481	293.81
274.713	299.81
274.945	267.81
275.176	298.81
275.408	273.81
275.64	279.81
275.872	275.81
276.104	274.81
276.335	285.81
276.567	295.81
276.799	317.81
277.031	343.81
277.262	341.81
277.494	333.81
277.726	327.81
277.957	302.81
278.189	309.81
278.421	296.81
278.652	274.81
278.884	298.81
279.115	296.81
279.347	280.81
279.579	279.81
279.81	274.81
280.042	292.81
280.273	265.81
280.505	283.81
280.736	294.81
280.968	283.81
281.199	265.81
281.431	280.81
281.662	278.81
281.894	275.81
282.125	290.81
282.356	299.81
282.588	314.81
282.819	317.81
283.051	280.81
283.282	279.81
283.513	306.81
283.745	287.81
283.976	273.81
284.207	292.81
284.439	302.81
284.67	287.81
284.901	280.81
285.132	288.81
285.364	282.81
285.595	285.81
285.826	279.81
286.057	276.81
286.288	294.81
286.52	271.81
286.751	292.81
286.982	280.81
287.213	273.81
287.444	279.81
287.675	297.81
287.906	298.81
288.138	301.81
288.369	296.81
288.6	310.81
288.831	305.81
289.062	302.81
289.293	327.81
289.524	282.81
289.755	299.81
289.986	312.81
290.217	286.81
290.448	287.81
290.679	302.81
290.91	293.81
291.141	304.81
291.371	303.81
291.602	303.81
291.833	299.81
292.064	278.81
292.295	296.81
292.526	275.81
292.757	287.81
292.987	304.81
293.218	289.81
293.449	302.81
293.68	299.81
293.91	303.81
294.141	307.81
294.372	297.81
294.603	296.81
294.833	288.81
295.064	305.81
295.295	313.81
295.525	305.81
295.756	298.81
295.987	303.81
296.217	356.81
296.448	346.81
296.679	305.81
296.909	295.81
297.14	301.81
297.37	305.81
297.601	302.81
297.831	321.81
298.062	310.81
298.292	308.81
298.523	311.81
298.753	314.81
298.984	303.81
299.214	313.81
299.445	309.81
299.675	307.81
299.905	318.81
300.136	329.81
300.366	332.81
300.597	296.81
300.827	321.81
301.057	340.81
301.288	337.81
301.518	320.81
301.748	325.81
301.979	337.81
302.209	305.81
302.439	321.81
302.669	346.81
302.9	345.81
303.13	319.81
303.36	327.81
303.59	325.81
303.82	356.81
304.051	331.81
304.281	317.81
304.511	331.81
304.741	339.81
304.971	335.81
305.201	336.81
305.431	329.81
305.661	324.81
305.891	321.81
306.121	315.81
306.352	331.81
306.582	323.81
306.812	357.81
307.042	345.81
307.272	327.81
307.502	339.81
307.731	344.81
307.961	342.81
308.191	331.81
308.421	357.81
308.651	332.81
308.881	342.81
309.111	366.81
309.341	361.81
309.571	361.81
309.8	373.81
310.03	393.81
310.26	379.81
310.49	410.81
310.72	398.81
310.949	433.81
311.179	444.81
311.409	416.81
311.639	411.81
311.868	407.81
312.098	395.81
312.328	389.81
312.557	422.81
312.787	422.81
313.017	424.81
313.246	416.81
313.476	389.81
313.706	376.81
313.935	427.81
314.165	419.81
314.394	430.81
314.624	405.81
314.853	409.81
315.083	389.81
315.312	387.81
315.542	385.81
315.771	393.81
316.001	399.81
316.23	393.81
316.46	394.81
316.689	408.81
316.919	405.81
317.148	407.81
317.377	391.81
317.607	394.81
317.836	414.81
318.065	385.81
318.295	401.81
318.524	385.81
318.753	391.81
318.983	393.81
319.212	390.81
319.441	407.81
319.67	403.81
319.9	408.81
320.129	409.81
320.358	395.81
320.587	394.81
320.816	433.81
321.046	425.81
321.275	433.81
321.504	431.81
321.733	426.81
321.962	438.81
322.191	443.81
322.42	461.81
322.649	492.81
322.878	502.81
323.108	532.81
323.337	529.81
323.566	558.81
323.795	625.81
324.024	680.81
324.253	855.81
324.482	1232.81
324.71	1905.81
324.939	2616.81
325.168	2187.81
325.397	1145.81
325.626	754.81
325.855	640.81
326.084	599.81
326.313	579.81
326.542	577.81
326.77	654.81
326.999	779.81
327.228	1092.81
327.457	1667.81
327.686	1907.81
327.914	1267.81
328.143	830.81
328.372	713.81
328.6	673.81
328.829	615.81
329.058	626.81
329.287	665.81
329.515	624.81
329.744	577.81
329.972	581.81
330.201	605.81
330.43	631.81
330.658	665.81
330.887	701.81
331.115	650.81
331.344	590.81
331.572	546.81
331.801	513.81
332.03	529.81
332.258	508.81
332.486	478.81
332.715	473.81
332.943	452.81
333.172	463.81
333.4	458.81
333.629	436.81
333.857	497.81
334.085	510.81
334.314	515.81
334.542	541.81
334.771	542.81
334.999	507.81
335.227	485.81
335.455	467.81
335.684	447.81
335.912	456.81
336.14	450.81
336.369	442.81
336.597	453.81
336.825	457.81
337.053	448.81
337.281	441.81
337.51	466.81
337.738	455.81
337.966	445.81
338.194	464.81
338.422	466.81
338.65	455.81
338.878	461.81
339.106	423.81
339.334	435.81
339.562	410.81
339.79	423.81
340.018	418.81
340.246	440.81
340.474	440.81
340.702	433.81
340.93	426.81
341.158	425.81
341.386	431.81
341.614	421.81
341.842	460.81
342.07	408.81
342.298	417.81
342.526	434.81
342.754	427.81
342.981	426.81
343.209	437.81
343.437	427.81
343.665	402.81
343.893	400.81
344.12	426.81
344.348	439.81
344.576	429.81
344.804	423.81
345.031	439.81
345.259	450.81
345.487	449.81
345.714	422.81
345.942	431.81
346.17	446.81
346.397	425.81
346.625	429.81
346.853	425.81
347.08	429.81
347.308	421.81
347.535	431.81
347.763	422.81
347.99	424.81
348.218	422.81
348.445	435.81
348.673	426.81
348.9	411.81
349.128	405.81
349.355	385.81
349.583	409.81
349.81	393.81
350.037	389.81
350.265	403.81
350.492	401.81
350.72	394.81
350.947	383.81
351.174	423.81
351.402	419.81
351.629	422.81
351.856	420.81
352.083	435.81
352.311	445.81
352.538	443.81
352.765	433.81
352.992	434.81
353.22	420.81
353.447	410.81
353.674	410.81
353.901	372.81
354.128	400.81
354.355	387.81
354.583	374.81
354.81	399.81
355.037	366.81
355.264	374.81
355.491	370.81
355.718	367.81
355.945	385.81
356.172	382.81
356.399	375.81
356.626	386.81
356.853	362.81
357.08	370.81
357.307	360.81
357.534	381.81
357.761	377.81
357.988	383.81
358.215	361.81
358.441	376.81
358.668	376.81
358.895	377.81
359.122	372.81
359.349	378.81
359.576	421.81
359.802	434.81
360.029	473.81
360.256	463.81
360.483	473.81
360.709	393.81
360.936	415.81
361.163	434.81
361.39	418.81
361.616	416.81
361.843	397.81
362.07	413.81
362.296	414.81
362.523	393.81
362.749	386.81
362.976	394.81
363.203	406.81
363.429	386.81
363.656	416.81
363.882	382.81
364.109	384.81
364.335	358.81
364.562	377.81
364.788	371.81
365.015	366.81
365.241	396.81
365.468	380.81
365.694	377.81
365.92	391.81
366.147	385.81
366.373	363.81
366.599	369.81
366.826	353.81
367.052	360.81
367.278	382.81
367.505	350.81
367.731	366.81
367.957	382.81
368.184	397.81
368.41	369.81
368.636	393.81
368.862	379.81
369.089	363.81
369.315	371.81
369.541	376.81
369.767	368.81
369.993	386.81
370.219	355.81
370.445	371.81
370.672	373.81
370.898	366.81
371.124	362.81
371.35	377.81
371.576	377.81
371.802	381.81
372.028	347.81
372.254	351.81
372.48	360.81
372.706	378.81
372.932	351.81
373.158	377.81
373.384	359.81
373.61	356.81
373.835	372.81
374.061	368.81
374.287	357.81
374.513	371.81
374.739	370.81
374.965	359.81
375.191	379.81
375.416	369.81
375.642	356.81
375.868	375.81
376.094	352.81
376.319	373.81
376.545	349.81
376.771	359.81
376.997	374.81
377.222	343.81
377.448	345.81
377.674	340.81
377.899	339.81
378.125	344.81
378.35	347.81
378.576	354.81
378.802	343.81
379.027	362.81
379.253	342.81
379.478	361.81
379.704	355.81
379.929	365.81
380.155	355.81
380.38	358.81
380.606	355.81
380.831	366.81
381.057	357.81
381.282	355.81
381.507	358.81
381.733	331.81
381.958	337.81
382.184	358.81
382.409	342.81
382.634	344.81
382.86	346.81
383.085	377.81
383.31	352.81
383.535	353.81
383.761	355.81
383.986	386.81
384.211	349.81
384.436	365.81
384.662	373.81
384.887	362.81
385.112	357.81
385.337	357.81
385.562	373.81
385.787	351.81
386.013	385.81
386.238	376.81
386.463	370.81
386.688	373.81
386.913	373.81
387.138	381.81
387.363	378.81
387.588	351.81
387.813	360.81
388.038	366.81
388.263	383.81
388.488	368.81
388.713	382.81
388.938	376.81
389.163	357.81
389.387	379.81
389.612	365.81
389.837	364.81
390.062	357.81
390.287	359.81
390.512	372.81
390.736	377.81
390.961	362.81
391.186	378.81
391.411	380.81
391.636	373.81
391.86	367.81
392.085	358.81
392.31	382.81
392.534	374.81
392.759	354.81
392.984	383.81
393.208	370.81
393.433	393.81
393.658	371.81
393.882	384.81
394.107	366.81
394.331	369.81
394.556	369.81
394.78	377.81
395.005	373.81
395.229	384.81
395.454	381.81
395.678	376.81
395.903	385.81
396.127	384.81
396.352	411.81
396.576	379.81
396.801	370.81
397.025	378.81
397.249	383.81
397.474	386.81
397.698	375.81
397.922	393.81
398.147	405.81
398.371	414.81
398.595	400.81
398.82	404.81
399.044	404.81
399.268	414.81
399.492	439.81
399.717	453.81
399.941	470.81
400.165	489.81
400.389	527.81
400.613	474.81
400.837	450.81
401.062	429.81
401.286	426.81
401.51	433.81
401.734	409.81
401.958	396.81
402.182	432.81
402.406	428.81
402.63	443.81
402.854	435.81
403.078	433.81
403.302	428.81
403.526	445.81
403.75	421.81
403.974	419.81
404.198	426.81
404.422	431.81
404.645	429.81
404.869	434.81
405.093	466.81
405.317	499.81
405.541	529.81
405.765	488.81
405.988	466.81
406.212	489.81
406.436	515.81
406.66	505.81
406.883	476.81
407.107	480.81
407.331	534.81
407.555	576.81
407.778	563.81
408.002	522.81
408.226	504.81
408.449	467.81
408.673	485.81
408.896	518.81
409.12	541.81
409.344	525.81
409.567	467.81
409.791	469.81
410.014	443.81
410.238	438.81
410.461	441.81
410.685	433.81
410.908	452.81
411.132	496.81
411.355	515.81
411.578	500.81
411.802	422.81
412.025	420.81
412.249	437.81
412.472	450.81
412.695	507.81
412.919	494.81
413.142	456.81
413.365	418.81
413.589	423.81
413.812	409.81
414.035	396.81
414.258	393.81
414.482	410.81
414.705	411.81
414.928	402.81
415.151	398.81
415.374	405.81
415.597	381.81
415.821	417.81
416.044	418.81
416.267	407.81
416.49	405.81
416.713	394.81
416.936	417.81
417.159	400.81
417.382	395.81
417.605	426.81
417.828	427.81
418.051	423.81
418.274	426.81
418.497	403.81
418.72	419.81
418.943	391.81
419.166	429.81
419.389	417.81
419.611	431.81
419.834	420.81
420.057	440.81
420.28	415.81
420.503	418.81
420.726	415.81
420.948	424.81
421.171	489.81
421.394	512.81
421.617	466.81
421.839	406.81
422.062	447.81
422.285	442.81
422.507	509.81
422.73	565.81
422.953	546.81
423.175	495.81
423.398	467.81
423.621	444.81
423.843	484.81
424.066	493.81
424.288	474.81
424.511	465.81
424.733	532.81
424.956	588.81
425.178	592.81
425.401	586.81
425.623	610.81
425.846	514.81
426.068	464.81
426.291	474.81
426.513	470.81
426.735	477.81
426.958	531.81
427.18	612.81
427.402	719.81
427.625	800.81
427.847	718.81
428.069	602.81
428.292	537.81
428.514	487.81
428.736	457.81
428.958	453.81
429.181	437.81
429.403	434.81
429.625	458.81
429.847	481.81
430.069	542.81
430.292	557.81
430.514	464.81
430.736	427.81
430.958	431.81
431.18	428.81
431.402	392.81
431.624	393.81
431.846	401.81
432.068	404.81
432.29	401.81
432.512	392.81
432.734	415.81
432.956	418.81
433.178	413.81
433.4	447.81
433.622	415.81
433.844	405.81
434.066	422.81
434.287	401.81
434.509	417.81
434.731	426.81
434.953	435.81
435.175	438.81
435.397	486.81
435.618	465.81
435.84	517.81
436.062	613.81
436.284	663.81
436.505	552.81
436.727	507.81
436.949	463.81
437.17	443.81
437.392	442.81
437.614	455.81
437.835	497.81
438.057	612.81
438.278	680.81
438.5	704.81
438.721	708.81
438.943	704.81
439.165	569.81
439.386	511.81
439.608	497.81
439.829	474.81
440.05	523.81
440.272	567.81
440.493	535.81
440.715	497.81
440.936	458.81
441.158	443.81
441.379	445.81
441.6	451.81
441.822	475.81
442.043	517.81
442.264	583.81
442.486	625.81
442.707	537.81
442.928	499.81
443.149	474.81
443.371	531.81
443.592	559.81
443.813	652.81
444.034	696.81
444.255	565.81
444.476	503.81
444.698	497.81
444.919	479.81
445.14	559.81
445.361	544.81
445.582	532.81
445.803	593.81
446.024	703.81
446.245	699.81
446.466	623.81
446.687	534.81
446.908	509.81
447.129	438.81
447.35	450.81
447.571	467.81
447.792	445.81
448.013	442.81
448.234	451.81
448.455	536.81
448.675	615.81
448.896	716.81
449.117	629.81
449.338	578.81
449.559	670.81
449.779	740.81
450	625.81
450.221	498.81
450.442	465.81
450.662	466.81
450.883	463.81
451.104	455.81
451.324	475.81
451.545	425.81
451.766	404.81
451.986	394.81
452.207	397.81
452.428	407.81
452.648	418.81
452.869	399.81
453.089	400.81
453.31	434.81
453.53	395.81
453.751	399.81
453.971	416.81
454.192	419.81
454.412	411.81
454.633	411.81
454.853	396.81
455.073	387.81
455.294	415.81
455.514	468.81
455.734	448.81
455.955	421.81
456.175	393.81
456.395	363.81
456.616	358.81
456.836	385.81
457.056	369.81
457.276	361.81
457.497	356.81
457.717	383.81
457.937	372.81
458.157	375.81
458.377	388.81
458.598	406.81
458.818	458.81
459.038	577.81
459.258	552.81
459.478	471.81
459.698	410.81
459.918	395.81
460.138	403.81
460.358	391.81
460.578	403.81
460.798	404.81
461.018	399.81
461.238	389.81
461.458	394.81
461.678	398.81
461.898	392.81
462.118	416.81
462.338	410.81
462.558	415.81
462.777	398.81
462.997	411.81
463.217	403.81
463.437	425.81
463.657	409.81
463.876	412.81
464.096	429.81
464.316	414.81
464.536	418.81
464.755	442.81
464.975	433.81
465.195	503.81
465.414	560.81
465.634	497.81
465.854	451.81
466.073	431.81
466.293	419.81
466.512	386.81
466.732	386.81
466.951	391.81
467.171	405.81
467.391	409.81
467.61	421.81
467.829	425.81
468.049	404.81
468.268	402.81
468.488	386.81
468.707	382.81
468.927	360.81
469.146	351.81
469.365	360.81
469.585	389.81
469.804	397.81
470.023	409.81
470.243	413.81
470.462	411.81
470.681	413.81
470.901	423.81
471.12	401.81
471.339	397.81
471.558	383.81
471.777	406.81
471.997	405.81
472.216	420.81
472.435	464.81
472.654	427.81
472.873	423.81
473.092	387.81
473.311	418.81
473.53	406.81
473.749	408.81
473.968	479.81
474.187	569.81
474.406	590.81
474.625	482.81
474.844	413.81
475.063	422.81
475.282	404.81
475.501	394.81
475.72	429.81
475.939	431.81
476.158	425.81
476.377	397.81
476.596	425.81
476.814	421.81
477.033	424.81
477.252	422.81
477.471	415.81
477.69	424.81
477.908	421.81
478.127	431.81
478.346	418.81
478.564	416.81
478.783	420.81
479.002	451.81
479.22	445.81
479.439	450.81
479.658	454.81
479.876	502.81
480.095	481.81
480.313	529.81
480.532	504.81
480.751	498.81
480.969	504.81
481.188	559.81
481.406	595.81
481.624	526.81
481.843	497.81
482.061	495.81
482.28	466.81
482.498	480.81
482.717	462.81
482.935	459.81
483.153	467.81
483.372	483.81
483.59	462.81
483.808	480.81
484.027	454.81
484.245	461.81
484.463	482.81
484.681	489.81
484.9	499.81
485.118	493.81
485.336	459.81
485.554	480.81
485.772	480.81
485.99	475.81
486.209	481.81
486.427	515.81
486.645	515.81
486.863	547.81
487.081	534.81
487.299	527.81
487.517	507.81
487.735	498.81
487.953	499.81
488.171	493.81
488.389	499.81
488.607	505.81
488.825	500.81
489.043	503.81
489.261	511.81
489.479	488.81
489.696	513.81
489.914	520.81
490.132	506.81
490.35	519.81
490.568	518.81
490.786	555.81
491.003	537.81
491.221	570.81
491.439	573.81
491.657	578.81
491.874	591.81
492.092	578.81
492.31	591.81
492.527	583.81
492.745	594.81
492.963	578.81
493.18	602.81
493.398	593.81
493.615	579.81
493.833	597.81
494.05	618.81
494.268	594.81
494.485	611.81
494.703	590.81
494.92	610.81
495.138	593.81
495.355	614.81
495.573	597.81
495.79	621.81
496.008	597.81
496.225	591.81
496.442	599.81
496.66	598.81
496.877	585.81
497.094	579.81
497.312	606.81
497.529	641.81
497.746	627.81
497.963	626.81
498.181	635.81
498.398	643.81
498.615	631.81
498.832	658.81
499.049	660.81
499.267	680.81
499.484	703.81
499.701	700.81
499.918	672.81
500.135	718.81
500.352	747.81
500.569	720.81
500.786	759.81
501.003	735.81
501.22	749.81
501.437	718.81
501.654	733.81
501.871	725.81
