Data from 1981.PennyLincolnUp.Lamp.En5.5.200Scan.071819.P1_HRD10591_16-41-17-959.txt Node
Date: Thu Jul 18 16:41:17 EDT 2019
User: cochatt
Spectrometer: HR+D1059
Trigger mode: 1
Integration Time (sec): 1.000000E-1
Scans to average: 1
Electric dark correction enabled: true
Nonlinearity correction enabled: false
Boxcar width: 0
XAxis mode: Wavelengths
Number of Pixels in Spectrum: 2048
>>>>>Begin Spectral Data<<<<<
223.165	-18.81
223.4	-18.81
223.635	-18.81
223.869	-27.81
224.104	-22.81
224.338	-18.81
224.573	-8.81
224.808	-10.81
225.042	0.19
225.277	-0.81
225.511	-7.81
225.746	10.19
225.98	5.19
226.215	-7.81
226.449	19.19
226.683	19.19
226.918	28.19
227.152	42.19
227.387	27.19
227.621	34.19
227.856	51.19
228.09	47.19
228.324	53.19
228.559	49.19
228.793	69.19
229.027	86.19
229.262	98.19
229.496	116.19
229.73	125.19
229.964	140.19
230.199	130.19
230.433	121.19
230.667	112.19
230.901	86.19
231.136	106.19
231.37	110.19
231.604	117.19
231.838	104.19
232.072	101.19
232.306	104.19
232.541	108.19
232.775	104.19
233.009	105.19
233.243	116.19
233.477	114.19
233.711	108.19
233.945	122.19
234.179	124.19
234.413	109.19
234.647	119.19
234.881	112.19
235.115	116.19
235.349	113.19
235.583	121.19
235.817	102.19
236.051	122.19
236.285	115.19
236.519	128.19
236.753	142.19
236.987	146.19
237.221	184.19
237.455	228.19
237.689	189.19
237.922	149.19
238.156	131.19
238.39	130.19
238.624	135.19
238.858	125.19
239.091	116.19
239.325	129.19
239.559	130.19
239.793	132.19
240.027	120.19
240.26	152.19
240.494	177.19
240.728	140.19
240.961	144.19
241.195	147.19
241.429	125.19
241.662	127.19
241.896	127.19
242.13	128.19
242.363	124.19
242.597	130.19
242.83	128.19
243.064	145.19
243.298	136.19
243.531	125.19
243.765	138.19
243.998	137.19
244.232	133.19
244.465	134.19
244.699	143.19
244.932	141.19
245.166	148.19
245.399	135.19
245.633	141.19
245.866	132.19
246.099	142.19
246.333	140.19
246.566	139.19
246.8	139.19
247.033	149.19
247.266	146.19
247.5	163.19
247.733	166.19
247.966	161.19
248.2	164.19
248.433	157.19
248.666	169.19
248.899	176.19
249.133	203.19
249.366	200.19
249.599	191.19
249.832	190.19
250.066	192.19
250.299	188.19
250.532	190.19
250.765	201.19
250.998	208.19
251.231	238.19
251.465	205.19
251.698	200.19
251.931	195.19
252.164	199.19
252.397	199.19
252.63	216.19
252.863	201.19
253.096	205.19
253.329	228.19
253.562	234.19
253.795	229.19
254.028	219.19
254.261	213.19
254.494	260.19
254.727	263.19
254.96	277.19
255.193	265.19
255.426	235.19
255.659	229.19
255.892	224.19
256.124	253.19
256.357	240.19
256.59	223.19
256.823	211.19
257.056	223.19
257.289	213.19
257.521	210.19
257.754	217.19
257.987	215.19
258.22	203.19
258.452	218.19
258.685	203.19
258.918	202.19
259.151	221.19
259.383	206.19
259.616	246.19
259.849	232.19
260.081	224.19
260.314	253.19
260.547	269.19
260.779	248.19
261.012	245.19
261.244	226.19
261.477	232.19
261.71	211.19
261.942	236.19
262.175	240.19
262.407	224.19
262.64	228.19
262.872	211.19
263.105	210.19
263.337	220.19
263.57	215.19
263.802	216.19
264.035	196.19
264.267	211.19
264.499	214.19
264.732	216.19
264.964	207.19
265.197	217.19
265.429	208.19
265.661	225.19
265.894	214.19
266.126	221.19
266.358	216.19
266.591	217.19
266.823	221.19
267.055	223.19
267.287	233.19
267.52	191.19
267.752	216.19
267.984	229.19
268.216	231.19
268.448	230.19
268.681	231.19
268.913	236.19
269.145	272.19
269.377	266.19
269.609	270.19
269.841	254.19
270.073	282.19
270.306	274.19
270.538	316.19
270.77	311.19
271.002	292.19
271.234	292.19
271.466	298.19
271.698	332.19
271.93	312.19
272.162	307.19
272.394	329.19
272.626	314.19
272.858	312.19
273.09	282.19
273.322	259.19
273.553	277.19
273.785	264.19
274.017	276.19
274.249	272.19
274.481	271.19
274.713	270.19
274.945	275.19
275.176	257.19
275.408	276.19
275.64	266.19
275.872	253.19
276.104	262.19
276.335	276.19
276.567	278.19
276.799	269.19
277.031	308.19
277.262	296.19
277.494	335.19
277.726	294.19
277.957	298.19
278.189	293.19
278.421	272.19
278.652	254.19
278.884	267.19
279.115	286.19
279.347	251.19
279.579	243.19
279.81	267.19
280.042	259.19
280.273	262.19
280.505	264.19
280.736	254.19
280.968	254.19
281.199	277.19
281.431	260.19
281.662	256.19
281.894	268.19
282.125	280.19
282.356	293.19
282.588	300.19
282.819	293.19
283.051	284.19
283.282	268.19
283.513	264.19
283.745	284.19
283.976	275.19
284.207	277.19
284.439	260.19
284.67	274.19
284.901	279.19
285.132	275.19
285.364	281.19
285.595	268.19
285.826	267.19
286.057	262.19
286.288	272.19
286.52	266.19
286.751	273.19
286.982	288.19
287.213	282.19
287.444	283.19
287.675	270.19
287.906	284.19
288.138	280.19
288.369	309.19
288.6	308.19
288.831	283.19
289.062	331.19
289.293	292.19
289.524	277.19
289.755	269.19
289.986	275.19
290.217	270.19
290.448	275.19
290.679	286.19
290.91	278.19
291.141	277.19
291.371	276.19
291.602	267.19
291.833	271.19
292.064	280.19
292.295	278.19
292.526	268.19
292.757	259.19
292.987	274.19
293.218	262.19
293.449	289.19
293.68	259.19
293.91	258.19
294.141	279.19
294.372	269.19
294.603	274.19
294.833	282.19
295.064	286.19
295.295	294.19
295.525	293.19
295.756	272.19
295.987	274.19
296.217	301.19
296.448	325.19
296.679	297.19
296.909	268.19
297.14	288.19
297.37	293.19
297.601	283.19
297.831	276.19
298.062	282.19
298.292	293.19
298.523	288.19
298.753	304.19
298.984	297.19
299.214	290.19
299.445	289.19
299.675	302.19
299.905	314.19
300.136	288.19
300.366	305.19
300.597	304.19
300.827	306.19
301.057	305.19
301.288	313.19
301.518	309.19
301.748	315.19
301.979	305.19
302.209	306.19
302.439	324.19
302.669	316.19
302.9	306.19
303.13	320.19
303.36	318.19
303.59	328.19
303.82	332.19
304.051	317.19
304.281	313.19
304.511	309.19
304.741	323.19
304.971	310.19
305.201	307.19
305.431	305.19
305.661	322.19
305.891	320.19
306.121	323.19
306.352	332.19
306.582	316.19
306.812	315.19
307.042	317.19
307.272	329.19
307.502	324.19
307.731	323.19
307.961	337.19
308.191	337.19
308.421	340.19
308.651	318.19
308.881	323.19
309.111	322.19
309.341	329.19
309.571	342.19
309.8	351.19
310.03	349.19
310.26	362.19
310.49	378.19
310.72	378.19
310.949	371.19
311.179	407.19
311.409	380.19
311.639	373.19
311.868	387.19
312.098	358.19
312.328	386.19
312.557	387.19
312.787	411.19
313.017	407.19
313.246	385.19
313.476	365.19
313.706	378.19
313.935	384.19
314.165	400.19
314.394	404.19
314.624	389.19
314.853	380.19
315.083	362.19
315.312	366.19
315.542	358.19
315.771	346.19
316.001	362.19
316.23	345.19
316.46	359.19
316.689	350.19
316.919	360.19
317.148	377.19
317.377	388.19
317.607	388.19
317.836	377.19
318.065	380.19
318.295	381.19
318.524	362.19
318.753	366.19
318.983	350.19
319.212	358.19
319.441	368.19
319.67	390.19
319.9	388.19
320.129	376.19
320.358	388.19
320.587	363.19
320.816	392.19
321.046	379.19
321.275	397.19
321.504	412.19
321.733	397.19
321.962	399.19
322.191	412.19
322.42	446.19
322.649	437.19
322.878	469.19
323.108	476.19
323.337	504.19
323.566	536.19
323.795	574.19
324.024	606.19
324.253	739.19
324.482	1070.19
324.71	1602.19
324.939	2234.19
325.168	1890.19
325.397	1001.19
325.626	674.19
325.855	562.19
326.084	535.19
326.313	509.19
326.542	512.19
326.77	555.19
326.999	681.19
327.228	956.19
327.457	1408.19
327.686	1626.19
327.914	1115.19
328.143	739.19
328.372	640.19
328.6	591.19
328.829	600.19
329.058	594.19
329.287	592.19
329.515	556.19
329.744	513.19
329.972	524.19
330.201	542.19
330.43	568.19
330.658	574.19
330.887	618.19
331.115	582.19
331.344	518.19
331.572	484.19
331.801	499.19
332.03	484.19
332.258	438.19
332.486	415.19
332.715	438.19
332.943	436.19
333.172	444.19
333.4	442.19
333.629	427.19
333.857	438.19
334.085	466.19
334.314	472.19
334.542	483.19
334.771	493.19
334.999	498.19
335.227	442.19
335.455	420.19
335.684	416.19
335.912	436.19
336.14	381.19
336.369	423.19
336.597	433.19
336.825	422.19
337.053	429.19
337.281	413.19
337.51	422.19
337.738	412.19
337.966	412.19
338.194	407.19
338.422	400.19
338.65	411.19
338.878	394.19
339.106	391.19
339.334	411.19
339.562	392.19
339.79	399.19
340.018	413.19
340.246	409.19
340.474	403.19
340.702	403.19
340.93	400.19
341.158	422.19
341.386	412.19
341.614	420.19
341.842	426.19
342.07	392.19
342.298	414.19
342.526	398.19
342.754	389.19
342.981	378.19
343.209	379.19
343.437	388.19
343.665	400.19
343.893	417.19
344.12	413.19
344.348	409.19
344.576	381.19
344.804	430.19
345.031	430.19
345.259	420.19
345.487	404.19
345.714	410.19
345.942	387.19
346.17	419.19
346.397	389.19
346.625	388.19
346.853	406.19
347.08	371.19
347.308	388.19
347.535	403.19
347.763	415.19
347.99	429.19
348.218	389.19
348.445	405.19
348.673	404.19
348.9	407.19
349.128	388.19
349.355	366.19
349.583	380.19
349.81	370.19
350.037	369.19
350.265	373.19
350.492	378.19
350.72	363.19
350.947	390.19
351.174	420.19
351.402	421.19
351.629	406.19
351.856	403.19
352.083	400.19
352.311	394.19
352.538	407.19
352.765	417.19
352.992	390.19
353.22	378.19
353.447	405.19
353.674	380.19
353.901	368.19
354.128	361.19
354.355	344.19
354.583	344.19
354.81	371.19
355.037	360.19
355.264	343.19
355.491	381.19
355.718	321.19
355.945	347.19
356.172	355.19
356.399	358.19
356.626	360.19
356.853	351.19
357.08	346.19
357.307	348.19
357.534	377.19
357.761	370.19
357.988	344.19
358.215	356.19
358.441	338.19
358.668	358.19
358.895	366.19
359.122	358.19
359.349	391.19
359.576	392.19
359.802	408.19
360.029	434.19
360.256	440.19
360.483	424.19
360.709	397.19
360.936	374.19
361.163	388.19
361.39	396.19
361.616	390.19
361.843	366.19
362.07	380.19
362.296	376.19
362.523	388.19
362.749	374.19
362.976	374.19
363.203	371.19
363.429	359.19
363.656	353.19
363.882	360.19
364.109	362.19
364.335	363.19
364.562	346.19
364.788	374.19
365.015	365.19
365.241	355.19
365.468	377.19
365.694	372.19
365.92	357.19
366.147	379.19
366.373	364.19
366.599	334.19
366.826	355.19
367.052	363.19
367.278	354.19
367.505	352.19
367.731	361.19
367.957	365.19
368.184	369.19
368.41	370.19
368.636	362.19
368.862	368.19
369.089	356.19
369.315	357.19
369.541	346.19
369.767	355.19
369.993	364.19
370.219	349.19
370.445	360.19
370.672	359.19
370.898	347.19
371.124	344.19
371.35	345.19
371.576	355.19
371.802	350.19
372.028	352.19
372.254	354.19
372.48	361.19
372.706	335.19
372.932	358.19
373.158	364.19
373.384	366.19
373.61	365.19
373.835	352.19
374.061	323.19
374.287	347.19
374.513	342.19
374.739	384.19
374.965	357.19
375.191	359.19
375.416	349.19
375.642	361.19
375.868	351.19
376.094	370.19
376.319	364.19
376.545	341.19
376.771	331.19
376.997	334.19
377.222	355.19
377.448	361.19
377.674	341.19
377.899	352.19
378.125	339.19
378.35	331.19
378.576	335.19
378.802	336.19
379.027	323.19
379.253	336.19
379.478	318.19
379.704	350.19
379.929	332.19
380.155	343.19
380.38	334.19
380.606	348.19
380.831	355.19
381.057	348.19
381.282	340.19
381.507	332.19
381.733	332.19
381.958	349.19
382.184	353.19
382.409	333.19
382.634	342.19
382.86	358.19
383.085	339.19
383.31	334.19
383.535	355.19
383.761	352.19
383.986	364.19
384.211	346.19
384.436	360.19
384.662	357.19
384.887	365.19
385.112	362.19
385.337	354.19
385.562	332.19
385.787	357.19
386.013	356.19
386.238	364.19
386.463	355.19
386.688	348.19
386.913	365.19
387.138	341.19
387.363	360.19
387.588	361.19
387.813	372.19
388.038	348.19
388.263	357.19
388.488	361.19
388.713	361.19
388.938	356.19
389.163	379.19
389.387	368.19
389.612	370.19
389.837	344.19
390.062	356.19
390.287	354.19
390.512	375.19
390.736	353.19
390.961	374.19
391.186	367.19
391.411	357.19
391.636	370.19
391.86	378.19
392.085	366.19
392.31	352.19
392.534	363.19
392.759	366.19
392.984	361.19
393.208	353.19
393.433	347.19
393.658	359.19
393.882	365.19
394.107	341.19
394.331	363.19
394.556	359.19
394.78	353.19
395.005	349.19
395.229	340.19
395.454	362.19
395.678	378.19
395.903	380.19
396.127	391.19
396.352	397.19
396.576	376.19
396.801	353.19
397.025	361.19
397.249	358.19
397.474	385.19
397.698	373.19
397.922	381.19
398.147	398.19
398.371	402.19
398.595	393.19
398.82	390.19
399.044	384.19
399.268	404.19
399.492	433.19
399.717	449.19
399.941	442.19
400.165	478.19
400.389	471.19
400.613	442.19
400.837	421.19
401.062	407.19
401.286	408.19
401.51	410.19
401.734	397.19
401.958	387.19
402.182	419.19
402.406	427.19
402.63	429.19
402.854	401.19
403.078	422.19
403.302	413.19
403.526	410.19
403.75	412.19
403.974	411.19
404.198	384.19
404.422	391.19
404.645	413.19
404.869	422.19
405.093	441.19
405.317	476.19
405.541	502.19
405.765	469.19
405.988	438.19
406.212	457.19
406.436	451.19
406.66	458.19
406.883	455.19
407.107	447.19
407.331	497.19
407.555	549.19
407.778	552.19
408.002	514.19
408.226	460.19
408.449	456.19
408.673	462.19
408.896	467.19
409.12	523.19
409.344	482.19
409.567	424.19
409.791	414.19
410.014	401.19
410.238	422.19
410.461	415.19
410.685	424.19
410.908	430.19
411.132	466.19
411.355	473.19
411.578	475.19
411.802	436.19
412.025	424.19
412.249	413.19
412.472	428.19
412.695	464.19
412.919	449.19
413.142	442.19
413.365	413.19
413.589	391.19
413.812	387.19
414.035	389.19
414.258	390.19
414.482	390.19
414.705	401.19
414.928	380.19
415.151	368.19
415.374	372.19
415.597	356.19
415.821	397.19
416.044	388.19
416.267	382.19
416.49	388.19
416.713	373.19
416.936	382.19
417.159	388.19
417.382	383.19
417.605	395.19
417.828	400.19
418.051	423.19
418.274	429.19
418.497	386.19
418.72	390.19
418.943	388.19
419.166	404.19
419.389	410.19
419.611	419.19
419.834	423.19
420.057	387.19
420.28	396.19
420.503	395.19
420.726	393.19
420.948	428.19
421.171	466.19
421.394	488.19
421.617	438.19
421.839	424.19
422.062	404.19
422.285	424.19
422.507	474.19
422.73	499.19
422.953	503.19
423.175	435.19
423.398	428.19
423.621	427.19
423.843	453.19
424.066	443.19
424.288	437.19
424.511	449.19
424.733	510.19
424.956	553.19
425.178	561.19
425.401	566.19
425.623	579.19
425.846	477.19
426.068	459.19
426.291	460.19
426.513	459.19
426.735	468.19
426.958	489.19
427.18	580.19
427.402	685.19
427.625	722.19
427.847	667.19
428.069	599.19
428.292	510.19
428.514	486.19
428.736	456.19
428.958	436.19
429.181	404.19
429.403	410.19
429.625	418.19
429.847	460.19
430.069	524.19
430.292	494.19
430.514	433.19
430.736	414.19
430.958	394.19
431.18	386.19
431.402	396.19
431.624	372.19
431.846	380.19
432.068	407.19
432.29	394.19
432.512	382.19
432.734	397.19
432.956	382.19
433.178	390.19
433.4	414.19
433.622	396.19
433.844	404.19
434.066	382.19
434.287	363.19
434.509	404.19
434.731	425.19
434.953	422.19
435.175	413.19
435.397	426.19
435.618	463.19
435.84	487.19
436.062	589.19
436.284	614.19
436.505	513.19
436.727	459.19
436.949	434.19
437.17	427.19
437.392	422.19
437.614	435.19
437.835	462.19
438.057	566.19
438.278	642.19
438.5	637.19
438.721	678.19
438.943	646.19
439.165	529.19
439.386	489.19
439.608	460.19
439.829	466.19
440.05	499.19
440.272	538.19
440.493	515.19
440.715	436.19
440.936	428.19
441.158	464.19
441.379	427.19
441.6	428.19
441.822	452.19
442.043	486.19
442.264	571.19
442.486	600.19
442.707	505.19
442.928	488.19
443.149	495.19
443.371	496.19
443.592	539.19
443.813	611.19
444.034	661.19
444.255	532.19
444.476	482.19
444.698	444.19
444.919	446.19
445.14	525.19
445.361	489.19
445.582	499.19
445.803	576.19
446.024	621.19
446.245	632.19
446.466	583.19
446.687	509.19
446.908	468.19
447.129	432.19
447.35	425.19
447.571	429.19
447.792	429.19
448.013	428.19
448.234	430.19
448.455	465.19
448.675	568.19
448.896	646.19
449.117	543.19
449.338	540.19
449.559	622.19
449.779	710.19
450	584.19
450.221	476.19
450.442	437.19
450.662	423.19
450.883	430.19
451.104	428.19
451.324	412.19
451.545	398.19
451.766	396.19
451.986	377.19
452.207	366.19
452.428	363.19
452.648	350.19
452.869	381.19
453.089	376.19
453.31	388.19
453.53	377.19
453.751	384.19
453.971	365.19
454.192	408.19
454.412	391.19
454.633	380.19
454.853	388.19
455.073	381.19
455.294	391.19
455.514	455.19
455.734	452.19
455.955	398.19
456.175	363.19
456.395	358.19
456.616	344.19
456.836	347.19
457.056	343.19
457.276	343.19
457.497	355.19
457.717	365.19
457.937	354.19
458.157	371.19
458.377	374.19
458.598	388.19
458.818	439.19
459.038	521.19
459.258	532.19
459.478	418.19
459.698	394.19
459.918	380.19
460.138	372.19
460.358	395.19
460.578	377.19
460.798	389.19
461.018	404.19
461.238	398.19
461.458	383.19
461.678	383.19
461.898	366.19
462.118	380.19
462.338	388.19
462.558	393.19
462.777	379.19
462.997	404.19
463.217	396.19
463.437	397.19
463.657	404.19
463.876	402.19
464.096	416.19
464.316	392.19
464.536	393.19
464.755	398.19
464.975	421.19
465.195	466.19
465.414	518.19
465.634	482.19
465.854	414.19
466.073	409.19
466.293	405.19
466.512	392.19
466.732	380.19
466.951	371.19
467.171	388.19
467.391	371.19
467.61	398.19
467.829	395.19
468.049	387.19
468.268	369.19
468.488	388.19
468.707	371.19
468.927	370.19
469.146	362.19
469.365	371.19
469.585	350.19
469.804	371.19
470.023	376.19
470.243	381.19
470.462	389.19
470.681	402.19
470.901	387.19
471.12	370.19
471.339	382.19
471.558	364.19
471.777	376.19
471.997	382.19
472.216	375.19
472.435	402.19
472.654	406.19
472.873	395.19
473.092	378.19
473.311	390.19
473.53	387.19
473.749	399.19
473.968	444.19
474.187	503.19
474.406	528.19
474.625	449.19
474.844	402.19
475.063	374.19
475.282	382.19
475.501	391.19
475.72	390.19
475.939	396.19
476.158	388.19
476.377	398.19
476.596	409.19
476.814	390.19
477.033	408.19
477.252	404.19
477.471	402.19
477.69	401.19
477.908	411.19
478.127	414.19
478.346	406.19
478.564	403.19
478.783	425.19
479.002	422.19
479.22	436.19
479.439	435.19
479.658	469.19
479.876	470.19
480.095	465.19
480.313	486.19
480.532	486.19
480.751	462.19
480.969	457.19
481.188	507.19
481.406	537.19
481.624	487.19
481.843	479.19
482.061	468.19
482.28	454.19
482.498	456.19
482.717	442.19
482.935	443.19
483.153	452.19
483.372	415.19
483.59	436.19
483.808	450.19
484.027	446.19
484.245	445.19
484.463	463.19
484.681	466.19
484.9	449.19
485.118	454.19
485.336	468.19
485.554	466.19
485.772	464.19
485.99	442.19
486.209	473.19
486.427	474.19
486.645	485.19
486.863	483.19
487.081	485.19
487.299	474.19
487.517	470.19
487.735	473.19
487.953	476.19
488.171	470.19
488.389	468.19
488.607	488.19
488.825	489.19
489.043	493.19
489.261	510.19
489.479	504.19
489.696	505.19
489.914	495.19
490.132	480.19
490.35	486.19
490.568	489.19
490.786	499.19
491.003	522.19
491.221	516.19
491.439	517.19
491.657	525.19
491.874	533.19
492.092	546.19
492.31	532.19
492.527	535.19
492.745	553.19
492.963	522.19
493.18	562.19
493.398	560.19
493.615	570.19
493.833	565.19
494.05	573.19
494.268	566.19
494.485	562.19
494.703	557.19
494.92	557.19
495.138	553.19
495.355	577.19
495.573	558.19
495.79	560.19
496.008	573.19
496.225	586.19
496.442	581.19
496.66	578.19
496.877	547.19
497.094	562.19
497.312	581.19
497.529	578.19
497.746	608.19
497.963	595.19
498.181	604.19
498.398	621.19
498.615	601.19
498.832	621.19
499.049	614.19
499.267	641.19
499.484	644.19
499.701	635.19
499.918	660.19
500.135	673.19
500.352	694.19
500.569	705.19
500.786	720.19
501.003	710.19
501.22	674.19
501.437	676.19
501.654	702.19
501.871	700.19
