Data from 1981.PennyLincolnUp.Lamp.En5.5.200Scan.071819.P1_HRD10591_16-42-39-960.txt Node
Date: Thu Jul 18 16:42:39 EDT 2019
User: cochatt
Spectrometer: HR+D1059
Trigger mode: 1
Integration Time (sec): 1.000000E-1
Scans to average: 1
Electric dark correction enabled: true
Nonlinearity correction enabled: false
Boxcar width: 0
XAxis mode: Wavelengths
Number of Pixels in Spectrum: 2048
>>>>>Begin Spectral Data<<<<<
223.165	-28.69
223.4	-28.69
223.635	-28.69
223.869	-6.69
224.104	-21.69
224.338	-11.69
224.573	-13.69
224.808	-1.69
225.042	-3.69
225.277	9.31
225.511	-2.69
225.746	1.31
225.98	-5.69
226.215	7.31
226.449	19.31
226.683	11.31
226.918	26.31
227.152	21.31
227.387	37.31
227.621	40.31
227.856	42.31
228.09	51.31
228.324	53.31
228.559	65.31
228.793	70.31
229.027	98.31
229.262	119.31
229.496	110.31
229.73	129.31
229.964	152.31
230.199	128.31
230.433	115.31
230.667	112.31
230.901	110.31
231.136	90.31
231.37	117.31
231.604	121.31
231.838	106.31
232.072	99.31
232.306	103.31
232.541	110.31
232.775	97.31
233.009	104.31
233.243	105.31
233.477	121.31
233.711	123.31
233.945	117.31
234.179	115.31
234.413	120.31
234.647	92.31
234.881	117.31
235.115	114.31
235.349	112.31
235.583	121.31
235.817	138.31
236.051	122.31
236.285	115.31
236.519	127.31
236.753	139.31
236.987	148.31
237.221	181.31
237.455	227.31
237.689	195.31
237.922	126.31
238.156	127.31
238.39	130.31
238.624	139.31
238.858	123.31
239.091	121.31
239.325	118.31
239.559	114.31
239.793	125.31
240.027	125.31
240.26	151.31
240.494	148.31
240.728	150.31
240.961	154.31
241.195	149.31
241.429	139.31
241.662	139.31
241.896	139.31
242.13	130.31
242.363	128.31
242.597	134.31
242.83	144.31
243.064	129.31
243.298	142.31
243.531	125.31
243.765	131.31
243.998	138.31
244.232	139.31
244.465	159.31
244.699	139.31
244.932	146.31
245.166	143.31
245.399	136.31
245.633	159.31
245.866	161.31
246.099	152.31
246.333	152.31
246.566	150.31
246.8	130.31
247.033	153.31
247.266	149.31
247.5	173.31
247.733	170.31
247.966	166.31
248.2	182.31
248.433	182.31
248.666	188.31
248.899	197.31
249.133	230.31
249.366	230.31
249.599	212.31
249.832	189.31
250.066	181.31
250.299	186.31
250.532	189.31
250.765	210.31
250.998	207.31
251.231	247.31
251.465	221.31
251.698	200.31
251.931	191.31
252.164	206.31
252.397	198.31
252.63	199.31
252.863	204.31
253.096	239.31
253.329	253.31
253.562	241.31
253.795	226.31
254.028	216.31
254.261	227.31
254.494	234.31
254.727	267.31
254.96	277.31
255.193	293.31
255.426	251.31
255.659	247.31
255.892	259.31
256.124	252.31
256.357	251.31
256.59	239.31
256.823	232.31
257.056	228.31
257.289	212.31
257.521	213.31
257.754	230.31
257.987	234.31
258.22	221.31
258.452	216.31
258.685	227.31
258.918	224.31
259.151	224.31
259.383	242.31
259.616	233.31
259.849	247.31
260.081	263.31
260.314	250.31
260.547	281.31
260.779	262.31
261.012	249.31
261.244	249.31
261.477	241.31
261.71	254.31
261.942	241.31
262.175	241.31
262.407	239.31
262.64	231.31
262.872	226.31
263.105	232.31
263.337	217.31
263.57	195.31
263.802	217.31
264.035	207.31
264.267	216.31
264.499	231.31
264.732	215.31
264.964	213.31
265.197	211.31
265.429	205.31
265.661	217.31
265.894	238.31
266.126	209.31
266.358	207.31
266.591	234.31
266.823	231.31
267.055	225.31
267.287	224.31
267.52	239.31
267.752	228.31
267.984	227.31
268.216	228.31
268.448	223.31
268.681	247.31
268.913	257.31
269.145	281.31
269.377	270.31
269.609	281.31
269.841	276.31
270.073	291.31
270.306	305.31
270.538	328.31
270.77	330.31
271.002	334.31
271.234	324.31
271.466	330.31
271.698	329.31
271.93	331.31
272.162	344.31
272.394	350.31
272.626	332.31
272.858	320.31
273.09	307.31
273.322	297.31
273.553	296.31
273.785	286.31
274.017	287.31
274.249	289.31
274.481	277.31
274.713	286.31
274.945	293.31
275.176	281.31
275.408	278.31
275.64	305.31
275.872	281.31
276.104	280.31
276.335	278.31
276.567	302.31
276.799	283.31
277.031	338.31
277.262	335.31
277.494	325.31
277.726	334.31
277.957	313.31
278.189	313.31
278.421	293.31
278.652	284.31
278.884	285.31
279.115	271.31
279.347	289.31
279.579	278.31
279.81	284.31
280.042	290.31
280.273	270.31
280.505	270.31
280.736	282.31
280.968	260.31
281.199	269.31
281.431	258.31
281.662	271.31
281.894	284.31
282.125	268.31
282.356	294.31
282.588	325.31
282.819	315.31
283.051	296.31
283.282	275.31
283.513	281.31
283.745	272.31
283.976	290.31
284.207	301.31
284.439	295.31
284.67	282.31
284.901	287.31
285.132	275.31
285.364	274.31
285.595	283.31
285.826	282.31
286.057	285.31
286.288	276.31
286.52	264.31
286.751	275.31
286.982	285.31
287.213	285.31
287.444	282.31
287.675	281.31
287.906	296.31
288.138	313.31
288.369	309.31
288.6	323.31
288.831	307.31
289.062	299.31
289.293	310.31
289.524	295.31
289.755	286.31
289.986	273.31
290.217	306.31
290.448	279.31
290.679	290.31
290.91	286.31
291.141	291.31
291.371	297.31
291.602	277.31
291.833	279.31
292.064	291.31
292.295	293.31
292.526	287.31
292.757	294.31
292.987	263.31
293.218	280.31
293.449	279.31
293.68	280.31
293.91	312.31
294.141	293.31
294.372	308.31
294.603	286.31
294.833	310.31
295.064	297.31
295.295	291.31
295.525	303.31
295.756	306.31
295.987	310.31
296.217	339.31
296.448	358.31
296.679	319.31
296.909	306.31
297.14	315.31
297.37	289.31
297.601	306.31
297.831	292.31
298.062	301.31
298.292	283.31
298.523	304.31
298.753	288.31
298.984	305.31
299.214	313.31
299.445	307.31
299.675	313.31
299.905	307.31
300.136	317.31
300.366	308.31
300.597	301.31
300.827	317.31
301.057	328.31
301.288	322.31
301.518	321.31
301.748	308.31
301.979	327.31
302.209	327.31
302.439	318.31
302.669	312.31
302.9	304.31
303.13	322.31
303.36	330.31
303.59	336.31
303.82	330.31
304.051	332.31
304.281	345.31
304.511	333.31
304.741	338.31
304.971	337.31
305.201	329.31
305.431	338.31
305.661	325.31
305.891	317.31
306.121	327.31
306.352	328.31
306.582	335.31
306.812	313.31
307.042	324.31
307.272	346.31
307.502	337.31
307.731	342.31
307.961	322.31
308.191	317.31
308.421	351.31
308.651	335.31
308.881	345.31
309.111	353.31
309.341	354.31
309.571	365.31
309.8	367.31
310.03	379.31
310.26	383.31
310.49	367.31
310.72	394.31
310.949	415.31
311.179	414.31
311.409	403.31
311.639	406.31
311.868	383.31
312.098	414.31
312.328	406.31
312.557	417.31
312.787	442.31
313.017	438.31
313.246	408.31
313.476	395.31
313.706	379.31
313.935	388.31
314.165	397.31
314.394	409.31
314.624	433.31
314.853	405.31
315.083	395.31
315.312	387.31
315.542	370.31
315.771	376.31
316.001	385.31
316.23	387.31
316.46	386.31
316.689	376.31
316.919	391.31
317.148	400.31
317.377	387.31
317.607	414.31
317.836	392.31
318.065	394.31
318.295	387.31
318.524	392.31
318.753	374.31
318.983	386.31
319.212	404.31
319.441	380.31
319.67	389.31
319.9	394.31
320.129	368.31
320.358	381.31
320.587	389.31
320.816	387.31
321.046	403.31
321.275	417.31
321.504	419.31
321.733	444.31
321.962	420.31
322.191	439.31
322.42	460.31
322.649	474.31
322.878	514.31
323.108	490.31
323.337	518.31
323.566	555.31
323.795	603.31
324.024	680.31
324.253	829.31
324.482	1227.31
324.71	1830.31
324.939	2552.31
325.168	2142.31
325.397	1150.31
325.626	757.31
325.855	613.31
326.084	567.31
326.313	559.31
326.542	548.31
326.77	635.31
326.999	775.31
327.228	1069.31
327.457	1598.31
327.686	1873.31
327.914	1226.31
328.143	815.31
328.372	693.31
328.6	682.31
328.829	634.31
329.058	634.31
329.287	641.31
329.515	606.31
329.744	579.31
329.972	569.31
330.201	574.31
330.43	586.31
330.658	648.31
330.887	677.31
331.115	648.31
331.344	555.31
331.572	544.31
331.801	529.31
332.03	510.31
332.258	488.31
332.486	474.31
332.715	466.31
332.943	442.31
333.172	463.31
333.4	461.31
333.629	472.31
333.857	497.31
334.085	506.31
334.314	514.31
334.542	534.31
334.771	539.31
334.999	532.31
335.227	477.31
335.455	457.31
335.684	464.31
335.912	435.31
336.14	433.31
336.369	435.31
336.597	464.31
336.825	431.31
337.053	448.31
337.281	448.31
337.51	441.31
337.738	434.31
337.966	420.31
338.194	420.31
338.422	427.31
338.65	440.31
338.878	410.31
339.106	420.31
339.334	415.31
339.562	397.31
339.79	406.31
340.018	423.31
340.246	449.31
340.474	436.31
340.702	404.31
340.93	409.31
341.158	403.31
341.386	426.31
341.614	423.31
341.842	424.31
342.07	439.31
342.298	409.31
342.526	417.31
342.754	397.31
342.981	410.31
343.209	413.31
343.437	394.31
343.665	406.31
343.893	403.31
344.12	403.31
344.348	421.31
344.576	410.31
344.804	426.31
345.031	444.31
345.259	452.31
345.487	425.31
345.714	429.31
345.942	399.31
346.17	413.31
346.397	411.31
346.625	407.31
346.853	426.31
347.08	396.31
347.308	424.31
347.535	426.31
347.763	409.31
347.99	414.31
348.218	421.31
348.445	445.31
348.673	425.31
348.9	406.31
349.128	395.31
349.355	386.31
349.583	409.31
349.81	401.31
350.037	390.31
350.265	393.31
350.492	381.31
350.72	388.31
350.947	400.31
351.174	413.31
351.402	426.31
351.629	413.31
351.856	421.31
352.083	425.31
352.311	414.31
352.538	449.31
352.765	420.31
352.992	418.31
353.22	417.31
353.447	392.31
353.674	396.31
353.901	374.31
354.128	394.31
354.355	375.31
354.583	389.31
354.81	368.31
355.037	380.31
355.264	359.31
355.491	373.31
355.718	351.31
355.945	365.31
356.172	369.31
356.399	341.31
356.626	367.31
356.853	354.31
357.08	354.31
357.307	383.31
357.534	363.31
357.761	373.31
357.988	366.31
358.215	372.31
358.441	370.31
358.668	350.31
358.895	386.31
359.122	377.31
359.349	397.31
359.576	405.31
359.802	419.31
360.029	441.31
360.256	453.31
360.483	433.31
360.709	422.31
360.936	393.31
361.163	378.31
361.39	409.31
361.616	403.31
361.843	402.31
362.07	392.31
362.296	403.31
362.523	415.31
362.749	405.31
362.976	395.31
363.203	406.31
363.429	376.31
363.656	376.31
363.882	389.31
364.109	369.31
364.335	360.31
364.562	377.31
364.788	367.31
365.015	370.31
365.241	367.31
365.468	382.31
365.694	395.31
365.92	391.31
366.147	379.31
366.373	389.31
366.599	373.31
366.826	354.31
367.052	373.31
367.278	374.31
367.505	367.31
367.731	368.31
367.957	381.31
368.184	368.31
368.41	365.31
368.636	406.31
368.862	399.31
369.089	369.31
369.315	355.31
369.541	374.31
369.767	383.31
369.993	373.31
370.219	349.31
370.445	363.31
370.672	367.31
370.898	370.31
371.124	386.31
371.35	341.31
371.576	353.31
371.802	359.31
372.028	344.31
372.254	370.31
372.48	340.31
372.706	350.31
372.932	377.31
373.158	347.31
373.384	370.31
373.61	365.31
373.835	352.31
374.061	350.31
374.287	346.31
374.513	358.31
374.739	350.31
374.965	357.31
375.191	355.31
375.416	368.31
375.642	359.31
375.868	344.31
376.094	363.31
376.319	349.31
376.545	331.31
376.771	357.31
376.997	351.31
377.222	342.31
377.448	355.31
377.674	344.31
377.899	353.31
378.125	344.31
378.35	356.31
378.576	359.31
378.802	329.31
379.027	333.31
379.253	350.31
379.478	341.31
379.704	349.31
379.929	359.31
380.155	374.31
380.38	360.31
380.606	366.31
380.831	345.31
381.057	334.31
381.282	332.31
381.507	354.31
381.733	347.31
381.958	353.31
382.184	357.31
382.409	347.31
382.634	362.31
382.86	364.31
383.085	371.31
383.31	362.31
383.535	349.31
383.761	355.31
383.986	355.31
384.211	365.31
384.436	361.31
384.662	363.31
384.887	355.31
385.112	368.31
385.337	357.31
385.562	367.31
385.787	355.31
386.013	389.31
386.238	388.31
386.463	367.31
386.688	375.31
386.913	364.31
387.138	369.31
387.363	381.31
387.588	373.31
387.813	355.31
388.038	365.31
388.263	346.31
388.488	365.31
388.713	373.31
388.938	377.31
389.163	390.31
389.387	371.31
389.612	359.31
389.837	366.31
390.062	353.31
390.287	353.31
390.512	354.31
390.736	363.31
390.961	359.31
391.186	350.31
391.411	343.31
391.636	365.31
391.86	362.31
392.085	357.31
392.31	358.31
392.534	360.31
392.759	394.31
392.984	368.31
393.208	362.31
393.433	365.31
393.658	361.31
393.882	364.31
394.107	361.31
394.331	354.31
394.556	377.31
394.78	348.31
395.005	359.31
395.229	371.31
395.454	373.31
395.678	369.31
395.903	377.31
396.127	406.31
396.352	392.31
396.576	387.31
396.801	372.31
397.025	360.31
397.249	372.31
397.474	373.31
397.698	390.31
397.922	391.31
398.147	425.31
398.371	399.31
398.595	395.31
398.82	413.31
399.044	410.31
399.268	407.31
399.492	427.31
399.717	440.31
399.941	469.31
400.165	482.31
400.389	503.31
400.613	452.31
400.837	434.31
401.062	431.31
401.286	417.31
401.51	412.31
401.734	404.31
401.958	407.31
402.182	410.31
402.406	426.31
402.63	418.31
402.854	413.31
403.078	433.31
403.302	431.31
403.526	417.31
403.75	432.31
403.974	443.31
404.198	396.31
404.422	434.31
404.645	439.31
404.869	427.31
405.093	455.31
405.317	489.31
405.541	519.31
405.765	471.31
405.988	449.31
406.212	471.31
406.436	479.31
406.66	501.31
406.883	462.31
407.107	493.31
407.331	497.31
407.555	571.31
407.778	562.31
408.002	516.31
408.226	453.31
408.449	470.31
408.673	483.31
408.896	493.31
409.12	525.31
409.344	467.31
409.567	466.31
409.791	449.31
410.014	437.31
410.238	442.31
410.461	435.31
410.685	443.31
410.908	443.31
411.132	464.31
411.355	504.31
411.578	471.31
411.802	430.31
412.025	416.31
412.249	439.31
412.472	464.31
412.695	523.31
412.919	464.31
413.142	429.31
413.365	424.31
413.589	420.31
413.812	408.31
414.035	421.31
414.258	400.31
414.482	381.31
414.705	399.31
414.928	389.31
415.151	376.31
415.374	392.31
415.597	376.31
415.821	389.31
416.044	397.31
416.267	409.31
416.49	393.31
416.713	395.31
416.936	390.31
417.159	382.31
417.382	404.31
417.605	421.31
417.828	414.31
418.051	412.31
418.274	419.31
418.497	422.31
418.72	423.31
418.943	391.31
419.166	431.31
419.389	417.31
419.611	443.31
419.834	404.31
420.057	406.31
420.28	414.31
420.503	429.31
420.726	413.31
420.948	441.31
421.171	471.31
421.394	483.31
421.617	439.31
421.839	416.31
422.062	417.31
422.285	434.31
422.507	481.31
422.73	537.31
422.953	538.31
423.175	477.31
423.398	455.31
423.621	443.31
423.843	459.31
424.066	452.31
424.288	462.31
424.511	472.31
424.733	550.31
424.956	606.31
425.178	577.31
425.401	580.31
425.623	602.31
425.846	480.31
426.068	471.31
426.291	455.31
426.513	474.31
426.735	493.31
426.958	535.31
427.18	593.31
427.402	723.31
427.625	745.31
427.847	659.31
428.069	613.31
428.292	519.31
428.514	493.31
428.736	443.31
428.958	471.31
429.181	449.31
429.403	426.31
429.625	443.31
429.847	468.31
430.069	542.31
430.292	528.31
430.514	442.31
430.736	418.31
430.958	435.31
431.18	387.31
431.402	417.31
431.624	392.31
431.846	383.31
432.068	366.31
432.29	398.31
432.512	406.31
432.734	417.31
432.956	411.31
433.178	414.31
433.4	401.31
433.622	407.31
433.844	392.31
434.066	401.31
434.287	396.31
434.509	392.31
434.731	403.31
434.953	416.31
435.175	422.31
435.397	461.31
435.618	482.31
435.84	518.31
436.062	598.31
436.284	645.31
436.505	531.31
436.727	495.31
436.949	459.31
437.17	447.31
437.392	429.31
437.614	455.31
437.835	491.31
438.057	586.31
438.278	680.31
438.5	674.31
438.721	704.31
438.943	688.31
439.165	552.31
439.386	507.31
439.608	506.31
439.829	476.31
440.05	515.31
440.272	553.31
440.493	537.31
440.715	463.31
440.936	447.31
441.158	430.31
441.379	442.31
441.6	472.31
441.822	460.31
442.043	516.31
442.264	552.31
442.486	634.31
442.707	514.31
442.928	490.31
443.149	509.31
443.371	517.31
443.592	557.31
443.813	625.31
444.034	646.31
444.255	564.31
444.476	473.31
444.698	451.31
444.919	455.31
445.14	579.31
445.361	520.31
445.582	533.31
445.803	582.31
446.024	697.31
446.245	703.31
446.466	635.31
446.687	537.31
446.908	484.31
447.129	475.31
447.35	456.31
447.571	426.31
447.792	430.31
448.013	413.31
448.234	467.31
448.455	532.31
448.675	624.31
448.896	693.31
449.117	625.31
449.338	583.31
449.559	659.31
449.779	740.31
450	595.31
450.221	523.31
450.442	458.31
450.662	449.31
450.883	435.31
451.104	455.31
451.324	451.31
451.545	429.31
451.766	426.31
451.986	391.31
452.207	385.31
452.428	385.31
452.648	383.31
452.869	388.31
453.089	402.31
453.31	415.31
453.53	417.31
453.751	393.31
453.971	402.31
454.192	424.31
454.412	398.31
454.633	408.31
454.853	394.31
455.073	380.31
455.294	425.31
455.514	487.31
455.734	480.31
455.955	417.31
456.175	368.31
456.395	365.31
456.616	347.31
456.836	370.31
457.056	353.31
457.276	356.31
457.497	369.31
457.717	366.31
457.937	358.31
458.157	359.31
458.377	375.31
458.598	396.31
458.818	456.31
459.038	555.31
459.258	560.31
459.478	463.31
459.698	405.31
459.918	385.31
460.138	396.31
460.358	407.31
460.578	388.31
460.798	394.31
461.018	400.31
461.238	377.31
461.458	398.31
461.678	396.31
461.898	397.31
462.118	400.31
462.338	411.31
462.558	379.31
462.777	377.31
462.997	403.31
463.217	400.31
463.437	437.31
463.657	399.31
463.876	408.31
464.096	426.31
464.316	393.31
464.536	416.31
464.755	414.31
464.975	410.31
465.195	472.31
465.414	555.31
465.634	478.31
465.854	442.31
466.073	430.31
466.293	402.31
466.512	405.31
466.732	371.31
466.951	375.31
467.171	378.31
467.391	408.31
467.61	394.31
467.829	402.31
468.049	408.31
468.268	411.31
468.488	391.31
468.707	387.31
468.927	391.31
469.146	361.31
469.365	369.31
469.585	371.31
469.804	371.31
470.023	402.31
470.243	387.31
470.462	390.31
470.681	430.31
470.901	421.31
471.12	394.31
471.339	393.31
471.558	403.31
471.777	405.31
471.997	396.31
472.216	403.31
472.435	432.31
472.654	435.31
472.873	393.31
473.092	393.31
473.311	386.31
473.53	394.31
473.749	434.31
473.968	446.31
474.187	553.31
474.406	579.31
474.625	469.31
474.844	409.31
475.063	423.31
475.282	404.31
475.501	410.31
475.72	424.31
475.939	398.31
476.158	403.31
476.377	392.31
476.596	398.31
476.814	431.31
477.033	431.31
477.252	395.31
477.471	413.31
477.69	433.31
477.908	435.31
478.127	445.31
478.346	415.31
478.564	447.31
478.783	427.31
479.002	447.31
479.22	456.31
479.439	457.31
479.658	467.31
479.876	490.31
480.095	464.31
480.313	498.31
480.532	500.31
480.751	475.31
480.969	493.31
481.188	559.31
481.406	574.31
481.624	514.31
481.843	484.31
482.061	473.31
482.28	476.31
482.498	457.31
482.717	465.31
482.935	477.31
483.153	454.31
483.372	440.31
483.59	469.31
483.808	450.31
484.027	485.31
484.245	471.31
484.463	447.31
484.681	466.31
484.9	465.31
485.118	458.31
485.336	466.31
485.554	474.31
485.772	488.31
485.99	465.31
486.209	489.31
486.427	502.31
486.645	490.31
486.863	512.31
487.081	509.31
487.299	511.31
487.517	524.31
487.735	490.31
487.953	505.31
488.171	488.31
488.389	496.31
488.607	519.31
488.825	505.31
489.043	478.31
489.261	497.31
489.479	498.31
489.696	519.31
489.914	528.31
490.132	501.31
490.35	499.31
490.568	515.31
490.786	543.31
491.003	553.31
491.221	535.31
491.439	559.31
491.657	562.31
491.874	571.31
492.092	565.31
492.31	567.31
492.527	577.31
492.745	603.31
492.963	581.31
493.18	573.31
493.398	585.31
493.615	582.31
493.833	601.31
494.05	605.31
494.268	585.31
494.485	588.31
494.703	597.31
494.92	600.31
495.138	566.31
495.355	570.31
495.573	606.31
495.79	597.31
496.008	605.31
496.225	593.31
496.442	606.31
496.66	613.31
496.877	594.31
497.094	579.31
497.312	617.31
497.529	595.31
497.746	609.31
497.963	621.31
498.181	611.31
498.398	633.31
498.615	647.31
498.832	649.31
499.049	650.31
499.267	656.31
499.484	680.31
499.701	673.31
499.918	686.31
500.135	701.31
500.352	707.31
500.569	707.31
500.786	717.31
501.003	722.31
501.22	698.31
501.437	713.31
501.654	718.31
501.871	725.31
502.088	681.31
