Data from 1981.PennyLincolnUp.Lamp.En5.5.200Scan.071819.P1_HRD10591_16-42-10-959.txt Node
Date: Thu Jul 18 16:42:10 EDT 2019
User: cochatt
Spectrometer: HR+D1059
Trigger mode: 1
Integration Time (sec): 1.000000E-1
Scans to average: 1
Electric dark correction enabled: true
Nonlinearity correction enabled: false
Boxcar width: 0
XAxis mode: Wavelengths
Number of Pixels in Spectrum: 2048
>>>>>Begin Spectral Data<<<<<
223.165	-16.75
223.4	-16.75
223.635	-16.75
223.869	-8.75
224.104	-12.75
224.338	-1.75
224.573	-8.75
224.808	-14.75
225.042	3.25
225.277	-15.75
225.511	-7.75
225.746	11.25
225.98	3.25
226.215	6.25
226.449	11.25
226.683	7.25
226.918	21.25
227.152	23.25
227.387	21.25
227.621	38.25
227.856	48.25
228.09	46.25
228.324	52.25
228.559	71.25
228.793	75.25
229.027	107.25
229.262	100.25
229.496	125.25
229.73	135.25
229.964	158.25
230.199	125.25
230.433	105.25
230.667	109.25
230.901	103.25
231.136	106.25
231.37	128.25
231.604	123.25
231.838	108.25
232.072	116.25
232.306	111.25
232.541	131.25
232.775	116.25
233.009	109.25
233.243	114.25
233.477	109.25
233.711	124.25
233.945	119.25
234.179	128.25
234.413	120.25
234.647	118.25
234.881	120.25
235.115	112.25
235.349	119.25
235.583	124.25
235.817	127.25
236.051	131.25
236.285	125.25
236.519	124.25
236.753	134.25
236.987	151.25
237.221	187.25
237.455	235.25
237.689	195.25
237.922	153.25
238.156	140.25
238.39	126.25
238.624	121.25
238.858	120.25
239.091	124.25
239.325	119.25
239.559	129.25
239.793	137.25
240.027	135.25
240.26	139.25
240.494	162.25
240.728	145.25
240.961	150.25
241.195	144.25
241.429	130.25
241.662	151.25
241.896	129.25
242.13	135.25
242.363	135.25
242.597	143.25
242.83	142.25
243.064	108.25
243.298	132.25
243.531	122.25
243.765	132.25
243.998	131.25
244.232	151.25
244.465	147.25
244.699	151.25
244.932	153.25
245.166	144.25
245.399	138.25
245.633	145.25
245.866	136.25
246.099	144.25
246.333	142.25
246.566	163.25
246.8	159.25
247.033	154.25
247.266	169.25
247.5	152.25
247.733	172.25
247.966	175.25
248.2	161.25
248.433	179.25
248.666	169.25
248.899	174.25
249.133	195.25
249.366	221.25
249.599	184.25
249.832	208.25
250.066	181.25
250.299	185.25
250.532	203.25
250.765	197.25
250.998	218.25
251.231	227.25
251.465	230.25
251.698	223.25
251.931	203.25
252.164	205.25
252.397	224.25
252.63	203.25
252.863	191.25
253.096	221.25
253.329	229.25
253.562	242.25
253.795	232.25
254.028	231.25
254.261	236.25
254.494	249.25
254.727	264.25
254.96	283.25
255.193	292.25
255.426	259.25
255.659	244.25
255.892	238.25
256.124	249.25
256.357	244.25
256.59	250.25
256.823	220.25
257.056	220.25
257.289	212.25
257.521	221.25
257.754	216.25
257.987	222.25
258.22	214.25
258.452	221.25
258.685	219.25
258.918	217.25
259.151	238.25
259.383	222.25
259.616	236.25
259.849	232.25
260.081	229.25
260.314	276.25
260.547	279.25
260.779	256.25
261.012	262.25
261.244	253.25
261.477	243.25
261.71	229.25
261.942	257.25
262.175	240.25
262.407	241.25
262.64	217.25
262.872	248.25
263.105	220.25
263.337	224.25
263.57	213.25
263.802	215.25
264.035	211.25
264.267	219.25
264.499	226.25
264.732	213.25
264.964	228.25
265.197	227.25
265.429	218.25
265.661	227.25
265.894	221.25
266.126	221.25
266.358	216.25
266.591	216.25
266.823	245.25
267.055	239.25
267.287	231.25
267.52	227.25
267.752	231.25
267.984	240.25
268.216	241.25
268.448	248.25
268.681	243.25
268.913	244.25
269.145	258.25
269.377	285.25
269.609	285.25
269.841	287.25
270.073	293.25
270.306	315.25
270.538	351.25
270.77	317.25
271.002	328.25
271.234	308.25
271.466	300.25
271.698	323.25
271.93	323.25
272.162	341.25
272.394	351.25
272.626	327.25
272.858	297.25
273.09	295.25
273.322	288.25
273.553	284.25
273.785	303.25
274.017	285.25
274.249	282.25
274.481	279.25
274.713	291.25
274.945	289.25
275.176	277.25
275.408	265.25
275.64	265.25
275.872	267.25
276.104	293.25
276.335	270.25
276.567	294.25
276.799	286.25
277.031	330.25
277.262	349.25
277.494	343.25
277.726	311.25
277.957	304.25
278.189	265.25
278.421	263.25
278.652	286.25
278.884	280.25
279.115	265.25
279.347	275.25
279.579	277.25
279.81	281.25
280.042	259.25
280.273	277.25
280.505	283.25
280.736	270.25
280.968	286.25
281.199	275.25
281.431	268.25
281.662	273.25
281.894	279.25
282.125	272.25
282.356	297.25
282.588	319.25
282.819	323.25
283.051	287.25
283.282	253.25
283.513	275.25
283.745	286.25
283.976	301.25
284.207	281.25
284.439	276.25
284.67	287.25
284.901	287.25
285.132	281.25
285.364	295.25
285.595	286.25
285.826	297.25
286.057	263.25
286.288	302.25
286.52	297.25
286.751	273.25
286.982	295.25
287.213	263.25
287.444	267.25
287.675	292.25
287.906	297.25
288.138	307.25
288.369	313.25
288.6	308.25
288.831	295.25
289.062	303.25
289.293	285.25
289.524	289.25
289.755	281.25
289.986	298.25
290.217	315.25
290.448	293.25
290.679	270.25
290.91	275.25
291.141	284.25
291.371	279.25
291.602	282.25
291.833	284.25
292.064	293.25
292.295	285.25
292.526	288.25
292.757	274.25
292.987	295.25
293.218	287.25
293.449	281.25
293.68	277.25
293.91	268.25
294.141	288.25
294.372	267.25
294.603	288.25
294.833	281.25
295.064	293.25
295.295	299.25
295.525	291.25
295.756	313.25
295.987	321.25
296.217	320.25
296.448	355.25
296.679	299.25
296.909	278.25
297.14	285.25
297.37	298.25
297.601	299.25
297.831	309.25
298.062	286.25
298.292	303.25
298.523	310.25
298.753	293.25
298.984	297.25
299.214	296.25
299.445	293.25
299.675	300.25
299.905	312.25
300.136	303.25
300.366	321.25
300.597	329.25
300.827	319.25
301.057	336.25
301.288	326.25
301.518	315.25
301.748	301.25
301.979	311.25
302.209	316.25
302.439	319.25
302.669	337.25
302.9	325.25
303.13	320.25
303.36	317.25
303.59	337.25
303.82	336.25
304.051	322.25
304.281	340.25
304.511	335.25
304.741	322.25
304.971	326.25
305.201	319.25
305.431	324.25
305.661	325.25
305.891	325.25
306.121	329.25
306.352	341.25
306.582	331.25
306.812	339.25
307.042	344.25
307.272	321.25
307.502	327.25
307.731	332.25
307.961	349.25
308.191	330.25
308.421	356.25
308.651	344.25
308.881	337.25
309.111	342.25
309.341	332.25
309.571	349.25
309.8	363.25
310.03	381.25
310.26	363.25
310.49	382.25
310.72	405.25
310.949	392.25
311.179	399.25
311.409	381.25
311.639	361.25
311.868	389.25
312.098	386.25
312.328	413.25
312.557	399.25
312.787	417.25
313.017	424.25
313.246	405.25
313.476	399.25
313.706	383.25
313.935	385.25
314.165	408.25
314.394	398.25
314.624	419.25
314.853	405.25
315.083	383.25
315.312	397.25
315.542	381.25
315.771	389.25
316.001	384.25
316.23	404.25
316.46	371.25
316.689	383.25
316.919	373.25
317.148	399.25
317.377	393.25
317.607	399.25
317.836	387.25
318.065	381.25
318.295	397.25
318.524	367.25
318.753	375.25
318.983	391.25
319.212	368.25
319.441	395.25
319.67	398.25
319.9	377.25
320.129	393.25
320.358	391.25
320.587	397.25
320.816	408.25
321.046	405.25
321.275	407.25
321.504	411.25
321.733	407.25
321.962	424.25
322.191	438.25
322.42	456.25
322.649	454.25
322.878	474.25
323.108	496.25
323.337	510.25
323.566	533.25
323.795	576.25
324.024	643.25
324.253	791.25
324.482	1145.25
324.71	1748.25
324.939	2407.25
325.168	2015.25
325.397	1093.25
325.626	727.25
325.855	599.25
326.084	573.25
326.313	556.25
326.542	567.25
326.77	614.25
326.999	753.25
327.228	1045.25
327.457	1507.25
327.686	1715.25
327.914	1185.25
328.143	773.25
328.372	687.25
328.6	633.25
328.829	616.25
329.058	614.25
329.287	615.25
329.515	576.25
329.744	536.25
329.972	533.25
330.201	567.25
330.43	608.25
330.658	604.25
330.887	653.25
331.115	630.25
331.344	544.25
331.572	508.25
331.801	506.25
332.03	492.25
332.258	461.25
332.486	476.25
332.715	438.25
332.943	436.25
333.172	465.25
333.4	455.25
333.629	448.25
333.857	470.25
334.085	471.25
334.314	491.25
334.542	528.25
334.771	521.25
334.999	491.25
335.227	445.25
335.455	428.25
335.684	445.25
335.912	434.25
336.14	427.25
336.369	445.25
336.597	446.25
336.825	433.25
337.053	448.25
337.281	428.25
337.51	421.25
337.738	432.25
337.966	432.25
338.194	443.25
338.422	431.25
338.65	430.25
338.878	429.25
339.106	426.25
339.334	437.25
339.562	424.25
339.79	395.25
340.018	418.25
340.246	426.25
340.474	414.25
340.702	415.25
340.93	410.25
341.158	417.25
341.386	403.25
341.614	412.25
341.842	424.25
342.07	413.25
342.298	424.25
342.526	390.25
342.754	387.25
342.981	395.25
343.209	402.25
343.437	385.25
343.665	408.25
343.893	412.25
344.12	398.25
344.348	415.25
344.576	419.25
344.804	438.25
345.031	432.25
345.259	446.25
345.487	423.25
345.714	424.25
345.942	409.25
346.17	408.25
346.397	390.25
346.625	406.25
346.853	411.25
347.08	407.25
347.308	401.25
347.535	415.25
347.763	425.25
347.99	419.25
348.218	432.25
348.445	416.25
348.673	422.25
348.9	401.25
349.128	388.25
349.355	395.25
349.583	388.25
349.81	385.25
350.037	400.25
350.265	384.25
350.492	407.25
350.72	412.25
350.947	401.25
351.174	415.25
351.402	417.25
351.629	420.25
351.856	412.25
352.083	420.25
352.311	417.25
352.538	418.25
352.765	416.25
352.992	407.25
353.22	415.25
353.447	394.25
353.674	392.25
353.901	395.25
354.128	380.25
354.355	365.25
354.583	385.25
354.81	395.25
355.037	366.25
355.264	364.25
355.491	355.25
355.718	357.25
355.945	349.25
356.172	364.25
356.399	368.25
356.626	355.25
356.853	355.25
357.08	352.25
357.307	348.25
357.534	372.25
357.761	365.25
357.988	375.25
358.215	386.25
358.441	378.25
358.668	352.25
358.895	383.25
359.122	388.25
359.349	387.25
359.576	389.25
359.802	423.25
360.029	455.25
360.256	447.25
360.483	427.25
360.709	397.25
360.936	383.25
361.163	394.25
361.39	396.25
361.616	410.25
361.843	379.25
362.07	391.25
362.296	399.25
362.523	384.25
362.749	397.25
362.976	382.25
363.203	379.25
363.429	395.25
363.656	361.25
363.882	369.25
364.109	377.25
364.335	353.25
364.562	361.25
364.788	364.25
365.015	386.25
365.241	375.25
365.468	373.25
365.694	392.25
365.92	402.25
366.147	382.25
366.373	380.25
366.599	378.25
366.826	353.25
367.052	364.25
367.278	362.25
367.505	356.25
367.731	349.25
367.957	379.25
368.184	376.25
368.41	372.25
368.636	384.25
368.862	374.25
369.089	383.25
369.315	362.25
369.541	378.25
369.767	371.25
369.993	344.25
370.219	376.25
370.445	364.25
370.672	349.25
370.898	353.25
371.124	351.25
371.35	360.25
371.576	345.25
371.802	331.25
372.028	359.25
372.254	350.25
372.48	347.25
372.706	357.25
372.932	361.25
373.158	353.25
373.384	366.25
373.61	363.25
373.835	359.25
374.061	357.25
374.287	346.25
374.513	369.25
374.739	353.25
374.965	372.25
375.191	357.25
375.416	356.25
375.642	377.25
375.868	357.25
376.094	364.25
376.319	366.25
376.545	359.25
376.771	349.25
376.997	365.25
377.222	359.25
377.448	362.25
377.674	356.25
377.899	355.25
378.125	338.25
378.35	325.25
378.576	341.25
378.802	334.25
379.027	347.25
379.253	351.25
379.478	357.25
379.704	361.25
379.929	330.25
380.155	345.25
380.38	347.25
380.606	348.25
380.831	350.25
381.057	359.25
381.282	338.25
381.507	338.25
381.733	357.25
381.958	344.25
382.184	366.25
382.409	350.25
382.634	360.25
382.86	363.25
383.085	351.25
383.31	362.25
383.535	352.25
383.761	349.25
383.986	352.25
384.211	345.25
384.436	340.25
384.662	349.25
384.887	360.25
385.112	377.25
385.337	380.25
385.562	374.25
385.787	382.25
386.013	377.25
386.238	377.25
386.463	377.25
386.688	369.25
386.913	343.25
387.138	352.25
387.363	359.25
387.588	362.25
387.813	355.25
388.038	383.25
388.263	375.25
388.488	360.25
388.713	359.25
388.938	378.25
389.163	370.25
389.387	356.25
389.612	349.25
389.837	356.25
390.062	355.25
390.287	347.25
390.512	359.25
390.736	373.25
390.961	366.25
391.186	379.25
391.411	350.25
391.636	349.25
391.86	352.25
392.085	379.25
392.31	363.25
392.534	377.25
392.759	359.25
392.984	379.25
393.208	383.25
393.433	363.25
393.658	362.25
393.882	358.25
394.107	348.25
394.331	364.25
394.556	362.25
394.78	377.25
395.005	359.25
395.229	362.25
395.454	358.25
395.678	363.25
395.903	374.25
396.127	423.25
396.352	391.25
396.576	389.25
396.801	368.25
397.025	375.25
397.249	374.25
397.474	368.25
397.698	363.25
397.922	401.25
398.147	387.25
398.371	390.25
398.595	392.25
398.82	416.25
399.044	418.25
399.268	413.25
399.492	418.25
399.717	440.25
399.941	453.25
400.165	481.25
400.389	506.25
400.613	448.25
400.837	429.25
401.062	432.25
401.286	435.25
401.51	409.25
401.734	410.25
401.958	413.25
402.182	427.25
402.406	441.25
402.63	424.25
402.854	399.25
403.078	416.25
403.302	433.25
403.526	432.25
403.75	395.25
403.974	413.25
404.198	426.25
404.422	413.25
404.645	421.25
404.869	413.25
405.093	454.25
405.317	486.25
405.541	492.25
405.765	464.25
405.988	437.25
406.212	461.25
406.436	475.25
406.66	480.25
406.883	469.25
407.107	482.25
407.331	528.25
407.555	572.25
407.778	550.25
408.002	531.25
408.226	473.25
408.449	479.25
408.673	470.25
408.896	478.25
409.12	521.25
409.344	491.25
409.567	447.25
409.791	438.25
410.014	431.25
410.238	449.25
410.461	437.25
410.685	433.25
410.908	461.25
411.132	486.25
411.355	505.25
411.578	492.25
411.802	429.25
412.025	413.25
412.249	424.25
412.472	433.25
412.695	483.25
412.919	473.25
413.142	427.25
413.365	410.25
413.589	413.25
413.812	402.25
414.035	399.25
414.258	391.25
414.482	387.25
414.705	396.25
414.928	406.25
415.151	402.25
415.374	388.25
415.597	398.25
415.821	381.25
416.044	408.25
416.267	397.25
416.49	404.25
416.713	396.25
416.936	402.25
417.159	389.25
417.382	400.25
417.605	386.25
417.828	410.25
418.051	440.25
418.274	438.25
418.497	406.25
418.72	384.25
418.943	406.25
419.166	409.25
419.389	409.25
419.611	424.25
419.834	408.25
420.057	420.25
420.28	419.25
420.503	409.25
420.726	412.25
420.948	442.25
421.171	476.25
421.394	495.25
421.617	429.25
421.839	415.25
422.062	411.25
422.285	438.25
422.507	504.25
422.73	540.25
422.953	505.25
423.175	454.25
423.398	430.25
423.621	462.25
423.843	453.25
424.066	471.25
424.288	456.25
424.511	470.25
424.733	534.25
424.956	592.25
425.178	569.25
425.401	596.25
425.623	574.25
425.846	517.25
426.068	489.25
426.291	464.25
426.513	455.25
426.735	452.25
426.958	512.25
427.18	601.25
427.402	687.25
427.625	761.25
427.847	677.25
428.069	581.25
428.292	500.25
428.514	497.25
428.736	445.25
428.958	444.25
429.181	412.25
429.403	423.25
429.625	426.25
429.847	480.25
430.069	504.25
430.292	525.25
430.514	444.25
430.736	416.25
430.958	421.25
431.18	444.25
431.402	415.25
431.624	411.25
431.846	387.25
432.068	368.25
432.29	397.25
432.512	417.25
432.734	410.25
432.956	419.25
433.178	419.25
433.4	422.25
433.622	392.25
433.844	404.25
434.066	379.25
434.287	393.25
434.509	412.25
434.731	405.25
434.953	411.25
435.175	421.25
435.397	451.25
435.618	468.25
435.84	501.25
436.062	579.25
436.284	631.25
436.505	566.25
436.727	470.25
436.949	447.25
437.17	435.25
437.392	432.25
437.614	450.25
437.835	500.25
438.057	535.25
438.278	643.25
438.5	643.25
438.721	704.25
438.943	670.25
439.165	548.25
439.386	486.25
439.608	494.25
439.829	473.25
440.05	493.25
440.272	560.25
440.493	517.25
440.715	436.25
440.936	441.25
441.158	427.25
441.379	424.25
441.6	447.25
441.822	450.25
442.043	477.25
442.264	561.25
442.486	586.25
442.707	531.25
442.928	487.25
443.149	494.25
443.371	505.25
443.592	544.25
443.813	642.25
444.034	673.25
444.255	551.25
444.476	496.25
444.698	468.25
444.919	464.25
445.14	584.25
445.361	543.25
445.582	515.25
445.803	553.25
446.024	662.25
446.245	662.25
446.466	613.25
446.687	524.25
446.908	461.25
447.129	456.25
447.35	418.25
447.571	442.25
447.792	415.25
448.013	425.25
448.234	445.25
448.455	512.25
448.675	587.25
448.896	693.25
449.117	608.25
449.338	567.25
449.559	630.25
449.779	712.25
450	589.25
450.221	492.25
450.442	432.25
450.662	436.25
450.883	425.25
451.104	464.25
451.324	449.25
451.545	411.25
451.766	383.25
451.986	393.25
452.207	395.25
452.428	368.25
452.648	383.25
452.869	395.25
453.089	404.25
453.31	422.25
453.53	382.25
453.751	375.25
453.971	400.25
454.192	425.25
454.412	396.25
454.633	385.25
454.853	383.25
455.073	379.25
455.294	425.25
455.514	487.25
455.734	471.25
455.955	380.25
456.175	375.25
456.395	361.25
456.616	362.25
456.836	364.25
457.056	368.25
457.276	357.25
457.497	359.25
457.717	371.25
457.937	350.25
458.157	375.25
458.377	359.25
458.598	391.25
458.818	440.25
459.038	508.25
459.258	549.25
459.478	452.25
459.698	410.25
459.918	381.25
460.138	393.25
460.358	391.25
460.578	390.25
460.798	381.25
461.018	386.25
461.238	384.25
461.458	395.25
461.678	378.25
461.898	391.25
462.118	374.25
462.338	388.25
462.558	388.25
462.777	399.25
462.997	412.25
463.217	397.25
463.437	399.25
463.657	392.25
463.876	427.25
464.096	394.25
464.316	412.25
464.536	407.25
464.755	435.25
464.975	424.25
465.195	474.25
465.414	545.25
465.634	487.25
465.854	447.25
466.073	419.25
466.293	411.25
466.512	397.25
466.732	387.25
466.951	388.25
467.171	387.25
467.391	406.25
467.61	395.25
467.829	405.25
468.049	421.25
468.268	386.25
468.488	382.25
468.707	375.25
468.927	394.25
469.146	377.25
469.365	372.25
469.585	379.25
469.804	384.25
470.023	383.25
470.243	399.25
470.462	396.25
470.681	413.25
470.901	399.25
471.12	413.25
471.339	390.25
471.558	395.25
471.777	384.25
471.997	394.25
472.216	398.25
472.435	421.25
472.654	411.25
472.873	390.25
473.092	396.25
473.311	384.25
473.53	394.25
473.749	397.25
473.968	452.25
474.187	547.25
474.406	585.25
474.625	467.25
474.844	415.25
475.063	394.25
475.282	405.25
475.501	377.25
475.72	404.25
475.939	405.25
476.158	405.25
476.377	397.25
476.596	385.25
476.814	400.25
477.033	421.25
477.252	411.25
477.471	408.25
477.69	405.25
477.908	428.25
478.127	430.25
478.346	422.25
478.564	420.25
478.783	408.25
479.002	420.25
479.22	453.25
479.439	472.25
479.658	471.25
479.876	492.25
480.095	478.25
480.313	493.25
480.532	492.25
480.751	474.25
480.969	484.25
481.188	543.25
481.406	561.25
481.624	501.25
481.843	476.25
482.061	471.25
482.28	472.25
482.498	468.25
482.717	472.25
482.935	459.25
483.153	447.25
483.372	440.25
483.59	463.25
483.808	457.25
484.027	465.25
484.245	455.25
484.463	475.25
484.681	458.25
484.9	471.25
485.118	483.25
485.336	462.25
485.554	478.25
485.772	495.25
485.99	487.25
486.209	481.25
486.427	484.25
486.645	474.25
486.863	511.25
487.081	519.25
487.299	513.25
487.517	504.25
487.735	500.25
487.953	496.25
488.171	487.25
488.389	508.25
488.607	503.25
488.825	506.25
489.043	484.25
489.261	505.25
489.479	508.25
489.696	487.25
489.914	525.25
490.132	521.25
490.35	526.25
490.568	496.25
490.786	517.25
491.003	535.25
491.221	547.25
491.439	537.25
491.657	540.25
491.874	568.25
492.092	547.25
492.31	565.25
492.527	573.25
492.745	594.25
492.963	579.25
493.18	589.25
493.398	560.25
493.615	591.25
493.833	585.25
494.05	592.25
494.268	598.25
494.485	589.25
494.703	588.25
494.92	591.25
495.138	590.25
495.355	590.25
495.573	608.25
495.79	599.25
496.008	614.25
496.225	603.25
496.442	604.25
496.66	602.25
496.877	589.25
497.094	590.25
497.312	614.25
497.529	611.25
497.746	628.25
497.963	611.25
498.181	607.25
498.398	610.25
498.615	639.25
498.832	618.25
499.049	633.25
499.267	664.25
499.484	649.25
499.701	663.25
499.918	703.25
500.135	698.25
500.352	726.25
500.569	729.25
500.786	709.25
501.003	701.25
501.22	710.25
501.437	685.25
501.654	707.25
501.871	703.25
