Data from 1981.PennyLincolnUp.Lamp.En5.5.200Scan.071819.P1_HRD10591_16-40-24-958.txt Node
Date: Thu Jul 18 16:40:24 EDT 2019
User: cochatt
Spectrometer: HR+D1059
Trigger mode: 1
Integration Time (sec): 1.000000E-1
Scans to average: 1
Electric dark correction enabled: true
Nonlinearity correction enabled: false
Boxcar width: 0
XAxis mode: Wavelengths
Number of Pixels in Spectrum: 2048
>>>>>Begin Spectral Data<<<<<
223.165	-21.75
223.4	-21.75
223.635	-21.75
223.869	-11.75
224.104	-17.75
224.338	2.25
224.573	-11.75
224.808	-11.75
225.042	-8.75
225.277	-12.75
225.511	3.25
225.746	-0.75
225.98	5.25
226.215	11.25
226.449	22.25
226.683	20.25
226.918	10.25
227.152	22.25
227.387	35.25
227.621	50.25
227.856	58.25
228.09	39.25
228.324	46.25
228.559	47.25
228.793	60.25
229.027	87.25
229.262	91.25
229.496	100.25
229.73	128.25
229.964	138.25
230.199	116.25
230.433	94.25
230.667	96.25
230.901	105.25
231.136	103.25
231.37	83.25
231.604	98.25
231.838	121.25
232.072	118.25
232.306	109.25
232.541	96.25
232.775	92.25
233.009	100.25
233.243	103.25
233.477	103.25
233.711	106.25
233.945	112.25
234.179	140.25
234.413	104.25
234.647	117.25
234.881	107.25
235.115	103.25
235.349	107.25
235.583	125.25
235.817	102.25
236.051	107.25
236.285	117.25
236.519	112.25
236.753	114.25
236.987	130.25
237.221	153.25
237.455	198.25
237.689	168.25
237.922	132.25
238.156	120.25
238.39	114.25
238.624	111.25
238.858	122.25
239.091	123.25
239.325	101.25
239.559	120.25
239.793	115.25
240.027	133.25
240.26	123.25
240.494	132.25
240.728	135.25
240.961	126.25
241.195	115.25
241.429	123.25
241.662	105.25
241.896	138.25
242.13	126.25
242.363	124.25
242.597	124.25
242.83	128.25
243.064	124.25
243.298	128.25
243.531	117.25
243.765	126.25
243.998	111.25
244.232	136.25
244.465	133.25
244.699	147.25
244.932	136.25
245.166	143.25
245.399	120.25
245.633	125.25
245.866	134.25
246.099	135.25
246.333	155.25
246.566	138.25
246.8	119.25
247.033	145.25
247.266	140.25
247.5	142.25
247.733	158.25
247.966	165.25
248.2	159.25
248.433	137.25
248.666	156.25
248.899	165.25
249.133	176.25
249.366	182.25
249.599	178.25
249.832	156.25
250.066	173.25
250.299	166.25
250.532	152.25
250.765	171.25
250.998	189.25
251.231	198.25
251.465	181.25
251.698	172.25
251.931	156.25
252.164	165.25
252.397	193.25
252.63	180.25
252.863	179.25
253.096	181.25
253.329	202.25
253.562	197.25
253.795	176.25
254.028	189.25
254.261	207.25
254.494	211.25
254.727	197.25
254.96	229.25
255.193	213.25
255.426	213.25
255.659	202.25
255.892	180.25
256.124	187.25
256.357	198.25
256.59	197.25
256.823	188.25
257.056	178.25
257.289	188.25
257.521	171.25
257.754	181.25
257.987	174.25
258.22	185.25
258.452	165.25
258.685	180.25
258.918	172.25
259.151	187.25
259.383	183.25
259.616	183.25
259.849	196.25
260.081	219.25
260.314	198.25
260.547	204.25
260.779	219.25
261.012	214.25
261.244	192.25
261.477	200.25
261.71	192.25
261.942	218.25
262.175	192.25
262.407	197.25
262.64	182.25
262.872	165.25
263.105	189.25
263.337	201.25
263.57	197.25
263.802	184.25
264.035	186.25
264.267	183.25
264.499	194.25
264.732	208.25
264.964	175.25
265.197	168.25
265.429	190.25
265.661	177.25
265.894	187.25
266.126	194.25
266.358	191.25
266.591	197.25
266.823	186.25
267.055	194.25
267.287	189.25
267.52	195.25
267.752	201.25
267.984	186.25
268.216	203.25
268.448	188.25
268.681	198.25
268.913	219.25
269.145	201.25
269.377	233.25
269.609	229.25
269.841	224.25
270.073	240.25
270.306	242.25
270.538	266.25
270.77	267.25
271.002	236.25
271.234	228.25
271.466	251.25
271.698	247.25
271.93	256.25
272.162	269.25
272.394	262.25
272.626	247.25
272.858	243.25
273.09	234.25
273.322	224.25
273.553	220.25
273.785	225.25
274.017	227.25
274.249	232.25
274.481	225.25
274.713	213.25
274.945	234.25
275.176	230.25
275.408	230.25
275.64	228.25
275.872	218.25
276.104	227.25
276.335	231.25
276.567	235.25
276.799	246.25
277.031	252.25
277.262	271.25
277.494	256.25
277.726	236.25
277.957	238.25
278.189	234.25
278.421	244.25
278.652	239.25
278.884	227.25
279.115	236.25
279.347	251.25
279.579	256.25
279.81	260.25
280.042	247.25
280.273	246.25
280.505	227.25
280.736	229.25
280.968	219.25
281.199	224.25
281.431	231.25
281.662	227.25
281.894	236.25
282.125	231.25
282.356	248.25
282.588	245.25
282.819	263.25
283.051	226.25
283.282	230.25
283.513	246.25
283.745	221.25
283.976	236.25
284.207	238.25
284.439	240.25
284.67	249.25
284.901	228.25
285.132	244.25
285.364	227.25
285.595	250.25
285.826	222.25
286.057	251.25
286.288	236.25
286.52	248.25
286.751	232.25
286.982	237.25
287.213	217.25
287.444	251.25
287.675	243.25
287.906	269.25
288.138	265.25
288.369	259.25
288.6	248.25
288.831	267.25
289.062	248.25
289.293	246.25
289.524	246.25
289.755	244.25
289.986	229.25
290.217	239.25
290.448	235.25
290.679	253.25
290.91	231.25
291.141	235.25
291.371	228.25
291.602	244.25
291.833	248.25
292.064	229.25
292.295	227.25
292.526	238.25
292.757	248.25
292.987	258.25
293.218	232.25
293.449	233.25
293.68	240.25
293.91	234.25
294.141	245.25
294.372	248.25
294.603	240.25
294.833	263.25
295.064	248.25
295.295	248.25
295.525	263.25
295.756	275.25
295.987	263.25
296.217	284.25
296.448	270.25
296.679	258.25
296.909	238.25
297.14	259.25
297.37	256.25
297.601	247.25
297.831	267.25
298.062	245.25
298.292	245.25
298.523	259.25
298.753	258.25
298.984	243.25
299.214	258.25
299.445	254.25
299.675	255.25
299.905	258.25
300.136	268.25
300.366	260.25
300.597	263.25
300.827	251.25
301.057	278.25
301.288	269.25
301.518	273.25
301.748	273.25
301.979	286.25
302.209	274.25
302.439	265.25
302.669	262.25
302.9	269.25
303.13	251.25
303.36	268.25
303.59	273.25
303.82	289.25
304.051	277.25
304.281	279.25
304.511	277.25
304.741	283.25
304.971	275.25
305.201	269.25
305.431	261.25
305.661	281.25
305.891	269.25
306.121	265.25
306.352	285.25
306.582	275.25
306.812	292.25
307.042	271.25
307.272	277.25
307.502	273.25
307.731	282.25
307.961	276.25
308.191	272.25
308.421	269.25
308.651	283.25
308.881	291.25
309.111	286.25
309.341	289.25
309.571	306.25
309.8	305.25
310.03	324.25
310.26	312.25
310.49	316.25
310.72	314.25
310.949	324.25
311.179	335.25
311.409	306.25
311.639	315.25
311.868	315.25
312.098	316.25
312.328	322.25
312.557	323.25
312.787	320.25
313.017	316.25
313.246	322.25
313.476	333.25
313.706	315.25
313.935	315.25
314.165	346.25
314.394	331.25
314.624	334.25
314.853	315.25
315.083	323.25
315.312	310.25
315.542	333.25
315.771	332.25
316.001	316.25
316.23	307.25
316.46	308.25
316.689	315.25
316.919	318.25
317.148	332.25
317.377	334.25
317.607	329.25
317.836	335.25
318.065	339.25
318.295	322.25
318.524	314.25
318.753	315.25
318.983	315.25
319.212	302.25
319.441	331.25
319.67	331.25
319.9	317.25
320.129	315.25
320.358	333.25
320.587	333.25
320.816	326.25
321.046	341.25
321.275	358.25
321.504	331.25
321.733	328.25
321.962	349.25
322.191	350.25
322.42	365.25
322.649	373.25
322.878	386.25
323.108	397.25
323.337	415.25
323.566	430.25
323.795	466.25
324.024	510.25
324.253	638.25
324.482	936.25
324.71	1394.25
324.939	1838.25
325.168	1546.25
325.397	824.25
325.626	552.25
325.855	489.25
326.084	424.25
326.313	418.25
326.542	438.25
326.77	488.25
326.999	575.25
327.228	810.25
327.457	1203.25
327.686	1361.25
327.914	900.25
328.143	590.25
328.372	524.25
328.6	491.25
328.829	459.25
329.058	488.25
329.287	458.25
329.515	463.25
329.744	416.25
329.972	410.25
330.201	415.25
330.43	434.25
330.658	468.25
330.887	479.25
331.115	463.25
331.344	420.25
331.572	404.25
331.801	419.25
332.03	396.25
332.258	386.25
332.486	374.25
332.715	349.25
332.943	345.25
333.172	341.25
333.4	374.25
333.629	379.25
333.857	370.25
334.085	376.25
334.314	393.25
334.542	390.25
334.771	390.25
334.999	368.25
335.227	362.25
335.455	352.25
335.684	350.25
335.912	343.25
336.14	354.25
336.369	377.25
336.597	361.25
336.825	346.25
337.053	349.25
337.281	347.25
337.51	347.25
337.738	369.25
337.966	360.25
338.194	369.25
338.422	352.25
338.65	362.25
338.878	334.25
339.106	343.25
339.334	337.25
339.562	351.25
339.79	348.25
340.018	349.25
340.246	340.25
340.474	360.25
340.702	347.25
340.93	349.25
341.158	354.25
341.386	339.25
341.614	342.25
341.842	338.25
342.07	351.25
342.298	337.25
342.526	344.25
342.754	334.25
342.981	332.25
343.209	314.25
343.437	327.25
343.665	351.25
343.893	339.25
344.12	369.25
344.348	353.25
344.576	361.25
344.804	365.25
345.031	365.25
345.259	361.25
345.487	344.25
345.714	358.25
345.942	336.25
346.17	336.25
346.397	328.25
346.625	344.25
346.853	331.25
347.08	343.25
347.308	350.25
347.535	351.25
347.763	348.25
347.99	346.25
348.218	346.25
348.445	341.25
348.673	348.25
348.9	330.25
349.128	343.25
349.355	330.25
349.583	322.25
349.81	318.25
350.037	321.25
350.265	318.25
350.492	327.25
350.72	328.25
350.947	333.25
351.174	302.25
351.402	350.25
351.629	342.25
351.856	348.25
352.083	342.25
352.311	352.25
352.538	350.25
352.765	348.25
352.992	359.25
353.22	333.25
353.447	340.25
353.674	332.25
353.901	323.25
354.128	329.25
354.355	318.25
354.583	310.25
354.81	307.25
355.037	300.25
355.264	306.25
355.491	309.25
355.718	292.25
355.945	298.25
356.172	315.25
356.399	324.25
356.626	299.25
356.853	286.25
357.08	308.25
357.307	293.25
357.534	306.25
357.761	292.25
357.988	305.25
358.215	300.25
358.441	311.25
358.668	325.25
358.895	318.25
359.122	304.25
359.349	324.25
359.576	341.25
359.802	352.25
360.029	361.25
360.256	374.25
360.483	364.25
360.709	328.25
360.936	336.25
361.163	342.25
361.39	333.25
361.616	328.25
361.843	310.25
362.07	326.25
362.296	336.25
362.523	315.25
362.749	326.25
362.976	342.25
363.203	316.25
363.429	304.25
363.656	324.25
363.882	315.25
364.109	321.25
364.335	300.25
364.562	331.25
364.788	314.25
365.015	318.25
365.241	323.25
365.468	331.25
365.694	324.25
365.92	330.25
366.147	312.25
366.373	317.25
366.599	299.25
366.826	293.25
367.052	310.25
367.278	306.25
367.505	318.25
367.731	311.25
367.957	295.25
368.184	308.25
368.41	295.25
368.636	302.25
368.862	341.25
369.089	316.25
369.315	306.25
369.541	311.25
369.767	308.25
369.993	323.25
370.219	318.25
370.445	301.25
370.672	314.25
370.898	300.25
371.124	292.25
371.35	296.25
371.576	287.25
371.802	296.25
372.028	307.25
372.254	295.25
372.48	302.25
372.706	298.25
372.932	295.25
373.158	319.25
373.384	323.25
373.61	299.25
373.835	314.25
374.061	307.25
374.287	310.25
374.513	307.25
374.739	322.25
374.965	310.25
375.191	302.25
375.416	319.25
375.642	310.25
375.868	305.25
376.094	303.25
376.319	295.25
376.545	311.25
376.771	309.25
376.997	300.25
377.222	293.25
377.448	301.25
377.674	307.25
377.899	310.25
378.125	303.25
378.35	302.25
378.576	300.25
378.802	287.25
379.027	300.25
379.253	295.25
379.478	317.25
379.704	299.25
379.929	316.25
380.155	312.25
380.38	317.25
380.606	298.25
380.831	308.25
381.057	306.25
381.282	324.25
381.507	302.25
381.733	308.25
381.958	295.25
382.184	294.25
382.409	301.25
382.634	300.25
382.86	300.25
383.085	294.25
383.31	289.25
383.535	326.25
383.761	311.25
383.986	292.25
384.211	314.25
384.436	309.25
384.662	322.25
384.887	336.25
385.112	324.25
385.337	343.25
385.562	325.25
385.787	338.25
386.013	343.25
386.238	332.25
386.463	319.25
386.688	326.25
386.913	324.25
387.138	307.25
387.363	310.25
387.588	326.25
387.813	313.25
388.038	322.25
388.263	318.25
388.488	320.25
388.713	324.25
388.938	318.25
389.163	312.25
389.387	330.25
389.612	318.25
389.837	324.25
390.062	302.25
390.287	313.25
390.512	308.25
390.736	306.25
390.961	337.25
391.186	310.25
391.411	326.25
391.636	331.25
391.86	333.25
392.085	319.25
392.31	310.25
392.534	328.25
392.759	324.25
392.984	336.25
393.208	349.25
393.433	362.25
393.658	374.25
393.882	334.25
394.107	329.25
394.331	308.25
394.556	314.25
394.78	318.25
395.005	308.25
395.229	312.25
395.454	322.25
395.678	326.25
395.903	312.25
396.127	343.25
396.352	342.25
396.576	341.25
396.801	349.25
397.025	367.25
397.249	357.25
397.474	330.25
397.698	343.25
397.922	352.25
398.147	349.25
398.371	362.25
398.595	354.25
398.82	351.25
399.044	348.25
399.268	373.25
399.492	370.25
399.717	384.25
399.941	403.25
400.165	407.25
400.389	435.25
400.613	402.25
400.837	378.25
401.062	356.25
401.286	361.25
401.51	350.25
401.734	360.25
401.958	340.25
402.182	356.25
402.406	367.25
402.63	356.25
402.854	341.25
403.078	382.25
403.302	349.25
403.526	355.25
403.75	375.25
403.974	354.25
404.198	344.25
404.422	367.25
404.645	362.25
404.869	361.25
405.093	370.25
405.317	380.25
405.541	407.25
405.765	395.25
405.988	379.25
406.212	383.25
406.436	403.25
406.66	400.25
406.883	384.25
407.107	391.25
407.331	419.25
407.555	483.25
407.778	459.25
408.002	431.25
408.226	426.25
408.449	388.25
408.673	382.25
408.896	420.25
409.12	439.25
409.344	427.25
409.567	371.25
409.791	376.25
410.014	352.25
410.238	358.25
410.461	373.25
410.685	364.25
410.908	359.25
411.132	402.25
411.355	412.25
411.578	390.25
411.802	370.25
412.025	364.25
412.249	374.25
412.472	361.25
412.695	365.25
412.919	381.25
413.142	367.25
413.365	338.25
413.589	353.25
413.812	357.25
414.035	341.25
414.258	339.25
414.482	325.25
414.705	332.25
414.928	335.25
415.151	343.25
415.374	326.25
415.597	323.25
415.821	306.25
416.044	340.25
416.267	346.25
416.49	338.25
416.713	355.25
416.936	350.25
417.159	326.25
417.382	344.25
417.605	333.25
417.828	362.25
418.051	361.25
418.274	354.25
418.497	337.25
418.72	329.25
418.943	342.25
419.166	335.25
419.389	359.25
419.611	351.25
419.834	349.25
420.057	353.25
420.28	350.25
420.503	351.25
420.726	360.25
420.948	351.25
421.171	388.25
421.394	430.25
421.617	378.25
421.839	343.25
422.062	362.25
422.285	376.25
422.507	397.25
422.73	468.25
422.953	456.25
423.175	378.25
423.398	378.25
423.621	357.25
423.843	388.25
424.066	390.25
424.288	369.25
424.511	397.25
424.733	422.25
424.956	469.25
425.178	474.25
425.401	464.25
425.623	494.25
425.846	409.25
426.068	406.25
426.291	398.25
426.513	390.25
426.735	394.25
426.958	416.25
427.18	486.25
427.402	577.25
427.625	621.25
427.847	533.25
428.069	470.25
428.292	425.25
428.514	390.25
428.736	381.25
428.958	370.25
429.181	353.25
429.403	360.25
429.625	368.25
429.847	400.25
430.069	422.25
430.292	439.25
430.514	376.25
430.736	363.25
430.958	344.25
431.18	337.25
431.402	348.25
431.624	315.25
431.846	323.25
432.068	340.25
432.29	344.25
432.512	350.25
432.734	354.25
432.956	329.25
433.178	354.25
433.4	346.25
433.622	342.25
433.844	346.25
434.066	345.25
434.287	341.25
434.509	348.25
434.731	345.25
434.953	352.25
435.175	353.25
435.397	375.25
435.618	398.25
435.84	423.25
436.062	508.25
436.284	494.25
436.505	436.25
436.727	402.25
436.949	368.25
437.17	375.25
437.392	362.25
437.614	364.25
437.835	404.25
438.057	457.25
438.278	518.25
438.5	549.25
438.721	592.25
438.943	564.25
439.165	476.25
439.386	392.25
439.608	410.25
439.829	386.25
440.05	416.25
440.272	425.25
440.493	415.25
440.715	383.25
440.936	364.25
441.158	343.25
441.379	361.25
441.6	390.25
441.822	399.25
442.043	404.25
442.264	473.25
442.486	494.25
442.707	429.25
442.928	394.25
443.149	415.25
443.371	414.25
443.592	444.25
443.813	512.25
444.034	555.25
444.255	457.25
444.476	400.25
444.698	386.25
444.919	380.25
445.14	452.25
445.361	442.25
445.582	438.25
445.803	480.25
446.024	531.25
446.245	550.25
446.466	470.25
446.687	421.25
446.908	403.25
447.129	373.25
447.35	359.25
447.571	377.25
447.792	355.25
448.013	356.25
448.234	374.25
448.455	402.25
448.675	489.25
448.896	556.25
449.117	487.25
449.338	478.25
449.559	530.25
449.779	598.25
450	463.25
450.221	402.25
450.442	377.25
450.662	354.25
450.883	355.25
451.104	373.25
451.324	360.25
451.545	354.25
451.766	344.25
451.986	347.25
452.207	335.25
452.428	323.25
452.648	319.25
452.869	318.25
453.089	330.25
453.31	335.25
453.53	343.25
453.751	315.25
453.971	328.25
454.192	348.25
454.412	336.25
454.633	318.25
454.853	315.25
455.073	310.25
455.294	350.25
455.514	398.25
455.734	377.25
455.955	334.25
456.175	325.25
456.395	313.25
456.616	309.25
456.836	300.25
457.056	299.25
457.276	298.25
457.497	296.25
457.717	304.25
457.937	318.25
458.157	303.25
458.377	315.25
458.598	339.25
458.818	372.25
459.038	434.25
459.258	454.25
459.478	367.25
459.698	352.25
459.918	345.25
460.138	347.25
460.358	331.25
460.578	333.25
460.798	337.25
461.018	344.25
461.238	331.25
461.458	358.25
461.678	351.25
461.898	340.25
462.118	343.25
462.338	336.25
462.558	336.25
462.777	355.25
462.997	350.25
463.217	354.25
463.437	331.25
463.657	354.25
463.876	357.25
464.096	370.25
464.316	349.25
464.536	347.25
464.755	371.25
464.975	378.25
465.195	395.25
465.414	442.25
465.634	414.25
465.854	369.25
466.073	347.25
466.293	334.25
466.512	328.25
466.732	318.25
466.951	351.25
467.171	332.25
467.391	332.25
467.61	352.25
467.829	340.25
468.049	333.25
468.268	330.25
468.488	342.25
468.707	335.25
468.927	326.25
469.146	341.25
469.365	326.25
469.585	318.25
469.804	331.25
470.023	326.25
470.243	330.25
470.462	355.25
470.681	354.25
470.901	343.25
471.12	326.25
471.339	335.25
471.558	326.25
471.777	347.25
471.997	344.25
472.216	322.25
472.435	343.25
472.654	314.25
472.873	340.25
473.092	336.25
473.311	330.25
473.53	332.25
473.749	346.25
473.968	379.25
474.187	450.25
474.406	465.25
474.625	395.25
474.844	344.25
475.063	347.25
475.282	363.25
475.501	355.25
475.72	355.25
475.939	355.25
476.158	351.25
476.377	331.25
476.596	346.25
476.814	337.25
477.033	335.25
477.252	347.25
477.471	351.25
477.69	351.25
477.908	358.25
478.127	345.25
478.346	378.25
478.564	360.25
478.783	361.25
479.002	370.25
479.22	380.25
479.439	374.25
479.658	414.25
479.876	386.25
480.095	393.25
480.313	415.25
480.532	410.25
480.751	405.25
480.969	403.25
481.188	434.25
481.406	427.25
481.624	393.25
481.843	400.25
482.061	388.25
482.28	405.25
482.498	408.25
482.717	373.25
482.935	389.25
483.153	415.25
483.372	382.25
483.59	394.25
483.808	380.25
484.027	382.25
484.245	396.25
484.463	399.25
484.681	399.25
484.9	396.25
485.118	384.25
485.336	395.25
485.554	389.25
485.772	410.25
485.99	414.25
486.209	417.25
486.427	408.25
486.645	414.25
486.863	440.25
487.081	430.25
487.299	424.25
487.517	415.25
487.735	394.25
487.953	411.25
488.171	416.25
488.389	421.25
488.607	436.25
488.825	408.25
489.043	416.25
489.261	439.25
489.479	421.25
489.696	392.25
489.914	428.25
490.132	412.25
490.35	442.25
490.568	434.25
490.786	434.25
491.003	456.25
491.221	453.25
491.439	454.25
491.657	456.25
491.874	439.25
492.092	487.25
492.31	483.25
492.527	464.25
492.745	467.25
492.963	465.25
493.18	454.25
493.398	468.25
493.615	482.25
493.833	466.25
494.05	480.25
494.268	492.25
494.485	473.25
494.703	474.25
494.92	487.25
495.138	493.25
495.355	493.25
495.573	492.25
495.79	510.25
496.008	471.25
496.225	471.25
496.442	470.25
496.66	475.25
496.877	499.25
497.094	487.25
497.312	486.25
497.529	507.25
497.746	501.25
497.963	504.25
498.181	518.25
498.398	513.25
498.615	536.25
498.832	551.25
499.049	545.25
499.267	554.25
499.484	570.25
499.701	564.25
499.918	596.25
500.135	596.25
500.352	603.25
500.569	621.25
500.786	618.25
501.003	604.25
501.22	602.25
501.437	602.25
501.654	585.25
501.871	581.25
502.088	588.25
