Data from 1981.PennyLincolnUp.Lamp.En5.5.200Scan.071819.P1_HRD10591_16-43-03-961.txt Node
Date: Thu Jul 18 16:43:03 EDT 2019
User: cochatt
Spectrometer: HR+D1059
Trigger mode: 1
Integration Time (sec): 1.000000E-1
Scans to average: 1
Electric dark correction enabled: true
Nonlinearity correction enabled: false
Boxcar width: 0
XAxis mode: Wavelengths
Number of Pixels in Spectrum: 2048
>>>>>Begin Spectral Data<<<<<
223.165	-12.06
223.4	-12.06
223.635	-12.06
223.869	-2.06
224.104	-8.06
224.338	-11.06
224.573	-15.06
224.808	-17.06
225.042	-23.06
225.277	-11.06
225.511	5.94
225.746	10.94
225.98	-3.06
226.215	1.94
226.449	15.94
226.683	13.94
226.918	26.94
227.152	26.94
227.387	36.94
227.621	32.94
227.856	43.94
228.09	46.94
228.324	53.94
228.559	48.94
228.793	58.94
229.027	97.94
229.262	107.94
229.496	107.94
229.73	136.94
229.964	156.94
230.199	132.94
230.433	130.94
230.667	103.94
230.901	124.94
231.136	105.94
231.37	118.94
231.604	118.94
231.838	101.94
232.072	114.94
232.306	128.94
232.541	119.94
232.775	112.94
233.009	115.94
233.243	107.94
233.477	112.94
233.711	95.94
233.945	94.94
234.179	119.94
234.413	109.94
234.647	121.94
234.881	121.94
235.115	109.94
235.349	126.94
235.583	114.94
235.817	123.94
236.051	136.94
236.285	140.94
236.519	123.94
236.753	150.94
236.987	150.94
237.221	206.94
237.455	230.94
237.689	192.94
237.922	163.94
238.156	137.94
238.39	125.94
238.624	120.94
238.858	125.94
239.091	120.94
239.325	117.94
239.559	127.94
239.793	139.94
240.027	130.94
240.26	144.94
240.494	155.94
240.728	154.94
240.961	155.94
241.195	153.94
241.429	138.94
241.662	150.94
241.896	142.94
242.13	136.94
242.363	128.94
242.597	134.94
242.83	141.94
243.064	140.94
243.298	134.94
243.531	150.94
243.765	144.94
243.998	147.94
244.232	137.94
244.465	148.94
244.699	148.94
244.932	143.94
245.166	148.94
245.399	160.94
245.633	150.94
245.866	135.94
246.099	156.94
246.333	142.94
246.566	151.94
246.8	141.94
247.033	154.94
247.266	158.94
247.5	154.94
247.733	171.94
247.966	175.94
248.2	166.94
248.433	169.94
248.666	184.94
248.899	191.94
249.133	202.94
249.366	221.94
249.599	205.94
249.832	199.94
250.066	178.94
250.299	208.94
250.532	204.94
250.765	205.94
250.998	232.94
251.231	232.94
251.465	235.94
251.698	243.94
251.931	206.94
252.164	219.94
252.397	208.94
252.63	206.94
252.863	227.94
253.096	241.94
253.329	262.94
253.562	244.94
253.795	245.94
254.028	223.94
254.261	231.94
254.494	235.94
254.727	290.94
254.96	295.94
255.193	282.94
255.426	282.94
255.659	246.94
255.892	261.94
256.124	235.94
256.357	254.94
256.59	227.94
256.823	235.94
257.056	247.94
257.289	246.94
257.521	237.94
257.754	232.94
257.987	226.94
258.22	229.94
258.452	223.94
258.685	210.94
258.918	219.94
259.151	220.94
259.383	219.94
259.616	227.94
259.849	223.94
260.081	252.94
260.314	263.94
260.547	280.94
260.779	251.94
261.012	235.94
261.244	248.94
261.477	258.94
261.71	254.94
261.942	246.94
262.175	258.94
262.407	246.94
262.64	260.94
262.872	221.94
263.105	214.94
263.337	232.94
263.57	230.94
263.802	234.94
264.035	217.94
264.267	224.94
264.499	219.94
264.732	208.94
264.964	231.94
265.197	219.94
265.429	225.94
265.661	221.94
265.894	220.94
266.126	226.94
266.358	232.94
266.591	230.94
266.823	219.94
267.055	242.94
267.287	227.94
267.52	231.94
267.752	238.94
267.984	244.94
268.216	232.94
268.448	240.94
268.681	251.94
268.913	240.94
269.145	273.94
269.377	296.94
269.609	280.94
269.841	290.94
270.073	287.94
270.306	318.94
270.538	348.94
270.77	346.94
271.002	332.94
271.234	296.94
271.466	323.94
271.698	334.94
271.93	342.94
272.162	349.94
272.394	348.94
272.626	328.94
272.858	340.94
273.09	311.94
273.322	298.94
273.553	294.94
273.785	276.94
274.017	278.94
274.249	277.94
274.481	279.94
274.713	295.94
274.945	305.94
275.176	276.94
275.408	290.94
275.64	289.94
275.872	288.94
276.104	286.94
276.335	265.94
276.567	297.94
276.799	307.94
277.031	319.94
277.262	338.94
277.494	342.94
277.726	330.94
277.957	315.94
278.189	299.94
278.421	280.94
278.652	293.94
278.884	285.94
279.115	277.94
279.347	291.94
279.579	283.94
279.81	286.94
280.042	268.94
280.273	283.94
280.505	295.94
280.736	253.94
280.968	272.94
281.199	274.94
281.431	288.94
281.662	296.94
281.894	279.94
282.125	269.94
282.356	287.94
282.588	318.94
282.819	329.94
283.051	304.94
283.282	277.94
283.513	296.94
283.745	257.94
283.976	285.94
284.207	291.94
284.439	295.94
284.67	307.94
284.901	278.94
285.132	281.94
285.364	272.94
285.595	284.94
285.826	303.94
286.057	299.94
286.288	296.94
286.52	273.94
286.751	281.94
286.982	293.94
287.213	294.94
287.444	306.94
287.675	295.94
287.906	293.94
288.138	302.94
288.369	296.94
288.6	314.94
288.831	312.94
289.062	301.94
289.293	296.94
289.524	282.94
289.755	308.94
289.986	302.94
290.217	287.94
290.448	291.94
290.679	304.94
290.91	296.94
291.141	294.94
291.371	300.94
291.602	288.94
291.833	284.94
292.064	308.94
292.295	295.94
292.526	291.94
292.757	289.94
292.987	283.94
293.218	277.94
293.449	289.94
293.68	301.94
293.91	281.94
294.141	299.94
294.372	290.94
294.603	310.94
294.833	292.94
295.064	296.94
295.295	312.94
295.525	300.94
295.756	328.94
295.987	311.94
296.217	330.94
296.448	328.94
296.679	312.94
296.909	302.94
297.14	296.94
297.37	314.94
297.601	300.94
297.831	288.94
298.062	286.94
298.292	284.94
298.523	307.94
298.753	306.94
298.984	281.94
299.214	319.94
299.445	308.94
299.675	319.94
299.905	334.94
300.136	323.94
300.366	294.94
300.597	314.94
300.827	311.94
301.057	338.94
301.288	347.94
301.518	342.94
301.748	338.94
301.979	326.94
302.209	334.94
302.439	331.94
302.669	325.94
302.9	315.94
303.13	315.94
303.36	321.94
303.59	334.94
303.82	352.94
304.051	340.94
304.281	339.94
304.511	318.94
304.741	322.94
304.971	319.94
305.201	334.94
305.431	332.94
305.661	327.94
305.891	329.94
306.121	328.94
306.352	351.94
306.582	337.94
306.812	335.94
307.042	333.94
307.272	317.94
307.502	349.94
307.731	340.94
307.961	346.94
308.191	334.94
308.421	347.94
308.651	355.94
308.881	339.94
309.111	341.94
309.341	350.94
309.571	364.94
309.8	373.94
310.03	398.94
310.26	394.94
310.49	392.94
310.72	405.94
310.949	412.94
311.179	413.94
311.409	390.94
311.639	384.94
311.868	386.94
312.098	380.94
312.328	410.94
312.557	434.94
312.787	400.94
313.017	416.94
313.246	422.94
313.476	418.94
313.706	386.94
313.935	398.94
314.165	428.94
314.394	419.94
314.624	431.94
314.853	434.94
315.083	402.94
315.312	401.94
315.542	391.94
315.771	387.94
316.001	394.94
316.23	374.94
316.46	366.94
316.689	399.94
316.919	378.94
317.148	393.94
317.377	382.94
317.607	378.94
317.836	398.94
318.065	409.94
318.295	394.94
318.524	402.94
318.753	391.94
318.983	392.94
319.212	396.94
319.441	398.94
319.67	392.94
319.9	400.94
320.129	393.94
320.358	421.94
320.587	395.94
320.816	407.94
321.046	392.94
321.275	422.94
321.504	411.94
321.733	417.94
321.962	438.94
322.191	446.94
322.42	477.94
322.649	472.94
322.878	479.94
323.108	505.94
323.337	547.94
323.566	558.94
323.795	596.94
324.024	638.94
324.253	816.94
324.482	1190.94
324.71	1834.94
324.939	2525.94
325.168	2140.94
325.397	1126.94
325.626	772.94
325.855	648.94
326.084	560.94
326.313	584.94
326.542	571.94
326.77	644.94
326.999	779.94
327.228	1044.94
327.457	1637.94
327.686	1859.94
327.914	1280.94
328.143	834.94
328.372	720.94
328.6	671.94
328.829	641.94
329.058	666.94
329.287	635.94
329.515	619.94
329.744	565.94
329.972	570.94
330.201	575.94
330.43	602.94
330.658	644.94
330.887	686.94
331.115	648.94
331.344	548.94
331.572	513.94
331.801	520.94
332.03	518.94
332.258	499.94
332.486	463.94
332.715	442.94
332.943	461.94
333.172	454.94
333.4	476.94
333.629	467.94
333.857	460.94
334.085	494.94
334.314	511.94
334.542	547.94
334.771	570.94
334.999	517.94
335.227	460.94
335.455	442.94
335.684	452.94
335.912	430.94
336.14	442.94
336.369	426.94
336.597	468.94
336.825	457.94
337.053	442.94
337.281	453.94
337.51	426.94
337.738	430.94
337.966	437.94
338.194	442.94
338.422	427.94
338.65	452.94
338.878	428.94
339.106	428.94
339.334	433.94
339.562	419.94
339.79	413.94
340.018	436.94
340.246	442.94
340.474	428.94
340.702	430.94
340.93	412.94
341.158	422.94
341.386	439.94
341.614	438.94
341.842	422.94
342.07	420.94
342.298	401.94
342.526	415.94
342.754	403.94
342.981	425.94
343.209	404.94
343.437	418.94
343.665	412.94
343.893	414.94
344.12	420.94
344.348	423.94
344.576	442.94
344.804	434.94
345.031	435.94
345.259	451.94
345.487	441.94
345.714	434.94
345.942	424.94
346.17	415.94
346.397	415.94
346.625	413.94
346.853	397.94
347.08	392.94
347.308	404.94
347.535	427.94
347.763	417.94
347.99	432.94
348.218	423.94
348.445	428.94
348.673	434.94
348.9	408.94
349.128	400.94
349.355	384.94
349.583	378.94
349.81	379.94
350.037	390.94
350.265	407.94
350.492	364.94
350.72	404.94
350.947	413.94
351.174	399.94
351.402	412.94
351.629	403.94
351.856	429.94
352.083	425.94
352.311	441.94
352.538	428.94
352.765	450.94
352.992	400.94
353.22	415.94
353.447	398.94
353.674	418.94
353.901	403.94
354.128	399.94
354.355	370.94
354.583	383.94
354.81	374.94
355.037	384.94
355.264	360.94
355.491	374.94
355.718	358.94
355.945	375.94
356.172	381.94
356.399	366.94
356.626	364.94
356.853	347.94
357.08	366.94
357.307	359.94
357.534	386.94
357.761	373.94
357.988	370.94
358.215	341.94
358.441	364.94
358.668	372.94
358.895	382.94
359.122	379.94
359.349	388.94
359.576	394.94
359.802	420.94
360.029	460.94
360.256	451.94
360.483	436.94
360.709	393.94
360.936	420.94
361.163	410.94
361.39	430.94
361.616	398.94
361.843	394.94
362.07	411.94
362.296	399.94
362.523	390.94
362.749	399.94
362.976	389.94
363.203	356.94
363.429	384.94
363.656	380.94
363.882	381.94
364.109	379.94
364.335	379.94
364.562	368.94
364.788	381.94
365.015	398.94
365.241	373.94
365.468	384.94
365.694	385.94
365.92	383.94
366.147	349.94
366.373	372.94
366.599	382.94
366.826	388.94
367.052	360.94
367.278	358.94
367.505	354.94
367.731	374.94
367.957	363.94
368.184	377.94
368.41	381.94
368.636	380.94
368.862	378.94
369.089	382.94
369.315	364.94
369.541	374.94
369.767	368.94
369.993	384.94
370.219	383.94
370.445	379.94
370.672	365.94
370.898	370.94
371.124	364.94
371.35	357.94
371.576	364.94
371.802	359.94
372.028	352.94
372.254	360.94
372.48	348.94
372.706	363.94
372.932	380.94
373.158	363.94
373.384	344.94
373.61	356.94
373.835	359.94
374.061	367.94
374.287	357.94
374.513	381.94
374.739	383.94
374.965	356.94
375.191	342.94
375.416	352.94
375.642	366.94
375.868	358.94
376.094	366.94
376.319	348.94
376.545	345.94
376.771	340.94
376.997	359.94
377.222	360.94
377.448	367.94
377.674	353.94
377.899	338.94
378.125	357.94
378.35	356.94
378.576	340.94
378.802	327.94
379.027	350.94
379.253	366.94
379.478	356.94
379.704	367.94
379.929	363.94
380.155	349.94
380.38	354.94
380.606	356.94
380.831	372.94
381.057	359.94
381.282	335.94
381.507	362.94
381.733	354.94
381.958	356.94
382.184	358.94
382.409	341.94
382.634	370.94
382.86	350.94
383.085	372.94
383.31	358.94
383.535	357.94
383.761	351.94
383.986	358.94
384.211	372.94
384.436	350.94
384.662	350.94
384.887	364.94
385.112	356.94
385.337	360.94
385.562	379.94
385.787	361.94
386.013	360.94
386.238	402.94
386.463	374.94
386.688	384.94
386.913	371.94
387.138	362.94
387.363	370.94
387.588	375.94
387.813	362.94
388.038	353.94
388.263	369.94
388.488	364.94
388.713	378.94
388.938	373.94
389.163	384.94
389.387	376.94
389.612	376.94
389.837	358.94
390.062	358.94
390.287	376.94
390.512	361.94
390.736	380.94
390.961	362.94
391.186	366.94
391.411	366.94
391.636	374.94
391.86	372.94
392.085	370.94
392.31	382.94
392.534	364.94
392.759	394.94
392.984	374.94
393.208	372.94
393.433	379.94
393.658	360.94
393.882	354.94
394.107	367.94
394.331	368.94
394.556	354.94
394.78	359.94
395.005	368.94
395.229	383.94
395.454	392.94
395.678	389.94
395.903	372.94
396.127	397.94
396.352	396.94
396.576	370.94
396.801	361.94
397.025	392.94
397.249	388.94
397.474	379.94
397.698	392.94
397.922	378.94
398.147	390.94
398.371	410.94
398.595	425.94
398.82	397.94
399.044	424.94
399.268	420.94
399.492	422.94
399.717	443.94
399.941	458.94
400.165	480.94
400.389	486.94
400.613	452.94
400.837	430.94
401.062	419.94
401.286	412.94
401.51	398.94
401.734	420.94
401.958	428.94
402.182	422.94
402.406	438.94
402.63	435.94
402.854	437.94
403.078	434.94
403.302	420.94
403.526	430.94
403.75	434.94
403.974	428.94
404.198	400.94
404.422	411.94
404.645	429.94
404.869	441.94
405.093	459.94
405.317	515.94
405.541	511.94
405.765	484.94
405.988	428.94
406.212	465.94
406.436	505.94
406.66	487.94
406.883	471.94
407.107	471.94
407.331	512.94
407.555	587.94
407.778	583.94
408.002	533.94
408.226	477.94
408.449	458.94
408.673	465.94
408.896	473.94
409.12	527.94
409.344	490.94
409.567	458.94
409.791	423.94
410.014	432.94
410.238	434.94
410.461	436.94
410.685	423.94
410.908	449.94
411.132	500.94
411.355	492.94
411.578	489.94
411.802	428.94
412.025	427.94
412.249	439.94
412.472	453.94
412.695	471.94
412.919	476.94
413.142	442.94
413.365	410.94
413.589	412.94
413.812	388.94
414.035	390.94
414.258	409.94
414.482	392.94
414.705	396.94
414.928	383.94
415.151	357.94
415.374	414.94
415.597	415.94
415.821	384.94
416.044	412.94
416.267	411.94
416.49	409.94
416.713	386.94
416.936	392.94
417.159	402.94
417.382	399.94
417.605	418.94
417.828	418.94
418.051	429.94
418.274	415.94
418.497	418.94
418.72	392.94
418.943	422.94
419.166	414.94
419.389	426.94
419.611	446.94
419.834	412.94
420.057	421.94
420.28	413.94
420.503	431.94
420.726	438.94
420.948	424.94
421.171	475.94
421.394	523.94
421.617	469.94
421.839	424.94
422.062	418.94
422.285	451.94
422.507	486.94
422.73	562.94
422.953	540.94
423.175	486.94
423.398	450.94
423.621	442.94
423.843	455.94
424.066	473.94
424.288	446.94
424.511	461.94
424.733	520.94
424.956	592.94
425.178	600.94
425.401	576.94
425.623	592.94
425.846	503.94
426.068	490.94
426.291	458.94
426.513	472.94
426.735	481.94
426.958	521.94
427.18	586.94
427.402	707.94
427.625	786.94
427.847	729.94
428.069	594.94
428.292	530.94
428.514	473.94
428.736	457.94
428.958	443.94
429.181	429.94
429.403	430.94
429.625	456.94
429.847	471.94
430.069	554.94
430.292	549.94
430.514	444.94
430.736	438.94
430.958	415.94
431.18	410.94
431.402	399.94
431.624	383.94
431.846	394.94
432.068	404.94
432.29	407.94
432.512	409.94
432.734	416.94
432.956	418.94
433.178	423.94
433.4	451.94
433.622	406.94
433.844	390.94
434.066	404.94
434.287	404.94
434.509	388.94
434.731	411.94
434.953	415.94
435.175	427.94
435.397	442.94
435.618	470.94
435.84	527.94
436.062	621.94
436.284	643.94
436.505	537.94
436.727	502.94
436.949	450.94
437.17	461.94
437.392	446.94
437.614	460.94
437.835	475.94
438.057	552.94
438.278	662.94
438.5	640.94
438.721	706.94
438.943	694.94
439.165	546.94
439.386	500.94
439.608	490.94
439.829	491.94
440.05	505.94
440.272	556.94
440.493	530.94
440.715	483.94
440.936	439.94
441.158	451.94
441.379	430.94
441.6	429.94
441.822	484.94
442.043	504.94
442.264	590.94
442.486	616.94
442.707	519.94
442.928	486.94
443.149	490.94
443.371	511.94
443.592	543.94
443.813	640.94
444.034	658.94
444.255	574.94
444.476	516.94
444.698	466.94
444.919	463.94
445.14	582.94
445.361	518.94
445.582	509.94
445.803	596.94
446.024	675.94
446.245	679.94
446.466	640.94
446.687	523.94
446.908	485.94
447.129	471.94
447.35	452.94
447.571	425.94
447.792	440.94
448.013	431.94
448.234	460.94
448.455	500.94
448.675	616.94
448.896	670.94
449.117	610.94
449.338	578.94
449.559	665.94
449.779	760.94
450	610.94
450.221	479.94
450.442	458.94
450.662	430.94
450.883	450.94
451.104	460.94
451.324	444.94
451.545	414.94
451.766	413.94
451.986	393.94
452.207	404.94
452.428	404.94
452.648	379.94
452.869	383.94
453.089	390.94
453.31	406.94
453.53	386.94
453.751	404.94
453.971	399.94
454.192	406.94
454.412	410.94
454.633	403.94
454.853	401.94
455.073	382.94
455.294	440.94
455.514	503.94
455.734	476.94
455.955	401.94
456.175	385.94
456.395	329.94
456.616	353.94
456.836	380.94
457.056	354.94
457.276	354.94
457.497	351.94
457.717	345.94
457.937	370.94
458.157	396.94
458.377	392.94
458.598	417.94
458.818	462.94
459.038	559.94
459.258	543.94
459.478	444.94
459.698	418.94
459.918	399.94
460.138	399.94
460.358	406.94
460.578	418.94
460.798	406.94
461.018	405.94
461.238	387.94
461.458	398.94
461.678	364.94
461.898	380.94
462.118	383.94
462.338	396.94
462.558	394.94
462.777	392.94
462.997	394.94
463.217	391.94
463.437	409.94
463.657	434.94
463.876	418.94
464.096	429.94
464.316	409.94
464.536	419.94
464.755	402.94
464.975	431.94
465.195	469.94
465.414	568.94
465.634	484.94
465.854	444.94
466.073	412.94
466.293	378.94
466.512	383.94
466.732	390.94
466.951	383.94
467.171	380.94
467.391	410.94
467.61	407.94
467.829	421.94
468.049	398.94
468.268	399.94
468.488	362.94
468.707	386.94
468.927	403.94
469.146	392.94
469.365	379.94
469.585	364.94
469.804	396.94
470.023	406.94
470.243	398.94
470.462	419.94
470.681	418.94
470.901	427.94
471.12	386.94
471.339	379.94
471.558	412.94
471.777	398.94
471.997	383.94
472.216	401.94
472.435	442.94
472.654	412.94
472.873	397.94
473.092	406.94
473.311	388.94
473.53	388.94
473.749	421.94
473.968	473.94
474.187	582.94
474.406	581.94
474.625	482.94
474.844	428.94
475.063	404.94
475.282	386.94
475.501	408.94
475.72	404.94
475.939	396.94
476.158	422.94
476.377	423.94
476.596	410.94
476.814	419.94
477.033	419.94
477.252	398.94
477.471	414.94
477.69	436.94
477.908	444.94
478.127	418.94
478.346	427.94
478.564	452.94
478.783	431.94
479.002	457.94
479.22	452.94
479.439	457.94
479.658	471.94
479.876	476.94
480.095	470.94
480.313	495.94
480.532	477.94
480.751	474.94
480.969	486.94
481.188	558.94
481.406	599.94
481.624	537.94
481.843	479.94
482.061	457.94
482.28	464.94
482.498	457.94
482.717	471.94
482.935	486.94
483.153	453.94
483.372	456.94
483.59	456.94
483.808	468.94
484.027	475.94
484.245	469.94
484.463	451.94
484.681	484.94
484.9	475.94
485.118	488.94
485.336	472.94
485.554	488.94
485.772	486.94
485.99	470.94
486.209	467.94
486.427	478.94
486.645	499.94
486.863	518.94
487.081	514.94
487.299	505.94
487.517	504.94
487.735	493.94
487.953	486.94
488.171	478.94
488.389	506.94
488.607	519.94
488.825	503.94
489.043	512.94
489.261	488.94
489.479	501.94
489.696	529.94
489.914	512.94
490.132	506.94
490.35	523.94
490.568	555.94
490.786	535.94
491.003	541.94
491.221	566.94
491.439	557.94
491.657	584.94
491.874	563.94
492.092	587.94
492.31	568.94
492.527	562.94
492.745	572.94
492.963	578.94
493.18	584.94
493.398	580.94
493.615	614.94
493.833	604.94
494.05	575.94
494.268	609.94
494.485	594.94
494.703	605.94
494.92	596.94
495.138	608.94
495.355	615.94
495.573	589.94
495.79	601.94
496.008	591.94
496.225	610.94
496.442	602.94
496.66	576.94
496.877	606.94
497.094	613.94
497.312	586.94
497.529	629.94
497.746	614.94
497.963	628.94
498.181	636.94
498.398	631.94
498.615	635.94
498.832	647.94
499.049	666.94
499.267	665.94
499.484	670.94
499.701	692.94
499.918	692.94
500.135	716.94
500.352	698.94
500.569	731.94
500.786	710.94
501.003	714.94
501.22	716.94
501.437	755.94
501.654	698.94
501.871	719.94
