Data from 1981.PennyLincolnUp.Lamp.En5.5.200Scan.071819.P1_HRD10591_16-41-19-959.txt Node
Date: Thu Jul 18 16:41:19 EDT 2019
User: cochatt
Spectrometer: HR+D1059
Trigger mode: 1
Integration Time (sec): 1.000000E-1
Scans to average: 1
Electric dark correction enabled: true
Nonlinearity correction enabled: false
Boxcar width: 0
XAxis mode: Wavelengths
Number of Pixels in Spectrum: 2048
>>>>>Begin Spectral Data<<<<<
223.165	-24.06
223.4	-24.06
223.635	-24.06
223.869	-29.06
224.104	-17.06
224.338	-6.06
224.573	-3.06
224.808	-12.06
225.042	-16.06
225.277	-16.06
225.511	16.94
225.746	0.94
225.98	-2.06
226.215	5.94
226.449	17.94
226.683	32.94
226.918	24.94
227.152	25.94
227.387	28.94
227.621	45.94
227.856	29.94
228.09	40.94
228.324	45.94
228.559	50.94
228.793	65.94
229.027	95.94
229.262	100.94
229.496	113.94
229.73	129.94
229.964	142.94
230.199	140.94
230.433	106.94
230.667	116.94
230.901	100.94
231.136	105.94
231.37	103.94
231.604	102.94
231.838	94.94
232.072	92.94
232.306	96.94
232.541	116.94
232.775	100.94
233.009	97.94
233.243	110.94
233.477	101.94
233.711	96.94
233.945	118.94
234.179	120.94
234.413	110.94
234.647	127.94
234.881	121.94
235.115	118.94
235.349	94.94
235.583	108.94
235.817	110.94
236.051	118.94
236.285	129.94
236.519	113.94
236.753	130.94
236.987	139.94
237.221	186.94
237.455	225.94
237.689	178.94
237.922	140.94
238.156	139.94
238.39	124.94
238.624	128.94
238.858	120.94
239.091	112.94
239.325	114.94
239.559	120.94
239.793	128.94
240.027	124.94
240.26	151.94
240.494	162.94
240.728	136.94
240.961	124.94
241.195	124.94
241.429	140.94
241.662	128.94
241.896	126.94
242.13	126.94
242.363	122.94
242.597	120.94
242.83	148.94
243.064	139.94
243.298	123.94
243.531	136.94
243.765	147.94
243.998	129.94
244.232	137.94
244.465	148.94
244.699	130.94
244.932	145.94
245.166	140.94
245.399	137.94
245.633	140.94
245.866	141.94
246.099	161.94
246.333	152.94
246.566	146.94
246.8	138.94
247.033	151.94
247.266	148.94
247.5	161.94
247.733	161.94
247.966	142.94
248.2	175.94
248.433	161.94
248.666	182.94
248.899	178.94
249.133	189.94
249.366	200.94
249.599	199.94
249.832	192.94
250.066	180.94
250.299	188.94
250.532	172.94
250.765	194.94
250.998	218.94
251.231	231.94
251.465	217.94
251.698	199.94
251.931	198.94
252.164	221.94
252.397	200.94
252.63	203.94
252.863	212.94
253.096	216.94
253.329	217.94
253.562	220.94
253.795	220.94
254.028	232.94
254.261	228.94
254.494	217.94
254.727	239.94
254.96	275.94
255.193	261.94
255.426	245.94
255.659	253.94
255.892	248.94
256.124	228.94
256.357	246.94
256.59	242.94
256.823	218.94
257.056	225.94
257.289	215.94
257.521	216.94
257.754	226.94
257.987	223.94
258.22	218.94
258.452	203.94
258.685	210.94
258.918	207.94
259.151	218.94
259.383	226.94
259.616	217.94
259.849	245.94
260.081	259.94
260.314	254.94
260.547	263.94
260.779	256.94
261.012	231.94
261.244	229.94
261.477	236.94
261.71	226.94
261.942	232.94
262.175	231.94
262.407	231.94
262.64	242.94
262.872	227.94
263.105	229.94
263.337	204.94
263.57	212.94
263.802	217.94
264.035	216.94
264.267	212.94
264.499	214.94
264.732	220.94
264.964	220.94
265.197	212.94
265.429	208.94
265.661	201.94
265.894	212.94
266.126	213.94
266.358	225.94
266.591	209.94
266.823	229.94
267.055	221.94
267.287	233.94
267.52	225.94
267.752	213.94
267.984	224.94
268.216	233.94
268.448	220.94
268.681	242.94
268.913	243.94
269.145	266.94
269.377	284.94
269.609	281.94
269.841	276.94
270.073	277.94
270.306	272.94
270.538	305.94
270.77	308.94
271.002	303.94
271.234	288.94
271.466	302.94
271.698	322.94
271.93	331.94
272.162	332.94
272.394	322.94
272.626	296.94
272.858	294.94
273.09	314.94
273.322	272.94
273.553	286.94
273.785	288.94
274.017	272.94
274.249	271.94
274.481	277.94
274.713	272.94
274.945	247.94
275.176	267.94
275.408	279.94
275.64	269.94
275.872	261.94
276.104	277.94
276.335	272.94
276.567	254.94
276.799	304.94
277.031	306.94
277.262	310.94
277.494	309.94
277.726	291.94
277.957	266.94
278.189	287.94
278.421	272.94
278.652	283.94
278.884	273.94
279.115	262.94
279.347	282.94
279.579	258.94
279.81	265.94
280.042	249.94
280.273	273.94
280.505	246.94
280.736	260.94
280.968	267.94
281.199	236.94
281.431	248.94
281.662	263.94
281.894	265.94
282.125	255.94
282.356	284.94
282.588	305.94
282.819	298.94
283.051	277.94
283.282	268.94
283.513	263.94
283.745	266.94
283.976	281.94
284.207	280.94
284.439	273.94
284.67	272.94
284.901	256.94
285.132	273.94
285.364	259.94
285.595	263.94
285.826	279.94
286.057	276.94
286.288	280.94
286.52	282.94
286.751	276.94
286.982	301.94
287.213	268.94
287.444	284.94
287.675	284.94
287.906	289.94
288.138	296.94
288.369	307.94
288.6	291.94
288.831	282.94
289.062	290.94
289.293	278.94
289.524	284.94
289.755	273.94
289.986	287.94
290.217	274.94
290.448	279.94
290.679	301.94
290.91	273.94
291.141	260.94
291.371	278.94
291.602	289.94
291.833	296.94
292.064	289.94
292.295	287.94
292.526	285.94
292.757	294.94
292.987	281.94
293.218	280.94
293.449	295.94
293.68	278.94
293.91	280.94
294.141	279.94
294.372	281.94
294.603	282.94
294.833	294.94
295.064	283.94
295.295	295.94
295.525	297.94
295.756	287.94
295.987	296.94
296.217	312.94
296.448	336.94
296.679	287.94
296.909	301.94
297.14	300.94
297.37	314.94
297.601	267.94
297.831	276.94
298.062	286.94
298.292	273.94
298.523	285.94
298.753	304.94
298.984	277.94
299.214	311.94
299.445	290.94
299.675	297.94
299.905	311.94
300.136	294.94
300.366	302.94
300.597	292.94
300.827	300.94
301.057	306.94
301.288	296.94
301.518	318.94
301.748	296.94
301.979	334.94
302.209	316.94
302.439	325.94
302.669	338.94
302.9	311.94
303.13	306.94
303.36	316.94
303.59	323.94
303.82	340.94
304.051	326.94
304.281	335.94
304.511	330.94
304.741	310.94
304.971	306.94
305.201	304.94
305.431	328.94
305.661	310.94
305.891	304.94
306.121	345.94
306.352	324.94
306.582	344.94
306.812	347.94
307.042	320.94
307.272	325.94
307.502	318.94
307.731	331.94
307.961	309.94
308.191	333.94
308.421	341.94
308.651	333.94
308.881	322.94
309.111	328.94
309.341	343.94
309.571	338.94
309.8	374.94
310.03	370.94
310.26	363.94
310.49	386.94
310.72	377.94
310.949	390.94
311.179	404.94
311.409	380.94
311.639	387.94
311.868	378.94
312.098	374.94
312.328	367.94
312.557	392.94
312.787	404.94
313.017	391.94
313.246	387.94
313.476	370.94
313.706	352.94
313.935	374.94
314.165	378.94
314.394	390.94
314.624	404.94
314.853	371.94
315.083	380.94
315.312	366.94
315.542	367.94
315.771	343.94
316.001	349.94
316.23	351.94
316.46	359.94
316.689	369.94
316.919	358.94
317.148	386.94
317.377	393.94
317.607	374.94
317.836	386.94
318.065	382.94
318.295	375.94
318.524	381.94
318.753	362.94
318.983	390.94
319.212	380.94
319.441	385.94
319.67	387.94
319.9	382.94
320.129	371.94
320.358	390.94
320.587	386.94
320.816	386.94
321.046	386.94
321.275	405.94
321.504	396.94
321.733	381.94
321.962	409.94
322.191	409.94
322.42	439.94
322.649	462.94
322.878	453.94
323.108	488.94
323.337	497.94
323.566	518.94
323.795	570.94
324.024	632.94
324.253	765.94
324.482	1099.94
324.71	1630.94
324.939	2228.94
325.168	1909.94
325.397	1052.94
325.626	700.94
325.855	583.94
326.084	533.94
326.313	514.94
326.542	534.94
326.77	590.94
326.999	709.94
327.228	989.94
327.457	1436.94
327.686	1685.94
327.914	1139.94
328.143	772.94
328.372	664.94
328.6	617.94
328.829	572.94
329.058	598.94
329.287	600.94
329.515	565.94
329.744	519.94
329.972	497.94
330.201	546.94
330.43	554.94
330.658	599.94
330.887	620.94
331.115	591.94
331.344	510.94
331.572	505.94
331.801	508.94
332.03	484.94
332.258	474.94
332.486	446.94
332.715	431.94
332.943	416.94
333.172	449.94
333.4	436.94
333.629	434.94
333.857	468.94
334.085	462.94
334.314	472.94
334.542	476.94
334.771	503.94
334.999	460.94
335.227	450.94
335.455	436.94
335.684	444.94
335.912	421.94
336.14	428.94
336.369	447.94
336.597	425.94
336.825	432.94
337.053	421.94
337.281	415.94
337.51	411.94
337.738	410.94
337.966	430.94
338.194	424.94
338.422	422.94
338.65	419.94
338.878	416.94
339.106	401.94
339.334	423.94
339.562	412.94
339.79	408.94
340.018	413.94
340.246	410.94
340.474	428.94
340.702	437.94
340.93	435.94
341.158	404.94
341.386	418.94
341.614	408.94
341.842	406.94
342.07	377.94
342.298	404.94
342.526	389.94
342.754	394.94
342.981	386.94
343.209	366.94
343.437	384.94
343.665	415.94
343.893	412.94
344.12	434.94
344.348	408.94
344.576	398.94
344.804	405.94
345.031	428.94
345.259	424.94
345.487	433.94
345.714	404.94
345.942	384.94
346.17	402.94
346.397	396.94
346.625	414.94
346.853	401.94
347.08	422.94
347.308	376.94
347.535	392.94
347.763	432.94
347.99	398.94
348.218	393.94
348.445	408.94
348.673	400.94
348.9	394.94
349.128	387.94
349.355	390.94
349.583	375.94
349.81	373.94
350.037	382.94
350.265	382.94
350.492	381.94
350.72	384.94
350.947	410.94
351.174	396.94
351.402	413.94
351.629	404.94
351.856	406.94
352.083	388.94
352.311	413.94
352.538	410.94
352.765	409.94
352.992	416.94
353.22	412.94
353.447	394.94
353.674	364.94
353.901	364.94
354.128	375.94
354.355	349.94
354.583	366.94
354.81	360.94
355.037	362.94
355.264	338.94
355.491	365.94
355.718	358.94
355.945	344.94
356.172	370.94
356.399	345.94
356.626	364.94
356.853	372.94
357.08	342.94
357.307	339.94
357.534	351.94
357.761	368.94
357.988	372.94
358.215	345.94
358.441	351.94
358.668	376.94
358.895	365.94
359.122	378.94
359.349	385.94
359.576	398.94
359.802	403.94
360.029	427.94
360.256	439.94
360.483	422.94
360.709	400.94
360.936	389.94
361.163	386.94
361.39	384.94
361.616	369.94
361.843	378.94
362.07	377.94
362.296	354.94
362.523	404.94
362.749	399.94
362.976	394.94
363.203	376.94
363.429	376.94
363.656	380.94
363.882	364.94
364.109	372.94
364.335	353.94
364.562	354.94
364.788	366.94
365.015	354.94
365.241	361.94
365.468	388.94
365.694	370.94
365.92	368.94
366.147	367.94
366.373	372.94
366.599	362.94
366.826	346.94
367.052	347.94
367.278	347.94
367.505	357.94
367.731	359.94
367.957	371.94
368.184	350.94
368.41	364.94
368.636	358.94
368.862	370.94
369.089	358.94
369.315	369.94
369.541	368.94
369.767	359.94
369.993	375.94
370.219	357.94
370.445	352.94
370.672	362.94
370.898	357.94
371.124	362.94
371.35	361.94
371.576	339.94
371.802	334.94
372.028	353.94
372.254	345.94
372.48	336.94
372.706	349.94
372.932	338.94
373.158	334.94
373.384	332.94
373.61	351.94
373.835	342.94
374.061	349.94
374.287	345.94
374.513	357.94
374.739	354.94
374.965	366.94
375.191	360.94
375.416	350.94
375.642	334.94
375.868	361.94
376.094	357.94
376.319	333.94
376.545	350.94
376.771	353.94
376.997	338.94
377.222	349.94
377.448	337.94
377.674	355.94
377.899	337.94
378.125	340.94
378.35	345.94
378.576	337.94
378.802	346.94
379.027	349.94
379.253	356.94
379.478	336.94
379.704	340.94
379.929	345.94
380.155	345.94
380.38	344.94
380.606	353.94
380.831	350.94
381.057	330.94
381.282	335.94
381.507	353.94
381.733	336.94
381.958	360.94
382.184	335.94
382.409	352.94
382.634	329.94
382.86	349.94
383.085	363.94
383.31	352.94
383.535	356.94
383.761	369.94
383.986	359.94
384.211	367.94
384.436	374.94
384.662	354.94
384.887	362.94
385.112	365.94
385.337	370.94
385.562	372.94
385.787	357.94
386.013	366.94
386.238	374.94
386.463	379.94
386.688	349.94
386.913	360.94
387.138	352.94
387.363	357.94
387.588	354.94
387.813	376.94
388.038	370.94
388.263	370.94
388.488	360.94
388.713	361.94
388.938	354.94
389.163	351.94
389.387	366.94
389.612	359.94
389.837	372.94
390.062	361.94
390.287	345.94
390.512	369.94
390.736	352.94
390.961	367.94
391.186	375.94
391.411	349.94
391.636	364.94
391.86	351.94
392.085	353.94
392.31	368.94
392.534	370.94
392.759	356.94
392.984	370.94
393.208	370.94
393.433	369.94
393.658	334.94
393.882	360.94
394.107	360.94
394.331	361.94
394.556	371.94
394.78	368.94
395.005	376.94
395.229	332.94
395.454	362.94
395.678	364.94
395.903	374.94
396.127	394.94
396.352	381.94
396.576	368.94
396.801	380.94
397.025	390.94
397.249	389.94
397.474	364.94
397.698	373.94
397.922	389.94
398.147	398.94
398.371	395.94
398.595	391.94
398.82	406.94
399.044	398.94
399.268	424.94
399.492	438.94
399.717	424.94
399.941	448.94
400.165	476.94
400.389	505.94
400.613	444.94
400.837	425.94
401.062	406.94
401.286	410.94
401.51	393.94
401.734	391.94
401.958	408.94
402.182	386.94
402.406	402.94
402.63	414.94
402.854	419.94
403.078	406.94
403.302	426.94
403.526	417.94
403.75	430.94
403.974	414.94
404.198	406.94
404.422	419.94
404.645	407.94
404.869	398.94
405.093	476.94
405.317	479.94
405.541	500.94
405.765	466.94
405.988	459.94
406.212	448.94
406.436	452.94
406.66	475.94
406.883	454.94
407.107	483.94
407.331	482.94
407.555	549.94
407.778	570.94
408.002	497.94
408.226	472.94
408.449	455.94
408.673	453.94
408.896	476.94
409.12	522.94
409.344	485.94
409.567	443.94
409.791	438.94
410.014	422.94
410.238	429.94
410.461	419.94
410.685	432.94
410.908	416.94
411.132	455.94
411.355	490.94
411.578	458.94
411.802	397.94
412.025	411.94
412.249	416.94
412.472	437.94
412.695	481.94
412.919	462.94
413.142	417.94
413.365	412.94
413.589	396.94
413.812	402.94
414.035	395.94
414.258	404.94
414.482	399.94
414.705	390.94
414.928	397.94
415.151	393.94
415.374	376.94
415.597	386.94
415.821	394.94
416.044	380.94
416.267	388.94
416.49	371.94
416.713	372.94
416.936	379.94
417.159	381.94
417.382	384.94
417.605	391.94
417.828	410.94
418.051	428.94
418.274	402.94
418.497	389.94
418.72	390.94
418.943	382.94
419.166	385.94
419.389	419.94
419.611	404.94
419.834	419.94
420.057	401.94
420.28	408.94
420.503	407.94
420.726	423.94
420.948	432.94
421.171	455.94
421.394	478.94
421.617	426.94
421.839	416.94
422.062	413.94
422.285	412.94
422.507	467.94
422.73	552.94
422.953	494.94
423.175	428.94
423.398	452.94
423.621	432.94
423.843	450.94
424.066	441.94
424.288	445.94
424.511	454.94
424.733	516.94
424.956	585.94
425.178	577.94
425.401	533.94
425.623	590.94
425.846	493.94
426.068	458.94
426.291	482.94
426.513	448.94
426.735	471.94
426.958	489.94
427.18	581.94
427.402	673.94
427.625	733.94
427.847	664.94
428.069	592.94
428.292	506.94
428.514	428.94
428.736	444.94
428.958	448.94
429.181	414.94
429.403	423.94
429.625	406.94
429.847	467.94
430.069	532.94
430.292	512.94
430.514	444.94
430.736	426.94
430.958	416.94
431.18	398.94
431.402	391.94
431.624	395.94
431.846	415.94
432.068	385.94
432.29	393.94
432.512	396.94
432.734	420.94
432.956	397.94
433.178	409.94
433.4	399.94
433.622	401.94
433.844	395.94
434.066	385.94
434.287	402.94
434.509	393.94
434.731	393.94
434.953	414.94
435.175	436.94
435.397	449.94
435.618	457.94
435.84	488.94
436.062	586.94
436.284	631.94
436.505	516.94
436.727	475.94
436.949	439.94
437.17	420.94
437.392	410.94
437.614	452.94
437.835	474.94
438.057	569.94
438.278	638.94
438.5	672.94
438.721	673.94
438.943	645.94
439.165	535.94
439.386	476.94
439.608	446.94
439.829	456.94
440.05	500.94
440.272	533.94
440.493	512.94
440.715	456.94
440.936	453.94
441.158	424.94
441.379	418.94
441.6	437.94
441.822	442.94
442.043	466.94
442.264	570.94
442.486	601.94
442.707	528.94
442.928	459.94
443.149	491.94
443.371	510.94
443.592	549.94
443.813	617.94
444.034	641.94
444.255	528.94
444.476	458.94
444.698	459.94
444.919	448.94
445.14	552.94
445.361	484.94
445.582	493.94
445.803	562.94
446.024	647.94
446.245	650.94
446.466	615.94
446.687	517.94
446.908	464.94
447.129	445.94
447.35	438.94
447.571	422.94
447.792	417.94
448.013	424.94
448.234	476.94
448.455	538.94
448.675	584.94
448.896	691.94
449.117	591.94
449.338	577.94
449.559	624.94
449.779	683.94
450	600.94
450.221	486.94
450.442	442.94
450.662	434.94
450.883	429.94
451.104	438.94
451.324	432.94
451.545	423.94
451.766	388.94
451.986	386.94
452.207	362.94
452.428	391.94
452.648	369.94
452.869	392.94
453.089	376.94
453.31	406.94
453.53	402.94
453.751	372.94
453.971	374.94
454.192	405.94
454.412	384.94
454.633	383.94
454.853	372.94
455.073	382.94
455.294	393.94
455.514	481.94
455.734	463.94
455.955	393.94
456.175	370.94
456.395	340.94
456.616	370.94
456.836	357.94
457.056	339.94
457.276	354.94
457.497	348.94
457.717	348.94
457.937	352.94
458.157	379.94
458.377	400.94
458.598	381.94
458.818	430.94
459.038	500.94
459.258	498.94
459.478	427.94
459.698	380.94
459.918	391.94
460.138	400.94
460.358	380.94
460.578	377.94
460.798	399.94
461.018	365.94
461.238	383.94
461.458	375.94
461.678	373.94
461.898	380.94
462.118	391.94
462.338	391.94
462.558	361.94
462.777	387.94
462.997	392.94
463.217	420.94
463.437	429.94
463.657	415.94
463.876	396.94
464.096	408.94
464.316	391.94
464.536	416.94
464.755	424.94
464.975	415.94
465.195	445.94
465.414	510.94
465.634	433.94
465.854	420.94
466.073	416.94
466.293	370.94
466.512	375.94
466.732	355.94
466.951	376.94
467.171	386.94
467.391	384.94
467.61	382.94
467.829	406.94
468.049	401.94
468.268	388.94
468.488	364.94
468.707	376.94
468.927	372.94
469.146	354.94
469.365	378.94
469.585	378.94
469.804	381.94
470.023	383.94
470.243	369.94
470.462	381.94
470.681	417.94
470.901	390.94
471.12	369.94
471.339	386.94
471.558	403.94
471.777	398.94
471.997	382.94
472.216	387.94
472.435	409.94
472.654	409.94
472.873	362.94
473.092	387.94
473.311	370.94
473.53	387.94
473.749	395.94
473.968	432.94
474.187	545.94
474.406	554.94
474.625	452.94
474.844	432.94
475.063	401.94
475.282	404.94
475.501	405.94
475.72	394.94
475.939	397.94
476.158	400.94
476.377	401.94
476.596	393.94
476.814	394.94
477.033	417.94
477.252	419.94
477.471	417.94
477.69	420.94
477.908	403.94
478.127	415.94
478.346	405.94
478.564	429.94
478.783	432.94
479.002	415.94
479.22	425.94
479.439	438.94
479.658	445.94
479.876	458.94
480.095	458.94
480.313	484.94
480.532	477.94
480.751	473.94
480.969	450.94
481.188	499.94
481.406	521.94
481.624	483.94
481.843	490.94
482.061	458.94
482.28	465.94
482.498	453.94
482.717	432.94
482.935	436.94
483.153	440.94
483.372	462.94
483.59	479.94
483.808	454.94
484.027	452.94
484.245	462.94
484.463	442.94
484.681	457.94
484.9	442.94
485.118	456.94
485.336	462.94
485.554	453.94
485.772	480.94
485.99	489.94
486.209	477.94
486.427	461.94
486.645	462.94
486.863	510.94
487.081	477.94
487.299	498.94
487.517	493.94
487.735	497.94
487.953	494.94
488.171	479.94
488.389	502.94
488.607	510.94
488.825	472.94
489.043	500.94
489.261	474.94
489.479	504.94
489.696	493.94
489.914	496.94
490.132	494.94
490.35	484.94
490.568	514.94
490.786	514.94
491.003	548.94
491.221	537.94
491.439	525.94
491.657	521.94
491.874	559.94
492.092	551.94
492.31	552.94
492.527	577.94
492.745	553.94
492.963	563.94
493.18	544.94
493.398	572.94
493.615	542.94
493.833	589.94
494.05	573.94
494.268	553.94
494.485	547.94
494.703	581.94
494.92	582.94
495.138	599.94
495.355	577.94
495.573	607.94
495.79	550.94
496.008	556.94
496.225	573.94
496.442	568.94
496.66	558.94
496.877	588.94
497.094	577.94
497.312	590.94
497.529	591.94
497.746	588.94
497.963	609.94
498.181	611.94
498.398	617.94
498.615	629.94
498.832	635.94
499.049	632.94
499.267	640.94
499.484	649.94
499.701	664.94
499.918	669.94
500.135	696.94
500.352	720.94
500.569	748.94
500.786	702.94
501.003	740.94
501.22	706.94
501.437	697.94
501.654	706.94
501.871	694.94
502.088	690.94
