Data from 1981.PennyLincolnUp.Lamp.En5.5.200Scan.071819.P1_HRD10591_16-40-55-959.txt Node
Date: Thu Jul 18 16:40:55 EDT 2019
User: cochatt
Spectrometer: HR+D1059
Trigger mode: 1
Integration Time (sec): 1.000000E-1
Scans to average: 1
Electric dark correction enabled: true
Nonlinearity correction enabled: false
Boxcar width: 0
XAxis mode: Wavelengths
Number of Pixels in Spectrum: 2048
>>>>>Begin Spectral Data<<<<<
223.165	-11.19
223.4	-11.19
223.635	-11.19
223.869	-24.19
224.104	-19.19
224.338	-13.19
224.573	-11.19
224.808	-0.19
225.042	-2.19
225.277	-13.19
225.511	0.81
225.746	3.81
225.98	-7.19
226.215	2.81
226.449	6.81
226.683	20.81
226.918	33.81
227.152	32.81
227.387	41.81
227.621	34.81
227.856	30.81
228.09	50.81
228.324	42.81
228.559	52.81
228.793	60.81
229.027	96.81
229.262	106.81
229.496	103.81
229.73	133.81
229.964	136.81
230.199	133.81
230.433	123.81
230.667	117.81
230.901	94.81
231.136	114.81
231.37	106.81
231.604	107.81
231.838	100.81
232.072	109.81
232.306	125.81
232.541	122.81
232.775	99.81
233.009	101.81
233.243	117.81
233.477	122.81
233.711	117.81
233.945	95.81
234.179	118.81
234.413	123.81
234.647	116.81
234.881	115.81
235.115	123.81
235.349	120.81
235.583	114.81
235.817	127.81
236.051	107.81
236.285	126.81
236.519	126.81
236.753	111.81
236.987	139.81
237.221	170.81
237.455	204.81
237.689	176.81
237.922	133.81
238.156	126.81
238.39	108.81
238.624	145.81
238.858	128.81
239.091	123.81
239.325	106.81
239.559	120.81
239.793	123.81
240.027	122.81
240.26	140.81
240.494	150.81
240.728	152.81
240.961	131.81
241.195	140.81
241.429	139.81
241.662	137.81
241.896	119.81
242.13	116.81
242.363	123.81
242.597	118.81
242.83	130.81
243.064	127.81
243.298	143.81
243.531	142.81
243.765	130.81
243.998	124.81
244.232	130.81
244.465	125.81
244.699	150.81
244.932	134.81
245.166	147.81
245.399	137.81
245.633	158.81
245.866	156.81
246.099	144.81
246.333	140.81
246.566	141.81
246.8	149.81
247.033	165.81
247.266	160.81
247.5	161.81
247.733	159.81
247.966	167.81
248.2	153.81
248.433	154.81
248.666	170.81
248.899	173.81
249.133	170.81
249.366	179.81
249.599	200.81
249.832	166.81
250.066	182.81
250.299	194.81
250.532	191.81
250.765	190.81
250.998	201.81
251.231	218.81
251.465	214.81
251.698	212.81
251.931	194.81
252.164	202.81
252.397	188.81
252.63	192.81
252.863	219.81
253.096	223.81
253.329	201.81
253.562	226.81
253.795	212.81
254.028	212.81
254.261	226.81
254.494	220.81
254.727	238.81
254.96	276.81
255.193	268.81
255.426	248.81
255.659	243.81
255.892	233.81
256.124	207.81
256.357	210.81
256.59	235.81
256.823	211.81
257.056	207.81
257.289	210.81
257.521	204.81
257.754	203.81
257.987	210.81
258.22	211.81
258.452	223.81
258.685	204.81
258.918	208.81
259.151	212.81
259.383	220.81
259.616	207.81
259.849	232.81
260.081	238.81
260.314	247.81
260.547	221.81
260.779	235.81
261.012	230.81
261.244	224.81
261.477	221.81
261.71	214.81
261.942	226.81
262.175	228.81
262.407	234.81
262.64	193.81
262.872	201.81
263.105	212.81
263.337	206.81
263.57	208.81
263.802	214.81
264.035	213.81
264.267	207.81
264.499	213.81
264.732	204.81
264.964	208.81
265.197	207.81
265.429	210.81
265.661	204.81
265.894	214.81
266.126	214.81
266.358	215.81
266.591	210.81
266.823	223.81
267.055	224.81
267.287	225.81
267.52	219.81
267.752	219.81
267.984	236.81
268.216	225.81
268.448	243.81
268.681	231.81
268.913	218.81
269.145	247.81
269.377	262.81
269.609	266.81
269.841	264.81
270.073	280.81
270.306	291.81
270.538	293.81
270.77	303.81
271.002	299.81
271.234	301.81
271.466	288.81
271.698	279.81
271.93	300.81
272.162	304.81
272.394	304.81
272.626	296.81
272.858	288.81
273.09	288.81
273.322	265.81
273.553	282.81
273.785	264.81
274.017	264.81
274.249	252.81
274.481	254.81
274.713	257.81
274.945	267.81
275.176	260.81
275.408	243.81
275.64	255.81
275.872	233.81
276.104	262.81
276.335	252.81
276.567	266.81
276.799	287.81
277.031	290.81
277.262	302.81
277.494	310.81
277.726	296.81
277.957	268.81
278.189	280.81
278.421	267.81
278.652	286.81
278.884	278.81
279.115	265.81
279.347	252.81
279.579	267.81
279.81	271.81
280.042	262.81
280.273	267.81
280.505	273.81
280.736	252.81
280.968	256.81
281.199	243.81
281.431	277.81
281.662	265.81
281.894	266.81
282.125	267.81
282.356	268.81
282.588	291.81
282.819	281.81
283.051	270.81
283.282	271.81
283.513	271.81
283.745	279.81
283.976	268.81
284.207	262.81
284.439	270.81
284.67	272.81
284.901	265.81
285.132	254.81
285.364	254.81
285.595	261.81
285.826	260.81
286.057	279.81
286.288	256.81
286.52	233.81
286.751	260.81
286.982	272.81
287.213	272.81
287.444	251.81
287.675	261.81
287.906	283.81
288.138	297.81
288.369	279.81
288.6	276.81
288.831	296.81
289.062	280.81
289.293	291.81
289.524	273.81
289.755	282.81
289.986	288.81
290.217	280.81
290.448	286.81
290.679	270.81
290.91	268.81
291.141	280.81
291.371	256.81
291.602	271.81
291.833	267.81
292.064	274.81
292.295	270.81
292.526	261.81
292.757	270.81
292.987	255.81
293.218	278.81
293.449	276.81
293.68	275.81
293.91	278.81
294.141	274.81
294.372	281.81
294.603	287.81
294.833	283.81
295.064	280.81
295.295	285.81
295.525	274.81
295.756	290.81
295.987	276.81
296.217	298.81
296.448	318.81
296.679	280.81
296.909	287.81
297.14	293.81
297.37	292.81
297.601	281.81
297.831	294.81
298.062	273.81
298.292	283.81
298.523	285.81
298.753	294.81
298.984	284.81
299.214	287.81
299.445	282.81
299.675	281.81
299.905	310.81
300.136	302.81
300.366	300.81
300.597	286.81
300.827	308.81
301.057	299.81
301.288	313.81
301.518	310.81
301.748	306.81
301.979	291.81
302.209	280.81
302.439	295.81
302.669	315.81
302.9	308.81
303.13	292.81
303.36	299.81
303.59	291.81
303.82	308.81
304.051	302.81
304.281	287.81
304.511	297.81
304.741	311.81
304.971	286.81
305.201	302.81
305.431	305.81
305.661	306.81
305.891	310.81
306.121	307.81
306.352	318.81
306.582	336.81
306.812	306.81
307.042	298.81
307.272	318.81
307.502	316.81
307.731	309.81
307.961	309.81
308.191	315.81
308.421	314.81
308.651	332.81
308.881	308.81
309.111	331.81
309.341	333.81
309.571	342.81
309.8	345.81
310.03	335.81
310.26	359.81
310.49	346.81
310.72	348.81
310.949	393.81
311.179	378.81
311.409	362.81
311.639	349.81
311.868	363.81
312.098	358.81
312.328	361.81
312.557	359.81
312.787	368.81
313.017	379.81
313.246	375.81
313.476	342.81
313.706	366.81
313.935	373.81
314.165	371.81
314.394	375.81
314.624	386.81
314.853	366.81
315.083	354.81
315.312	373.81
315.542	364.81
315.771	349.81
316.001	352.81
316.23	352.81
316.46	349.81
316.689	366.81
316.919	347.81
317.148	356.81
317.377	367.81
317.607	376.81
317.836	357.81
318.065	356.81
318.295	340.81
318.524	344.81
318.753	350.81
318.983	354.81
319.212	360.81
319.441	368.81
319.67	375.81
319.9	352.81
320.129	360.81
320.358	360.81
320.587	353.81
320.816	380.81
321.046	370.81
321.275	383.81
321.504	392.81
321.733	382.81
321.962	394.81
322.191	393.81
322.42	427.81
322.649	406.81
322.878	411.81
323.108	448.81
323.337	478.81
323.566	476.81
323.795	522.81
324.024	567.81
324.253	698.81
324.482	982.81
324.71	1504.81
324.939	2082.81
325.168	1796.81
325.397	937.81
325.626	642.81
325.855	551.81
326.084	513.81
326.313	491.81
326.542	489.81
326.77	551.81
326.999	651.81
327.228	940.81
327.457	1329.81
327.686	1526.81
327.914	1059.81
328.143	723.81
328.372	607.81
328.6	578.81
328.829	549.81
329.058	547.81
329.287	564.81
329.515	498.81
329.744	506.81
329.972	473.81
330.201	480.81
330.43	514.81
330.658	551.81
330.887	567.81
331.115	569.81
331.344	474.81
331.572	463.81
331.801	452.81
332.03	453.81
332.258	444.81
332.486	423.81
332.715	422.81
332.943	404.81
333.172	404.81
333.4	426.81
333.629	416.81
333.857	424.81
334.085	436.81
334.314	460.81
334.542	471.81
334.771	481.81
334.999	444.81
335.227	434.81
335.455	398.81
335.684	432.81
335.912	400.81
336.14	398.81
336.369	391.81
336.597	408.81
336.825	392.81
337.053	407.81
337.281	402.81
337.51	399.81
337.738	395.81
337.966	389.81
338.194	418.81
338.422	404.81
338.65	391.81
338.878	404.81
339.106	408.81
339.334	385.81
339.562	391.81
339.79	374.81
340.018	392.81
340.246	386.81
340.474	395.81
340.702	404.81
340.93	399.81
341.158	391.81
341.386	391.81
341.614	396.81
341.842	384.81
342.07	390.81
342.298	378.81
342.526	378.81
342.754	375.81
342.981	367.81
343.209	381.81
343.437	374.81
343.665	375.81
343.893	410.81
344.12	386.81
344.348	368.81
344.576	386.81
344.804	400.81
345.031	392.81
345.259	413.81
345.487	400.81
345.714	391.81
345.942	394.81
346.17	381.81
346.397	375.81
346.625	363.81
346.853	382.81
347.08	386.81
347.308	385.81
347.535	393.81
347.763	408.81
347.99	412.81
348.218	385.81
348.445	395.81
348.673	411.81
348.9	380.81
349.128	368.81
349.355	370.81
349.583	372.81
349.81	372.81
350.037	382.81
350.265	362.81
350.492	366.81
350.72	372.81
350.947	367.81
351.174	374.81
351.402	403.81
351.629	375.81
351.856	399.81
352.083	395.81
352.311	391.81
352.538	409.81
352.765	400.81
352.992	386.81
353.22	375.81
353.447	372.81
353.674	361.81
353.901	354.81
354.128	345.81
354.355	357.81
354.583	362.81
354.81	354.81
355.037	332.81
355.264	340.81
355.491	334.81
355.718	347.81
355.945	348.81
356.172	346.81
356.399	344.81
356.626	331.81
356.853	331.81
357.08	331.81
357.307	332.81
357.534	334.81
357.761	333.81
357.988	341.81
358.215	331.81
358.441	348.81
358.668	346.81
358.895	342.81
359.122	333.81
359.349	340.81
359.576	368.81
359.802	386.81
360.029	428.81
360.256	406.81
360.483	402.81
360.709	348.81
360.936	368.81
361.163	386.81
361.39	369.81
361.616	384.81
361.843	368.81
362.07	380.81
362.296	384.81
362.523	375.81
362.749	380.81
362.976	362.81
363.203	356.81
363.429	343.81
363.656	349.81
363.882	363.81
364.109	364.81
364.335	339.81
364.562	357.81
364.788	367.81
365.015	351.81
365.241	353.81
365.468	363.81
365.694	361.81
365.92	372.81
366.147	350.81
366.373	357.81
366.599	339.81
366.826	363.81
367.052	354.81
367.278	346.81
367.505	346.81
367.731	347.81
367.957	324.81
368.184	332.81
368.41	347.81
368.636	359.81
368.862	357.81
369.089	349.81
369.315	347.81
369.541	341.81
369.767	340.81
369.993	334.81
370.219	351.81
370.445	357.81
370.672	344.81
370.898	337.81
371.124	336.81
371.35	331.81
371.576	352.81
371.802	336.81
372.028	356.81
372.254	323.81
372.48	340.81
372.706	347.81
372.932	335.81
373.158	326.81
373.384	322.81
373.61	334.81
373.835	346.81
374.061	348.81
374.287	331.81
374.513	346.81
374.739	344.81
374.965	348.81
375.191	361.81
375.416	342.81
375.642	327.81
375.868	334.81
376.094	353.81
376.319	317.81
376.545	335.81
376.771	330.81
376.997	335.81
377.222	341.81
377.448	342.81
377.674	328.81
377.899	332.81
378.125	311.81
378.35	314.81
378.576	310.81
378.802	329.81
379.027	331.81
379.253	343.81
379.478	334.81
379.704	315.81
379.929	342.81
380.155	347.81
380.38	330.81
380.606	329.81
380.831	328.81
381.057	332.81
381.282	326.81
381.507	330.81
381.733	336.81
381.958	310.81
382.184	320.81
382.409	340.81
382.634	339.81
382.86	337.81
383.085	338.81
383.31	341.81
383.535	332.81
383.761	330.81
383.986	332.81
384.211	315.81
384.436	355.81
384.662	355.81
384.887	332.81
385.112	338.81
385.337	346.81
385.562	344.81
385.787	345.81
386.013	351.81
386.238	354.81
386.463	348.81
386.688	348.81
386.913	357.81
387.138	371.81
387.363	350.81
387.588	341.81
387.813	350.81
388.038	350.81
388.263	362.81
388.488	369.81
388.713	362.81
388.938	356.81
389.163	375.81
389.387	355.81
389.612	336.81
389.837	359.81
390.062	333.81
390.287	341.81
390.512	346.81
390.736	344.81
390.961	351.81
391.186	323.81
391.411	340.81
391.636	349.81
391.86	352.81
392.085	356.81
392.31	320.81
392.534	356.81
392.759	360.81
392.984	359.81
393.208	334.81
393.433	333.81
393.658	343.81
393.882	349.81
394.107	337.81
394.331	360.81
394.556	362.81
394.78	342.81
395.005	363.81
395.229	356.81
395.454	354.81
395.678	361.81
395.903	340.81
396.127	354.81
396.352	378.81
396.576	358.81
396.801	354.81
397.025	364.81
397.249	363.81
397.474	371.81
397.698	378.81
397.922	366.81
398.147	384.81
398.371	378.81
398.595	385.81
398.82	386.81
399.044	376.81
399.268	411.81
399.492	420.81
399.717	417.81
399.941	433.81
400.165	456.81
400.389	477.81
400.613	443.81
400.837	420.81
401.062	398.81
401.286	410.81
401.51	402.81
401.734	388.81
401.958	392.81
402.182	393.81
402.406	399.81
402.63	380.81
402.854	374.81
403.078	394.81
403.302	398.81
403.526	413.81
403.75	408.81
403.974	413.81
404.198	414.81
404.422	388.81
404.645	392.81
404.869	412.81
405.093	441.81
405.317	452.81
405.541	490.81
405.765	439.81
405.988	416.81
406.212	438.81
406.436	457.81
406.66	445.81
406.883	439.81
407.107	443.81
407.331	456.81
407.555	522.81
407.778	540.81
408.002	484.81
408.226	449.81
408.449	445.81
408.673	430.81
408.896	472.81
409.12	498.81
409.344	466.81
409.567	426.81
409.791	398.81
410.014	394.81
410.238	406.81
410.461	418.81
410.685	414.81
410.908	405.81
411.132	454.81
411.355	483.81
411.578	454.81
411.802	393.81
412.025	400.81
412.249	416.81
412.472	413.81
412.695	439.81
412.919	442.81
413.142	403.81
413.365	404.81
413.589	392.81
413.812	393.81
414.035	399.81
414.258	380.81
414.482	385.81
414.705	375.81
414.928	378.81
415.151	360.81
415.374	359.81
415.597	367.81
415.821	376.81
416.044	376.81
416.267	386.81
416.49	384.81
416.713	375.81
416.936	383.81
417.159	382.81
417.382	379.81
417.605	393.81
417.828	383.81
418.051	391.81
418.274	388.81
418.497	382.81
418.72	381.81
418.943	379.81
419.166	374.81
419.389	390.81
419.611	393.81
419.834	396.81
420.057	410.81
420.28	388.81
420.503	403.81
420.726	399.81
420.948	414.81
421.171	430.81
421.394	461.81
421.617	412.81
421.839	380.81
422.062	386.81
422.285	421.81
422.507	444.81
422.73	528.81
422.953	514.81
423.175	450.81
423.398	413.81
423.621	434.81
423.843	419.81
424.066	426.81
424.288	423.81
424.511	436.81
424.733	497.81
424.956	571.81
425.178	550.81
425.401	542.81
425.623	545.81
425.846	476.81
426.068	444.81
426.291	438.81
426.513	452.81
426.735	443.81
426.958	498.81
427.18	512.81
427.402	658.81
427.625	694.81
427.847	640.81
428.069	547.81
428.292	472.81
428.514	440.81
428.736	437.81
428.958	441.81
429.181	391.81
429.403	394.81
429.625	408.81
429.847	440.81
430.069	494.81
430.292	483.81
430.514	420.81
430.736	404.81
430.958	393.81
431.18	372.81
431.402	381.81
431.624	378.81
431.846	364.81
432.068	357.81
432.29	370.81
432.512	390.81
432.734	408.81
432.956	388.81
433.178	399.81
433.4	406.81
433.622	388.81
433.844	390.81
434.066	382.81
434.287	390.81
434.509	397.81
434.731	379.81
434.953	379.81
435.175	400.81
435.397	403.81
435.618	419.81
435.84	483.81
436.062	536.81
436.284	621.81
436.505	514.81
436.727	472.81
436.949	414.81
437.17	416.81
437.392	417.81
437.614	424.81
437.835	437.81
438.057	526.81
438.278	610.81
438.5	608.81
438.721	652.81
438.943	630.81
439.165	512.81
439.386	467.81
439.608	452.81
439.829	446.81
440.05	477.81
440.272	509.81
440.493	477.81
440.715	450.81
440.936	440.81
441.158	406.81
441.379	411.81
441.6	404.81
441.822	443.81
442.043	472.81
442.264	536.81
442.486	556.81
442.707	492.81
442.928	464.81
443.149	478.81
443.371	461.81
443.592	509.81
443.813	575.81
444.034	605.81
444.255	523.81
444.476	467.81
444.698	438.81
444.919	446.81
445.14	524.81
445.361	489.81
445.582	486.81
445.803	530.81
446.024	599.81
446.245	632.81
446.466	556.81
446.687	493.81
446.908	455.81
447.129	431.81
447.35	391.81
447.571	395.81
447.792	425.81
448.013	404.81
448.234	441.81
448.455	491.81
448.675	564.81
448.896	647.81
449.117	572.81
449.338	532.81
449.559	602.81
449.779	691.81
450	560.81
450.221	457.81
450.442	410.81
450.662	426.81
450.883	411.81
451.104	412.81
451.324	408.81
451.545	377.81
451.766	376.81
451.986	367.81
452.207	361.81
452.428	356.81
452.648	353.81
452.869	370.81
453.089	397.81
453.31	386.81
453.53	370.81
453.751	357.81
453.971	360.81
454.192	383.81
454.412	394.81
454.633	365.81
454.853	351.81
455.073	375.81
455.294	379.81
455.514	450.81
455.734	416.81
455.955	382.81
456.175	352.81
456.395	349.81
456.616	354.81
456.836	346.81
457.056	336.81
457.276	340.81
457.497	340.81
457.717	329.81
457.937	354.81
458.157	347.81
458.377	361.81
458.598	386.81
458.818	438.81
459.038	495.81
459.258	489.81
459.478	427.81
459.698	373.81
459.918	377.81
460.138	360.81
460.358	363.81
460.578	368.81
460.798	368.81
461.018	379.81
461.238	376.81
461.458	396.81
461.678	385.81
461.898	363.81
462.118	374.81
462.338	382.81
462.558	379.81
462.777	382.81
462.997	398.81
463.217	389.81
463.437	389.81
463.657	388.81
463.876	402.81
464.096	380.81
464.316	414.81
464.536	417.81
464.755	391.81
464.975	412.81
465.195	438.81
465.414	509.81
465.634	442.81
465.854	413.81
466.073	406.81
466.293	375.81
466.512	379.81
466.732	375.81
466.951	365.81
467.171	362.81
467.391	356.81
467.61	375.81
467.829	390.81
468.049	374.81
468.268	364.81
468.488	356.81
468.707	352.81
468.927	364.81
469.146	343.81
469.365	356.81
469.585	346.81
469.804	364.81
470.023	382.81
470.243	364.81
470.462	378.81
470.681	393.81
470.901	377.81
471.12	377.81
471.339	364.81
471.558	364.81
471.777	391.81
471.997	380.81
472.216	380.81
472.435	405.81
472.654	378.81
472.873	358.81
473.092	372.81
473.311	359.81
473.53	375.81
473.749	378.81
473.968	446.81
474.187	519.81
474.406	546.81
474.625	440.81
474.844	399.81
475.063	394.81
475.282	388.81
475.501	386.81
475.72	389.81
475.939	382.81
476.158	373.81
476.377	378.81
476.596	386.81
476.814	396.81
477.033	397.81
477.252	394.81
477.471	396.81
477.69	400.81
477.908	404.81
478.127	391.81
478.346	385.81
478.564	394.81
478.783	401.81
479.002	410.81
479.22	419.81
479.439	426.81
479.658	431.81
479.876	427.81
480.095	462.81
480.313	483.81
480.532	442.81
480.751	440.81
480.969	470.81
481.188	457.81
481.406	522.81
481.624	472.81
481.843	445.81
482.061	454.81
482.28	450.81
482.498	437.81
482.717	416.81
482.935	443.81
483.153	439.81
483.372	430.81
483.59	440.81
483.808	415.81
484.027	432.81
484.245	435.81
484.463	434.81
484.681	430.81
484.9	441.81
485.118	461.81
485.336	451.81
485.554	436.81
485.772	450.81
485.99	433.81
486.209	454.81
486.427	466.81
486.645	470.81
486.863	468.81
487.081	482.81
487.299	478.81
487.517	459.81
487.735	437.81
487.953	475.81
488.171	472.81
488.389	467.81
488.607	471.81
488.825	470.81
489.043	442.81
489.261	470.81
489.479	469.81
489.696	476.81
489.914	502.81
490.132	489.81
490.35	480.81
490.568	508.81
490.786	491.81
491.003	473.81
491.221	513.81
491.439	489.81
491.657	533.81
491.874	530.81
492.092	517.81
492.31	546.81
492.527	539.81
492.745	542.81
492.963	514.81
493.18	544.81
493.398	537.81
493.615	520.81
493.833	534.81
494.05	534.81
494.268	543.81
494.485	534.81
494.703	544.81
494.92	532.81
495.138	545.81
495.355	554.81
495.573	572.81
495.79	542.81
496.008	541.81
496.225	556.81
496.442	534.81
496.66	564.81
496.877	536.81
497.094	550.81
497.312	559.81
497.529	566.81
497.746	548.81
497.963	567.81
498.181	604.81
498.398	584.81
498.615	588.81
498.832	601.81
499.049	609.81
499.267	614.81
499.484	631.81
499.701	638.81
499.918	654.81
500.135	643.81
500.352	672.81
500.569	706.81
500.786	710.81
501.003	637.81
501.22	673.81
501.437	668.81
501.654	691.81
501.871	664.81
502.088	636.81
