Data from 1981.PennyLincolnUp.Lamp.En5.5.200Scan.071819.P1_HRD10591_16-40-53-958.txt Node
Date: Thu Jul 18 16:40:53 EDT 2019
User: cochatt
Spectrometer: HR+D1059
Trigger mode: 1
Integration Time (sec): 1.000000E-1
Scans to average: 1
Electric dark correction enabled: true
Nonlinearity correction enabled: false
Boxcar width: 0
XAxis mode: Wavelengths
Number of Pixels in Spectrum: 2048
>>>>>Begin Spectral Data<<<<<
223.165	-10.44
223.4	-10.44
223.635	-10.44
223.869	-12.44
224.104	-11.44
224.338	-17.44
224.573	-13.44
224.808	-0.44
225.042	4.56
225.277	4.56
225.511	-10.44
225.746	2.56
225.98	-12.44
226.215	-7.44
226.449	8.56
226.683	22.56
226.918	24.56
227.152	28.56
227.387	37.56
227.621	30.56
227.856	43.56
228.09	30.56
228.324	38.56
228.559	57.56
228.793	50.56
229.027	82.56
229.262	93.56
229.496	117.56
229.73	120.56
229.964	126.56
230.199	126.56
230.433	94.56
230.667	98.56
230.901	86.56
231.136	100.56
231.37	105.56
231.604	110.56
231.838	101.56
232.072	104.56
232.306	115.56
232.541	111.56
232.775	116.56
233.009	114.56
233.243	105.56
233.477	100.56
233.711	93.56
233.945	98.56
234.179	103.56
234.413	94.56
234.647	118.56
234.881	100.56
235.115	94.56
235.349	106.56
235.583	110.56
235.817	115.56
236.051	106.56
236.285	112.56
236.519	101.56
236.753	120.56
236.987	136.56
237.221	181.56
237.455	212.56
237.689	161.56
237.922	134.56
238.156	115.56
238.39	133.56
238.624	128.56
238.858	117.56
239.091	123.56
239.325	101.56
239.559	100.56
239.793	128.56
240.027	119.56
240.26	140.56
240.494	166.56
240.728	132.56
240.961	138.56
241.195	139.56
241.429	130.56
241.662	129.56
241.896	132.56
242.13	126.56
242.363	122.56
242.597	120.56
242.83	118.56
243.064	138.56
243.298	132.56
243.531	113.56
243.765	128.56
243.998	130.56
244.232	150.56
244.465	148.56
244.699	147.56
244.932	131.56
245.166	130.56
245.399	126.56
245.633	138.56
245.866	147.56
246.099	141.56
246.333	127.56
246.566	138.56
246.8	144.56
247.033	141.56
247.266	150.56
247.5	146.56
247.733	156.56
247.966	163.56
248.2	147.56
248.433	162.56
248.666	174.56
248.899	183.56
249.133	195.56
249.366	181.56
249.599	188.56
249.832	156.56
250.066	179.56
250.299	178.56
250.532	196.56
250.765	205.56
250.998	191.56
251.231	205.56
251.465	201.56
251.698	185.56
251.931	191.56
252.164	188.56
252.397	187.56
252.63	201.56
252.863	187.56
253.096	202.56
253.329	206.56
253.562	223.56
253.795	207.56
254.028	206.56
254.261	224.56
254.494	214.56
254.727	240.56
254.96	248.56
255.193	264.56
255.426	221.56
255.659	231.56
255.892	224.56
256.124	211.56
256.357	231.56
256.59	207.56
256.823	207.56
257.056	203.56
257.289	210.56
257.521	199.56
257.754	214.56
257.987	201.56
258.22	196.56
258.452	202.56
258.685	202.56
258.918	186.56
259.151	195.56
259.383	202.56
259.616	211.56
259.849	217.56
260.081	230.56
260.314	243.56
260.547	227.56
260.779	217.56
261.012	230.56
261.244	204.56
261.477	218.56
261.71	231.56
261.942	209.56
262.175	227.56
262.407	218.56
262.64	226.56
262.872	198.56
263.105	199.56
263.337	196.56
263.57	218.56
263.802	211.56
264.035	206.56
264.267	206.56
264.499	209.56
264.732	206.56
264.964	223.56
265.197	186.56
265.429	183.56
265.661	204.56
265.894	212.56
266.126	189.56
266.358	216.56
266.591	206.56
266.823	220.56
267.055	201.56
267.287	217.56
267.52	216.56
267.752	214.56
267.984	220.56
268.216	215.56
268.448	238.56
268.681	232.56
268.913	248.56
269.145	256.56
269.377	260.56
269.609	279.56
269.841	264.56
270.073	245.56
270.306	275.56
270.538	298.56
270.77	300.56
271.002	294.56
271.234	276.56
271.466	280.56
271.698	313.56
271.93	312.56
272.162	293.56
272.394	288.56
272.626	286.56
272.858	274.56
273.09	297.56
273.322	261.56
273.553	258.56
273.785	275.56
274.017	252.56
274.249	265.56
274.481	257.56
274.713	248.56
274.945	254.56
275.176	261.56
275.408	253.56
275.64	254.56
275.872	249.56
276.104	258.56
276.335	249.56
276.567	252.56
276.799	264.56
277.031	270.56
277.262	293.56
277.494	297.56
277.726	290.56
277.957	276.56
278.189	260.56
278.421	268.56
278.652	280.56
278.884	266.56
279.115	268.56
279.347	246.56
279.579	266.56
279.81	263.56
280.042	253.56
280.273	256.56
280.505	250.56
280.736	245.56
280.968	231.56
281.199	257.56
281.431	248.56
281.662	259.56
281.894	260.56
282.125	245.56
282.356	269.56
282.588	272.56
282.819	294.56
283.051	264.56
283.282	261.56
283.513	253.56
283.745	274.56
283.976	260.56
284.207	254.56
284.439	255.56
284.67	256.56
284.901	258.56
285.132	261.56
285.364	273.56
285.595	254.56
285.826	247.56
286.057	252.56
286.288	271.56
286.52	262.56
286.751	256.56
286.982	259.56
287.213	271.56
287.444	266.56
287.675	274.56
287.906	266.56
288.138	279.56
288.369	278.56
288.6	284.56
288.831	276.56
289.062	245.56
289.293	272.56
289.524	281.56
289.755	266.56
289.986	264.56
290.217	264.56
290.448	277.56
290.679	266.56
290.91	260.56
291.141	263.56
291.371	276.56
291.602	264.56
291.833	283.56
292.064	256.56
292.295	269.56
292.526	281.56
292.757	272.56
292.987	272.56
293.218	275.56
293.449	272.56
293.68	270.56
293.91	288.56
294.141	257.56
294.372	258.56
294.603	262.56
294.833	269.56
295.064	266.56
295.295	265.56
295.525	271.56
295.756	272.56
295.987	281.56
296.217	295.56
296.448	281.56
296.679	297.56
296.909	267.56
297.14	281.56
297.37	280.56
297.601	274.56
297.831	280.56
298.062	293.56
298.292	276.56
298.523	290.56
298.753	280.56
298.984	287.56
299.214	290.56
299.445	280.56
299.675	289.56
299.905	303.56
300.136	294.56
300.366	276.56
300.597	304.56
300.827	271.56
301.057	287.56
301.288	324.56
301.518	293.56
301.748	300.56
301.979	300.56
302.209	294.56
302.439	297.56
302.669	302.56
302.9	303.56
303.13	292.56
303.36	301.56
303.59	330.56
303.82	317.56
304.051	293.56
304.281	294.56
304.511	297.56
304.741	321.56
304.971	297.56
305.201	290.56
305.431	309.56
305.661	313.56
305.891	296.56
306.121	305.56
306.352	321.56
306.582	329.56
306.812	290.56
307.042	322.56
307.272	323.56
307.502	305.56
307.731	310.56
307.961	327.56
308.191	313.56
308.421	307.56
308.651	326.56
308.881	301.56
309.111	311.56
309.341	344.56
309.571	307.56
309.8	338.56
310.03	340.56
310.26	344.56
310.49	354.56
310.72	348.56
310.949	352.56
311.179	359.56
311.409	361.56
311.639	327.56
311.868	348.56
312.098	325.56
312.328	370.56
312.557	364.56
312.787	378.56
313.017	391.56
313.246	353.56
313.476	353.56
313.706	356.56
313.935	371.56
314.165	374.56
314.394	368.56
314.624	370.56
314.853	357.56
315.083	341.56
315.312	365.56
315.542	338.56
315.771	344.56
316.001	358.56
316.23	328.56
316.46	349.56
316.689	346.56
316.919	359.56
317.148	339.56
317.377	382.56
317.607	346.56
317.836	356.56
318.065	355.56
318.295	347.56
318.524	337.56
318.753	350.56
318.983	346.56
319.212	340.56
319.441	369.56
319.67	367.56
319.9	372.56
320.129	366.56
320.358	334.56
320.587	367.56
320.816	385.56
321.046	397.56
321.275	351.56
321.504	372.56
321.733	376.56
321.962	361.56
322.191	392.56
322.42	406.56
322.649	435.56
322.878	424.56
323.108	439.56
323.337	470.56
323.566	477.56
323.795	527.56
324.024	566.56
324.253	666.56
324.482	991.56
324.71	1476.56
324.939	2037.56
325.168	1752.56
325.397	934.56
325.626	647.56
325.855	543.56
326.084	489.56
326.313	472.56
326.542	504.56
326.77	522.56
326.999	635.56
327.228	848.56
327.457	1330.56
327.686	1533.56
327.914	1035.56
328.143	694.56
328.372	603.56
328.6	543.56
328.829	521.56
329.058	535.56
329.287	574.56
329.515	524.56
329.744	481.56
329.972	483.56
330.201	486.56
330.43	523.56
330.658	546.56
330.887	570.56
331.115	550.56
331.344	492.56
331.572	466.56
331.801	469.56
332.03	446.56
332.258	426.56
332.486	424.56
332.715	408.56
332.943	400.56
333.172	410.56
333.4	408.56
333.629	391.56
333.857	431.56
334.085	411.56
334.314	432.56
334.542	447.56
334.771	433.56
334.999	436.56
335.227	422.56
335.455	409.56
335.684	404.56
335.912	394.56
336.14	382.56
336.369	392.56
336.597	402.56
336.825	416.56
337.053	407.56
337.281	381.56
337.51	397.56
337.738	410.56
337.966	417.56
338.194	405.56
338.422	402.56
338.65	393.56
338.878	392.56
339.106	364.56
339.334	396.56
339.562	380.56
339.79	365.56
340.018	362.56
340.246	389.56
340.474	398.56
340.702	387.56
340.93	382.56
341.158	392.56
341.386	372.56
341.614	394.56
341.842	381.56
342.07	396.56
342.298	386.56
342.526	359.56
342.754	378.56
342.981	361.56
343.209	370.56
343.437	382.56
343.665	370.56
343.893	378.56
344.12	386.56
344.348	386.56
344.576	392.56
344.804	401.56
345.031	404.56
345.259	377.56
345.487	370.56
345.714	388.56
345.942	369.56
346.17	366.56
346.397	390.56
346.625	384.56
346.853	380.56
347.08	371.56
347.308	380.56
347.535	382.56
347.763	385.56
347.99	386.56
348.218	381.56
348.445	397.56
348.673	380.56
348.9	362.56
349.128	357.56
349.355	362.56
349.583	365.56
349.81	369.56
350.037	347.56
350.265	370.56
350.492	368.56
350.72	376.56
350.947	364.56
351.174	377.56
351.402	398.56
351.629	391.56
351.856	383.56
352.083	388.56
352.311	395.56
352.538	368.56
352.765	380.56
352.992	393.56
353.22	378.56
353.447	371.56
353.674	372.56
353.901	338.56
354.128	358.56
354.355	328.56
354.583	365.56
354.81	360.56
355.037	342.56
355.264	341.56
355.491	327.56
355.718	360.56
355.945	338.56
356.172	330.56
356.399	334.56
356.626	342.56
356.853	336.56
357.08	324.56
357.307	339.56
357.534	337.56
357.761	337.56
357.988	347.56
358.215	349.56
358.441	356.56
358.668	345.56
358.895	333.56
359.122	340.56
359.349	374.56
359.576	373.56
359.802	384.56
360.029	379.56
360.256	402.56
360.483	409.56
360.709	365.56
360.936	371.56
361.163	368.56
361.39	354.56
361.616	380.56
361.843	384.56
362.07	374.56
362.296	349.56
362.523	373.56
362.749	376.56
362.976	346.56
363.203	352.56
363.429	350.56
363.656	336.56
363.882	337.56
364.109	365.56
364.335	358.56
364.562	351.56
364.788	348.56
365.015	342.56
365.241	337.56
365.468	360.56
365.694	346.56
365.92	352.56
366.147	354.56
366.373	332.56
366.599	341.56
366.826	335.56
367.052	353.56
367.278	331.56
367.505	348.56
367.731	351.56
367.957	342.56
368.184	360.56
368.41	349.56
368.636	355.56
368.862	364.56
369.089	355.56
369.315	354.56
369.541	322.56
369.767	342.56
369.993	340.56
370.219	337.56
370.445	331.56
370.672	325.56
370.898	336.56
371.124	344.56
371.35	341.56
371.576	338.56
371.802	327.56
372.028	347.56
372.254	328.56
372.48	319.56
372.706	312.56
372.932	334.56
373.158	329.56
373.384	334.56
373.61	337.56
373.835	333.56
374.061	331.56
374.287	345.56
374.513	338.56
374.739	335.56
374.965	341.56
375.191	331.56
375.416	335.56
375.642	317.56
375.868	337.56
376.094	331.56
376.319	319.56
376.545	322.56
376.771	333.56
376.997	307.56
377.222	328.56
377.448	340.56
377.674	335.56
377.899	317.56
378.125	330.56
378.35	331.56
378.576	329.56
378.802	334.56
379.027	316.56
379.253	323.56
379.478	319.56
379.704	334.56
379.929	308.56
380.155	346.56
380.38	338.56
380.606	318.56
380.831	327.56
381.057	322.56
381.282	333.56
381.507	338.56
381.733	317.56
381.958	325.56
382.184	328.56
382.409	344.56
382.634	327.56
382.86	318.56
383.085	313.56
383.31	325.56
383.535	329.56
383.761	329.56
383.986	322.56
384.211	340.56
384.436	352.56
384.662	325.56
384.887	345.56
385.112	342.56
385.337	352.56
385.562	336.56
385.787	333.56
386.013	341.56
386.238	362.56
386.463	365.56
386.688	345.56
386.913	338.56
387.138	328.56
387.363	332.56
387.588	355.56
387.813	336.56
388.038	345.56
388.263	348.56
388.488	326.56
388.713	338.56
388.938	342.56
389.163	352.56
389.387	347.56
389.612	340.56
389.837	348.56
390.062	349.56
390.287	358.56
390.512	337.56
390.736	335.56
390.961	335.56
391.186	338.56
391.411	356.56
391.636	350.56
391.86	344.56
392.085	351.56
392.31	360.56
392.534	354.56
392.759	366.56
392.984	344.56
393.208	351.56
393.433	345.56
393.658	344.56
393.882	340.56
394.107	342.56
394.331	357.56
394.556	336.56
394.78	333.56
395.005	364.56
395.229	344.56
395.454	338.56
395.678	352.56
395.903	365.56
396.127	380.56
396.352	382.56
396.576	372.56
396.801	367.56
397.025	357.56
397.249	354.56
397.474	361.56
397.698	346.56
397.922	367.56
398.147	397.56
398.371	386.56
398.595	377.56
398.82	384.56
399.044	377.56
399.268	394.56
399.492	408.56
399.717	409.56
399.941	449.56
400.165	473.56
400.389	479.56
400.613	425.56
400.837	404.56
401.062	392.56
401.286	392.56
401.51	371.56
401.734	390.56
401.958	396.56
402.182	387.56
402.406	396.56
402.63	387.56
402.854	392.56
403.078	389.56
403.302	369.56
403.526	400.56
403.75	382.56
403.974	404.56
404.198	392.56
404.422	387.56
404.645	383.56
404.869	408.56
405.093	416.56
405.317	437.56
405.541	473.56
405.765	453.56
405.988	428.56
406.212	440.56
406.436	437.56
406.66	468.56
406.883	457.56
407.107	456.56
407.331	494.56
407.555	528.56
407.778	513.56
408.002	493.56
408.226	469.56
408.449	425.56
408.673	456.56
408.896	446.56
409.12	484.56
409.344	464.56
409.567	436.56
409.791	416.56
410.014	400.56
410.238	383.56
410.461	398.56
410.685	418.56
410.908	408.56
411.132	437.56
411.355	473.56
411.578	436.56
411.802	380.56
412.025	400.56
412.249	401.56
412.472	417.56
412.695	444.56
412.919	426.56
413.142	395.56
413.365	374.56
413.589	385.56
413.812	362.56
414.035	395.56
414.258	357.56
414.482	361.56
414.705	397.56
414.928	372.56
415.151	376.56
415.374	377.56
415.597	368.56
415.821	367.56
416.044	376.56
416.267	370.56
416.49	367.56
416.713	356.56
416.936	376.56
417.159	364.56
417.382	375.56
417.605	386.56
417.828	386.56
418.051	391.56
418.274	383.56
418.497	374.56
418.72	387.56
418.943	364.56
419.166	398.56
419.389	404.56
419.611	392.56
419.834	389.56
420.057	385.56
420.28	398.56
420.503	378.56
420.726	389.56
420.948	404.56
421.171	424.56
421.394	456.56
421.617	422.56
421.839	407.56
422.062	393.56
422.285	396.56
422.507	468.56
422.73	527.56
422.953	502.56
423.175	444.56
423.398	415.56
423.621	422.56
423.843	409.56
424.066	421.56
424.288	421.56
424.511	424.56
424.733	483.56
424.956	541.56
425.178	540.56
425.401	504.56
425.623	522.56
425.846	464.56
426.068	446.56
426.291	418.56
426.513	410.56
426.735	420.56
426.958	476.56
427.18	558.56
427.402	670.56
427.625	720.56
427.847	629.56
428.069	532.56
428.292	493.56
428.514	419.56
428.736	418.56
428.958	414.56
429.181	393.56
429.403	406.56
429.625	423.56
429.847	444.56
430.069	494.56
430.292	500.56
430.514	431.56
430.736	416.56
430.958	392.56
431.18	388.56
431.402	381.56
431.624	364.56
431.846	364.56
432.068	373.56
432.29	371.56
432.512	366.56
432.734	366.56
432.956	378.56
433.178	389.56
433.4	378.56
433.622	396.56
433.844	368.56
434.066	358.56
434.287	370.56
434.509	382.56
434.731	402.56
434.953	401.56
435.175	399.56
435.397	441.56
435.618	435.56
435.84	461.56
436.062	526.56
436.284	609.56
436.505	497.56
436.727	442.56
436.949	425.56
437.17	418.56
437.392	408.56
437.614	411.56
437.835	439.56
438.057	515.56
438.278	626.56
438.5	608.56
438.721	649.56
438.943	648.56
439.165	526.56
439.386	445.56
439.608	440.56
439.829	447.56
440.05	503.56
440.272	514.56
440.493	451.56
440.715	423.56
440.936	442.56
441.158	430.56
441.379	407.56
441.6	413.56
441.822	434.56
442.043	455.56
442.264	524.56
442.486	566.56
442.707	478.56
442.928	438.56
443.149	444.56
443.371	472.56
443.592	499.56
443.813	571.56
444.034	622.56
444.255	502.56
444.476	446.56
444.698	432.56
444.919	437.56
445.14	537.56
445.361	471.56
445.582	456.56
445.803	522.56
446.024	615.56
446.245	617.56
446.466	566.56
446.687	491.56
446.908	468.56
447.129	446.56
447.35	390.56
447.571	407.56
447.792	404.56
448.013	406.56
448.234	428.56
448.455	463.56
448.675	556.56
448.896	621.56
449.117	562.56
449.338	528.56
449.559	626.56
449.779	688.56
450	556.56
450.221	434.56
450.442	435.56
450.662	398.56
450.883	406.56
451.104	417.56
451.324	412.56
451.545	380.56
451.766	382.56
451.986	389.56
452.207	372.56
452.428	363.56
452.648	359.56
452.869	350.56
453.089	369.56
453.31	372.56
453.53	374.56
453.751	384.56
453.971	361.56
454.192	370.56
454.412	393.56
454.633	336.56
454.853	351.56
455.073	345.56
455.294	392.56
455.514	443.56
455.734	404.56
455.955	347.56
456.175	368.56
456.395	340.56
456.616	340.56
456.836	344.56
457.056	334.56
457.276	340.56
457.497	344.56
457.717	325.56
457.937	342.56
458.157	320.56
458.377	340.56
458.598	380.56
458.818	415.56
459.038	508.56
459.258	507.56
459.478	421.56
459.698	387.56
459.918	370.56
460.138	378.56
460.358	377.56
460.578	354.56
460.798	376.56
461.018	369.56
461.238	373.56
461.458	376.56
461.678	354.56
461.898	364.56
462.118	371.56
462.338	353.56
462.558	341.56
462.777	371.56
462.997	371.56
463.217	375.56
463.437	403.56
463.657	380.56
463.876	397.56
464.096	376.56
464.316	384.56
464.536	394.56
464.755	401.56
464.975	368.56
465.195	429.56
465.414	516.56
465.634	441.56
465.854	390.56
466.073	378.56
466.293	379.56
466.512	369.56
466.732	373.56
466.951	359.56
467.171	343.56
467.391	373.56
467.61	370.56
467.829	380.56
468.049	372.56
468.268	372.56
468.488	374.56
468.707	356.56
468.927	349.56
469.146	351.56
469.365	343.56
469.585	346.56
469.804	353.56
470.023	365.56
470.243	368.56
470.462	386.56
470.681	398.56
470.901	369.56
471.12	369.56
471.339	348.56
471.558	362.56
471.777	356.56
471.997	360.56
472.216	364.56
472.435	376.56
472.654	371.56
472.873	382.56
473.092	369.56
473.311	353.56
473.53	370.56
473.749	394.56
473.968	402.56
474.187	527.56
474.406	544.56
474.625	431.56
474.844	396.56
475.063	380.56
475.282	374.56
475.501	365.56
475.72	388.56
475.939	386.56
476.158	378.56
476.377	360.56
476.596	358.56
476.814	378.56
477.033	393.56
477.252	374.56
477.471	394.56
477.69	394.56
477.908	384.56
478.127	394.56
478.346	384.56
478.564	394.56
478.783	428.56
479.002	417.56
479.22	418.56
479.439	451.56
479.658	437.56
479.876	436.56
480.095	456.56
480.313	467.56
480.532	446.56
480.751	437.56
480.969	454.56
481.188	481.56
481.406	489.56
481.624	457.56
481.843	441.56
482.061	439.56
482.28	429.56
482.498	430.56
482.717	424.56
482.935	429.56
483.153	439.56
483.372	440.56
483.59	435.56
483.808	435.56
484.027	424.56
484.245	426.56
484.463	437.56
484.681	442.56
484.9	429.56
485.118	435.56
485.336	453.56
485.554	438.56
485.772	432.56
485.99	442.56
486.209	447.56
486.427	466.56
486.645	468.56
486.863	478.56
487.081	468.56
487.299	453.56
487.517	450.56
487.735	453.56
487.953	459.56
488.171	469.56
488.389	464.56
488.607	465.56
488.825	452.56
489.043	458.56
489.261	441.56
489.479	469.56
489.696	499.56
489.914	474.56
490.132	489.56
490.35	479.56
490.568	482.56
490.786	482.56
491.003	488.56
491.221	515.56
491.439	483.56
491.657	518.56
491.874	529.56
492.092	528.56
492.31	519.56
492.527	536.56
492.745	537.56
492.963	523.56
493.18	540.56
493.398	528.56
493.615	556.56
493.833	532.56
494.05	534.56
494.268	534.56
494.485	541.56
494.703	546.56
494.92	545.56
495.138	531.56
495.355	534.56
495.573	551.56
495.79	546.56
496.008	561.56
496.225	538.56
496.442	520.56
496.66	556.56
496.877	519.56
497.094	568.56
497.312	560.56
497.529	578.56
497.746	576.56
497.963	569.56
498.181	569.56
498.398	586.56
498.615	608.56
498.832	614.56
499.049	623.56
499.267	614.56
499.484	627.56
499.701	644.56
499.918	650.56
500.135	638.56
500.352	655.56
500.569	702.56
500.786	692.56
501.003	697.56
501.22	692.56
501.437	689.56
501.654	647.56
501.871	664.56
502.088	628.56
