Data from 1981.PennyLincolnUp.Lamp.En5.5.200Scan.071819.P1_HRD10591_16-40-43-961.txt Node
Date: Thu Jul 18 16:40:43 EDT 2019
User: cochatt
Spectrometer: HR+D1059
Trigger mode: 1
Integration Time (sec): 1.000000E-1
Scans to average: 1
Electric dark correction enabled: true
Nonlinearity correction enabled: false
Boxcar width: 0
XAxis mode: Wavelengths
Number of Pixels in Spectrum: 2048
>>>>>Begin Spectral Data<<<<<
223.165	-6.31
223.4	-6.31
223.635	-6.31
223.869	-14.31
224.104	-8.31
224.338	-2.31
224.573	-13.31
224.808	-5.31
225.042	-6.31
225.277	-10.31
225.511	-5.31
225.746	-0.31
225.98	-4.31
226.215	10.69
226.449	13.69
226.683	29.69
226.918	9.69
227.152	12.69
227.387	38.69
227.621	40.69
227.856	45.69
228.09	55.69
228.324	45.69
228.559	40.69
228.793	62.69
229.027	101.69
229.262	99.69
229.496	92.69
229.73	124.69
229.964	138.69
230.199	109.69
230.433	90.69
230.667	121.69
230.901	113.69
231.136	106.69
231.37	117.69
231.604	97.69
231.838	109.69
232.072	115.69
232.306	96.69
232.541	94.69
232.775	115.69
233.009	106.69
233.243	116.69
233.477	100.69
233.711	116.69
233.945	119.69
234.179	129.69
234.413	112.69
234.647	99.69
234.881	100.69
235.115	112.69
235.349	99.69
235.583	107.69
235.817	132.69
236.051	105.69
236.285	124.69
236.519	118.69
236.753	130.69
236.987	147.69
237.221	162.69
237.455	214.69
237.689	167.69
237.922	122.69
238.156	126.69
238.39	130.69
238.624	125.69
238.858	110.69
239.091	102.69
239.325	118.69
239.559	128.69
239.793	120.69
240.027	119.69
240.26	137.69
240.494	135.69
240.728	147.69
240.961	130.69
241.195	136.69
241.429	141.69
241.662	133.69
241.896	138.69
242.13	124.69
242.363	121.69
242.597	113.69
242.83	124.69
243.064	136.69
243.298	136.69
243.531	130.69
243.765	125.69
243.998	141.69
244.232	131.69
244.465	133.69
244.699	127.69
244.932	141.69
245.166	132.69
245.399	132.69
245.633	125.69
245.866	145.69
246.099	132.69
246.333	160.69
246.566	146.69
246.8	154.69
247.033	141.69
247.266	138.69
247.5	149.69
247.733	158.69
247.966	166.69
248.2	161.69
248.433	169.69
248.666	155.69
248.899	174.69
249.133	194.69
249.366	199.69
249.599	184.69
249.832	184.69
250.066	171.69
250.299	156.69
250.532	172.69
250.765	199.69
250.998	218.69
251.231	221.69
251.465	207.69
251.698	198.69
251.931	195.69
252.164	201.69
252.397	212.69
252.63	197.69
252.863	185.69
253.096	209.69
253.329	212.69
253.562	218.69
253.795	204.69
254.028	205.69
254.261	212.69
254.494	228.69
254.727	231.69
254.96	262.69
255.193	257.69
255.426	236.69
255.659	231.69
255.892	226.69
256.124	229.69
256.357	223.69
256.59	212.69
256.823	210.69
257.056	206.69
257.289	216.69
257.521	210.69
257.754	202.69
257.987	205.69
258.22	197.69
258.452	205.69
258.685	205.69
258.918	192.69
259.151	193.69
259.383	208.69
259.616	221.69
259.849	221.69
260.081	225.69
260.314	238.69
260.547	257.69
260.779	240.69
261.012	244.69
261.244	244.69
261.477	217.69
261.71	221.69
261.942	214.69
262.175	235.69
262.407	219.69
262.64	223.69
262.872	203.69
263.105	204.69
263.337	188.69
263.57	194.69
263.802	205.69
264.035	200.69
264.267	198.69
264.499	211.69
264.732	206.69
264.964	206.69
265.197	206.69
265.429	202.69
265.661	200.69
265.894	206.69
266.126	213.69
266.358	213.69
266.591	226.69
266.823	211.69
267.055	198.69
267.287	205.69
267.52	223.69
267.752	213.69
267.984	204.69
268.216	219.69
268.448	214.69
268.681	220.69
268.913	248.69
269.145	243.69
269.377	265.69
269.609	246.69
269.841	240.69
270.073	252.69
270.306	283.69
270.538	311.69
270.77	308.69
271.002	275.69
271.234	279.69
271.466	282.69
271.698	309.69
271.93	297.69
272.162	289.69
272.394	291.69
272.626	286.69
272.858	266.69
273.09	253.69
273.322	269.69
273.553	248.69
273.785	249.69
274.017	245.69
274.249	270.69
274.481	270.69
274.713	238.69
274.945	254.69
275.176	253.69
275.408	252.69
275.64	238.69
275.872	250.69
276.104	258.69
276.335	245.69
276.567	269.69
276.799	270.69
277.031	270.69
277.262	299.69
277.494	294.69
277.726	270.69
277.957	273.69
278.189	273.69
278.421	263.69
278.652	269.69
278.884	266.69
279.115	244.69
279.347	262.69
279.579	258.69
279.81	245.69
280.042	240.69
280.273	247.69
280.505	258.69
280.736	254.69
280.968	253.69
281.199	259.69
281.431	250.69
281.662	254.69
281.894	254.69
282.125	270.69
282.356	265.69
282.588	282.69
282.819	265.69
283.051	263.69
283.282	234.69
283.513	237.69
283.745	234.69
283.976	244.69
284.207	264.69
284.439	270.69
284.67	251.69
284.901	271.69
285.132	279.69
285.364	248.69
285.595	255.69
285.826	256.69
286.057	251.69
286.288	242.69
286.52	261.69
286.751	258.69
286.982	259.69
287.213	285.69
287.444	246.69
287.675	260.69
287.906	273.69
288.138	266.69
288.369	273.69
288.6	276.69
288.831	267.69
289.062	270.69
289.293	265.69
289.524	280.69
289.755	280.69
289.986	233.69
290.217	266.69
290.448	274.69
290.679	270.69
290.91	269.69
291.141	267.69
291.371	276.69
291.602	264.69
291.833	271.69
292.064	244.69
292.295	264.69
292.526	293.69
292.757	265.69
292.987	258.69
293.218	270.69
293.449	287.69
293.68	260.69
293.91	272.69
294.141	270.69
294.372	268.69
294.603	272.69
294.833	263.69
295.064	270.69
295.295	264.69
295.525	281.69
295.756	267.69
295.987	263.69
296.217	296.69
296.448	296.69
296.679	281.69
296.909	287.69
297.14	282.69
297.37	281.69
297.601	266.69
297.831	284.69
298.062	292.69
298.292	285.69
298.523	266.69
298.753	260.69
298.984	274.69
299.214	272.69
299.445	293.69
299.675	300.69
299.905	293.69
300.136	263.69
300.366	293.69
300.597	281.69
300.827	283.69
301.057	297.69
301.288	294.69
301.518	294.69
301.748	291.69
301.979	275.69
302.209	316.69
302.439	297.69
302.669	297.69
302.9	290.69
303.13	278.69
303.36	302.69
303.59	298.69
303.82	294.69
304.051	307.69
304.281	314.69
304.511	303.69
304.741	304.69
304.971	321.69
305.201	279.69
305.431	289.69
305.661	303.69
305.891	294.69
306.121	309.69
306.352	306.69
306.582	298.69
306.812	311.69
307.042	302.69
307.272	282.69
307.502	287.69
307.731	312.69
307.961	306.69
308.191	313.69
308.421	308.69
308.651	307.69
308.881	297.69
309.111	314.69
309.341	316.69
309.571	328.69
309.8	347.69
310.03	330.69
310.26	348.69
310.49	357.69
310.72	351.69
310.949	354.69
311.179	368.69
311.409	348.69
311.639	344.69
311.868	361.69
312.098	345.69
312.328	353.69
312.557	347.69
312.787	378.69
313.017	361.69
313.246	369.69
313.476	344.69
313.706	366.69
313.935	354.69
314.165	368.69
314.394	372.69
314.624	363.69
314.853	376.69
315.083	357.69
315.312	354.69
315.542	345.69
315.771	332.69
316.001	335.69
316.23	369.69
316.46	338.69
316.689	331.69
316.919	359.69
317.148	341.69
317.377	357.69
317.607	360.69
317.836	360.69
318.065	341.69
318.295	341.69
318.524	346.69
318.753	333.69
318.983	344.69
319.212	367.69
319.441	367.69
319.67	363.69
319.9	355.69
320.129	355.69
320.358	369.69
320.587	372.69
320.816	360.69
321.046	359.69
321.275	361.69
321.504	370.69
321.733	366.69
321.962	372.69
322.191	386.69
322.42	402.69
322.649	423.69
322.878	424.69
323.108	414.69
323.337	437.69
323.566	475.69
323.795	470.69
324.024	544.69
324.253	674.69
324.482	918.69
324.71	1424.69
324.939	1972.69
325.168	1657.69
325.397	902.69
325.626	610.69
325.855	535.69
326.084	499.69
326.313	473.69
326.542	487.69
326.77	516.69
326.999	613.69
327.228	850.69
327.457	1244.69
327.686	1472.69
327.914	991.69
328.143	664.69
328.372	567.69
328.6	520.69
328.829	528.69
329.058	536.69
329.287	528.69
329.515	505.69
329.744	458.69
329.972	463.69
330.201	473.69
330.43	468.69
330.658	509.69
330.887	554.69
331.115	524.69
331.344	464.69
331.572	448.69
331.801	443.69
332.03	444.69
332.258	409.69
332.486	403.69
332.715	398.69
332.943	393.69
333.172	404.69
333.4	404.69
333.629	427.69
333.857	412.69
334.085	410.69
334.314	418.69
334.542	432.69
334.771	447.69
334.999	440.69
335.227	414.69
335.455	396.69
335.684	408.69
335.912	422.69
336.14	404.69
336.369	374.69
336.597	393.69
336.825	393.69
337.053	392.69
337.281	370.69
337.51	386.69
337.738	389.69
337.966	373.69
338.194	380.69
338.422	386.69
338.65	393.69
338.878	390.69
339.106	403.69
339.334	395.69
339.562	372.69
339.79	376.69
340.018	372.69
340.246	377.69
340.474	374.69
340.702	378.69
340.93	384.69
341.158	381.69
341.386	382.69
341.614	391.69
341.842	388.69
342.07	365.69
342.298	382.69
342.526	356.69
342.754	388.69
342.981	377.69
343.209	372.69
343.437	375.69
343.665	375.69
343.893	385.69
344.12	379.69
344.348	400.69
344.576	362.69
344.804	398.69
345.031	402.69
345.259	400.69
345.487	386.69
345.714	384.69
345.942	375.69
346.17	373.69
346.397	359.69
346.625	378.69
346.853	373.69
347.08	375.69
347.308	381.69
347.535	398.69
347.763	379.69
347.99	377.69
348.218	387.69
348.445	391.69
348.673	356.69
348.9	382.69
349.128	378.69
349.355	362.69
349.583	353.69
349.81	357.69
350.037	343.69
350.265	356.69
350.492	357.69
350.72	349.69
350.947	360.69
351.174	361.69
351.402	386.69
351.629	374.69
351.856	361.69
352.083	382.69
352.311	368.69
352.538	386.69
352.765	393.69
352.992	382.69
353.22	366.69
353.447	362.69
353.674	363.69
353.901	345.69
354.128	351.69
354.355	335.69
354.583	329.69
354.81	339.69
355.037	341.69
355.264	353.69
355.491	335.69
355.718	336.69
355.945	320.69
356.172	353.69
356.399	360.69
356.626	331.69
356.853	347.69
357.08	333.69
357.307	348.69
357.534	330.69
357.761	334.69
357.988	337.69
358.215	325.69
358.441	334.69
358.668	351.69
358.895	348.69
359.122	340.69
359.349	349.69
359.576	375.69
359.802	378.69
360.029	392.69
360.256	399.69
360.483	381.69
360.709	353.69
360.936	359.69
361.163	358.69
361.39	361.69
361.616	361.69
361.843	370.69
362.07	365.69
362.296	338.69
362.523	372.69
362.749	348.69
362.976	348.69
363.203	372.69
363.429	328.69
363.656	356.69
363.882	329.69
364.109	339.69
364.335	339.69
364.562	346.69
364.788	347.69
365.015	338.69
365.241	341.69
365.468	338.69
365.694	341.69
365.92	358.69
366.147	359.69
366.373	331.69
366.599	349.69
366.826	328.69
367.052	318.69
367.278	351.69
367.505	342.69
367.731	351.69
367.957	347.69
368.184	335.69
368.41	355.69
368.636	329.69
368.862	364.69
369.089	364.69
369.315	336.69
369.541	341.69
369.767	335.69
369.993	340.69
370.219	348.69
370.445	357.69
370.672	338.69
370.898	321.69
371.124	323.69
371.35	325.69
371.576	345.69
371.802	350.69
372.028	344.69
372.254	320.69
372.48	345.69
372.706	338.69
372.932	344.69
373.158	324.69
373.384	329.69
373.61	343.69
373.835	334.69
374.061	327.69
374.287	357.69
374.513	332.69
374.739	347.69
374.965	347.69
375.191	342.69
375.416	340.69
375.642	352.69
375.868	335.69
376.094	342.69
376.319	321.69
376.545	322.69
376.771	347.69
376.997	320.69
377.222	346.69
377.448	343.69
377.674	357.69
377.899	323.69
378.125	337.69
378.35	314.69
378.576	332.69
378.802	336.69
379.027	341.69
379.253	339.69
379.478	337.69
379.704	326.69
379.929	344.69
380.155	341.69
380.38	344.69
380.606	322.69
380.831	346.69
381.057	331.69
381.282	334.69
381.507	337.69
381.733	344.69
381.958	339.69
382.184	323.69
382.409	310.69
382.634	325.69
382.86	336.69
383.085	329.69
383.31	336.69
383.535	328.69
383.761	340.69
383.986	351.69
384.211	321.69
384.436	344.69
384.662	340.69
384.887	339.69
385.112	342.69
385.337	330.69
385.562	347.69
385.787	341.69
386.013	365.69
386.238	347.69
386.463	373.69
386.688	364.69
386.913	345.69
387.138	336.69
387.363	342.69
387.588	365.69
387.813	368.69
388.038	368.69
388.263	343.69
388.488	338.69
388.713	354.69
388.938	349.69
389.163	345.69
389.387	346.69
389.612	331.69
389.837	346.69
390.062	347.69
390.287	370.69
390.512	336.69
390.736	342.69
390.961	343.69
391.186	343.69
391.411	339.69
391.636	348.69
391.86	356.69
392.085	346.69
392.31	343.69
392.534	352.69
392.759	347.69
392.984	332.69
393.208	350.69
393.433	340.69
393.658	345.69
393.882	338.69
394.107	335.69
394.331	353.69
394.556	350.69
394.78	334.69
395.005	343.69
395.229	333.69
395.454	330.69
395.678	348.69
395.903	352.69
396.127	393.69
396.352	386.69
396.576	369.69
396.801	361.69
397.025	354.69
397.249	357.69
397.474	357.69
397.698	373.69
397.922	356.69
398.147	394.69
398.371	379.69
398.595	390.69
398.82	380.69
399.044	386.69
399.268	387.69
399.492	408.69
399.717	409.69
399.941	439.69
400.165	472.69
400.389	484.69
400.613	427.69
400.837	399.69
401.062	384.69
401.286	385.69
401.51	375.69
401.734	397.69
401.958	384.69
402.182	391.69
402.406	393.69
402.63	394.69
402.854	400.69
403.078	384.69
403.302	388.69
403.526	393.69
403.75	386.69
403.974	389.69
404.198	386.69
404.422	405.69
404.645	380.69
404.869	393.69
405.093	442.69
405.317	451.69
405.541	486.69
405.765	435.69
405.988	418.69
406.212	420.69
406.436	466.69
406.66	440.69
406.883	409.69
407.107	458.69
407.331	454.69
407.555	527.69
407.778	527.69
408.002	492.69
408.226	448.69
408.449	428.69
408.673	429.69
408.896	461.69
409.12	493.69
409.344	443.69
409.567	422.69
409.791	392.69
410.014	396.69
410.238	395.69
410.461	399.69
410.685	402.69
410.908	413.69
411.132	448.69
411.355	434.69
411.578	450.69
411.802	423.69
412.025	392.69
412.249	399.69
412.472	444.69
412.695	443.69
412.919	433.69
413.142	385.69
413.365	392.69
413.589	389.69
413.812	387.69
414.035	373.69
414.258	377.69
414.482	362.69
414.705	371.69
414.928	386.69
415.151	372.69
415.374	385.69
415.597	353.69
415.821	365.69
416.044	367.69
416.267	386.69
416.49	358.69
416.713	358.69
416.936	389.69
417.159	380.69
417.382	390.69
417.605	382.69
417.828	377.69
418.051	378.69
418.274	375.69
418.497	373.69
418.72	359.69
418.943	371.69
419.166	374.69
419.389	410.69
419.611	390.69
419.834	397.69
420.057	394.69
420.28	371.69
420.503	381.69
420.726	394.69
420.948	397.69
421.171	424.69
421.394	444.69
421.617	426.69
421.839	392.69
422.062	393.69
422.285	394.69
422.507	448.69
422.73	480.69
422.953	497.69
423.175	414.69
423.398	412.69
423.621	406.69
423.843	432.69
424.066	406.69
424.288	429.69
424.511	445.69
424.733	458.69
424.956	547.69
425.178	507.69
425.401	523.69
425.623	523.69
425.846	469.69
426.068	413.69
426.291	426.69
426.513	434.69
426.735	446.69
426.958	478.69
427.18	526.69
427.402	642.69
427.625	714.69
427.847	627.69
428.069	533.69
428.292	496.69
428.514	437.69
428.736	397.69
428.958	423.69
429.181	407.69
429.403	403.69
429.625	402.69
429.847	427.69
430.069	461.69
430.292	467.69
430.514	418.69
430.736	396.69
430.958	406.69
431.18	371.69
431.402	374.69
431.624	357.69
431.846	374.69
432.068	376.69
432.29	381.69
432.512	379.69
432.734	388.69
432.956	394.69
433.178	393.69
433.4	379.69
433.622	377.69
433.844	380.69
434.066	354.69
434.287	355.69
434.509	374.69
434.731	378.69
434.953	382.69
435.175	405.69
435.397	406.69
435.618	424.69
435.84	482.69
436.062	545.69
436.284	588.69
436.505	496.69
436.727	449.69
436.949	405.69
437.17	412.69
437.392	390.69
437.614	422.69
437.835	462.69
438.057	521.69
438.278	605.69
438.5	602.69
438.721	624.69
438.943	610.69
439.165	488.69
439.386	450.69
439.608	437.69
439.829	442.69
440.05	446.69
440.272	495.69
440.493	482.69
440.715	427.69
440.936	409.69
441.158	406.69
441.379	399.69
441.6	413.69
441.822	433.69
442.043	464.69
442.264	520.69
442.486	548.69
442.707	460.69
442.928	441.69
443.149	468.69
443.371	444.69
443.592	482.69
443.813	566.69
444.034	600.69
444.255	503.69
444.476	449.69
444.698	445.69
444.919	424.69
445.14	500.69
445.361	477.69
445.582	459.69
445.803	525.69
446.024	584.69
446.245	610.69
446.466	546.69
446.687	460.69
446.908	428.69
447.129	418.69
447.35	412.69
447.571	396.69
447.792	378.69
448.013	402.69
448.234	430.69
448.455	461.69
448.675	556.69
448.896	630.69
449.117	545.69
449.338	530.69
449.559	608.69
449.779	656.69
450	542.69
450.221	458.69
450.442	412.69
450.662	396.69
450.883	397.69
451.104	406.69
451.324	409.69
451.545	372.69
451.766	368.69
451.986	378.69
452.207	367.69
452.428	380.69
452.648	333.69
452.869	365.69
453.089	365.69
453.31	358.69
453.53	351.69
453.751	362.69
453.971	365.69
454.192	379.69
454.412	388.69
454.633	370.69
454.853	360.69
455.073	363.69
455.294	374.69
455.514	410.69
455.734	416.69
455.955	350.69
456.175	356.69
456.395	358.69
456.616	354.69
456.836	330.69
457.056	322.69
457.276	339.69
457.497	338.69
457.717	337.69
457.937	336.69
458.157	345.69
458.377	348.69
458.598	388.69
458.818	410.69
459.038	502.69
459.258	467.69
459.478	409.69
459.698	384.69
459.918	360.69
460.138	359.69
460.358	358.69
460.578	385.69
460.798	372.69
461.018	351.69
461.238	374.69
461.458	349.69
461.678	343.69
461.898	352.69
462.118	371.69
462.338	368.69
462.558	372.69
462.777	369.69
462.997	391.69
463.217	392.69
463.437	390.69
463.657	382.69
463.876	377.69
464.096	382.69
464.316	374.69
464.536	394.69
464.755	386.69
464.975	394.69
465.195	427.69
465.414	477.69
465.634	423.69
465.854	389.69
466.073	378.69
466.293	354.69
466.512	347.69
466.732	352.69
466.951	366.69
467.171	356.69
467.391	354.69
467.61	368.69
467.829	359.69
468.049	360.69
468.268	371.69
468.488	368.69
468.707	337.69
468.927	357.69
469.146	359.69
469.365	340.69
469.585	352.69
469.804	344.69
470.023	373.69
470.243	362.69
470.462	368.69
470.681	393.69
470.901	372.69
471.12	362.69
471.339	386.69
471.558	363.69
471.777	356.69
471.997	352.69
472.216	371.69
472.435	403.69
472.654	381.69
472.873	354.69
473.092	367.69
473.311	392.69
473.53	369.69
473.749	374.69
473.968	413.69
474.187	486.69
474.406	516.69
474.625	446.69
474.844	379.69
475.063	370.69
475.282	374.69
475.501	378.69
475.72	375.69
475.939	377.69
476.158	378.69
476.377	372.69
476.596	360.69
476.814	364.69
477.033	382.69
477.252	372.69
477.471	385.69
477.69	388.69
477.908	394.69
478.127	395.69
478.346	380.69
478.564	398.69
478.783	393.69
479.002	389.69
479.22	401.69
479.439	436.69
479.658	430.69
479.876	434.69
480.095	434.69
480.313	473.69
480.532	440.69
480.751	447.69
480.969	477.69
481.188	462.69
481.406	477.69
481.624	448.69
481.843	433.69
482.061	424.69
482.28	444.69
482.498	421.69
482.717	436.69
482.935	449.69
483.153	440.69
483.372	421.69
483.59	427.69
483.808	433.69
484.027	446.69
484.245	441.69
484.463	453.69
484.681	429.69
484.9	436.69
485.118	458.69
485.336	434.69
485.554	450.69
485.772	433.69
485.99	423.69
486.209	442.69
486.427	457.69
486.645	458.69
486.863	474.69
487.081	459.69
487.299	462.69
487.517	457.69
487.735	442.69
487.953	444.69
488.171	464.69
488.389	464.69
488.607	446.69
488.825	453.69
489.043	452.69
489.261	462.69
489.479	454.69
489.696	465.69
489.914	474.69
490.132	481.69
490.35	464.69
490.568	479.69
490.786	485.69
491.003	504.69
491.221	500.69
491.439	511.69
491.657	502.69
491.874	524.69
492.092	516.69
492.31	520.69
492.527	525.69
492.745	519.69
492.963	531.69
493.18	543.69
493.398	533.69
493.615	542.69
493.833	525.69
494.05	534.69
494.268	535.69
494.485	536.69
494.703	555.69
494.92	547.69
495.138	533.69
495.355	528.69
495.573	551.69
495.79	561.69
496.008	538.69
496.225	549.69
496.442	548.69
496.66	549.69
496.877	519.69
497.094	575.69
497.312	534.69
497.529	568.69
497.746	556.69
497.963	570.69
498.181	582.69
498.398	572.69
498.615	582.69
498.832	626.69
499.049	593.69
499.267	601.69
499.484	621.69
499.701	635.69
499.918	632.69
500.135	688.69
500.352	685.69
500.569	687.69
500.786	699.69
501.003	684.69
501.22	680.69
501.437	644.69
501.654	653.69
501.871	663.69
502.088	627.69
