Data from 1981.PennyLincolnUp.Lamp.En5.5.200Scan.071819.P1_HRD10591_16-41-20-959.txt Node
Date: Thu Jul 18 16:41:20 EDT 2019
User: cochatt
Spectrometer: HR+D1059
Trigger mode: 1
Integration Time (sec): 1.000000E-1
Scans to average: 1
Electric dark correction enabled: true
Nonlinearity correction enabled: false
Boxcar width: 0
XAxis mode: Wavelengths
Number of Pixels in Spectrum: 2048
>>>>>Begin Spectral Data<<<<<
223.165	-10.19
223.4	-10.19
223.635	-10.19
223.869	-13.19
224.104	-23.19
224.338	-20.19
224.573	-21.19
224.808	-25.19
225.042	-12.19
225.277	4.81
225.511	3.81
225.746	-5.19
225.98	0.81
226.215	18.81
226.449	14.81
226.683	28.81
226.918	25.81
227.152	32.81
227.387	34.81
227.621	39.81
227.856	40.81
228.09	50.81
228.324	41.81
228.559	44.81
228.793	60.81
229.027	92.81
229.262	105.81
229.496	123.81
229.73	129.81
229.964	147.81
230.199	129.81
230.433	106.81
230.667	109.81
230.901	112.81
231.136	99.81
231.37	99.81
231.604	109.81
231.838	104.81
232.072	112.81
232.306	96.81
232.541	81.81
232.775	117.81
233.009	106.81
233.243	115.81
233.477	113.81
233.711	100.81
233.945	134.81
234.179	116.81
234.413	107.81
234.647	120.81
234.881	124.81
235.115	113.81
235.349	110.81
235.583	113.81
235.817	128.81
236.051	109.81
236.285	128.81
236.519	122.81
236.753	131.81
236.987	145.81
237.221	188.81
237.455	225.81
237.689	193.81
237.922	133.81
238.156	121.81
238.39	126.81
238.624	128.81
238.858	114.81
239.091	118.81
239.325	122.81
239.559	129.81
239.793	136.81
240.027	138.81
240.26	136.81
240.494	158.81
240.728	163.81
240.961	142.81
241.195	139.81
241.429	139.81
241.662	134.81
241.896	142.81
242.13	124.81
242.363	137.81
242.597	127.81
242.83	143.81
243.064	126.81
243.298	117.81
243.531	143.81
243.765	144.81
243.998	136.81
244.232	132.81
244.465	142.81
244.699	149.81
244.932	128.81
245.166	151.81
245.399	142.81
245.633	161.81
245.866	146.81
246.099	146.81
246.333	158.81
246.566	170.81
246.8	167.81
247.033	172.81
247.266	151.81
247.5	155.81
247.733	158.81
247.966	157.81
248.2	174.81
248.433	184.81
248.666	182.81
248.899	193.81
249.133	188.81
249.366	222.81
249.599	188.81
249.832	189.81
250.066	193.81
250.299	188.81
250.532	182.81
250.765	209.81
250.998	216.81
251.231	224.81
251.465	202.81
251.698	206.81
251.931	207.81
252.164	200.81
252.397	196.81
252.63	209.81
252.863	200.81
253.096	226.81
253.329	242.81
253.562	218.81
253.795	209.81
254.028	218.81
254.261	221.81
254.494	249.81
254.727	270.81
254.96	293.81
255.193	268.81
255.426	258.81
255.659	242.81
255.892	219.81
256.124	246.81
256.357	236.81
256.59	219.81
256.823	214.81
257.056	232.81
257.289	211.81
257.521	220.81
257.754	206.81
257.987	203.81
258.22	212.81
258.452	208.81
258.685	213.81
258.918	211.81
259.151	212.81
259.383	222.81
259.616	222.81
259.849	219.81
260.081	228.81
260.314	266.81
260.547	253.81
260.779	258.81
261.012	251.81
261.244	237.81
261.477	242.81
261.71	240.81
261.942	242.81
262.175	253.81
262.407	233.81
262.64	216.81
262.872	225.81
263.105	225.81
263.337	221.81
263.57	220.81
263.802	212.81
264.035	217.81
264.267	226.81
264.499	210.81
264.732	209.81
264.964	205.81
265.197	209.81
265.429	228.81
265.661	218.81
265.894	218.81
266.126	214.81
266.358	216.81
266.591	223.81
266.823	221.81
267.055	220.81
267.287	220.81
267.52	244.81
267.752	232.81
267.984	236.81
268.216	224.81
268.448	228.81
268.681	235.81
268.913	244.81
269.145	250.81
269.377	258.81
269.609	257.81
269.841	264.81
270.073	293.81
270.306	293.81
270.538	320.81
270.77	319.81
271.002	314.81
271.234	308.81
271.466	297.81
271.698	319.81
271.93	319.81
272.162	333.81
272.394	322.81
272.626	332.81
272.858	302.81
273.09	286.81
273.322	283.81
273.553	281.81
273.785	282.81
274.017	267.81
274.249	270.81
274.481	267.81
274.713	266.81
274.945	305.81
275.176	269.81
275.408	269.81
275.64	269.81
275.872	268.81
276.104	284.81
276.335	260.81
276.567	268.81
276.799	298.81
277.031	301.81
277.262	320.81
277.494	333.81
277.726	284.81
277.957	292.81
278.189	288.81
278.421	291.81
278.652	276.81
278.884	263.81
279.115	248.81
279.347	281.81
279.579	264.81
279.81	264.81
280.042	273.81
280.273	267.81
280.505	264.81
280.736	269.81
280.968	261.81
281.199	272.81
281.431	276.81
281.662	270.81
281.894	276.81
282.125	268.81
282.356	279.81
282.588	309.81
282.819	332.81
283.051	284.81
283.282	261.81
283.513	268.81
283.745	262.81
283.976	281.81
284.207	290.81
284.439	260.81
284.67	295.81
284.901	281.81
285.132	269.81
285.364	269.81
285.595	285.81
285.826	251.81
286.057	276.81
286.288	262.81
286.52	294.81
286.751	273.81
286.982	283.81
287.213	270.81
287.444	297.81
287.675	282.81
287.906	300.81
288.138	304.81
288.369	290.81
288.6	309.81
288.831	284.81
289.062	285.81
289.293	305.81
289.524	285.81
289.755	282.81
289.986	271.81
290.217	262.81
290.448	267.81
290.679	289.81
290.91	287.81
291.141	270.81
291.371	278.81
291.602	288.81
291.833	278.81
292.064	298.81
292.295	297.81
292.526	277.81
292.757	275.81
292.987	273.81
293.218	281.81
293.449	301.81
293.68	268.81
293.91	279.81
294.141	280.81
294.372	264.81
294.603	267.81
294.833	301.81
295.064	285.81
295.295	309.81
295.525	295.81
295.756	304.81
295.987	285.81
296.217	320.81
296.448	328.81
296.679	309.81
296.909	289.81
297.14	288.81
297.37	277.81
297.601	296.81
297.831	297.81
298.062	270.81
298.292	296.81
298.523	305.81
298.753	306.81
298.984	299.81
299.214	306.81
299.445	304.81
299.675	295.81
299.905	317.81
300.136	294.81
300.366	302.81
300.597	299.81
300.827	313.81
301.057	306.81
301.288	332.81
301.518	321.81
301.748	309.81
301.979	326.81
302.209	329.81
302.439	325.81
302.669	318.81
302.9	316.81
303.13	307.81
303.36	304.81
303.59	330.81
303.82	330.81
304.051	328.81
304.281	306.81
304.511	328.81
304.741	326.81
304.971	317.81
305.201	339.81
305.431	313.81
305.661	304.81
305.891	335.81
306.121	329.81
306.352	325.81
306.582	331.81
306.812	321.81
307.042	323.81
307.272	331.81
307.502	337.81
307.731	317.81
307.961	330.81
308.191	335.81
308.421	324.81
308.651	341.81
308.881	338.81
309.111	336.81
309.341	354.81
309.571	346.81
309.8	341.81
310.03	359.81
310.26	380.81
310.49	370.81
310.72	374.81
310.949	388.81
311.179	376.81
311.409	369.81
311.639	376.81
311.868	377.81
312.098	393.81
312.328	379.81
312.557	392.81
312.787	402.81
313.017	412.81
313.246	404.81
313.476	359.81
313.706	384.81
313.935	386.81
314.165	375.81
314.394	401.81
314.624	386.81
314.853	390.81
315.083	375.81
315.312	370.81
315.542	360.81
315.771	376.81
316.001	358.81
316.23	362.81
316.46	371.81
316.689	378.81
316.919	357.81
317.148	388.81
317.377	388.81
317.607	382.81
317.836	372.81
318.065	371.81
318.295	387.81
318.524	377.81
318.753	351.81
318.983	382.81
319.212	380.81
319.441	388.81
319.67	398.81
319.9	389.81
320.129	384.81
320.358	358.81
320.587	371.81
320.816	402.81
321.046	406.81
321.275	403.81
321.504	393.81
321.733	408.81
321.962	400.81
322.191	410.81
322.42	439.81
322.649	437.81
322.878	452.81
323.108	474.81
323.337	480.81
323.566	510.81
323.795	558.81
324.024	624.81
324.253	764.81
324.482	1116.81
324.71	1640.81
324.939	2236.81
325.168	1923.81
325.397	1050.81
325.626	692.81
325.855	592.81
326.084	550.81
326.313	516.81
326.542	532.81
326.77	555.81
326.999	695.81
327.228	950.81
327.457	1408.81
327.686	1698.81
327.914	1132.81
328.143	739.81
328.372	667.81
328.6	628.81
328.829	584.81
329.058	598.81
329.287	613.81
329.515	535.81
329.744	531.81
329.972	505.81
330.201	541.81
330.43	572.81
330.658	599.81
330.887	624.81
331.115	611.81
331.344	518.81
331.572	488.81
331.801	489.81
332.03	466.81
332.258	461.81
332.486	457.81
332.715	441.81
332.943	459.81
333.172	437.81
333.4	425.81
333.629	435.81
333.857	443.81
334.085	469.81
334.314	480.81
334.542	464.81
334.771	490.81
334.999	479.81
335.227	468.81
335.455	432.81
335.684	419.81
335.912	416.81
336.14	407.81
336.369	444.81
336.597	441.81
336.825	428.81
337.053	418.81
337.281	425.81
337.51	444.81
337.738	416.81
337.966	418.81
338.194	430.81
338.422	422.81
338.65	391.81
338.878	421.81
339.106	436.81
339.334	404.81
339.562	403.81
339.79	409.81
340.018	405.81
340.246	393.81
340.474	405.81
340.702	404.81
340.93	404.81
341.158	409.81
341.386	412.81
341.614	412.81
341.842	433.81
342.07	408.81
342.298	379.81
342.526	398.81
342.754	398.81
342.981	389.81
343.209	388.81
343.437	406.81
343.665	406.81
343.893	416.81
344.12	409.81
344.348	413.81
344.576	414.81
344.804	420.81
345.031	455.81
345.259	416.81
345.487	438.81
345.714	413.81
345.942	414.81
346.17	394.81
346.397	382.81
346.625	400.81
346.853	403.81
347.08	400.81
347.308	406.81
347.535	396.81
347.763	420.81
347.99	396.81
348.218	410.81
348.445	401.81
348.673	409.81
348.9	396.81
349.128	387.81
349.355	379.81
349.583	387.81
349.81	387.81
350.037	392.81
350.265	391.81
350.492	358.81
350.72	397.81
350.947	412.81
351.174	389.81
351.402	427.81
351.629	399.81
351.856	428.81
352.083	421.81
352.311	404.81
352.538	407.81
352.765	411.81
352.992	384.81
353.22	396.81
353.447	380.81
353.674	379.81
353.901	372.81
354.128	372.81
354.355	374.81
354.583	363.81
354.81	356.81
355.037	371.81
355.264	356.81
355.491	362.81
355.718	356.81
355.945	361.81
356.172	354.81
356.399	370.81
356.626	356.81
356.853	336.81
357.08	356.81
357.307	339.81
357.534	350.81
357.761	349.81
357.988	346.81
358.215	354.81
358.441	356.81
358.668	376.81
358.895	376.81
359.122	389.81
359.349	370.81
359.576	389.81
359.802	407.81
360.029	432.81
360.256	445.81
360.483	432.81
360.709	393.81
360.936	396.81
361.163	388.81
361.39	366.81
361.616	404.81
361.843	378.81
362.07	376.81
362.296	377.81
362.523	379.81
362.749	392.81
362.976	388.81
363.203	381.81
363.429	378.81
363.656	371.81
363.882	380.81
364.109	381.81
364.335	349.81
364.562	358.81
364.788	369.81
365.015	372.81
365.241	378.81
365.468	380.81
365.694	382.81
365.92	361.81
366.147	368.81
366.373	373.81
366.599	353.81
366.826	350.81
367.052	348.81
367.278	372.81
367.505	368.81
367.731	342.81
367.957	379.81
368.184	374.81
368.41	374.81
368.636	368.81
368.862	365.81
369.089	372.81
369.315	344.81
369.541	377.81
369.767	346.81
369.993	374.81
370.219	370.81
370.445	365.81
370.672	361.81
370.898	381.81
371.124	343.81
371.35	349.81
371.576	364.81
371.802	347.81
372.028	347.81
372.254	338.81
372.48	347.81
372.706	359.81
372.932	343.81
373.158	365.81
373.384	372.81
373.61	368.81
373.835	356.81
374.061	357.81
374.287	342.81
374.513	369.81
374.739	355.81
374.965	375.81
375.191	347.81
375.416	332.81
375.642	341.81
375.868	363.81
376.094	350.81
376.319	355.81
376.545	356.81
376.771	368.81
376.997	344.81
377.222	347.81
377.448	361.81
377.674	337.81
377.899	349.81
378.125	325.81
378.35	335.81
378.576	345.81
378.802	332.81
379.027	354.81
379.253	344.81
379.478	348.81
379.704	368.81
379.929	345.81
380.155	352.81
380.38	336.81
380.606	369.81
380.831	355.81
381.057	361.81
381.282	352.81
381.507	325.81
381.733	352.81
381.958	349.81
382.184	358.81
382.409	349.81
382.634	338.81
382.86	352.81
383.085	337.81
383.31	340.81
383.535	359.81
383.761	354.81
383.986	329.81
384.211	344.81
384.436	356.81
384.662	375.81
384.887	362.81
385.112	371.81
385.337	356.81
385.562	369.81
385.787	340.81
386.013	368.81
386.238	376.81
386.463	369.81
386.688	373.81
386.913	373.81
387.138	370.81
387.363	357.81
387.588	349.81
387.813	372.81
388.038	390.81
388.263	370.81
388.488	373.81
388.713	369.81
388.938	354.81
389.163	361.81
389.387	368.81
389.612	352.81
389.837	361.81
390.062	371.81
390.287	372.81
390.512	367.81
390.736	374.81
390.961	364.81
391.186	352.81
391.411	349.81
391.636	364.81
391.86	390.81
392.085	369.81
392.31	358.81
392.534	372.81
392.759	361.81
392.984	346.81
393.208	355.81
393.433	369.81
393.658	363.81
393.882	370.81
394.107	380.81
394.331	355.81
394.556	368.81
394.78	349.81
395.005	354.81
395.229	364.81
395.454	373.81
395.678	394.81
395.903	384.81
396.127	392.81
396.352	395.81
396.576	376.81
396.801	369.81
397.025	374.81
397.249	351.81
397.474	361.81
397.698	373.81
397.922	392.81
398.147	404.81
398.371	396.81
398.595	397.81
398.82	408.81
399.044	384.81
399.268	409.81
399.492	432.81
399.717	427.81
399.941	462.81
400.165	467.81
400.389	502.81
400.613	451.81
400.837	412.81
401.062	394.81
401.286	407.81
401.51	381.81
401.734	418.81
401.958	422.81
402.182	411.81
402.406	423.81
402.63	419.81
402.854	418.81
403.078	409.81
403.302	389.81
403.526	426.81
403.75	412.81
403.974	433.81
404.198	404.81
404.422	409.81
404.645	418.81
404.869	422.81
405.093	433.81
405.317	478.81
405.541	527.81
405.765	452.81
405.988	422.81
406.212	453.81
406.436	468.81
406.66	481.81
406.883	453.81
407.107	461.81
407.331	507.81
407.555	552.81
407.778	555.81
408.002	502.81
408.226	459.81
408.449	448.81
408.673	461.81
408.896	515.81
409.12	517.81
409.344	486.81
409.567	434.81
409.791	437.81
410.014	432.81
410.238	417.81
410.461	421.81
410.685	435.81
410.908	452.81
411.132	462.81
411.355	487.81
411.578	465.81
411.802	439.81
412.025	409.81
412.249	434.81
412.472	440.81
412.695	482.81
412.919	462.81
413.142	427.81
413.365	423.81
413.589	391.81
413.812	403.81
414.035	382.81
414.258	373.81
414.482	390.81
414.705	387.81
414.928	377.81
415.151	385.81
415.374	405.81
415.597	389.81
415.821	399.81
416.044	392.81
416.267	405.81
416.49	391.81
416.713	402.81
416.936	417.81
417.159	389.81
417.382	389.81
417.605	402.81
417.828	404.81
418.051	410.81
418.274	422.81
418.497	381.81
418.72	377.81
418.943	379.81
419.166	390.81
419.389	416.81
419.611	401.81
419.834	420.81
420.057	422.81
420.28	423.81
420.503	425.81
420.726	425.81
420.948	411.81
421.171	470.81
421.394	498.81
421.617	421.81
421.839	425.81
422.062	421.81
422.285	441.81
422.507	477.81
422.73	566.81
422.953	518.81
423.175	466.81
423.398	423.81
423.621	447.81
423.843	462.81
424.066	452.81
424.288	446.81
424.511	473.81
424.733	526.81
424.956	582.81
425.178	562.81
425.401	564.81
425.623	578.81
425.846	499.81
426.068	455.81
426.291	457.81
426.513	458.81
426.735	464.81
426.958	515.81
427.18	576.81
427.402	664.81
427.625	731.81
427.847	681.81
428.069	578.81
428.292	522.81
428.514	443.81
428.736	434.81
428.958	436.81
429.181	428.81
429.403	419.81
429.625	438.81
429.847	474.81
430.069	518.81
430.292	523.81
430.514	429.81
430.736	425.81
430.958	429.81
431.18	392.81
431.402	397.81
431.624	414.81
431.846	402.81
432.068	396.81
432.29	394.81
432.512	413.81
432.734	384.81
432.956	394.81
433.178	399.81
433.4	413.81
433.622	418.81
433.844	399.81
434.066	388.81
434.287	392.81
434.509	399.81
434.731	392.81
434.953	400.81
435.175	413.81
435.397	452.81
435.618	434.81
435.84	506.81
436.062	573.81
436.284	636.81
436.505	534.81
436.727	458.81
436.949	444.81
437.17	446.81
437.392	404.81
437.614	434.81
437.835	477.81
438.057	544.81
438.278	634.81
438.5	659.81
438.721	714.81
438.943	640.81
439.165	521.81
439.386	514.81
439.608	483.81
439.829	476.81
440.05	488.81
440.272	530.81
440.493	518.81
440.715	469.81
440.936	465.81
441.158	439.81
441.379	440.81
441.6	447.81
441.822	460.81
442.043	499.81
442.264	587.81
442.486	587.81
442.707	497.81
442.928	458.81
443.149	467.81
443.371	505.81
443.592	540.81
443.813	607.81
444.034	649.81
444.255	544.81
444.476	469.81
444.698	460.81
444.919	430.81
445.14	565.81
445.361	509.81
445.582	491.81
445.803	553.81
446.024	640.81
446.245	665.81
446.466	588.81
446.687	490.81
446.908	470.81
447.129	429.81
447.35	438.81
447.571	433.81
447.792	431.81
448.013	428.81
448.234	442.81
448.455	510.81
448.675	613.81
448.896	678.81
449.117	577.81
449.338	555.81
449.559	655.81
449.779	721.81
450	584.81
450.221	496.81
450.442	430.81
450.662	420.81
450.883	442.81
451.104	451.81
451.324	434.81
451.545	413.81
451.766	408.81
451.986	398.81
452.207	390.81
452.428	368.81
452.648	379.81
452.869	392.81
453.089	396.81
453.31	392.81
453.53	395.81
453.751	367.81
453.971	386.81
454.192	402.81
454.412	400.81
454.633	390.81
454.853	382.81
455.073	395.81
455.294	400.81
455.514	444.81
455.734	442.81
455.955	411.81
456.175	353.81
456.395	340.81
456.616	356.81
456.836	376.81
457.056	371.81
457.276	346.81
457.497	355.81
457.717	352.81
457.937	357.81
458.157	352.81
458.377	352.81
458.598	393.81
458.818	450.81
459.038	532.81
459.258	538.81
459.478	435.81
459.698	401.81
459.918	384.81
460.138	381.81
460.358	374.81
460.578	406.81
460.798	401.81
461.018	390.81
461.238	381.81
461.458	394.81
461.678	371.81
461.898	378.81
462.118	382.81
462.338	399.81
462.558	402.81
462.777	396.81
462.997	433.81
463.217	431.81
463.437	412.81
463.657	404.81
463.876	395.81
464.096	414.81
464.316	405.81
464.536	413.81
464.755	420.81
464.975	399.81
465.195	471.81
465.414	545.81
465.634	466.81
465.854	424.81
466.073	400.81
466.293	403.81
466.512	393.81
466.732	391.81
466.951	363.81
467.171	376.81
467.391	363.81
467.61	394.81
467.829	404.81
468.049	392.81
468.268	392.81
468.488	373.81
468.707	355.81
468.927	374.81
469.146	358.81
469.365	374.81
469.585	370.81
469.804	378.81
470.023	380.81
470.243	416.81
470.462	395.81
470.681	388.81
470.901	410.81
471.12	391.81
471.339	407.81
471.558	390.81
471.777	365.81
471.997	378.81
472.216	388.81
472.435	398.81
472.654	389.81
472.873	376.81
473.092	410.81
473.311	379.81
473.53	394.81
473.749	412.81
473.968	442.81
474.187	539.81
474.406	542.81
474.625	456.81
474.844	406.81
475.063	391.81
475.282	390.81
475.501	386.81
475.72	396.81
475.939	394.81
476.158	400.81
476.377	402.81
476.596	405.81
476.814	413.81
477.033	404.81
477.252	400.81
477.471	388.81
477.69	394.81
477.908	406.81
478.127	424.81
478.346	386.81
478.564	422.81
478.783	426.81
479.002	449.81
479.22	427.81
479.439	433.81
479.658	454.81
479.876	451.81
480.095	465.81
480.313	485.81
480.532	487.81
480.751	470.81
480.969	470.81
481.188	520.81
481.406	544.81
481.624	480.81
481.843	462.81
482.061	458.81
482.28	466.81
482.498	437.81
482.717	475.81
482.935	439.81
483.153	458.81
483.372	433.81
483.59	463.81
483.808	458.81
484.027	436.81
484.245	439.81
484.463	444.81
484.681	457.81
484.9	462.81
485.118	452.81
485.336	488.81
485.554	490.81
485.772	459.81
485.99	467.81
486.209	496.81
486.427	455.81
486.645	497.81
486.863	500.81
487.081	483.81
487.299	486.81
487.517	470.81
487.735	478.81
487.953	490.81
488.171	473.81
488.389	477.81
488.607	496.81
488.825	498.81
489.043	497.81
489.261	492.81
489.479	493.81
489.696	480.81
489.914	503.81
490.132	490.81
490.35	494.81
490.568	491.81
490.786	537.81
491.003	545.81
491.221	520.81
491.439	555.81
491.657	560.81
491.874	562.81
492.092	553.81
492.31	552.81
492.527	552.81
492.745	539.81
492.963	550.81
493.18	547.81
493.398	579.81
493.615	566.81
493.833	578.81
494.05	562.81
494.268	570.81
494.485	550.81
494.703	569.81
494.92	580.81
495.138	573.81
495.355	599.81
495.573	578.81
495.79	578.81
496.008	581.81
496.225	564.81
496.442	569.81
496.66	568.81
496.877	564.81
497.094	575.81
497.312	581.81
497.529	579.81
497.746	591.81
497.963	614.81
498.181	618.81
498.398	625.81
498.615	644.81
498.832	650.81
499.049	632.81
499.267	635.81
499.484	638.81
499.701	674.81
499.918	705.81
500.135	676.81
500.352	706.81
500.569	749.81
500.786	720.81
501.003	732.81
501.22	710.81
501.437	682.81
501.654	693.81
501.871	723.81
