Data from 1981.PennyLincolnUp.Lamp.En5.5.200Scan.071819.P1_HRD10591_16-42-38-959.txt Node
Date: Thu Jul 18 16:42:38 EDT 2019
User: cochatt
Spectrometer: HR+D1059
Trigger mode: 1
Integration Time (sec): 1.000000E-1
Scans to average: 1
Electric dark correction enabled: true
Nonlinearity correction enabled: false
Boxcar width: 0
XAxis mode: Wavelengths
Number of Pixels in Spectrum: 2048
>>>>>Begin Spectral Data<<<<<
223.165	-26.75
223.4	-26.75
223.635	-26.75
223.869	-13.75
224.104	-15.75
224.338	-5.75
224.573	-7.75
224.808	-23.75
225.042	-1.75
225.277	5.25
225.511	-11.75
225.746	8.25
225.98	3.25
226.215	3.25
226.449	16.25
226.683	26.25
226.918	16.25
227.152	28.25
227.387	52.25
227.621	42.25
227.856	54.25
228.09	41.25
228.324	54.25
228.559	54.25
228.793	68.25
229.027	107.25
229.262	124.25
229.496	104.25
229.73	143.25
229.964	172.25
230.199	134.25
230.433	126.25
230.667	107.25
230.901	113.25
231.136	108.25
231.37	121.25
231.604	113.25
231.838	127.25
232.072	112.25
232.306	114.25
232.541	104.25
232.775	105.25
233.009	125.25
233.243	122.25
233.477	115.25
233.711	113.25
233.945	125.25
234.179	102.25
234.413	128.25
234.647	120.25
234.881	128.25
235.115	128.25
235.349	123.25
235.583	117.25
235.817	132.25
236.051	129.25
236.285	118.25
236.519	140.25
236.753	134.25
236.987	151.25
237.221	199.25
237.455	241.25
237.689	200.25
237.922	140.25
238.156	150.25
238.39	128.25
238.624	130.25
238.858	134.25
239.091	128.25
239.325	120.25
239.559	112.25
239.793	130.25
240.027	136.25
240.26	150.25
240.494	157.25
240.728	165.25
240.961	150.25
241.195	142.25
241.429	142.25
241.662	145.25
241.896	132.25
242.13	132.25
242.363	131.25
242.597	129.25
242.83	152.25
243.064	138.25
243.298	152.25
243.531	150.25
243.765	144.25
243.998	155.25
244.232	142.25
244.465	165.25
244.699	158.25
244.932	149.25
245.166	136.25
245.399	138.25
245.633	152.25
245.866	145.25
246.099	161.25
246.333	158.25
246.566	167.25
246.8	153.25
247.033	169.25
247.266	164.25
247.5	152.25
247.733	157.25
247.966	171.25
248.2	175.25
248.433	191.25
248.666	193.25
248.899	197.25
249.133	223.25
249.366	212.25
249.599	228.25
249.832	190.25
250.066	190.25
250.299	213.25
250.532	198.25
250.765	212.25
250.998	222.25
251.231	250.25
251.465	231.25
251.698	237.25
251.931	224.25
252.164	216.25
252.397	187.25
252.63	222.25
252.863	222.25
253.096	225.25
253.329	253.25
253.562	218.25
253.795	240.25
254.028	244.25
254.261	241.25
254.494	242.25
254.727	282.25
254.96	310.25
255.193	295.25
255.426	268.25
255.659	248.25
255.892	259.25
256.124	252.25
256.357	269.25
256.59	261.25
256.823	248.25
257.056	232.25
257.289	229.25
257.521	230.25
257.754	226.25
257.987	224.25
258.22	238.25
258.452	213.25
258.685	229.25
258.918	221.25
259.151	230.25
259.383	244.25
259.616	232.25
259.849	235.25
260.081	250.25
260.314	286.25
260.547	278.25
260.779	262.25
261.012	247.25
261.244	264.25
261.477	246.25
261.71	257.25
261.942	264.25
262.175	259.25
262.407	233.25
262.64	241.25
262.872	218.25
263.105	228.25
263.337	222.25
263.57	224.25
263.802	210.25
264.035	224.25
264.267	232.25
264.499	224.25
264.732	240.25
264.964	231.25
265.197	230.25
265.429	224.25
265.661	223.25
265.894	210.25
266.126	210.25
266.358	215.25
266.591	237.25
266.823	229.25
267.055	234.25
267.287	230.25
267.52	246.25
267.752	233.25
267.984	230.25
268.216	253.25
268.448	249.25
268.681	250.25
268.913	262.25
269.145	268.25
269.377	298.25
269.609	286.25
269.841	296.25
270.073	309.25
270.306	321.25
270.538	350.25
270.77	344.25
271.002	327.25
271.234	307.25
271.466	320.25
271.698	329.25
271.93	341.25
272.162	342.25
272.394	345.25
272.626	326.25
272.858	319.25
273.09	308.25
273.322	303.25
273.553	271.25
273.785	288.25
274.017	295.25
274.249	278.25
274.481	278.25
274.713	290.25
274.945	296.25
275.176	294.25
275.408	288.25
275.64	282.25
275.872	273.25
276.104	292.25
276.335	272.25
276.567	300.25
276.799	318.25
277.031	313.25
277.262	323.25
277.494	338.25
277.726	327.25
277.957	301.25
278.189	310.25
278.421	295.25
278.652	277.25
278.884	307.25
279.115	298.25
279.347	286.25
279.579	286.25
279.81	275.25
280.042	286.25
280.273	278.25
280.505	281.25
280.736	263.25
280.968	295.25
281.199	292.25
281.431	286.25
281.662	292.25
281.894	292.25
282.125	290.25
282.356	298.25
282.588	324.25
282.819	316.25
283.051	278.25
283.282	270.25
283.513	294.25
283.745	277.25
283.976	292.25
284.207	280.25
284.439	293.25
284.67	290.25
284.901	295.25
285.132	284.25
285.364	294.25
285.595	275.25
285.826	269.25
286.057	284.25
286.288	298.25
286.52	288.25
286.751	292.25
286.982	304.25
287.213	296.25
287.444	308.25
287.675	293.25
287.906	315.25
288.138	324.25
288.369	312.25
288.6	313.25
288.831	302.25
289.062	312.25
289.293	295.25
289.524	294.25
289.755	309.25
289.986	303.25
290.217	288.25
290.448	292.25
290.679	288.25
290.91	295.25
291.141	299.25
291.371	301.25
291.602	309.25
291.833	299.25
292.064	305.25
292.295	302.25
292.526	296.25
292.757	304.25
292.987	301.25
293.218	299.25
293.449	290.25
293.68	298.25
293.91	294.25
294.141	300.25
294.372	294.25
294.603	299.25
294.833	300.25
295.064	288.25
295.295	295.25
295.525	291.25
295.756	302.25
295.987	327.25
296.217	341.25
296.448	350.25
296.679	325.25
296.909	307.25
297.14	304.25
297.37	286.25
297.601	321.25
297.831	297.25
298.062	316.25
298.292	319.25
298.523	313.25
298.753	321.25
298.984	324.25
299.214	302.25
299.445	302.25
299.675	322.25
299.905	319.25
300.136	302.25
300.366	310.25
300.597	321.25
300.827	329.25
301.057	323.25
301.288	345.25
301.518	350.25
301.748	340.25
301.979	336.25
302.209	343.25
302.439	312.25
302.669	341.25
302.9	335.25
303.13	324.25
303.36	335.25
303.59	336.25
303.82	356.25
304.051	360.25
304.281	328.25
304.511	332.25
304.741	341.25
304.971	317.25
305.201	325.25
305.431	326.25
305.661	336.25
305.891	331.25
306.121	332.25
306.352	350.25
306.582	341.25
306.812	336.25
307.042	352.25
307.272	322.25
307.502	362.25
307.731	364.25
307.961	332.25
308.191	342.25
308.421	353.25
308.651	358.25
308.881	342.25
309.111	358.25
309.341	367.25
309.571	375.25
309.8	373.25
310.03	405.25
310.26	406.25
310.49	392.25
310.72	399.25
310.949	401.25
311.179	421.25
311.409	402.25
311.639	393.25
311.868	393.25
312.098	382.25
312.328	406.25
312.557	430.25
312.787	444.25
313.017	417.25
313.246	416.25
313.476	374.25
313.706	409.25
313.935	409.25
314.165	396.25
314.394	412.25
314.624	436.25
314.853	410.25
315.083	406.25
315.312	388.25
315.542	371.25
315.771	372.25
316.001	405.25
316.23	405.25
316.46	395.25
316.689	390.25
316.919	409.25
317.148	411.25
317.377	410.25
317.607	405.25
317.836	382.25
318.065	374.25
318.295	385.25
318.524	397.25
318.753	405.25
318.983	397.25
319.212	383.25
319.441	407.25
319.67	414.25
319.9	399.25
320.129	400.25
320.358	398.25
320.587	419.25
320.816	425.25
321.046	435.25
321.275	415.25
321.504	422.25
321.733	422.25
321.962	440.25
322.191	451.25
322.42	443.25
322.649	481.25
322.878	493.25
323.108	511.25
323.337	528.25
323.566	565.25
323.795	612.25
324.024	670.25
324.253	829.25
324.482	1232.25
324.71	1853.25
324.939	2578.25
325.168	2153.25
325.397	1175.25
325.626	745.25
325.855	625.25
326.084	565.25
326.313	562.25
326.542	574.25
326.77	634.25
326.999	764.25
327.228	1068.25
327.457	1576.25
327.686	1826.25
327.914	1273.25
328.143	836.25
328.372	714.25
328.6	670.25
328.829	631.25
329.058	664.25
329.287	661.25
329.515	632.25
329.744	548.25
329.972	556.25
330.201	597.25
330.43	625.25
330.658	662.25
330.887	696.25
331.115	632.25
331.344	568.25
331.572	520.25
331.801	523.25
332.03	524.25
332.258	489.25
332.486	476.25
332.715	458.25
332.943	455.25
333.172	471.25
333.4	478.25
333.629	487.25
333.857	484.25
334.085	487.25
334.314	504.25
334.542	540.25
334.771	541.25
334.999	483.25
335.227	470.25
335.455	478.25
335.684	447.25
335.912	460.25
336.14	464.25
336.369	447.25
336.597	467.25
336.825	473.25
337.053	463.25
337.281	425.25
337.51	412.25
337.738	451.25
337.966	436.25
338.194	446.25
338.422	453.25
338.65	416.25
338.878	410.25
339.106	411.25
339.334	413.25
339.562	441.25
339.79	444.25
340.018	423.25
340.246	420.25
340.474	425.25
340.702	431.25
340.93	429.25
341.158	425.25
341.386	437.25
341.614	418.25
341.842	435.25
342.07	421.25
342.298	417.25
342.526	415.25
342.754	425.25
342.981	411.25
343.209	415.25
343.437	410.25
343.665	414.25
343.893	445.25
344.12	428.25
344.348	423.25
344.576	416.25
344.804	441.25
345.031	430.25
345.259	457.25
345.487	414.25
345.714	436.25
345.942	414.25
346.17	412.25
346.397	426.25
346.625	424.25
346.853	397.25
347.08	393.25
347.308	431.25
347.535	436.25
347.763	434.25
347.99	409.25
348.218	433.25
348.445	449.25
348.673	435.25
348.9	401.25
349.128	422.25
349.355	392.25
349.583	400.25
349.81	385.25
350.037	394.25
350.265	377.25
350.492	396.25
350.72	406.25
350.947	413.25
351.174	417.25
351.402	428.25
351.629	415.25
351.856	415.25
352.083	434.25
352.311	451.25
352.538	423.25
352.765	426.25
352.992	416.25
353.22	420.25
353.447	423.25
353.674	408.25
353.901	399.25
354.128	378.25
354.355	386.25
354.583	400.25
354.81	394.25
355.037	380.25
355.264	362.25
355.491	384.25
355.718	376.25
355.945	373.25
356.172	380.25
356.399	380.25
356.626	361.25
356.853	384.25
357.08	390.25
357.307	360.25
357.534	382.25
357.761	392.25
357.988	386.25
358.215	386.25
358.441	371.25
358.668	373.25
358.895	393.25
359.122	388.25
359.349	399.25
359.576	402.25
359.802	440.25
360.029	461.25
360.256	479.25
360.483	457.25
360.709	423.25
360.936	416.25
361.163	409.25
361.39	403.25
361.616	431.25
361.843	414.25
362.07	391.25
362.296	412.25
362.523	408.25
362.749	424.25
362.976	406.25
363.203	402.25
363.429	398.25
363.656	395.25
363.882	362.25
364.109	392.25
364.335	365.25
364.562	383.25
364.788	398.25
365.015	384.25
365.241	388.25
365.468	406.25
365.694	392.25
365.92	374.25
366.147	368.25
366.373	386.25
366.599	388.25
366.826	394.25
367.052	384.25
367.278	362.25
367.505	364.25
367.731	391.25
367.957	386.25
368.184	389.25
368.41	377.25
368.636	394.25
368.862	398.25
369.089	380.25
369.315	364.25
369.541	380.25
369.767	372.25
369.993	373.25
370.219	367.25
370.445	372.25
370.672	374.25
370.898	384.25
371.124	374.25
371.35	373.25
371.576	380.25
371.802	369.25
372.028	359.25
372.254	391.25
372.48	372.25
372.706	370.25
372.932	361.25
373.158	376.25
373.384	362.25
373.61	363.25
373.835	369.25
374.061	366.25
374.287	372.25
374.513	344.25
374.739	383.25
374.965	365.25
375.191	360.25
375.416	372.25
375.642	358.25
375.868	368.25
376.094	378.25
376.319	358.25
376.545	364.25
376.771	365.25
376.997	343.25
377.222	367.25
377.448	336.25
377.674	345.25
377.899	364.25
378.125	344.25
378.35	359.25
378.576	352.25
378.802	342.25
379.027	355.25
379.253	350.25
379.478	332.25
379.704	337.25
379.929	351.25
380.155	356.25
380.38	351.25
380.606	357.25
380.831	364.25
381.057	346.25
381.282	353.25
381.507	345.25
381.733	377.25
381.958	350.25
382.184	356.25
382.409	365.25
382.634	342.25
382.86	370.25
383.085	364.25
383.31	364.25
383.535	351.25
383.761	375.25
383.986	351.25
384.211	350.25
384.436	376.25
384.662	365.25
384.887	370.25
385.112	371.25
385.337	368.25
385.562	376.25
385.787	378.25
386.013	394.25
386.238	389.25
386.463	372.25
386.688	376.25
386.913	363.25
387.138	383.25
387.363	364.25
387.588	376.25
387.813	375.25
388.038	391.25
388.263	373.25
388.488	409.25
388.713	374.25
388.938	372.25
389.163	383.25
389.387	402.25
389.612	362.25
389.837	378.25
390.062	363.25
390.287	386.25
390.512	381.25
390.736	354.25
390.961	386.25
391.186	378.25
391.411	384.25
391.636	363.25
391.86	374.25
392.085	388.25
392.31	364.25
392.534	374.25
392.759	369.25
392.984	361.25
393.208	386.25
393.433	378.25
393.658	361.25
393.882	371.25
394.107	366.25
394.331	376.25
394.556	369.25
394.78	352.25
395.005	364.25
395.229	377.25
395.454	384.25
395.678	383.25
395.903	391.25
396.127	408.25
396.352	414.25
396.576	403.25
396.801	405.25
397.025	368.25
397.249	380.25
397.474	394.25
397.698	384.25
397.922	397.25
398.147	408.25
398.371	424.25
398.595	437.25
398.82	386.25
399.044	421.25
399.268	403.25
399.492	449.25
399.717	471.25
399.941	476.25
400.165	477.25
400.389	514.25
400.613	482.25
400.837	443.25
401.062	426.25
401.286	416.25
401.51	431.25
401.734	420.25
401.958	445.25
402.182	430.25
402.406	416.25
402.63	424.25
402.854	427.25
403.078	432.25
403.302	427.25
403.526	428.25
403.75	422.25
403.974	415.25
404.198	437.25
404.422	442.25
404.645	425.25
404.869	434.25
405.093	473.25
405.317	502.25
405.541	530.25
405.765	491.25
405.988	478.25
406.212	473.25
406.436	466.25
406.66	500.25
406.883	466.25
407.107	493.25
407.331	537.25
407.555	589.25
407.778	589.25
408.002	526.25
408.226	498.25
408.449	463.25
408.673	484.25
408.896	507.25
409.12	533.25
409.344	531.25
409.567	464.25
409.791	444.25
410.014	436.25
410.238	437.25
410.461	415.25
410.685	427.25
410.908	434.25
411.132	473.25
411.355	518.25
411.578	498.25
411.802	422.25
412.025	432.25
412.249	439.25
412.472	438.25
412.695	487.25
412.919	478.25
413.142	429.25
413.365	424.25
413.589	423.25
413.812	407.25
414.035	410.25
414.258	406.25
414.482	425.25
414.705	407.25
414.928	399.25
415.151	416.25
415.374	411.25
415.597	389.25
415.821	416.25
416.044	412.25
416.267	396.25
416.49	420.25
416.713	390.25
416.936	387.25
417.159	411.25
417.382	395.25
417.605	411.25
417.828	424.25
418.051	433.25
418.274	420.25
418.497	411.25
418.72	403.25
418.943	414.25
419.166	416.25
419.389	428.25
419.611	437.25
419.834	421.25
420.057	417.25
420.28	425.25
420.503	432.25
420.726	429.25
420.948	451.25
421.171	496.25
421.394	518.25
421.617	461.25
421.839	440.25
422.062	425.25
422.285	462.25
422.507	491.25
422.73	561.25
422.953	574.25
423.175	475.25
423.398	454.25
423.621	446.25
423.843	484.25
424.066	481.25
424.288	488.25
424.511	484.25
424.733	547.25
424.956	617.25
425.178	601.25
425.401	608.25
425.623	612.25
425.846	517.25
426.068	473.25
426.291	479.25
426.513	492.25
426.735	475.25
426.958	516.25
427.18	585.25
427.402	708.25
427.625	780.25
427.847	713.25
428.069	618.25
428.292	539.25
428.514	482.25
428.736	458.25
428.958	457.25
429.181	457.25
429.403	427.25
429.625	463.25
429.847	496.25
430.069	556.25
430.292	534.25
430.514	467.25
430.736	451.25
430.958	441.25
431.18	420.25
431.402	411.25
431.624	395.25
431.846	412.25
432.068	407.25
432.29	407.25
432.512	415.25
432.734	426.25
432.956	438.25
433.178	427.25
433.4	424.25
433.622	430.25
433.844	406.25
434.066	424.25
434.287	397.25
434.509	417.25
434.731	408.25
434.953	424.25
435.175	447.25
435.397	472.25
435.618	482.25
435.84	530.25
436.062	615.25
436.284	650.25
436.505	547.25
436.727	480.25
436.949	468.25
437.17	464.25
437.392	431.25
437.614	472.25
437.835	530.25
438.057	601.25
438.278	640.25
438.5	676.25
438.721	738.25
438.943	700.25
439.165	562.25
439.386	521.25
439.608	513.25
439.829	511.25
440.05	541.25
440.272	580.25
440.493	554.25
440.715	481.25
440.936	488.25
441.158	458.25
441.379	446.25
441.6	441.25
441.822	478.25
442.043	525.25
442.264	590.25
442.486	625.25
442.707	554.25
442.928	487.25
443.149	501.25
443.371	524.25
443.592	557.25
443.813	648.25
444.034	700.25
444.255	573.25
444.476	497.25
444.698	472.25
444.919	483.25
445.14	589.25
445.361	541.25
445.582	529.25
445.803	600.25
446.024	694.25
446.245	689.25
446.466	640.25
446.687	527.25
446.908	473.25
447.129	473.25
447.35	449.25
447.571	439.25
447.792	432.25
448.013	439.25
448.234	470.25
448.455	536.25
448.675	633.25
448.896	726.25
449.117	600.25
449.338	582.25
449.559	673.25
449.779	770.25
450	600.25
450.221	495.25
450.442	444.25
450.662	439.25
450.883	452.25
451.104	453.25
451.324	466.25
451.545	418.25
451.766	412.25
451.986	394.25
452.207	401.25
452.428	397.25
452.648	402.25
452.869	415.25
453.089	419.25
453.31	437.25
453.53	423.25
453.751	410.25
453.971	402.25
454.192	424.25
454.412	406.25
454.633	413.25
454.853	405.25
455.073	414.25
455.294	412.25
455.514	511.25
455.734	461.25
455.955	413.25
456.175	388.25
456.395	378.25
456.616	383.25
456.836	369.25
457.056	374.25
457.276	372.25
457.497	365.25
457.717	380.25
457.937	403.25
458.157	401.25
458.377	391.25
458.598	409.25
458.818	478.25
459.038	561.25
459.258	561.25
459.478	465.25
459.698	432.25
459.918	400.25
460.138	415.25
460.358	402.25
460.578	394.25
460.798	414.25
461.018	401.25
461.238	393.25
461.458	398.25
461.678	393.25
461.898	403.25
462.118	406.25
462.338	400.25
462.558	416.25
462.777	401.25
462.997	417.25
463.217	414.25
463.437	416.25
463.657	423.25
463.876	413.25
464.096	406.25
464.316	442.25
464.536	429.25
464.755	420.25
464.975	435.25
465.195	506.25
465.414	581.25
465.634	488.25
465.854	449.25
466.073	437.25
466.293	384.25
466.512	426.25
466.732	413.25
466.951	393.25
467.171	395.25
467.391	398.25
467.61	391.25
467.829	414.25
468.049	410.25
468.268	406.25
468.488	397.25
468.707	377.25
468.927	389.25
469.146	386.25
469.365	402.25
469.585	362.25
469.804	384.25
470.023	402.25
470.243	392.25
470.462	414.25
470.681	429.25
470.901	436.25
471.12	411.25
471.339	401.25
471.558	402.25
471.777	394.25
471.997	388.25
472.216	412.25
472.435	446.25
472.654	428.25
472.873	409.25
473.092	401.25
473.311	396.25
473.53	396.25
473.749	422.25
473.968	460.25
474.187	568.25
474.406	590.25
474.625	448.25
474.844	416.25
475.063	410.25
475.282	415.25
475.501	410.25
475.72	412.25
475.939	398.25
476.158	420.25
476.377	412.25
476.596	413.25
476.814	425.25
477.033	432.25
477.252	420.25
477.471	427.25
477.69	425.25
477.908	424.25
478.127	442.25
478.346	428.25
478.564	440.25
478.783	448.25
479.002	464.25
479.22	466.25
479.439	477.25
479.658	475.25
479.876	458.25
480.095	489.25
480.313	531.25
480.532	500.25
480.751	498.25
480.969	516.25
481.188	570.25
481.406	594.25
481.624	535.25
481.843	486.25
482.061	500.25
482.28	490.25
482.498	503.25
482.717	482.25
482.935	468.25
483.153	455.25
483.372	449.25
483.59	490.25
483.808	474.25
484.027	480.25
484.245	462.25
484.463	458.25
484.681	475.25
484.9	457.25
485.118	497.25
485.336	500.25
485.554	498.25
485.772	493.25
485.99	478.25
486.209	510.25
486.427	492.25
486.645	511.25
486.863	514.25
487.081	513.25
487.299	526.25
487.517	500.25
487.735	511.25
487.953	508.25
488.171	507.25
488.389	497.25
488.607	518.25
488.825	517.25
489.043	493.25
489.261	522.25
489.479	496.25
489.696	534.25
489.914	535.25
490.132	531.25
490.35	539.25
490.568	545.25
490.786	533.25
491.003	519.25
491.221	568.25
491.439	564.25
491.657	586.25
491.874	575.25
492.092	568.25
492.31	577.25
492.527	573.25
492.745	571.25
492.963	585.25
493.18	568.25
493.398	598.25
493.615	615.25
493.833	590.25
494.05	596.25
494.268	587.25
494.485	601.25
494.703	608.25
494.92	589.25
495.138	585.25
495.355	610.25
495.573	611.25
495.79	593.25
496.008	592.25
496.225	606.25
496.442	581.25
496.66	591.25
496.877	597.25
497.094	598.25
497.312	601.25
497.529	616.25
497.746	609.25
497.963	649.25
498.181	674.25
498.398	643.25
498.615	653.25
498.832	641.25
499.049	657.25
499.267	669.25
499.484	674.25
499.701	701.25
499.918	688.25
500.135	701.25
500.352	701.25
500.569	754.25
500.786	719.25
501.003	738.25
501.22	746.25
501.437	731.25
501.654	732.25
501.871	729.25
