Data from 1981.PennyLincolnUp.Lamp.En5.5.200Scan.071819.P1_HRD10591_16-41-11-962.txt Node
Date: Thu Jul 18 16:41:11 EDT 2019
User: cochatt
Spectrometer: HR+D1059
Trigger mode: 1
Integration Time (sec): 1.000000E-1
Scans to average: 1
Electric dark correction enabled: true
Nonlinearity correction enabled: false
Boxcar width: 0
XAxis mode: Wavelengths
Number of Pixels in Spectrum: 2048
>>>>>Begin Spectral Data<<<<<
223.165	-3.94
223.4	-3.94
223.635	-3.94
223.869	-32.94
224.104	-18.94
224.338	-15.94
224.573	-9.94
224.808	-12.94
225.042	-2.94
225.277	-23.94
225.511	-10.94
225.746	0.06
225.98	16.06
226.215	11.06
226.449	10.06
226.683	25.06
226.918	29.06
227.152	41.06
227.387	23.06
227.621	36.06
227.856	52.06
228.09	42.06
228.324	43.06
228.559	60.06
228.793	87.06
229.027	102.06
229.262	105.06
229.496	109.06
229.73	121.06
229.964	135.06
230.199	127.06
230.433	118.06
230.667	104.06
230.901	109.06
231.136	111.06
231.37	104.06
231.604	98.06
231.838	102.06
232.072	112.06
232.306	109.06
232.541	104.06
232.775	113.06
233.009	112.06
233.243	111.06
233.477	116.06
233.711	105.06
233.945	102.06
234.179	113.06
234.413	121.06
234.647	115.06
234.881	113.06
235.115	128.06
235.349	107.06
235.583	114.06
235.817	112.06
236.051	134.06
236.285	136.06
236.519	126.06
236.753	118.06
236.987	128.06
237.221	181.06
237.455	229.06
237.689	188.06
237.922	132.06
238.156	128.06
238.39	130.06
238.624	137.06
238.858	108.06
239.091	115.06
239.325	114.06
239.559	111.06
239.793	118.06
240.027	116.06
240.26	122.06
240.494	141.06
240.728	145.06
240.961	152.06
241.195	146.06
241.429	133.06
241.662	131.06
241.896	136.06
242.13	130.06
242.363	127.06
242.597	126.06
242.83	141.06
243.064	152.06
243.298	130.06
243.531	144.06
243.765	135.06
243.998	123.06
244.232	133.06
244.465	135.06
244.699	145.06
244.932	135.06
245.166	135.06
245.399	141.06
245.633	136.06
245.866	153.06
246.099	147.06
246.333	162.06
246.566	154.06
246.8	134.06
247.033	153.06
247.266	149.06
247.5	165.06
247.733	166.06
247.966	176.06
248.2	184.06
248.433	176.06
248.666	167.06
248.899	178.06
249.133	194.06
249.366	207.06
249.599	177.06
249.832	187.06
250.066	172.06
250.299	190.06
250.532	193.06
250.765	195.06
250.998	205.06
251.231	205.06
251.465	194.06
251.698	206.06
251.931	215.06
252.164	212.06
252.397	200.06
252.63	212.06
252.863	206.06
253.096	203.06
253.329	228.06
253.562	237.06
253.795	233.06
254.028	226.06
254.261	210.06
254.494	226.06
254.727	250.06
254.96	286.06
255.193	276.06
255.426	219.06
255.659	232.06
255.892	226.06
256.124	222.06
256.357	237.06
256.59	226.06
256.823	220.06
257.056	210.06
257.289	212.06
257.521	220.06
257.754	219.06
257.987	206.06
258.22	205.06
258.452	205.06
258.685	213.06
258.918	225.06
259.151	213.06
259.383	240.06
259.616	212.06
259.849	209.06
260.081	219.06
260.314	245.06
260.547	258.06
260.779	241.06
261.012	228.06
261.244	209.06
261.477	237.06
261.71	229.06
261.942	216.06
262.175	238.06
262.407	230.06
262.64	208.06
262.872	197.06
263.105	211.06
263.337	204.06
263.57	219.06
263.802	209.06
264.035	204.06
264.267	194.06
264.499	206.06
264.732	211.06
264.964	214.06
265.197	214.06
265.429	197.06
265.661	204.06
265.894	219.06
266.126	213.06
266.358	210.06
266.591	230.06
266.823	218.06
267.055	220.06
267.287	225.06
267.52	232.06
267.752	219.06
267.984	214.06
268.216	229.06
268.448	227.06
268.681	227.06
268.913	237.06
269.145	244.06
269.377	269.06
269.609	273.06
269.841	280.06
270.073	276.06
270.306	296.06
270.538	322.06
270.77	289.06
271.002	301.06
271.234	301.06
271.466	301.06
271.698	294.06
271.93	302.06
272.162	308.06
272.394	328.06
272.626	299.06
272.858	285.06
273.09	288.06
273.322	270.06
273.553	270.06
273.785	270.06
274.017	253.06
274.249	273.06
274.481	270.06
274.713	272.06
274.945	258.06
275.176	280.06
275.408	270.06
275.64	272.06
275.872	244.06
276.104	263.06
276.335	268.06
276.567	263.06
276.799	281.06
277.031	310.06
277.262	311.06
277.494	318.06
277.726	313.06
277.957	299.06
278.189	270.06
278.421	273.06
278.652	277.06
278.884	262.06
279.115	285.06
279.347	266.06
279.579	248.06
279.81	251.06
280.042	257.06
280.273	255.06
280.505	250.06
280.736	236.06
280.968	252.06
281.199	237.06
281.431	248.06
281.662	244.06
281.894	263.06
282.125	249.06
282.356	263.06
282.588	288.06
282.819	292.06
283.051	276.06
283.282	257.06
283.513	269.06
283.745	259.06
283.976	277.06
284.207	284.06
284.439	276.06
284.67	271.06
284.901	257.06
285.132	286.06
285.364	267.06
285.595	263.06
285.826	275.06
286.057	258.06
286.288	242.06
286.52	269.06
286.751	254.06
286.982	265.06
287.213	271.06
287.444	268.06
287.675	271.06
287.906	288.06
288.138	264.06
288.369	293.06
288.6	297.06
288.831	283.06
289.062	298.06
289.293	282.06
289.524	277.06
289.755	266.06
289.986	273.06
290.217	280.06
290.448	279.06
290.679	269.06
290.91	265.06
291.141	275.06
291.371	274.06
291.602	255.06
291.833	258.06
292.064	265.06
292.295	268.06
292.526	275.06
292.757	269.06
292.987	273.06
293.218	256.06
293.449	285.06
293.68	278.06
293.91	272.06
294.141	265.06
294.372	260.06
294.603	258.06
294.833	277.06
295.064	286.06
295.295	261.06
295.525	271.06
295.756	264.06
295.987	278.06
296.217	286.06
296.448	311.06
296.679	299.06
296.909	281.06
297.14	285.06
297.37	300.06
297.601	268.06
297.831	286.06
298.062	280.06
298.292	297.06
298.523	292.06
298.753	282.06
298.984	289.06
299.214	282.06
299.445	300.06
299.675	280.06
299.905	280.06
300.136	293.06
300.366	291.06
300.597	290.06
300.827	281.06
301.057	307.06
301.288	304.06
301.518	301.06
301.748	314.06
301.979	290.06
302.209	300.06
302.439	310.06
302.669	293.06
302.9	314.06
303.13	309.06
303.36	320.06
303.59	314.06
303.82	289.06
304.051	323.06
304.281	301.06
304.511	291.06
304.741	292.06
304.971	301.06
305.201	302.06
305.431	326.06
305.661	292.06
305.891	299.06
306.121	296.06
306.352	313.06
306.582	333.06
306.812	335.06
307.042	314.06
307.272	305.06
307.502	319.06
307.731	310.06
307.961	320.06
308.191	322.06
308.421	340.06
308.651	324.06
308.881	314.06
309.111	335.06
309.341	334.06
309.571	340.06
309.8	352.06
310.03	341.06
310.26	363.06
310.49	348.06
310.72	379.06
310.949	360.06
311.179	402.06
311.409	374.06
311.639	345.06
311.868	372.06
312.098	376.06
312.328	368.06
312.557	381.06
312.787	399.06
313.017	379.06
313.246	358.06
313.476	360.06
313.706	364.06
313.935	369.06
314.165	385.06
314.394	395.06
314.624	377.06
314.853	380.06
315.083	355.06
315.312	369.06
315.542	349.06
315.771	345.06
316.001	361.06
316.23	345.06
316.46	359.06
316.689	355.06
316.919	357.06
317.148	365.06
317.377	377.06
317.607	376.06
317.836	366.06
318.065	362.06
318.295	369.06
318.524	357.06
318.753	376.06
318.983	356.06
319.212	362.06
319.441	364.06
319.67	380.06
319.9	358.06
320.129	356.06
320.358	371.06
320.587	379.06
320.816	394.06
321.046	391.06
321.275	381.06
321.504	388.06
321.733	391.06
321.962	394.06
322.191	416.06
322.42	430.06
322.649	406.06
322.878	445.06
323.108	440.06
323.337	476.06
323.566	499.06
323.795	522.06
324.024	564.06
324.253	700.06
324.482	1011.06
324.71	1568.06
324.939	2165.06
325.168	1840.06
325.397	984.06
325.626	681.06
325.855	558.06
326.084	522.06
326.313	507.06
326.542	506.06
326.77	571.06
326.999	650.06
327.228	885.06
327.457	1346.06
327.686	1584.06
327.914	1054.06
328.143	714.06
328.372	637.06
328.6	585.06
328.829	552.06
329.058	573.06
329.287	575.06
329.515	549.06
329.744	496.06
329.972	482.06
330.201	504.06
330.43	541.06
330.658	582.06
330.887	589.06
331.115	572.06
331.344	480.06
331.572	484.06
331.801	480.06
332.03	467.06
332.258	427.06
332.486	452.06
332.715	416.06
332.943	412.06
333.172	421.06
333.4	415.06
333.629	429.06
333.857	436.06
334.085	445.06
334.314	453.06
334.542	485.06
334.771	462.06
334.999	463.06
335.227	424.06
335.455	405.06
335.684	440.06
335.912	399.06
336.14	412.06
336.369	407.06
336.597	406.06
336.825	414.06
337.053	389.06
337.281	421.06
337.51	403.06
337.738	394.06
337.966	397.06
338.194	386.06
338.422	424.06
338.65	382.06
338.878	390.06
339.106	382.06
339.334	402.06
339.562	378.06
339.79	381.06
340.018	397.06
340.246	398.06
340.474	402.06
340.702	403.06
340.93	387.06
341.158	398.06
341.386	385.06
341.614	398.06
341.842	390.06
342.07	405.06
342.298	402.06
342.526	380.06
342.754	379.06
342.981	382.06
343.209	380.06
343.437	365.06
343.665	384.06
343.893	378.06
344.12	386.06
344.348	380.06
344.576	383.06
344.804	387.06
345.031	414.06
345.259	399.06
345.487	390.06
345.714	420.06
345.942	391.06
346.17	376.06
346.397	387.06
346.625	393.06
346.853	371.06
347.08	380.06
347.308	385.06
347.535	411.06
347.763	399.06
347.99	393.06
348.218	382.06
348.445	384.06
348.673	388.06
348.9	381.06
349.128	365.06
349.355	374.06
349.583	356.06
349.81	361.06
350.037	352.06
350.265	374.06
350.492	372.06
350.72	363.06
350.947	357.06
351.174	388.06
351.402	375.06
351.629	360.06
351.856	392.06
352.083	378.06
352.311	418.06
352.538	384.06
352.765	406.06
352.992	377.06
353.22	394.06
353.447	391.06
353.674	370.06
353.901	381.06
354.128	379.06
354.355	356.06
354.583	353.06
354.81	355.06
355.037	363.06
355.264	353.06
355.491	328.06
355.718	336.06
355.945	329.06
356.172	349.06
356.399	346.06
356.626	354.06
356.853	336.06
357.08	341.06
357.307	333.06
357.534	327.06
357.761	348.06
357.988	347.06
358.215	361.06
358.441	374.06
358.668	363.06
358.895	360.06
359.122	369.06
359.349	361.06
359.576	357.06
359.802	416.06
360.029	424.06
360.256	434.06
360.483	422.06
360.709	384.06
360.936	380.06
361.163	392.06
361.39	391.06
361.616	357.06
361.843	371.06
362.07	348.06
362.296	370.06
362.523	379.06
362.749	352.06
362.976	356.06
363.203	358.06
363.429	359.06
363.656	357.06
363.882	372.06
364.109	353.06
364.335	368.06
364.562	348.06
364.788	360.06
365.015	356.06
365.241	371.06
365.468	359.06
365.694	358.06
365.92	374.06
366.147	362.06
366.373	343.06
366.599	354.06
366.826	351.06
367.052	347.06
367.278	320.06
367.505	365.06
367.731	338.06
367.957	344.06
368.184	350.06
368.41	347.06
368.636	358.06
368.862	374.06
369.089	351.06
369.315	341.06
369.541	350.06
369.767	340.06
369.993	352.06
370.219	360.06
370.445	324.06
370.672	353.06
370.898	347.06
371.124	361.06
371.35	348.06
371.576	330.06
371.802	353.06
372.028	345.06
372.254	356.06
372.48	324.06
372.706	318.06
372.932	332.06
373.158	334.06
373.384	338.06
373.61	332.06
373.835	341.06
374.061	346.06
374.287	357.06
374.513	344.06
374.739	333.06
374.965	344.06
375.191	332.06
375.416	337.06
375.642	337.06
375.868	348.06
376.094	338.06
376.319	329.06
376.545	333.06
376.771	334.06
376.997	330.06
377.222	338.06
377.448	329.06
377.674	336.06
377.899	330.06
378.125	331.06
378.35	337.06
378.576	294.06
378.802	321.06
379.027	320.06
379.253	336.06
379.478	316.06
379.704	341.06
379.929	314.06
380.155	334.06
380.38	329.06
380.606	341.06
380.831	322.06
381.057	337.06
381.282	329.06
381.507	329.06
381.733	322.06
381.958	335.06
382.184	325.06
382.409	355.06
382.634	328.06
382.86	326.06
383.085	341.06
383.31	330.06
383.535	338.06
383.761	344.06
383.986	357.06
384.211	349.06
384.436	352.06
384.662	334.06
384.887	344.06
385.112	337.06
385.337	337.06
385.562	341.06
385.787	341.06
386.013	349.06
386.238	331.06
386.463	360.06
386.688	360.06
386.913	335.06
387.138	327.06
387.363	344.06
387.588	348.06
387.813	347.06
388.038	346.06
388.263	336.06
388.488	358.06
388.713	338.06
388.938	352.06
389.163	351.06
389.387	333.06
389.612	330.06
389.837	359.06
390.062	369.06
390.287	338.06
390.512	351.06
390.736	343.06
390.961	351.06
391.186	337.06
391.411	332.06
391.636	349.06
391.86	337.06
392.085	338.06
392.31	340.06
392.534	354.06
392.759	374.06
392.984	331.06
393.208	347.06
393.433	343.06
393.658	338.06
393.882	353.06
394.107	336.06
394.331	344.06
394.556	317.06
394.78	330.06
395.005	359.06
395.229	329.06
395.454	361.06
395.678	381.06
395.903	352.06
396.127	372.06
396.352	384.06
396.576	375.06
396.801	363.06
397.025	360.06
397.249	352.06
397.474	374.06
397.698	359.06
397.922	368.06
398.147	374.06
398.371	388.06
398.595	394.06
398.82	391.06
399.044	384.06
399.268	387.06
399.492	413.06
399.717	413.06
399.941	434.06
400.165	445.06
400.389	466.06
400.613	422.06
400.837	406.06
401.062	393.06
401.286	400.06
401.51	383.06
401.734	386.06
401.958	404.06
402.182	389.06
402.406	397.06
402.63	374.06
402.854	381.06
403.078	396.06
403.302	397.06
403.526	393.06
403.75	397.06
403.974	391.06
404.198	405.06
404.422	409.06
404.645	408.06
404.869	393.06
405.093	438.06
405.317	466.06
405.541	461.06
405.765	429.06
405.988	430.06
406.212	437.06
406.436	426.06
406.66	465.06
406.883	416.06
407.107	440.06
407.331	465.06
407.555	531.06
407.778	531.06
408.002	474.06
408.226	448.06
408.449	446.06
408.673	424.06
408.896	440.06
409.12	493.06
409.344	470.06
409.567	432.06
409.791	418.06
410.014	392.06
410.238	385.06
410.461	396.06
410.685	414.06
410.908	402.06
411.132	445.06
411.355	459.06
411.578	448.06
411.802	409.06
412.025	391.06
412.249	392.06
412.472	389.06
412.695	442.06
412.919	459.06
413.142	412.06
413.365	387.06
413.589	386.06
413.812	375.06
414.035	355.06
414.258	390.06
414.482	376.06
414.705	374.06
414.928	361.06
415.151	351.06
415.374	372.06
415.597	357.06
415.821	356.06
416.044	376.06
416.267	356.06
416.49	373.06
416.713	352.06
416.936	361.06
417.159	382.06
417.382	392.06
417.605	368.06
417.828	394.06
418.051	386.06
418.274	380.06
418.497	372.06
418.72	373.06
418.943	351.06
419.166	402.06
419.389	414.06
419.611	382.06
419.834	385.06
420.057	378.06
420.28	389.06
420.503	373.06
420.726	395.06
420.948	410.06
421.171	445.06
421.394	451.06
421.617	418.06
421.839	430.06
422.062	388.06
422.285	409.06
422.507	456.06
422.73	501.06
422.953	475.06
423.175	440.06
423.398	406.06
423.621	419.06
423.843	450.06
424.066	442.06
424.288	437.06
424.511	442.06
424.733	506.06
424.956	546.06
425.178	545.06
425.401	520.06
425.623	553.06
425.846	490.06
426.068	440.06
426.291	437.06
426.513	441.06
426.735	452.06
426.958	472.06
427.18	541.06
427.402	677.06
427.625	698.06
427.847	616.06
428.069	548.06
428.292	480.06
428.514	439.06
428.736	434.06
428.958	408.06
429.181	404.06
429.403	416.06
429.625	414.06
429.847	444.06
430.069	499.06
430.292	491.06
430.514	412.06
430.736	390.06
430.958	386.06
431.18	386.06
431.402	397.06
431.624	354.06
431.846	372.06
432.068	378.06
432.29	386.06
432.512	376.06
432.734	372.06
432.956	380.06
433.178	408.06
433.4	405.06
433.622	402.06
433.844	377.06
434.066	364.06
434.287	388.06
434.509	376.06
434.731	382.06
434.953	386.06
435.175	410.06
435.397	410.06
435.618	439.06
435.84	460.06
436.062	524.06
436.284	600.06
436.505	508.06
436.727	457.06
436.949	427.06
437.17	422.06
437.392	432.06
437.614	455.06
437.835	447.06
438.057	546.06
438.278	613.06
438.5	624.06
438.721	671.06
438.943	633.06
439.165	525.06
439.386	470.06
439.608	456.06
439.829	467.06
440.05	474.06
440.272	524.06
440.493	474.06
440.715	439.06
440.936	419.06
441.158	427.06
441.379	417.06
441.6	408.06
441.822	420.06
442.043	473.06
442.264	557.06
442.486	567.06
442.707	489.06
442.928	458.06
443.149	450.06
443.371	490.06
443.592	492.06
443.813	577.06
444.034	619.06
444.255	498.06
444.476	466.06
444.698	442.06
444.919	436.06
445.14	529.06
445.361	484.06
445.582	455.06
445.803	542.06
446.024	600.06
446.245	612.06
446.466	578.06
446.687	475.06
446.908	425.06
447.129	420.06
447.35	411.06
447.571	405.06
447.792	419.06
448.013	438.06
448.234	442.06
448.455	478.06
448.675	581.06
448.896	611.06
449.117	564.06
449.338	518.06
449.559	602.06
449.779	690.06
450	549.06
450.221	471.06
450.442	430.06
450.662	406.06
450.883	421.06
451.104	414.06
451.324	406.06
451.545	416.06
451.766	377.06
451.986	355.06
452.207	372.06
452.428	372.06
452.648	385.06
452.869	391.06
453.089	375.06
453.31	369.06
453.53	373.06
453.751	368.06
453.971	373.06
454.192	380.06
454.412	391.06
454.633	345.06
454.853	370.06
455.073	352.06
455.294	378.06
455.514	453.06
455.734	431.06
455.955	370.06
456.175	361.06
456.395	340.06
456.616	353.06
456.836	344.06
457.056	344.06
457.276	339.06
457.497	336.06
457.717	326.06
457.937	337.06
458.157	364.06
458.377	354.06
458.598	380.06
458.818	438.06
459.038	475.06
459.258	512.06
459.478	413.06
459.698	386.06
459.918	376.06
460.138	364.06
460.358	370.06
460.578	370.06
460.798	379.06
461.018	368.06
461.238	366.06
461.458	357.06
461.678	383.06
461.898	362.06
462.118	345.06
462.338	386.06
462.558	376.06
462.777	388.06
462.997	372.06
463.217	369.06
463.437	371.06
463.657	397.06
463.876	394.06
464.096	371.06
464.316	396.06
464.536	396.06
464.755	390.06
464.975	420.06
465.195	426.06
465.414	531.06
465.634	442.06
465.854	408.06
466.073	397.06
466.293	368.06
466.512	370.06
466.732	356.06
466.951	382.06
467.171	384.06
467.391	370.06
467.61	365.06
467.829	384.06
468.049	359.06
468.268	352.06
468.488	372.06
468.707	361.06
468.927	343.06
469.146	351.06
469.365	340.06
469.585	362.06
469.804	368.06
470.023	377.06
470.243	374.06
470.462	361.06
470.681	379.06
470.901	372.06
471.12	355.06
471.339	375.06
471.558	352.06
471.777	360.06
471.997	384.06
472.216	368.06
472.435	387.06
472.654	374.06
472.873	374.06
473.092	361.06
473.311	360.06
473.53	372.06
473.749	386.06
473.968	426.06
474.187	517.06
474.406	504.06
474.625	432.06
474.844	388.06
475.063	380.06
475.282	373.06
475.501	357.06
475.72	388.06
475.939	374.06
476.158	381.06
476.377	380.06
476.596	364.06
476.814	394.06
477.033	396.06
477.252	403.06
477.471	380.06
477.69	390.06
477.908	389.06
478.127	406.06
478.346	394.06
478.564	393.06
478.783	379.06
479.002	378.06
479.22	432.06
479.439	430.06
479.658	439.06
479.876	434.06
480.095	434.06
480.313	453.06
480.532	474.06
480.751	455.06
480.969	456.06
481.188	490.06
481.406	509.06
481.624	474.06
481.843	420.06
482.061	421.06
482.28	441.06
482.498	433.06
482.717	440.06
482.935	418.06
483.153	422.06
483.372	437.06
483.59	444.06
483.808	444.06
484.027	432.06
484.245	430.06
484.463	451.06
484.681	452.06
484.9	432.06
485.118	450.06
485.336	410.06
485.554	461.06
485.772	439.06
485.99	456.06
486.209	467.06
486.427	443.06
486.645	457.06
486.863	465.06
487.081	469.06
487.299	454.06
487.517	459.06
487.735	450.06
487.953	453.06
488.171	469.06
488.389	453.06
488.607	473.06
488.825	454.06
489.043	476.06
489.261	478.06
489.479	465.06
489.696	481.06
489.914	493.06
490.132	472.06
490.35	488.06
490.568	493.06
490.786	518.06
491.003	494.06
491.221	508.06
491.439	504.06
491.657	543.06
491.874	556.06
492.092	531.06
492.31	543.06
492.527	536.06
492.745	550.06
492.963	552.06
493.18	546.06
493.398	538.06
493.615	522.06
493.833	551.06
494.05	521.06
494.268	544.06
494.485	564.06
494.703	560.06
494.92	565.06
495.138	561.06
495.355	543.06
495.573	560.06
495.79	548.06
496.008	553.06
496.225	546.06
496.442	572.06
496.66	550.06
496.877	544.06
497.094	551.06
497.312	548.06
497.529	558.06
497.746	586.06
497.963	585.06
498.181	600.06
498.398	578.06
498.615	600.06
498.832	613.06
499.049	606.06
499.267	586.06
499.484	630.06
499.701	622.06
499.918	654.06
500.135	629.06
500.352	654.06
500.569	675.06
500.786	694.06
501.003	672.06
501.22	679.06
501.437	646.06
501.654	648.06
501.871	686.06
