Data from 1981.PennyLincolnUp.Lamp.En5.5.200Scan.071819.P1_HRD10591_16-42-24-959.txt Node
Date: Thu Jul 18 16:42:24 EDT 2019
User: cochatt
Spectrometer: HR+D1059
Trigger mode: 1
Integration Time (sec): 1.000000E-1
Scans to average: 1
Electric dark correction enabled: true
Nonlinearity correction enabled: false
Boxcar width: 0
XAxis mode: Wavelengths
Number of Pixels in Spectrum: 2048
>>>>>Begin Spectral Data<<<<<
223.165	-16.81
223.4	-16.81
223.635	-16.81
223.869	-13.81
224.104	-9.81
224.338	-21.81
224.573	-21.81
224.808	-16.81
225.042	-8.81
225.277	-9.81
225.511	-4.81
225.746	0.19
225.98	13.19
226.215	16.19
226.449	24.19
226.683	21.19
226.918	29.19
227.152	20.19
227.387	37.19
227.621	19.19
227.856	43.19
228.09	50.19
228.324	51.19
228.559	61.19
228.793	89.19
229.027	101.19
229.262	103.19
229.496	116.19
229.73	148.19
229.964	163.19
230.199	148.19
230.433	104.19
230.667	132.19
230.901	111.19
231.136	129.19
231.37	115.19
231.604	109.19
231.838	124.19
232.072	130.19
232.306	114.19
232.541	109.19
232.775	116.19
233.009	126.19
233.243	123.19
233.477	126.19
233.711	128.19
233.945	113.19
234.179	121.19
234.413	134.19
234.647	130.19
234.881	114.19
235.115	130.19
235.349	122.19
235.583	137.19
235.817	112.19
236.051	130.19
236.285	127.19
236.519	128.19
236.753	152.19
236.987	157.19
237.221	214.19
237.455	231.19
237.689	193.19
237.922	151.19
238.156	134.19
238.39	130.19
238.624	136.19
238.858	146.19
239.091	130.19
239.325	128.19
239.559	131.19
239.793	131.19
240.027	136.19
240.26	140.19
240.494	161.19
240.728	168.19
240.961	167.19
241.195	162.19
241.429	124.19
241.662	148.19
241.896	146.19
242.13	147.19
242.363	134.19
242.597	140.19
242.83	155.19
243.064	158.19
243.298	148.19
243.531	136.19
243.765	148.19
243.998	155.19
244.232	160.19
244.465	159.19
244.699	146.19
244.932	158.19
245.166	146.19
245.399	165.19
245.633	146.19
245.866	151.19
246.099	146.19
246.333	162.19
246.566	173.19
246.8	154.19
247.033	176.19
247.266	186.19
247.5	160.19
247.733	176.19
247.966	178.19
248.2	186.19
248.433	188.19
248.666	183.19
248.899	183.19
249.133	224.19
249.366	213.19
249.599	217.19
249.832	198.19
250.066	188.19
250.299	203.19
250.532	193.19
250.765	218.19
250.998	251.19
251.231	249.19
251.465	239.19
251.698	222.19
251.931	217.19
252.164	218.19
252.397	205.19
252.63	203.19
252.863	222.19
253.096	235.19
253.329	245.19
253.562	244.19
253.795	240.19
254.028	244.19
254.261	243.19
254.494	261.19
254.727	287.19
254.96	310.19
255.193	316.19
255.426	266.19
255.659	257.19
255.892	266.19
256.124	271.19
256.357	250.19
256.59	250.19
256.823	242.19
257.056	234.19
257.289	245.19
257.521	241.19
257.754	230.19
257.987	212.19
258.22	207.19
258.452	220.19
258.685	222.19
258.918	221.19
259.151	237.19
259.383	215.19
259.616	231.19
259.849	244.19
260.081	269.19
260.314	279.19
260.547	290.19
260.779	260.19
261.012	251.19
261.244	258.19
261.477	250.19
261.71	238.19
261.942	247.19
262.175	268.19
262.407	240.19
262.64	236.19
262.872	226.19
263.105	213.19
263.337	221.19
263.57	228.19
263.802	232.19
264.035	232.19
264.267	225.19
264.499	228.19
264.732	210.19
264.964	221.19
265.197	224.19
265.429	224.19
265.661	226.19
265.894	228.19
266.126	204.19
266.358	226.19
266.591	246.19
266.823	242.19
267.055	238.19
267.287	238.19
267.52	238.19
267.752	257.19
267.984	238.19
268.216	258.19
268.448	246.19
268.681	224.19
268.913	273.19
269.145	282.19
269.377	291.19
269.609	295.19
269.841	281.19
270.073	301.19
270.306	323.19
270.538	329.19
270.77	347.19
271.002	336.19
271.234	313.19
271.466	316.19
271.698	323.19
271.93	323.19
272.162	340.19
272.394	347.19
272.626	340.19
272.858	310.19
273.09	288.19
273.322	302.19
273.553	284.19
273.785	278.19
274.017	276.19
274.249	271.19
274.481	293.19
274.713	278.19
274.945	288.19
275.176	282.19
275.408	292.19
275.64	273.19
275.872	275.19
276.104	279.19
276.335	290.19
276.567	290.19
276.799	301.19
277.031	334.19
277.262	351.19
277.494	338.19
277.726	314.19
277.957	318.19
278.189	296.19
278.421	303.19
278.652	305.19
278.884	280.19
279.115	284.19
279.347	268.19
279.579	274.19
279.81	282.19
280.042	284.19
280.273	271.19
280.505	312.19
280.736	282.19
280.968	283.19
281.199	281.19
281.431	280.19
281.662	286.19
281.894	276.19
282.125	283.19
282.356	293.19
282.588	303.19
282.819	336.19
283.051	307.19
283.282	292.19
283.513	303.19
283.745	283.19
283.976	282.19
284.207	303.19
284.439	267.19
284.67	296.19
284.901	296.19
285.132	280.19
285.364	270.19
285.595	280.19
285.826	276.19
286.057	298.19
286.288	285.19
286.52	290.19
286.751	278.19
286.982	293.19
287.213	302.19
287.444	277.19
287.675	315.19
287.906	310.19
288.138	320.19
288.369	318.19
288.6	315.19
288.831	298.19
289.062	310.19
289.293	283.19
289.524	311.19
289.755	314.19
289.986	291.19
290.217	301.19
290.448	296.19
290.679	300.19
290.91	286.19
291.141	280.19
291.371	266.19
291.602	303.19
291.833	296.19
292.064	311.19
292.295	293.19
292.526	290.19
292.757	299.19
292.987	298.19
293.218	294.19
293.449	314.19
293.68	305.19
293.91	299.19
294.141	286.19
294.372	282.19
294.603	295.19
294.833	286.19
295.064	288.19
295.295	285.19
295.525	295.19
295.756	315.19
295.987	323.19
296.217	332.19
296.448	337.19
296.679	328.19
296.909	304.19
297.14	310.19
297.37	313.19
297.601	290.19
297.831	289.19
298.062	316.19
298.292	310.19
298.523	302.19
298.753	296.19
298.984	318.19
299.214	296.19
299.445	293.19
299.675	327.19
299.905	325.19
300.136	311.19
300.366	320.19
300.597	335.19
300.827	324.19
301.057	323.19
301.288	326.19
301.518	322.19
301.748	333.19
301.979	319.19
302.209	328.19
302.439	339.19
302.669	325.19
302.9	337.19
303.13	343.19
303.36	335.19
303.59	339.19
303.82	356.19
304.051	344.19
304.281	327.19
304.511	325.19
304.741	343.19
304.971	338.19
305.201	334.19
305.431	333.19
305.661	329.19
305.891	323.19
306.121	345.19
306.352	355.19
306.582	364.19
306.812	345.19
307.042	330.19
307.272	340.19
307.502	336.19
307.731	338.19
307.961	348.19
308.191	332.19
308.421	327.19
308.651	339.19
308.881	358.19
309.111	354.19
309.341	360.19
309.571	362.19
309.8	371.19
310.03	372.19
310.26	399.19
310.49	384.19
310.72	404.19
310.949	390.19
311.179	409.19
311.409	397.19
311.639	395.19
311.868	411.19
312.098	402.19
312.328	395.19
312.557	412.19
312.787	423.19
313.017	416.19
313.246	410.19
313.476	388.19
313.706	376.19
313.935	401.19
314.165	432.19
314.394	429.19
314.624	432.19
314.853	388.19
315.083	404.19
315.312	382.19
315.542	392.19
315.771	388.19
316.001	387.19
316.23	371.19
316.46	390.19
316.689	392.19
316.919	386.19
317.148	435.19
317.377	416.19
317.607	401.19
317.836	402.19
318.065	395.19
318.295	396.19
318.524	383.19
318.753	401.19
318.983	379.19
319.212	407.19
319.441	386.19
319.67	422.19
319.9	407.19
320.129	397.19
320.358	401.19
320.587	394.19
320.816	408.19
321.046	444.19
321.275	425.19
321.504	406.19
321.733	417.19
321.962	436.19
322.191	451.19
322.42	464.19
322.649	479.19
322.878	478.19
323.108	493.19
323.337	527.19
323.566	561.19
323.795	597.19
324.024	657.19
324.253	844.19
324.482	1192.19
324.71	1875.19
324.939	2492.19
325.168	2154.19
325.397	1141.19
325.626	762.19
325.855	640.19
326.084	586.19
326.313	520.19
326.542	576.19
326.77	653.19
326.999	745.19
327.228	1032.19
327.457	1563.19
327.686	1851.19
327.914	1259.19
328.143	809.19
328.372	699.19
328.6	658.19
328.829	644.19
329.058	627.19
329.287	649.19
329.515	602.19
329.744	572.19
329.972	539.19
330.201	579.19
330.43	624.19
330.658	665.19
330.887	676.19
331.115	668.19
331.344	598.19
331.572	503.19
331.801	518.19
332.03	521.19
332.258	493.19
332.486	471.19
332.715	470.19
332.943	458.19
333.172	463.19
333.4	458.19
333.629	497.19
333.857	461.19
334.085	491.19
334.314	498.19
334.542	514.19
334.771	542.19
334.999	509.19
335.227	464.19
335.455	456.19
335.684	442.19
335.912	448.19
336.14	449.19
336.369	452.19
336.597	460.19
336.825	444.19
337.053	434.19
337.281	430.19
337.51	467.19
337.738	448.19
337.966	442.19
338.194	440.19
338.422	434.19
338.65	446.19
338.878	422.19
339.106	422.19
339.334	448.19
339.562	417.19
339.79	433.19
340.018	435.19
340.246	435.19
340.474	432.19
340.702	442.19
340.93	440.19
341.158	433.19
341.386	434.19
341.614	403.19
341.842	438.19
342.07	422.19
342.298	423.19
342.526	408.19
342.754	416.19
342.981	399.19
343.209	421.19
343.437	423.19
343.665	414.19
343.893	402.19
344.12	432.19
344.348	424.19
344.576	428.19
344.804	444.19
345.031	459.19
345.259	437.19
345.487	440.19
345.714	439.19
345.942	420.19
346.17	448.19
346.397	420.19
346.625	416.19
346.853	422.19
347.08	408.19
347.308	422.19
347.535	422.19
347.763	433.19
347.99	439.19
348.218	424.19
348.445	412.19
348.673	418.19
348.9	406.19
349.128	421.19
349.355	413.19
349.583	399.19
349.81	410.19
350.037	400.19
350.265	388.19
350.492	398.19
350.72	412.19
350.947	415.19
351.174	420.19
351.402	421.19
351.629	432.19
351.856	409.19
352.083	430.19
352.311	430.19
352.538	427.19
352.765	435.19
352.992	423.19
353.22	405.19
353.447	393.19
353.674	388.19
353.901	387.19
354.128	394.19
354.355	380.19
354.583	381.19
354.81	387.19
355.037	363.19
355.264	375.19
355.491	366.19
355.718	379.19
355.945	365.19
356.172	372.19
356.399	369.19
356.626	372.19
356.853	378.19
357.08	352.19
357.307	381.19
357.534	371.19
357.761	357.19
357.988	363.19
358.215	368.19
358.441	370.19
358.668	390.19
358.895	386.19
359.122	380.19
359.349	403.19
359.576	405.19
359.802	462.19
360.029	444.19
360.256	481.19
360.483	436.19
360.709	410.19
360.936	414.19
361.163	412.19
361.39	387.19
361.616	400.19
361.843	393.19
362.07	432.19
362.296	386.19
362.523	386.19
362.749	403.19
362.976	404.19
363.203	385.19
363.429	370.19
363.656	386.19
363.882	382.19
364.109	380.19
364.335	373.19
364.562	390.19
364.788	386.19
365.015	391.19
365.241	371.19
365.468	382.19
365.694	396.19
365.92	392.19
366.147	382.19
366.373	371.19
366.599	381.19
366.826	374.19
367.052	379.19
367.278	396.19
367.505	374.19
367.731	386.19
367.957	379.19
368.184	384.19
368.41	381.19
368.636	400.19
368.862	380.19
369.089	383.19
369.315	356.19
369.541	365.19
369.767	387.19
369.993	379.19
370.219	380.19
370.445	358.19
370.672	370.19
370.898	348.19
371.124	370.19
371.35	364.19
371.576	368.19
371.802	360.19
372.028	378.19
372.254	372.19
372.48	378.19
372.706	362.19
372.932	376.19
373.158	367.19
373.384	366.19
373.61	378.19
373.835	356.19
374.061	351.19
374.287	399.19
374.513	365.19
374.739	385.19
374.965	377.19
375.191	352.19
375.416	370.19
375.642	368.19
375.868	365.19
376.094	348.19
376.319	337.19
376.545	359.19
376.771	353.19
376.997	342.19
377.222	353.19
377.448	356.19
377.674	358.19
377.899	345.19
378.125	327.19
378.35	350.19
378.576	362.19
378.802	329.19
379.027	383.19
379.253	370.19
379.478	340.19
379.704	349.19
379.929	351.19
380.155	367.19
380.38	362.19
380.606	360.19
380.831	340.19
381.057	353.19
381.282	351.19
381.507	348.19
381.733	348.19
381.958	361.19
382.184	348.19
382.409	347.19
382.634	379.19
382.86	340.19
383.085	342.19
383.31	350.19
383.535	362.19
383.761	349.19
383.986	363.19
384.211	363.19
384.436	363.19
384.662	340.19
384.887	355.19
385.112	374.19
385.337	381.19
385.562	366.19
385.787	364.19
386.013	386.19
386.238	368.19
386.463	353.19
386.688	395.19
386.913	371.19
387.138	363.19
387.363	375.19
387.588	356.19
387.813	380.19
388.038	387.19
388.263	347.19
388.488	362.19
388.713	373.19
388.938	386.19
389.163	389.19
389.387	378.19
389.612	371.19
389.837	367.19
390.062	353.19
390.287	347.19
390.512	375.19
390.736	366.19
390.961	368.19
391.186	372.19
391.411	353.19
391.636	371.19
391.86	375.19
392.085	382.19
392.31	363.19
392.534	374.19
392.759	377.19
392.984	364.19
393.208	367.19
393.433	349.19
393.658	384.19
393.882	368.19
394.107	380.19
394.331	378.19
394.556	363.19
394.78	377.19
395.005	371.19
395.229	361.19
395.454	369.19
395.678	372.19
395.903	372.19
396.127	392.19
396.352	407.19
396.576	386.19
396.801	380.19
397.025	400.19
397.249	394.19
397.474	381.19
397.698	379.19
397.922	391.19
398.147	408.19
398.371	409.19
398.595	388.19
398.82	400.19
399.044	414.19
399.268	408.19
399.492	423.19
399.717	460.19
399.941	465.19
400.165	498.19
400.389	502.19
400.613	456.19
400.837	416.19
401.062	408.19
401.286	414.19
401.51	413.19
401.734	419.19
401.958	413.19
402.182	408.19
402.406	435.19
402.63	421.19
402.854	435.19
403.078	427.19
403.302	436.19
403.526	419.19
403.75	426.19
403.974	428.19
404.198	410.19
404.422	426.19
404.645	444.19
404.869	444.19
405.093	470.19
405.317	505.19
405.541	522.19
405.765	488.19
405.988	459.19
406.212	468.19
406.436	483.19
406.66	487.19
406.883	476.19
407.107	486.19
407.331	522.19
407.555	584.19
407.778	575.19
408.002	526.19
408.226	452.19
408.449	480.19
408.673	474.19
408.896	496.19
409.12	521.19
409.344	504.19
409.567	448.19
409.791	433.19
410.014	424.19
410.238	434.19
410.461	411.19
410.685	444.19
410.908	434.19
411.132	451.19
411.355	496.19
411.578	476.19
411.802	448.19
412.025	430.19
412.249	440.19
412.472	459.19
412.695	498.19
412.919	482.19
413.142	429.19
413.365	404.19
413.589	404.19
413.812	404.19
414.035	410.19
414.258	422.19
414.482	412.19
414.705	396.19
414.928	387.19
415.151	407.19
415.374	389.19
415.597	384.19
415.821	400.19
416.044	394.19
416.267	390.19
416.49	397.19
416.713	392.19
416.936	405.19
417.159	417.19
417.382	409.19
417.605	392.19
417.828	411.19
418.051	417.19
418.274	409.19
418.497	412.19
418.72	392.19
418.943	403.19
419.166	431.19
419.389	417.19
419.611	433.19
419.834	427.19
420.057	447.19
420.28	427.19
420.503	418.19
420.726	446.19
420.948	440.19
421.171	481.19
421.394	517.19
421.617	446.19
421.839	415.19
422.062	428.19
422.285	438.19
422.507	488.19
422.73	557.19
422.953	539.19
423.175	470.19
423.398	449.19
423.621	428.19
423.843	470.19
424.066	464.19
424.288	484.19
424.511	467.19
424.733	537.19
424.956	602.19
425.178	596.19
425.401	568.19
425.623	583.19
425.846	511.19
426.068	473.19
426.291	459.19
426.513	449.19
426.735	472.19
426.958	506.19
427.18	594.19
427.402	714.19
427.625	752.19
427.847	692.19
428.069	596.19
428.292	524.19
428.514	467.19
428.736	452.19
428.958	438.19
429.181	460.19
429.403	442.19
429.625	440.19
429.847	495.19
430.069	536.19
430.292	536.19
430.514	453.19
430.736	424.19
430.958	435.19
431.18	429.19
431.402	420.19
431.624	410.19
431.846	396.19
432.068	393.19
432.29	386.19
432.512	409.19
432.734	408.19
432.956	411.19
433.178	437.19
433.4	422.19
433.622	431.19
433.844	388.19
434.066	400.19
434.287	389.19
434.509	410.19
434.731	409.19
434.953	401.19
435.175	406.19
435.397	472.19
435.618	491.19
435.84	510.19
436.062	606.19
436.284	679.19
436.505	564.19
436.727	500.19
436.949	461.19
437.17	437.19
437.392	459.19
437.614	453.19
437.835	507.19
438.057	575.19
438.278	687.19
438.5	670.19
438.721	709.19
438.943	686.19
439.165	543.19
439.386	495.19
439.608	488.19
439.829	476.19
440.05	536.19
440.272	560.19
440.493	509.19
440.715	492.19
440.936	439.19
441.158	452.19
441.379	445.19
441.6	452.19
441.822	475.19
442.043	513.19
442.264	595.19
442.486	627.19
442.707	532.19
442.928	487.19
443.149	487.19
443.371	514.19
443.592	552.19
443.813	635.19
444.034	686.19
444.255	555.19
444.476	492.19
444.698	455.19
444.919	468.19
445.14	569.19
445.361	541.19
445.582	534.19
445.803	582.19
446.024	651.19
446.245	701.19
446.466	633.19
446.687	542.19
446.908	463.19
447.129	461.19
447.35	455.19
447.571	450.19
447.792	449.19
448.013	457.19
448.234	470.19
448.455	538.19
448.675	621.19
448.896	711.19
449.117	628.19
449.338	586.19
449.559	658.19
449.779	752.19
450	602.19
450.221	482.19
450.442	450.19
450.662	434.19
450.883	438.19
451.104	459.19
451.324	454.19
451.545	414.19
451.766	410.19
451.986	402.19
452.207	384.19
452.428	390.19
452.648	393.19
452.869	378.19
453.089	396.19
453.31	419.19
453.53	391.19
453.751	387.19
453.971	393.19
454.192	407.19
454.412	424.19
454.633	403.19
454.853	388.19
455.073	403.19
455.294	421.19
455.514	497.19
455.734	463.19
455.955	402.19
456.175	377.19
456.395	392.19
456.616	361.19
456.836	369.19
457.056	355.19
457.276	345.19
457.497	362.19
457.717	366.19
457.937	370.19
458.157	375.19
458.377	404.19
458.598	411.19
458.818	457.19
459.038	526.19
459.258	566.19
459.478	465.19
459.698	420.19
459.918	398.19
460.138	412.19
460.358	403.19
460.578	397.19
460.798	403.19
461.018	379.19
461.238	392.19
461.458	386.19
461.678	380.19
461.898	404.19
462.118	405.19
462.338	392.19
462.558	403.19
462.777	410.19
462.997	406.19
463.217	415.19
463.437	405.19
463.657	406.19
463.876	404.19
464.096	409.19
464.316	390.19
464.536	411.19
464.755	404.19
464.975	426.19
465.195	503.19
465.414	555.19
465.634	476.19
465.854	426.19
466.073	427.19
466.293	410.19
466.512	398.19
466.732	396.19
466.951	394.19
467.171	386.19
467.391	399.19
467.61	393.19
467.829	411.19
468.049	408.19
468.268	392.19
468.488	391.19
468.707	387.19
468.927	372.19
469.146	390.19
469.365	380.19
469.585	378.19
469.804	382.19
470.023	401.19
470.243	378.19
470.462	388.19
470.681	396.19
470.901	418.19
471.12	417.19
471.339	383.19
471.558	409.19
471.777	392.19
471.997	384.19
472.216	413.19
472.435	434.19
472.654	424.19
472.873	406.19
473.092	394.19
473.311	378.19
473.53	393.19
473.749	420.19
473.968	465.19
474.187	551.19
474.406	580.19
474.625	449.19
474.844	410.19
475.063	405.19
475.282	389.19
475.501	403.19
475.72	413.19
475.939	393.19
476.158	414.19
476.377	432.19
476.596	419.19
476.814	425.19
477.033	448.19
477.252	426.19
477.471	419.19
477.69	407.19
477.908	428.19
478.127	435.19
478.346	412.19
478.564	448.19
478.783	434.19
479.002	418.19
479.22	452.19
479.439	478.19
479.658	475.19
479.876	463.19
480.095	482.19
480.313	497.19
480.532	487.19
480.751	507.19
480.969	496.19
481.188	534.19
481.406	585.19
481.624	529.19
481.843	470.19
482.061	481.19
482.28	459.19
482.498	472.19
482.717	464.19
482.935	450.19
483.153	474.19
483.372	458.19
483.59	448.19
483.808	478.19
484.027	466.19
484.245	472.19
484.463	443.19
484.681	491.19
484.9	478.19
485.118	462.19
485.336	479.19
485.554	508.19
485.772	505.19
485.99	479.19
486.209	475.19
486.427	479.19
486.645	494.19
486.863	508.19
487.081	504.19
487.299	493.19
487.517	499.19
487.735	476.19
487.953	499.19
488.171	508.19
488.389	518.19
488.607	499.19
488.825	506.19
489.043	502.19
489.261	503.19
489.479	494.19
489.696	481.19
489.914	504.19
490.132	505.19
490.35	512.19
490.568	533.19
490.786	558.19
491.003	562.19
491.221	536.19
491.439	556.19
491.657	579.19
491.874	579.19
492.092	561.19
492.31	596.19
492.527	579.19
492.745	568.19
492.963	589.19
493.18	592.19
493.398	597.19
493.615	611.19
493.833	600.19
494.05	604.19
494.268	585.19
494.485	578.19
494.703	609.19
494.92	610.19
495.138	594.19
495.355	592.19
495.573	591.19
495.79	592.19
496.008	595.19
496.225	601.19
496.442	600.19
496.66	604.19
496.877	596.19
497.094	593.19
497.312	610.19
497.529	590.19
497.746	603.19
497.963	616.19
498.181	635.19
498.398	610.19
498.615	642.19
498.832	652.19
499.049	634.19
499.267	676.19
499.484	663.19
499.701	675.19
499.918	696.19
500.135	712.19
500.352	722.19
500.569	716.19
500.786	703.19
501.003	724.19
501.22	728.19
501.437	694.19
501.654	689.19
501.871	734.19
