Data from 1981.PennyLincolnUp.Lamp.En5.5.200Scan.071819.P1_HRD10591_16-43-05-960.txt Node
Date: Thu Jul 18 16:43:05 EDT 2019
User: cochatt
Spectrometer: HR+D1059
Trigger mode: 1
Integration Time (sec): 1.000000E-1
Scans to average: 1
Electric dark correction enabled: true
Nonlinearity correction enabled: false
Boxcar width: 0
XAxis mode: Wavelengths
Number of Pixels in Spectrum: 2048
>>>>>Begin Spectral Data<<<<<
223.165	-12.06
223.4	-12.06
223.635	-12.06
223.869	-7.06
224.104	-13.06
224.338	-21.06
224.573	-15.06
224.808	-16.06
225.042	-19.06
225.277	-10.06
225.511	-8.06
225.746	-2.06
225.98	12.94
226.215	-2.06
226.449	11.94
226.683	36.94
226.918	27.94
227.152	35.94
227.387	37.94
227.621	33.94
227.856	39.94
228.09	47.94
228.324	46.94
228.559	42.94
228.793	89.94
229.027	108.94
229.262	120.94
229.496	124.94
229.73	144.94
229.964	153.94
230.199	128.94
230.433	126.94
230.667	119.94
230.901	109.94
231.136	116.94
231.37	108.94
231.604	131.94
231.838	117.94
232.072	126.94
232.306	114.94
232.541	118.94
232.775	120.94
233.009	116.94
233.243	109.94
233.477	118.94
233.711	118.94
233.945	120.94
234.179	115.94
234.413	119.94
234.647	123.94
234.881	128.94
235.115	117.94
235.349	117.94
235.583	106.94
235.817	122.94
236.051	132.94
236.285	131.94
236.519	127.94
236.753	131.94
236.987	150.94
237.221	195.94
237.455	254.94
237.689	194.94
237.922	132.94
238.156	138.94
238.39	136.94
238.624	140.94
238.858	128.94
239.091	138.94
239.325	126.94
239.559	121.94
239.793	137.94
240.027	153.94
240.26	149.94
240.494	165.94
240.728	163.94
240.961	173.94
241.195	145.94
241.429	151.94
241.662	150.94
241.896	132.94
242.13	130.94
242.363	130.94
242.597	136.94
242.83	150.94
243.064	151.94
243.298	146.94
243.531	144.94
243.765	150.94
243.998	134.94
244.232	144.94
244.465	160.94
244.699	158.94
244.932	152.94
245.166	154.94
245.399	136.94
245.633	158.94
245.866	142.94
246.099	129.94
246.333	166.94
246.566	153.94
246.8	148.94
247.033	157.94
247.266	166.94
247.5	155.94
247.733	179.94
247.966	179.94
248.2	171.94
248.433	188.94
248.666	178.94
248.899	208.94
249.133	211.94
249.366	236.94
249.599	221.94
249.832	202.94
250.066	200.94
250.299	182.94
250.532	197.94
250.765	216.94
250.998	247.94
251.231	235.94
251.465	239.94
251.698	216.94
251.931	211.94
252.164	222.94
252.397	237.94
252.63	202.94
252.863	233.94
253.096	231.94
253.329	255.94
253.562	252.94
253.795	237.94
254.028	230.94
254.261	237.94
254.494	249.94
254.727	282.94
254.96	302.94
255.193	286.94
255.426	258.94
255.659	252.94
255.892	273.94
256.124	266.94
256.357	262.94
256.59	265.94
256.823	240.94
257.056	229.94
257.289	218.94
257.521	217.94
257.754	232.94
257.987	205.94
258.22	200.94
258.452	220.94
258.685	214.94
258.918	233.94
259.151	237.94
259.383	249.94
259.616	239.94
259.849	237.94
260.081	264.94
260.314	257.94
260.547	268.94
260.779	299.94
261.012	250.94
261.244	256.94
261.477	242.94
261.71	248.94
261.942	254.94
262.175	248.94
262.407	247.94
262.64	239.94
262.872	263.94
263.105	200.94
263.337	230.94
263.57	218.94
263.802	232.94
264.035	227.94
264.267	208.94
264.499	224.94
264.732	232.94
264.964	231.94
265.197	218.94
265.429	226.94
265.661	226.94
265.894	220.94
266.126	210.94
266.358	226.94
266.591	232.94
266.823	222.94
267.055	222.94
267.287	241.94
267.52	244.94
267.752	237.94
267.984	228.94
268.216	244.94
268.448	256.94
268.681	264.94
268.913	250.94
269.145	280.94
269.377	295.94
269.609	296.94
269.841	296.94
270.073	298.94
270.306	326.94
270.538	336.94
270.77	345.94
271.002	328.94
271.234	328.94
271.466	326.94
271.698	327.94
271.93	333.94
272.162	354.94
272.394	339.94
272.626	332.94
272.858	315.94
273.09	311.94
273.322	286.94
273.553	291.94
273.785	291.94
274.017	301.94
274.249	302.94
274.481	278.94
274.713	274.94
274.945	288.94
275.176	288.94
275.408	294.94
275.64	292.94
275.872	289.94
276.104	291.94
276.335	285.94
276.567	289.94
276.799	294.94
277.031	325.94
277.262	322.94
277.494	348.94
277.726	334.94
277.957	324.94
278.189	303.94
278.421	290.94
278.652	283.94
278.884	293.94
279.115	292.94
279.347	291.94
279.579	273.94
279.81	297.94
280.042	301.94
280.273	283.94
280.505	292.94
280.736	278.94
280.968	293.94
281.199	286.94
281.431	303.94
281.662	274.94
281.894	271.94
282.125	285.94
282.356	324.94
282.588	336.94
282.819	336.94
283.051	297.94
283.282	296.94
283.513	261.94
283.745	266.94
283.976	306.94
284.207	311.94
284.439	279.94
284.67	286.94
284.901	281.94
285.132	291.94
285.364	276.94
285.595	281.94
285.826	271.94
286.057	283.94
286.288	284.94
286.52	291.94
286.751	306.94
286.982	294.94
287.213	296.94
287.444	292.94
287.675	296.94
287.906	287.94
288.138	308.94
288.369	323.94
288.6	302.94
288.831	298.94
289.062	320.94
289.293	309.94
289.524	295.94
289.755	308.94
289.986	286.94
290.217	286.94
290.448	301.94
290.679	299.94
290.91	286.94
291.141	300.94
291.371	278.94
291.602	285.94
291.833	291.94
292.064	302.94
292.295	286.94
292.526	305.94
292.757	287.94
292.987	268.94
293.218	289.94
293.449	293.94
293.68	300.94
293.91	288.94
294.141	312.94
294.372	298.94
294.603	294.94
294.833	308.94
295.064	301.94
295.295	313.94
295.525	318.94
295.756	338.94
295.987	318.94
296.217	348.94
296.448	351.94
296.679	314.94
296.909	302.94
297.14	290.94
297.37	306.94
297.601	322.94
297.831	314.94
298.062	322.94
298.292	314.94
298.523	320.94
298.753	304.94
298.984	296.94
299.214	308.94
299.445	320.94
299.675	322.94
299.905	328.94
300.136	338.94
300.366	330.94
300.597	311.94
300.827	306.94
301.057	328.94
301.288	347.94
301.518	344.94
301.748	311.94
301.979	324.94
302.209	345.94
302.439	341.94
302.669	350.94
302.9	335.94
303.13	345.94
303.36	346.94
303.59	316.94
303.82	358.94
304.051	348.94
304.281	322.94
304.511	343.94
304.741	316.94
304.971	332.94
305.201	336.94
305.431	328.94
305.661	342.94
305.891	337.94
306.121	333.94
306.352	343.94
306.582	352.94
306.812	346.94
307.042	339.94
307.272	325.94
307.502	340.94
307.731	350.94
307.961	348.94
308.191	343.94
308.421	339.94
308.651	368.94
308.881	341.94
309.111	344.94
309.341	351.94
309.571	359.94
309.8	367.94
310.03	388.94
310.26	390.94
310.49	408.94
310.72	416.94
310.949	415.94
311.179	431.94
311.409	409.94
311.639	395.94
311.868	404.94
312.098	411.94
312.328	411.94
312.557	430.94
312.787	439.94
313.017	437.94
313.246	423.94
313.476	410.94
313.706	402.94
313.935	434.94
314.165	419.94
314.394	429.94
314.624	400.94
314.853	400.94
315.083	408.94
315.312	391.94
315.542	396.94
315.771	396.94
316.001	395.94
316.23	387.94
316.46	409.94
316.689	403.94
316.919	409.94
317.148	393.94
317.377	426.94
317.607	380.94
317.836	411.94
318.065	412.94
318.295	395.94
318.524	392.94
318.753	388.94
318.983	418.94
319.212	420.94
319.441	419.94
319.67	411.94
319.9	396.94
320.129	403.94
320.358	415.94
320.587	405.94
320.816	422.94
321.046	422.94
321.275	438.94
321.504	442.94
321.733	427.94
321.962	456.94
322.191	456.94
322.42	490.94
322.649	487.94
322.878	516.94
323.108	526.94
323.337	534.94
323.566	568.94
323.795	616.94
324.024	672.94
324.253	855.94
324.482	1241.94
324.71	1884.94
324.939	2571.94
325.168	2156.94
325.397	1150.94
325.626	774.94
325.855	656.94
326.084	599.94
326.313	560.94
326.542	573.94
326.77	661.94
326.999	762.94
327.228	1072.94
327.457	1631.94
327.686	1901.94
327.914	1270.94
328.143	836.94
328.372	731.94
328.6	680.94
328.829	655.94
329.058	642.94
329.287	656.94
329.515	627.94
329.744	578.94
329.972	551.94
330.201	627.94
330.43	636.94
330.658	667.94
330.887	691.94
331.115	638.94
331.344	558.94
331.572	547.94
331.801	538.94
332.03	540.94
332.258	501.94
332.486	497.94
332.715	479.94
332.943	469.94
333.172	472.94
333.4	475.94
333.629	461.94
333.857	482.94
334.085	513.94
334.314	524.94
334.542	537.94
334.771	572.94
334.999	498.94
335.227	498.94
335.455	475.94
335.684	467.94
335.912	453.94
336.14	471.94
336.369	454.94
336.597	480.94
336.825	455.94
337.053	458.94
337.281	426.94
337.51	427.94
337.738	430.94
337.966	433.94
338.194	462.94
338.422	453.94
338.65	444.94
338.878	471.94
339.106	432.94
339.334	425.94
339.562	426.94
339.79	430.94
340.018	440.94
340.246	460.94
340.474	431.94
340.702	425.94
340.93	435.94
341.158	436.94
341.386	424.94
341.614	444.94
341.842	430.94
342.07	438.94
342.298	419.94
342.526	420.94
342.754	407.94
342.981	406.94
343.209	415.94
343.437	431.94
343.665	426.94
343.893	423.94
344.12	427.94
344.348	424.94
344.576	430.94
344.804	454.94
345.031	447.94
345.259	445.94
345.487	451.94
345.714	443.94
345.942	435.94
346.17	439.94
346.397	427.94
346.625	405.94
346.853	429.94
347.08	413.94
347.308	419.94
347.535	448.94
347.763	420.94
347.99	443.94
348.218	422.94
348.445	446.94
348.673	430.94
348.9	426.94
349.128	411.94
349.355	406.94
349.583	410.94
349.81	408.94
350.037	395.94
350.265	402.94
350.492	383.94
350.72	398.94
350.947	428.94
351.174	430.94
351.402	428.94
351.629	420.94
351.856	414.94
352.083	420.94
352.311	432.94
352.538	421.94
352.765	434.94
352.992	411.94
353.22	421.94
353.447	419.94
353.674	394.94
353.901	384.94
354.128	414.94
354.355	376.94
354.583	386.94
354.81	372.94
355.037	385.94
355.264	375.94
355.491	367.94
355.718	388.94
355.945	370.94
356.172	374.94
356.399	370.94
356.626	380.94
356.853	357.94
357.08	378.94
357.307	354.94
357.534	371.94
357.761	378.94
357.988	362.94
358.215	378.94
358.441	390.94
358.668	378.94
358.895	389.94
359.122	407.94
359.349	406.94
359.576	409.94
359.802	440.94
360.029	467.94
360.256	469.94
360.483	472.94
360.709	416.94
360.936	399.94
361.163	418.94
361.39	413.94
361.616	408.94
361.843	434.94
362.07	409.94
362.296	410.94
362.523	419.94
362.749	419.94
362.976	384.94
363.203	398.94
363.429	395.94
363.656	395.94
363.882	401.94
364.109	385.94
364.335	396.94
364.562	386.94
364.788	362.94
365.015	370.94
365.241	370.94
365.468	404.94
365.694	396.94
365.92	367.94
366.147	374.94
366.373	380.94
366.599	400.94
366.826	369.94
367.052	363.94
367.278	388.94
367.505	374.94
367.731	372.94
367.957	393.94
368.184	394.94
368.41	362.94
368.636	384.94
368.862	398.94
369.089	388.94
369.315	398.94
369.541	391.94
369.767	384.94
369.993	382.94
370.219	362.94
370.445	388.94
370.672	375.94
370.898	375.94
371.124	367.94
371.35	372.94
371.576	371.94
371.802	378.94
372.028	370.94
372.254	371.94
372.48	377.94
372.706	359.94
372.932	365.94
373.158	361.94
373.384	384.94
373.61	364.94
373.835	358.94
374.061	377.94
374.287	363.94
374.513	372.94
374.739	370.94
374.965	366.94
375.191	353.94
375.416	376.94
375.642	368.94
375.868	363.94
376.094	347.94
376.319	374.94
376.545	364.94
376.771	370.94
376.997	367.94
377.222	350.94
377.448	381.94
377.674	381.94
377.899	370.94
378.125	362.94
378.35	370.94
378.576	367.94
378.802	370.94
379.027	355.94
379.253	342.94
379.478	347.94
379.704	361.94
379.929	339.94
380.155	349.94
380.38	348.94
380.606	358.94
380.831	372.94
381.057	374.94
381.282	373.94
381.507	364.94
381.733	353.94
381.958	353.94
382.184	381.94
382.409	376.94
382.634	363.94
382.86	364.94
383.085	364.94
383.31	358.94
383.535	374.94
383.761	376.94
383.986	383.94
384.211	368.94
384.436	374.94
384.662	366.94
384.887	375.94
385.112	384.94
385.337	358.94
385.562	370.94
385.787	381.94
386.013	382.94
386.238	384.94
386.463	395.94
386.688	379.94
386.913	383.94
387.138	365.94
387.363	365.94
387.588	357.94
387.813	365.94
388.038	379.94
388.263	382.94
388.488	379.94
388.713	384.94
388.938	384.94
389.163	388.94
389.387	369.94
389.612	384.94
389.837	377.94
390.062	374.94
390.287	379.94
390.512	384.94
390.736	372.94
390.961	355.94
391.186	382.94
391.411	359.94
391.636	359.94
391.86	360.94
392.085	367.94
392.31	385.94
392.534	376.94
392.759	394.94
392.984	392.94
393.208	377.94
393.433	371.94
393.658	387.94
393.882	371.94
394.107	359.94
394.331	363.94
394.556	381.94
394.78	378.94
395.005	371.94
395.229	392.94
395.454	380.94
395.678	374.94
395.903	378.94
396.127	410.94
396.352	420.94
396.576	391.94
396.801	401.94
397.025	365.94
397.249	398.94
397.474	393.94
397.698	401.94
397.922	422.94
398.147	428.94
398.371	428.94
398.595	418.94
398.82	416.94
399.044	418.94
399.268	428.94
399.492	435.94
399.717	450.94
399.941	472.94
400.165	508.94
400.389	522.94
400.613	475.94
400.837	424.94
401.062	430.94
401.286	423.94
401.51	416.94
401.734	427.94
401.958	445.94
402.182	420.94
402.406	450.94
402.63	457.94
402.854	423.94
403.078	420.94
403.302	429.94
403.526	446.94
403.75	433.94
403.974	424.94
404.198	442.94
404.422	442.94
404.645	438.94
404.869	436.94
405.093	483.94
405.317	525.94
405.541	555.94
405.765	487.94
405.988	457.94
406.212	458.94
406.436	494.94
406.66	514.94
406.883	470.94
407.107	499.94
407.331	534.94
407.555	606.94
407.778	592.94
408.002	533.94
408.226	487.94
408.449	477.94
408.673	483.94
408.896	524.94
409.12	530.94
409.344	506.94
409.567	478.94
409.791	469.94
410.014	452.94
410.238	430.94
410.461	454.94
410.685	440.94
410.908	469.94
411.132	477.94
411.355	520.94
411.578	486.94
411.802	460.94
412.025	426.94
412.249	450.94
412.472	470.94
412.695	499.94
412.919	478.94
413.142	444.94
413.365	444.94
413.589	439.94
413.812	394.94
414.035	418.94
414.258	406.94
414.482	417.94
414.705	402.94
414.928	395.94
415.151	432.94
415.374	388.94
415.597	401.94
415.821	386.94
416.044	403.94
416.267	406.94
416.49	425.94
416.713	397.94
416.936	415.94
417.159	411.94
417.382	420.94
417.605	404.94
417.828	440.94
418.051	447.94
418.274	427.94
418.497	425.94
418.72	418.94
418.943	387.94
419.166	431.94
419.389	460.94
419.611	428.94
419.834	438.94
420.057	435.94
420.28	427.94
420.503	445.94
420.726	445.94
420.948	456.94
421.171	484.94
421.394	522.94
421.617	463.94
421.839	428.94
422.062	455.94
422.285	442.94
422.507	486.94
422.73	565.94
422.953	541.94
423.175	468.94
423.398	473.94
423.621	454.94
423.843	465.94
424.066	479.94
424.288	491.94
424.511	490.94
424.733	547.94
424.956	617.94
425.178	591.94
425.401	588.94
425.623	611.94
425.846	533.94
426.068	498.94
426.291	481.94
426.513	480.94
426.735	502.94
426.958	537.94
427.18	591.94
427.402	716.94
427.625	798.94
427.847	716.94
428.069	606.94
428.292	538.94
428.514	503.94
428.736	452.94
428.958	445.94
429.181	438.94
429.403	445.94
429.625	452.94
429.847	501.94
430.069	548.94
430.292	542.94
430.514	479.94
430.736	454.94
430.958	436.94
431.18	404.94
431.402	412.94
431.624	399.94
431.846	408.94
432.068	396.94
432.29	408.94
432.512	397.94
432.734	404.94
432.956	420.94
433.178	430.94
433.4	433.94
433.622	411.94
433.844	420.94
434.066	424.94
434.287	401.94
434.509	422.94
434.731	412.94
434.953	424.94
435.175	452.94
435.397	469.94
435.618	490.94
435.84	514.94
436.062	617.94
436.284	674.94
436.505	557.94
436.727	487.94
436.949	457.94
437.17	456.94
437.392	444.94
437.614	474.94
437.835	510.94
438.057	558.94
438.278	680.94
438.5	678.94
438.721	703.94
438.943	706.94
439.165	570.94
439.386	491.94
439.608	493.94
439.829	503.94
440.05	526.94
440.272	592.94
440.493	543.94
440.715	515.94
440.936	457.94
441.158	459.94
441.379	457.94
441.6	450.94
441.822	483.94
442.043	522.94
442.264	586.94
442.486	634.94
442.707	557.94
442.928	518.94
443.149	500.94
443.371	523.94
443.592	539.94
443.813	667.94
444.034	690.94
444.255	560.94
444.476	491.94
444.698	488.94
444.919	474.94
445.14	583.94
445.361	510.94
445.582	527.94
445.803	591.94
446.024	700.94
446.245	711.94
446.466	640.94
446.687	546.94
446.908	473.94
447.129	483.94
447.35	444.94
447.571	441.94
447.792	418.94
448.013	442.94
448.234	478.94
448.455	514.94
448.675	640.94
448.896	719.94
449.117	640.94
449.338	605.94
449.559	678.94
449.779	742.94
450	623.94
450.221	505.94
450.442	473.94
450.662	456.94
450.883	457.94
451.104	475.94
451.324	460.94
451.545	456.94
451.766	436.94
451.986	411.94
452.207	407.94
452.428	401.94
452.648	395.94
452.869	399.94
453.089	414.94
453.31	439.94
453.53	418.94
453.751	393.94
453.971	410.94
454.192	427.94
454.412	395.94
454.633	399.94
454.853	400.94
455.073	411.94
455.294	451.94
455.514	490.94
455.734	480.94
455.955	403.94
456.175	384.94
456.395	375.94
456.616	381.94
456.836	352.94
457.056	356.94
457.276	349.94
457.497	374.94
457.717	382.94
457.937	377.94
458.157	366.94
458.377	390.94
458.598	426.94
458.818	479.94
459.038	565.94
459.258	572.94
459.478	463.94
459.698	408.94
459.918	399.94
460.138	406.94
460.358	396.94
460.578	384.94
460.798	398.94
461.018	408.94
461.238	405.94
461.458	407.94
461.678	374.94
461.898	382.94
462.118	379.94
462.338	424.94
462.558	394.94
462.777	410.94
462.997	422.94
463.217	426.94
463.437	423.94
463.657	412.94
463.876	402.94
464.096	409.94
464.316	427.94
464.536	415.94
464.755	436.94
464.975	418.94
465.195	490.94
465.414	584.94
465.634	486.94
465.854	432.94
466.073	440.94
466.293	422.94
466.512	415.94
466.732	388.94
466.951	408.94
467.171	402.94
467.391	400.94
467.61	437.94
467.829	427.94
468.049	438.94
468.268	394.94
468.488	392.94
468.707	401.94
468.927	384.94
469.146	383.94
469.365	382.94
469.585	403.94
469.804	395.94
470.023	398.94
470.243	402.94
470.462	411.94
470.681	438.94
470.901	392.94
471.12	403.94
471.339	397.94
471.558	414.94
471.777	415.94
471.997	401.94
472.216	404.94
472.435	450.94
472.654	423.94
472.873	422.94
473.092	400.94
473.311	392.94
473.53	431.94
473.749	424.94
473.968	452.94
474.187	572.94
474.406	611.94
474.625	466.94
474.844	430.94
475.063	422.94
475.282	428.94
475.501	411.94
475.72	429.94
475.939	406.94
476.158	432.94
476.377	415.94
476.596	425.94
476.814	418.94
477.033	441.94
477.252	436.94
477.471	425.94
477.69	420.94
477.908	436.94
478.127	439.94
478.346	423.94
478.564	435.94
478.783	419.94
479.002	449.94
479.22	455.94
479.439	467.94
479.658	489.94
479.876	482.94
480.095	506.94
480.313	536.94
480.532	493.94
480.751	487.94
480.969	495.94
481.188	545.94
481.406	580.94
481.624	505.94
481.843	488.94
482.061	489.94
482.28	484.94
482.498	479.94
482.717	468.94
482.935	482.94
483.153	468.94
483.372	474.94
483.59	485.94
483.808	482.94
484.027	462.94
484.245	479.94
484.463	478.94
484.681	471.94
484.9	467.94
485.118	486.94
485.336	489.94
485.554	503.94
485.772	476.94
485.99	482.94
486.209	501.94
486.427	492.94
486.645	514.94
486.863	530.94
487.081	534.94
487.299	490.94
487.517	511.94
487.735	508.94
487.953	507.94
488.171	534.94
488.389	495.94
488.607	490.94
488.825	494.94
489.043	521.94
489.261	512.94
489.479	526.94
489.696	539.94
489.914	526.94
490.132	545.94
490.35	543.94
490.568	532.94
490.786	550.94
491.003	560.94
491.221	575.94
491.439	606.94
491.657	564.94
491.874	579.94
492.092	596.94
492.31	590.94
492.527	587.94
492.745	610.94
492.963	581.94
493.18	592.94
493.398	590.94
493.615	619.94
493.833	612.94
494.05	614.94
494.268	580.94
494.485	592.94
494.703	584.94
494.92	607.94
495.138	605.94
495.355	622.94
495.573	617.94
495.79	611.94
496.008	614.94
496.225	590.94
496.442	626.94
496.66	610.94
496.877	606.94
497.094	603.94
497.312	605.94
497.529	604.94
497.746	617.94
497.963	648.94
498.181	647.94
498.398	652.94
498.615	660.94
498.832	660.94
499.049	662.94
499.267	669.94
499.484	670.94
499.701	698.94
499.918	716.94
500.135	712.94
500.352	748.94
500.569	740.94
500.786	724.94
501.003	742.94
501.22	728.94
501.437	711.94
501.654	735.94
501.871	720.94
