Data from 1981.PennyLincolnUp.Lamp.En5.5.200Scan.071819.P1_HRD10591_16-42-02-959.txt Node
Date: Thu Jul 18 16:42:02 EDT 2019
User: cochatt
Spectrometer: HR+D1059
Trigger mode: 1
Integration Time (sec): 1.000000E-1
Scans to average: 1
Electric dark correction enabled: true
Nonlinearity correction enabled: false
Boxcar width: 0
XAxis mode: Wavelengths
Number of Pixels in Spectrum: 2048
>>>>>Begin Spectral Data<<<<<
223.165	-20.44
223.4	-20.44
223.635	-20.44
223.869	0.56
224.104	-11.44
224.338	1.56
224.573	-14.44
224.808	-9.44
225.042	-13.44
225.277	-2.44
225.511	-4.44
225.746	-2.44
225.98	10.56
226.215	9.56
226.449	17.56
226.683	11.56
226.918	12.56
227.152	14.56
227.387	35.56
227.621	33.56
227.856	39.56
228.09	40.56
228.324	40.56
228.559	66.56
228.793	70.56
229.027	104.56
229.262	100.56
229.496	102.56
229.73	139.56
229.964	155.56
230.199	131.56
230.433	125.56
230.667	119.56
230.901	99.56
231.136	117.56
231.37	117.56
231.604	117.56
231.838	108.56
232.072	108.56
232.306	107.56
232.541	122.56
232.775	113.56
233.009	117.56
233.243	111.56
233.477	105.56
233.711	118.56
233.945	107.56
234.179	107.56
234.413	124.56
234.647	111.56
234.881	102.56
235.115	125.56
235.349	125.56
235.583	117.56
235.817	134.56
236.051	119.56
236.285	140.56
236.519	139.56
236.753	131.56
236.987	146.56
237.221	188.56
237.455	233.56
237.689	183.56
237.922	149.56
238.156	130.56
238.39	131.56
238.624	114.56
238.858	114.56
239.091	125.56
239.325	128.56
239.559	123.56
239.793	128.56
240.027	148.56
240.26	129.56
240.494	157.56
240.728	163.56
240.961	149.56
241.195	150.56
241.429	137.56
241.662	129.56
241.896	150.56
242.13	141.56
242.363	133.56
242.597	136.56
242.83	129.56
243.064	128.56
243.298	135.56
243.531	136.56
243.765	131.56
243.998	139.56
244.232	137.56
244.465	153.56
244.699	165.56
244.932	140.56
245.166	136.56
245.399	155.56
245.633	154.56
245.866	153.56
246.099	151.56
246.333	165.56
246.566	153.56
246.8	141.56
247.033	164.56
247.266	175.56
247.5	159.56
247.733	168.56
247.966	184.56
248.2	176.56
248.433	189.56
248.666	181.56
248.899	201.56
249.133	189.56
249.366	212.56
249.599	194.56
249.832	180.56
250.066	179.56
250.299	166.56
250.532	187.56
250.765	223.56
250.998	226.56
251.231	220.56
251.465	211.56
251.698	211.56
251.931	205.56
252.164	193.56
252.397	209.56
252.63	215.56
252.863	222.56
253.096	233.56
253.329	237.56
253.562	229.56
253.795	236.56
254.028	242.56
254.261	229.56
254.494	230.56
254.727	259.56
254.96	294.56
255.193	273.56
255.426	240.56
255.659	242.56
255.892	239.56
256.124	232.56
256.357	239.56
256.59	228.56
256.823	217.56
257.056	218.56
257.289	204.56
257.521	249.56
257.754	208.56
257.987	219.56
258.22	223.56
258.452	214.56
258.685	211.56
258.918	220.56
259.151	217.56
259.383	213.56
259.616	228.56
259.849	232.56
260.081	245.56
260.314	258.56
260.547	267.56
260.779	255.56
261.012	257.56
261.244	231.56
261.477	215.56
261.71	228.56
261.942	234.56
262.175	238.56
262.407	259.56
262.64	217.56
262.872	215.56
263.105	223.56
263.337	206.56
263.57	220.56
263.802	225.56
264.035	226.56
264.267	212.56
264.499	211.56
264.732	242.56
264.964	197.56
265.197	207.56
265.429	227.56
265.661	212.56
265.894	203.56
266.126	207.56
266.358	219.56
266.591	222.56
266.823	227.56
267.055	237.56
267.287	228.56
267.52	225.56
267.752	246.56
267.984	226.56
268.216	245.56
268.448	223.56
268.681	238.56
268.913	247.56
269.145	258.56
269.377	294.56
269.609	290.56
269.841	302.56
270.073	293.56
270.306	316.56
270.538	326.56
270.77	332.56
271.002	309.56
271.234	301.56
271.466	317.56
271.698	346.56
271.93	322.56
272.162	332.56
272.394	332.56
272.626	327.56
272.858	303.56
273.09	302.56
273.322	286.56
273.553	275.56
273.785	278.56
274.017	269.56
274.249	273.56
274.481	282.56
274.713	277.56
274.945	271.56
275.176	279.56
275.408	294.56
275.64	276.56
275.872	271.56
276.104	286.56
276.335	264.56
276.567	270.56
276.799	298.56
277.031	311.56
277.262	332.56
277.494	302.56
277.726	303.56
277.957	308.56
278.189	295.56
278.421	269.56
278.652	282.56
278.884	263.56
279.115	257.56
279.347	269.56
279.579	269.56
279.81	250.56
280.042	272.56
280.273	272.56
280.505	271.56
280.736	277.56
280.968	285.56
281.199	265.56
281.431	267.56
281.662	286.56
281.894	286.56
282.125	292.56
282.356	292.56
282.588	314.56
282.819	309.56
283.051	283.56
283.282	280.56
283.513	280.56
283.745	274.56
283.976	282.56
284.207	290.56
284.439	284.56
284.67	287.56
284.901	275.56
285.132	281.56
285.364	282.56
285.595	274.56
285.826	272.56
286.057	271.56
286.288	287.56
286.52	274.56
286.751	255.56
286.982	285.56
287.213	263.56
287.444	282.56
287.675	291.56
287.906	284.56
288.138	293.56
288.369	297.56
288.6	277.56
288.831	299.56
289.062	294.56
289.293	308.56
289.524	307.56
289.755	289.56
289.986	289.56
290.217	285.56
290.448	286.56
290.679	302.56
290.91	287.56
291.141	269.56
291.371	295.56
291.602	270.56
291.833	279.56
292.064	293.56
292.295	280.56
292.526	285.56
292.757	292.56
292.987	301.56
293.218	295.56
293.449	290.56
293.68	284.56
293.91	269.56
294.141	290.56
294.372	281.56
294.603	280.56
294.833	301.56
295.064	286.56
295.295	265.56
295.525	292.56
295.756	293.56
295.987	318.56
296.217	322.56
296.448	331.56
296.679	300.56
296.909	261.56
297.14	290.56
297.37	281.56
297.601	302.56
297.831	278.56
298.062	310.56
298.292	299.56
298.523	283.56
298.753	302.56
298.984	311.56
299.214	299.56
299.445	313.56
299.675	311.56
299.905	305.56
300.136	309.56
300.366	310.56
300.597	294.56
300.827	307.56
301.057	295.56
301.288	325.56
301.518	289.56
301.748	307.56
301.979	339.56
302.209	326.56
302.439	311.56
302.669	305.56
302.9	327.56
303.13	324.56
303.36	321.56
303.59	317.56
303.82	335.56
304.051	341.56
304.281	327.56
304.511	338.56
304.741	331.56
304.971	318.56
305.201	305.56
305.431	325.56
305.661	312.56
305.891	320.56
306.121	333.56
306.352	330.56
306.582	324.56
306.812	317.56
307.042	330.56
307.272	334.56
307.502	340.56
307.731	321.56
307.961	345.56
308.191	333.56
308.421	341.56
308.651	327.56
308.881	342.56
309.111	343.56
309.341	327.56
309.571	340.56
309.8	355.56
310.03	381.56
310.26	385.56
310.49	372.56
310.72	387.56
310.949	397.56
311.179	401.56
311.409	390.56
311.639	396.56
311.868	386.56
312.098	393.56
312.328	390.56
312.557	409.56
312.787	419.56
313.017	404.56
313.246	386.56
313.476	393.56
313.706	367.56
313.935	391.56
314.165	405.56
314.394	404.56
314.624	418.56
314.853	385.56
315.083	372.56
315.312	378.56
315.542	381.56
315.771	390.56
316.001	369.56
316.23	381.56
316.46	378.56
316.689	371.56
316.919	373.56
317.148	400.56
317.377	391.56
317.607	389.56
317.836	375.56
318.065	381.56
318.295	387.56
318.524	365.56
318.753	367.56
318.983	371.56
319.212	373.56
319.441	378.56
319.67	403.56
319.9	387.56
320.129	378.56
320.358	381.56
320.587	404.56
320.816	394.56
321.046	397.56
321.275	416.56
321.504	404.56
321.733	423.56
321.962	418.56
322.191	419.56
322.42	449.56
322.649	443.56
322.878	467.56
323.108	474.56
323.337	515.56
323.566	543.56
323.795	559.56
324.024	628.56
324.253	760.56
324.482	1130.56
324.71	1750.56
324.939	2367.56
325.168	1956.56
325.397	1066.56
325.626	737.56
325.855	597.56
326.084	555.56
326.313	523.56
326.542	552.56
326.77	606.56
326.999	718.56
327.228	1009.56
327.457	1467.56
327.686	1749.56
327.914	1151.56
328.143	784.56
328.372	681.56
328.6	621.56
328.829	615.56
329.058	621.56
329.287	621.56
329.515	566.56
329.744	533.56
329.972	513.56
330.201	542.56
330.43	579.56
330.658	614.56
330.887	655.56
331.115	612.56
331.344	522.56
331.572	517.56
331.801	483.56
332.03	479.56
332.258	490.56
332.486	452.56
332.715	446.56
332.943	449.56
333.172	453.56
333.4	442.56
333.629	453.56
333.857	435.56
334.085	457.56
334.314	477.56
334.542	508.56
334.771	541.56
334.999	494.56
335.227	463.56
335.455	432.56
335.684	438.56
335.912	433.56
336.14	444.56
336.369	426.56
336.597	428.56
336.825	442.56
337.053	421.56
337.281	411.56
337.51	436.56
337.738	433.56
337.966	421.56
338.194	415.56
338.422	440.56
338.65	433.56
338.878	421.56
339.106	414.56
339.334	430.56
339.562	402.56
339.79	429.56
340.018	438.56
340.246	399.56
340.474	393.56
340.702	422.56
340.93	416.56
341.158	415.56
341.386	405.56
341.614	407.56
341.842	414.56
342.07	418.56
342.298	404.56
342.526	406.56
342.754	398.56
342.981	380.56
343.209	395.56
343.437	395.56
343.665	392.56
343.893	401.56
344.12	412.56
344.348	401.56
344.576	409.56
344.804	411.56
345.031	425.56
345.259	447.56
345.487	436.56
345.714	436.56
345.942	404.56
346.17	389.56
346.397	397.56
346.625	411.56
346.853	395.56
347.08	387.56
347.308	412.56
347.535	412.56
347.763	436.56
347.99	406.56
348.218	417.56
348.445	427.56
348.673	406.56
348.9	394.56
349.128	398.56
349.355	400.56
349.583	386.56
349.81	392.56
350.037	382.56
350.265	380.56
350.492	364.56
350.72	391.56
350.947	395.56
351.174	406.56
351.402	396.56
351.629	402.56
351.856	410.56
352.083	421.56
352.311	414.56
352.538	406.56
352.765	419.56
352.992	409.56
353.22	397.56
353.447	398.56
353.674	385.56
353.901	388.56
354.128	373.56
354.355	383.56
354.583	355.56
354.81	352.56
355.037	371.56
355.264	360.56
355.491	356.56
355.718	362.56
355.945	362.56
356.172	372.56
356.399	373.56
356.626	377.56
356.853	361.56
357.08	347.56
357.307	359.56
357.534	353.56
357.761	375.56
357.988	341.56
358.215	353.56
358.441	362.56
358.668	362.56
358.895	363.56
359.122	364.56
359.349	369.56
359.576	405.56
359.802	404.56
360.029	459.56
360.256	456.56
360.483	437.56
360.709	382.56
360.936	403.56
361.163	388.56
361.39	393.56
361.616	417.56
361.843	396.56
362.07	397.56
362.296	386.56
362.523	385.56
362.749	377.56
362.976	373.56
363.203	371.56
363.429	369.56
363.656	365.56
363.882	367.56
364.109	380.56
364.335	349.56
364.562	374.56
364.788	380.56
365.015	395.56
365.241	371.56
365.468	364.56
365.694	377.56
365.92	361.56
366.147	365.56
366.373	381.56
366.599	370.56
366.826	368.56
367.052	357.56
367.278	375.56
367.505	363.56
367.731	376.56
367.957	343.56
368.184	371.56
368.41	361.56
368.636	376.56
368.862	387.56
369.089	356.56
369.315	363.56
369.541	347.56
369.767	362.56
369.993	347.56
370.219	347.56
370.445	357.56
370.672	347.56
370.898	346.56
371.124	342.56
371.35	340.56
371.576	350.56
371.802	356.56
372.028	364.56
372.254	327.56
372.48	336.56
372.706	335.56
372.932	322.56
373.158	343.56
373.384	345.56
373.61	351.56
373.835	351.56
374.061	360.56
374.287	354.56
374.513	349.56
374.739	373.56
374.965	348.56
375.191	347.56
375.416	353.56
375.642	337.56
375.868	352.56
376.094	347.56
376.319	343.56
376.545	352.56
376.771	350.56
376.997	338.56
377.222	359.56
377.448	332.56
377.674	335.56
377.899	335.56
378.125	337.56
378.35	345.56
378.576	348.56
378.802	362.56
379.027	337.56
379.253	344.56
379.478	341.56
379.704	353.56
379.929	350.56
380.155	343.56
380.38	349.56
380.606	357.56
380.831	348.56
381.057	371.56
381.282	340.56
381.507	339.56
381.733	335.56
381.958	356.56
382.184	348.56
382.409	354.56
382.634	356.56
382.86	337.56
383.085	357.56
383.31	346.56
383.535	341.56
383.761	345.56
383.986	355.56
384.211	363.56
384.436	358.56
384.662	355.56
384.887	383.56
385.112	349.56
385.337	361.56
385.562	358.56
385.787	363.56
386.013	361.56
386.238	373.56
386.463	375.56
386.688	369.56
386.913	361.56
387.138	376.56
387.363	366.56
387.588	378.56
387.813	363.56
388.038	351.56
388.263	373.56
388.488	364.56
388.713	373.56
388.938	364.56
389.163	355.56
389.387	345.56
389.612	368.56
389.837	371.56
390.062	357.56
390.287	357.56
390.512	351.56
390.736	354.56
390.961	366.56
391.186	364.56
391.411	386.56
391.636	357.56
391.86	353.56
392.085	373.56
392.31	365.56
392.534	349.56
392.759	354.56
392.984	354.56
393.208	354.56
393.433	344.56
393.658	342.56
393.882	361.56
394.107	373.56
394.331	366.56
394.556	361.56
394.78	338.56
395.005	353.56
395.229	362.56
395.454	381.56
395.678	370.56
395.903	367.56
396.127	393.56
396.352	395.56
396.576	390.56
396.801	381.56
397.025	373.56
397.249	378.56
397.474	362.56
397.698	399.56
397.922	395.56
398.147	406.56
398.371	411.56
398.595	378.56
398.82	391.56
399.044	400.56
399.268	412.56
399.492	431.56
399.717	464.56
399.941	449.56
400.165	491.56
400.389	492.56
400.613	460.56
400.837	417.56
401.062	411.56
401.286	407.56
401.51	419.56
401.734	415.56
401.958	416.56
402.182	394.56
402.406	406.56
402.63	416.56
402.854	419.56
403.078	413.56
403.302	406.56
403.526	423.56
403.75	412.56
403.974	426.56
404.198	406.56
404.422	420.56
404.645	413.56
404.869	441.56
405.093	449.56
405.317	476.56
405.541	511.56
405.765	463.56
405.988	443.56
406.212	447.56
406.436	465.56
406.66	479.56
406.883	442.56
407.107	468.56
407.331	506.56
407.555	550.56
407.778	564.56
408.002	511.56
408.226	452.56
408.449	450.56
408.673	468.56
408.896	469.56
409.12	532.56
409.344	506.56
409.567	443.56
409.791	433.56
410.014	420.56
410.238	406.56
410.461	421.56
410.685	422.56
410.908	435.56
411.132	465.56
411.355	482.56
411.578	463.56
411.802	441.56
412.025	417.56
412.249	426.56
412.472	438.56
412.695	490.56
412.919	459.56
413.142	445.56
413.365	409.56
413.589	401.56
413.812	406.56
414.035	403.56
414.258	396.56
414.482	384.56
414.705	372.56
414.928	387.56
415.151	376.56
415.374	401.56
415.597	394.56
415.821	383.56
416.044	387.56
416.267	381.56
416.49	390.56
416.713	390.56
416.936	388.56
417.159	378.56
417.382	387.56
417.605	394.56
417.828	428.56
418.051	417.56
418.274	419.56
418.497	388.56
418.72	383.56
418.943	381.56
419.166	378.56
419.389	422.56
419.611	417.56
419.834	427.56
420.057	413.56
420.28	398.56
420.503	399.56
420.726	439.56
420.948	435.56
421.171	467.56
421.394	513.56
421.617	440.56
421.839	406.56
422.062	419.56
422.285	433.56
422.507	494.56
422.73	539.56
422.953	502.56
423.175	454.56
423.398	439.56
423.621	452.56
423.843	456.56
424.066	447.56
424.288	443.56
424.511	476.56
424.733	514.56
424.956	587.56
425.178	575.56
425.401	567.56
425.623	572.56
425.846	496.56
426.068	470.56
426.291	440.56
426.513	456.56
426.735	474.56
426.958	514.56
427.18	596.56
427.402	693.56
427.625	737.56
427.847	685.56
428.069	579.56
428.292	505.56
428.514	461.56
428.736	450.56
428.958	438.56
429.181	431.56
429.403	429.56
429.625	419.56
429.847	466.56
430.069	533.56
430.292	520.56
430.514	455.56
430.736	424.56
430.958	437.56
431.18	413.56
431.402	418.56
431.624	386.56
431.846	382.56
432.068	395.56
432.29	398.56
432.512	410.56
432.734	406.56
432.956	402.56
433.178	403.56
433.4	417.56
433.622	417.56
433.844	405.56
434.066	399.56
434.287	386.56
434.509	385.56
434.731	404.56
434.953	398.56
435.175	409.56
435.397	454.56
435.618	447.56
435.84	509.56
436.062	589.56
436.284	635.56
436.505	542.56
436.727	495.56
436.949	459.56
437.17	445.56
437.392	433.56
437.614	446.56
437.835	468.56
438.057	566.56
438.278	639.56
438.5	647.56
438.721	693.56
438.943	668.56
439.165	535.56
439.386	485.56
439.608	482.56
439.829	475.56
440.05	501.56
440.272	555.56
440.493	524.56
440.715	461.56
440.936	445.56
441.158	424.56
441.379	443.56
441.6	421.56
441.822	459.56
442.043	501.56
442.264	579.56
442.486	613.56
442.707	514.56
442.928	481.56
443.149	487.56
443.371	519.56
443.592	528.56
443.813	623.56
444.034	645.56
444.255	539.56
444.476	477.56
444.698	463.56
444.919	421.56
445.14	591.56
445.361	535.56
445.582	508.56
445.803	549.56
446.024	654.56
446.245	672.56
446.466	629.56
446.687	519.56
446.908	475.56
447.129	445.56
447.35	431.56
447.571	399.56
447.792	417.56
448.013	432.56
448.234	439.56
448.455	506.56
448.675	616.56
448.896	693.56
449.117	606.56
449.338	549.56
449.559	642.56
449.779	709.56
450	588.56
450.221	482.56
450.442	459.56
450.662	430.56
450.883	426.56
451.104	453.56
451.324	421.56
451.545	409.56
451.766	402.56
451.986	403.56
452.207	377.56
452.428	379.56
452.648	394.56
452.869	383.56
453.089	384.56
453.31	400.56
453.53	375.56
453.751	372.56
453.971	388.56
454.192	408.56
454.412	400.56
454.633	369.56
454.853	383.56
455.073	373.56
455.294	383.56
455.514	452.56
455.734	458.56
455.955	392.56
456.175	369.56
456.395	341.56
456.616	347.56
456.836	376.56
457.056	357.56
457.276	349.56
457.497	354.56
457.717	362.56
457.937	355.56
458.157	341.56
458.377	370.56
458.598	381.56
458.818	446.56
459.038	517.56
459.258	519.56
459.478	454.56
459.698	411.56
459.918	395.56
460.138	372.56
460.358	395.56
460.578	403.56
460.798	373.56
461.018	391.56
461.238	365.56
461.458	393.56
461.678	371.56
461.898	378.56
462.118	376.56
462.338	404.56
462.558	393.56
462.777	399.56
462.997	405.56
463.217	397.56
463.437	411.56
463.657	403.56
463.876	409.56
464.096	397.56
464.316	413.56
464.536	415.56
464.755	403.56
464.975	447.56
465.195	465.56
465.414	546.56
465.634	457.56
465.854	421.56
466.073	418.56
466.293	407.56
466.512	384.56
466.732	371.56
466.951	374.56
467.171	365.56
467.391	368.56
467.61	374.56
467.829	404.56
468.049	399.56
468.268	394.56
468.488	350.56
468.707	387.56
468.927	384.56
469.146	365.56
469.365	360.56
469.585	366.56
469.804	372.56
470.023	379.56
470.243	402.56
470.462	412.56
470.681	381.56
470.901	422.56
471.12	406.56
471.339	373.56
471.558	393.56
471.777	390.56
471.997	369.56
472.216	400.56
472.435	420.56
472.654	411.56
472.873	397.56
473.092	385.56
473.311	370.56
473.53	395.56
473.749	402.56
473.968	440.56
474.187	545.56
474.406	575.56
474.625	455.56
474.844	419.56
475.063	406.56
475.282	396.56
475.501	391.56
475.72	427.56
475.939	398.56
476.158	408.56
476.377	412.56
476.596	404.56
476.814	422.56
477.033	421.56
477.252	401.56
477.471	423.56
477.69	411.56
477.908	433.56
478.127	402.56
478.346	418.56
478.564	414.56
478.783	419.56
479.002	417.56
479.22	454.56
479.439	448.56
479.658	473.56
479.876	436.56
480.095	470.56
480.313	502.56
480.532	490.56
480.751	460.56
480.969	483.56
481.188	523.56
481.406	563.56
481.624	499.56
481.843	463.56
482.061	467.56
482.28	466.56
482.498	450.56
482.717	456.56
482.935	426.56
483.153	447.56
483.372	475.56
483.59	460.56
483.808	437.56
484.027	453.56
484.245	478.56
484.463	452.56
484.681	478.56
484.9	483.56
485.118	449.56
485.336	467.56
485.554	473.56
485.772	464.56
485.99	474.56
486.209	481.56
486.427	475.56
486.645	509.56
486.863	512.56
487.081	510.56
487.299	496.56
487.517	494.56
487.735	473.56
487.953	473.56
488.171	489.56
488.389	462.56
488.607	483.56
488.825	469.56
489.043	481.56
489.261	498.56
489.479	478.56
489.696	509.56
489.914	475.56
490.132	513.56
490.35	521.56
490.568	522.56
490.786	532.56
491.003	555.56
491.221	536.56
491.439	563.56
491.657	556.56
491.874	541.56
492.092	547.56
492.31	553.56
492.527	575.56
492.745	589.56
492.963	564.56
493.18	573.56
493.398	558.56
493.615	552.56
493.833	569.56
494.05	561.56
494.268	564.56
494.485	563.56
494.703	558.56
494.92	571.56
495.138	573.56
495.355	596.56
495.573	594.56
495.79	574.56
496.008	573.56
496.225	592.56
496.442	571.56
496.66	576.56
496.877	568.56
497.094	582.56
497.312	595.56
497.529	604.56
497.746	587.56
497.963	616.56
498.181	607.56
498.398	629.56
498.615	597.56
498.832	632.56
499.049	621.56
499.267	645.56
499.484	650.56
499.701	659.56
499.918	654.56
500.135	691.56
500.352	711.56
500.569	716.56
500.786	719.56
501.003	708.56
501.22	705.56
501.437	692.56
501.654	681.56
501.871	695.56
