Data from 1981.PennyLincolnUp.Lamp.En5.5.200Scan.071819.P1_HRD10591_16-42-54-961.txt Node
Date: Thu Jul 18 16:42:54 EDT 2019
User: cochatt
Spectrometer: HR+D1059
Trigger mode: 1
Integration Time (sec): 1.000000E-1
Scans to average: 1
Electric dark correction enabled: true
Nonlinearity correction enabled: false
Boxcar width: 0
XAxis mode: Wavelengths
Number of Pixels in Spectrum: 2048
>>>>>Begin Spectral Data<<<<<
223.165	-21.81
223.4	-21.81
223.635	-21.81
223.869	-22.81
224.104	-19.81
224.338	-13.81
224.573	-17.81
224.808	-11.81
225.042	6.19
225.277	-0.81
225.511	-8.81
225.746	8.19
225.98	8.19
226.215	7.19
226.449	13.19
226.683	8.19
226.918	30.19
227.152	36.19
227.387	37.19
227.621	41.19
227.856	42.19
228.09	37.19
228.324	45.19
228.559	49.19
228.793	83.19
229.027	108.19
229.262	109.19
229.496	115.19
229.73	126.19
229.964	171.19
230.199	133.19
230.433	128.19
230.667	132.19
230.901	113.19
231.136	101.19
231.37	109.19
231.604	116.19
231.838	100.19
232.072	107.19
232.306	113.19
232.541	113.19
232.775	108.19
233.009	105.19
233.243	119.19
233.477	112.19
233.711	125.19
233.945	112.19
234.179	123.19
234.413	123.19
234.647	113.19
234.881	117.19
235.115	116.19
235.349	109.19
235.583	114.19
235.817	132.19
236.051	130.19
236.285	121.19
236.519	120.19
236.753	152.19
236.987	150.19
237.221	193.19
237.455	245.19
237.689	188.19
237.922	156.19
238.156	134.19
238.39	132.19
238.624	131.19
238.858	136.19
239.091	128.19
239.325	135.19
239.559	136.19
239.793	149.19
240.027	124.19
240.26	169.19
240.494	154.19
240.728	146.19
240.961	160.19
241.195	145.19
241.429	130.19
241.662	140.19
241.896	130.19
242.13	140.19
242.363	131.19
242.597	152.19
242.83	142.19
243.064	135.19
243.298	145.19
243.531	116.19
243.765	128.19
243.998	151.19
244.232	144.19
244.465	152.19
244.699	134.19
244.932	144.19
245.166	137.19
245.399	150.19
245.633	131.19
245.866	141.19
246.099	136.19
246.333	158.19
246.566	147.19
246.8	150.19
247.033	167.19
247.266	161.19
247.5	154.19
247.733	158.19
247.966	179.19
248.2	188.19
248.433	181.19
248.666	178.19
248.899	203.19
249.133	199.19
249.366	211.19
249.599	208.19
249.832	198.19
250.066	172.19
250.299	188.19
250.532	188.19
250.765	214.19
250.998	234.19
251.231	233.19
251.465	226.19
251.698	225.19
251.931	208.19
252.164	204.19
252.397	209.19
252.63	206.19
252.863	200.19
253.096	220.19
253.329	243.19
253.562	236.19
253.795	240.19
254.028	219.19
254.261	216.19
254.494	244.19
254.727	269.19
254.96	290.19
255.193	299.19
255.426	262.19
255.659	245.19
255.892	256.19
256.124	244.19
256.357	266.19
256.59	264.19
256.823	236.19
257.056	225.19
257.289	243.19
257.521	213.19
257.754	208.19
257.987	217.19
258.22	227.19
258.452	218.19
258.685	208.19
258.918	205.19
259.151	230.19
259.383	224.19
259.616	225.19
259.849	245.19
260.081	257.19
260.314	274.19
260.547	277.19
260.779	273.19
261.012	258.19
261.244	254.19
261.477	282.19
261.71	255.19
261.942	234.19
262.175	261.19
262.407	246.19
262.64	212.19
262.872	218.19
263.105	226.19
263.337	217.19
263.57	209.19
263.802	220.19
264.035	220.19
264.267	209.19
264.499	221.19
264.732	218.19
264.964	226.19
265.197	225.19
265.429	201.19
265.661	211.19
265.894	218.19
266.126	215.19
266.358	222.19
266.591	226.19
266.823	240.19
267.055	248.19
267.287	242.19
267.52	229.19
267.752	233.19
267.984	241.19
268.216	218.19
268.448	246.19
268.681	268.19
268.913	245.19
269.145	270.19
269.377	288.19
269.609	300.19
269.841	296.19
270.073	279.19
270.306	310.19
270.538	330.19
270.77	340.19
271.002	313.19
271.234	314.19
271.466	315.19
271.698	335.19
271.93	331.19
272.162	334.19
272.394	322.19
272.626	310.19
272.858	311.19
273.09	300.19
273.322	288.19
273.553	287.19
273.785	295.19
274.017	284.19
274.249	270.19
274.481	306.19
274.713	270.19
274.945	289.19
275.176	268.19
275.408	273.19
275.64	288.19
275.872	265.19
276.104	260.19
276.335	285.19
276.567	301.19
276.799	296.19
277.031	325.19
277.262	314.19
277.494	333.19
277.726	309.19
277.957	300.19
278.189	282.19
278.421	287.19
278.652	295.19
278.884	282.19
279.115	276.19
279.347	265.19
279.579	290.19
279.81	277.19
280.042	277.19
280.273	277.19
280.505	284.19
280.736	283.19
280.968	274.19
281.199	250.19
281.431	276.19
281.662	282.19
281.894	285.19
282.125	279.19
282.356	292.19
282.588	301.19
282.819	305.19
283.051	301.19
283.282	286.19
283.513	267.19
283.745	279.19
283.976	270.19
284.207	288.19
284.439	287.19
284.67	289.19
284.901	284.19
285.132	294.19
285.364	287.19
285.595	274.19
285.826	284.19
286.057	277.19
286.288	283.19
286.52	284.19
286.751	278.19
286.982	272.19
287.213	288.19
287.444	263.19
287.675	268.19
287.906	308.19
288.138	325.19
288.369	318.19
288.6	304.19
288.831	285.19
289.062	316.19
289.293	294.19
289.524	289.19
289.755	291.19
289.986	291.19
290.217	283.19
290.448	285.19
290.679	299.19
290.91	285.19
291.141	300.19
291.371	286.19
291.602	295.19
291.833	284.19
292.064	286.19
292.295	280.19
292.526	291.19
292.757	293.19
292.987	284.19
293.218	304.19
293.449	288.19
293.68	293.19
293.91	286.19
294.141	280.19
294.372	294.19
294.603	302.19
294.833	282.19
295.064	281.19
295.295	288.19
295.525	302.19
295.756	300.19
295.987	302.19
296.217	316.19
296.448	345.19
296.679	296.19
296.909	296.19
297.14	287.19
297.37	282.19
297.601	297.19
297.831	288.19
298.062	302.19
298.292	300.19
298.523	287.19
298.753	313.19
298.984	295.19
299.214	300.19
299.445	312.19
299.675	301.19
299.905	316.19
300.136	299.19
300.366	290.19
300.597	296.19
300.827	306.19
301.057	314.19
301.288	325.19
301.518	340.19
301.748	312.19
301.979	310.19
302.209	312.19
302.439	355.19
302.669	342.19
302.9	340.19
303.13	328.19
303.36	317.19
303.59	329.19
303.82	335.19
304.051	340.19
304.281	337.19
304.511	334.19
304.741	320.19
304.971	326.19
305.201	324.19
305.431	332.19
305.661	330.19
305.891	322.19
306.121	310.19
306.352	313.19
306.582	329.19
306.812	324.19
307.042	333.19
307.272	312.19
307.502	332.19
307.731	333.19
307.961	327.19
308.191	316.19
308.421	347.19
308.651	349.19
308.881	334.19
309.111	336.19
309.341	347.19
309.571	360.19
309.8	368.19
310.03	374.19
310.26	390.19
310.49	383.19
310.72	403.19
310.949	408.19
311.179	404.19
311.409	387.19
311.639	395.19
311.868	383.19
312.098	375.19
312.328	415.19
312.557	410.19
312.787	442.19
313.017	415.19
313.246	414.19
313.476	378.19
313.706	392.19
313.935	384.19
314.165	418.19
314.394	419.19
314.624	413.19
314.853	390.19
315.083	410.19
315.312	400.19
315.542	382.19
315.771	380.19
316.001	379.19
316.23	390.19
316.46	404.19
316.689	391.19
316.919	379.19
317.148	419.19
317.377	395.19
317.607	389.19
317.836	400.19
318.065	378.19
318.295	369.19
318.524	374.19
318.753	384.19
318.983	394.19
319.212	385.19
319.441	404.19
319.67	410.19
319.9	368.19
320.129	394.19
320.358	384.19
320.587	395.19
320.816	409.19
321.046	419.19
321.275	403.19
321.504	421.19
321.733	418.19
321.962	427.19
322.191	434.19
322.42	477.19
322.649	472.19
322.878	468.19
323.108	509.19
323.337	518.19
323.566	544.19
323.795	603.19
324.024	683.19
324.253	812.19
324.482	1209.19
324.71	1842.19
324.939	2492.19
325.168	2129.19
325.397	1112.19
325.626	750.19
325.855	603.19
326.084	557.19
326.313	565.19
326.542	572.19
326.77	644.19
326.999	770.19
327.228	1056.19
327.457	1596.19
327.686	1854.19
327.914	1249.19
328.143	814.19
328.372	688.19
328.6	656.19
328.829	625.19
329.058	650.19
329.287	647.19
329.515	604.19
329.744	564.19
329.972	539.19
330.201	589.19
330.43	625.19
330.658	642.19
330.887	662.19
331.115	613.19
331.344	546.19
331.572	548.19
331.801	505.19
332.03	502.19
332.258	481.19
332.486	468.19
332.715	447.19
332.943	452.19
333.172	464.19
333.4	452.19
333.629	449.19
333.857	484.19
334.085	483.19
334.314	503.19
334.542	540.19
334.771	536.19
334.999	488.19
335.227	461.19
335.455	460.19
335.684	443.19
335.912	416.19
336.14	440.19
336.369	438.19
336.597	443.19
336.825	434.19
337.053	451.19
337.281	435.19
337.51	407.19
337.738	423.19
337.966	433.19
338.194	423.19
338.422	429.19
338.65	422.19
338.878	425.19
339.106	411.19
339.334	422.19
339.562	422.19
339.79	436.19
340.018	420.19
340.246	435.19
340.474	434.19
340.702	436.19
340.93	416.19
341.158	410.19
341.386	406.19
341.614	436.19
341.842	429.19
342.07	406.19
342.298	411.19
342.526	412.19
342.754	395.19
342.981	396.19
343.209	386.19
343.437	429.19
343.665	412.19
343.893	398.19
344.12	413.19
344.348	404.19
344.576	406.19
344.804	424.19
345.031	450.19
345.259	435.19
345.487	426.19
345.714	431.19
345.942	412.19
346.17	429.19
346.397	418.19
346.625	399.19
346.853	428.19
347.08	425.19
347.308	396.19
347.535	415.19
347.763	419.19
347.99	426.19
348.218	413.19
348.445	432.19
348.673	423.19
348.9	396.19
349.128	410.19
349.355	380.19
349.583	388.19
349.81	388.19
350.037	403.19
350.265	396.19
350.492	366.19
350.72	412.19
350.947	422.19
351.174	416.19
351.402	414.19
351.629	425.19
351.856	426.19
352.083	427.19
352.311	425.19
352.538	415.19
352.765	429.19
352.992	417.19
353.22	409.19
353.447	389.19
353.674	406.19
353.901	379.19
354.128	393.19
354.355	375.19
354.583	380.19
354.81	357.19
355.037	374.19
355.264	360.19
355.491	369.19
355.718	361.19
355.945	361.19
356.172	348.19
356.399	363.19
356.626	370.19
356.853	384.19
357.08	372.19
357.307	349.19
357.534	368.19
357.761	367.19
357.988	343.19
358.215	357.19
358.441	376.19
358.668	362.19
358.895	370.19
359.122	372.19
359.349	378.19
359.576	405.19
359.802	429.19
360.029	473.19
360.256	450.19
360.483	439.19
360.709	410.19
360.936	399.19
361.163	407.19
361.39	415.19
361.616	402.19
361.843	409.19
362.07	390.19
362.296	382.19
362.523	412.19
362.749	387.19
362.976	378.19
363.203	389.19
363.429	358.19
363.656	382.19
363.882	376.19
364.109	373.19
364.335	368.19
364.562	388.19
364.788	387.19
365.015	377.19
365.241	385.19
365.468	380.19
365.694	379.19
365.92	382.19
366.147	379.19
366.373	374.19
366.599	378.19
366.826	375.19
367.052	373.19
367.278	376.19
367.505	362.19
367.731	352.19
367.957	364.19
368.184	386.19
368.41	376.19
368.636	386.19
368.862	374.19
369.089	377.19
369.315	365.19
369.541	373.19
369.767	364.19
369.993	360.19
370.219	358.19
370.445	374.19
370.672	370.19
370.898	372.19
371.124	356.19
371.35	361.19
371.576	348.19
371.802	362.19
372.028	350.19
372.254	365.19
372.48	373.19
372.706	376.19
372.932	364.19
373.158	354.19
373.384	358.19
373.61	343.19
373.835	363.19
374.061	378.19
374.287	352.19
374.513	376.19
374.739	365.19
374.965	368.19
375.191	341.19
375.416	359.19
375.642	353.19
375.868	349.19
376.094	380.19
376.319	338.19
376.545	338.19
376.771	350.19
376.997	360.19
377.222	352.19
377.448	365.19
377.674	358.19
377.899	332.19
378.125	334.19
378.35	329.19
378.576	356.19
378.802	348.19
379.027	371.19
379.253	353.19
379.478	340.19
379.704	346.19
379.929	336.19
380.155	349.19
380.38	339.19
380.606	349.19
380.831	337.19
381.057	343.19
381.282	347.19
381.507	336.19
381.733	341.19
381.958	349.19
382.184	352.19
382.409	368.19
382.634	350.19
382.86	338.19
383.085	348.19
383.31	370.19
383.535	370.19
383.761	366.19
383.986	361.19
384.211	348.19
384.436	356.19
384.662	355.19
384.887	352.19
385.112	356.19
385.337	371.19
385.562	356.19
385.787	380.19
386.013	372.19
386.238	376.19
386.463	354.19
386.688	350.19
386.913	373.19
387.138	378.19
387.363	355.19
387.588	374.19
387.813	363.19
388.038	365.19
388.263	347.19
388.488	366.19
388.713	349.19
388.938	359.19
389.163	363.19
389.387	368.19
389.612	359.19
389.837	344.19
390.062	365.19
390.287	356.19
390.512	363.19
390.736	357.19
390.961	361.19
391.186	356.19
391.411	357.19
391.636	365.19
391.86	366.19
392.085	373.19
392.31	368.19
392.534	360.19
392.759	365.19
392.984	370.19
393.208	342.19
393.433	360.19
393.658	356.19
393.882	347.19
394.107	332.19
394.331	365.19
394.556	356.19
394.78	362.19
395.005	373.19
395.229	368.19
395.454	376.19
395.678	373.19
395.903	374.19
396.127	388.19
396.352	416.19
396.576	369.19
396.801	382.19
397.025	364.19
397.249	381.19
397.474	390.19
397.698	375.19
397.922	400.19
398.147	412.19
398.371	403.19
398.595	404.19
398.82	394.19
399.044	412.19
399.268	403.19
399.492	433.19
399.717	439.19
399.941	464.19
400.165	489.19
400.389	496.19
400.613	434.19
400.837	424.19
401.062	403.19
401.286	417.19
401.51	407.19
401.734	389.19
401.958	407.19
402.182	394.19
402.406	432.19
402.63	396.19
402.854	426.19
403.078	443.19
403.302	441.19
403.526	440.19
403.75	410.19
403.974	421.19
404.198	421.19
404.422	439.19
404.645	442.19
404.869	445.19
405.093	456.19
405.317	486.19
405.541	518.19
405.765	469.19
405.988	447.19
406.212	476.19
406.436	500.19
406.66	483.19
406.883	450.19
407.107	461.19
407.331	517.19
407.555	561.19
407.778	565.19
408.002	520.19
408.226	486.19
408.449	472.19
408.673	462.19
408.896	498.19
409.12	522.19
409.344	485.19
409.567	450.19
409.791	429.19
410.014	423.19
410.238	411.19
410.461	407.19
410.685	409.19
410.908	433.19
411.132	469.19
411.355	518.19
411.578	478.19
411.802	434.19
412.025	411.19
412.249	444.19
412.472	426.19
412.695	484.19
412.919	467.19
413.142	437.19
413.365	397.19
413.589	416.19
413.812	380.19
414.035	387.19
414.258	388.19
414.482	397.19
414.705	399.19
414.928	370.19
415.151	397.19
415.374	398.19
415.597	376.19
415.821	405.19
416.044	401.19
416.267	412.19
416.49	397.19
416.713	376.19
416.936	402.19
417.159	397.19
417.382	416.19
417.605	398.19
417.828	410.19
418.051	411.19
418.274	429.19
418.497	388.19
418.72	412.19
418.943	405.19
419.166	391.19
419.389	429.19
419.611	422.19
419.834	397.19
420.057	421.19
420.28	417.19
420.503	411.19
420.726	419.19
420.948	433.19
421.171	470.19
421.394	475.19
421.617	427.19
421.839	427.19
422.062	419.19
422.285	433.19
422.507	477.19
422.73	562.19
422.953	542.19
423.175	473.19
423.398	442.19
423.621	420.19
423.843	440.19
424.066	444.19
424.288	454.19
424.511	471.19
424.733	507.19
424.956	587.19
425.178	577.19
425.401	554.19
425.623	594.19
425.846	513.19
426.068	464.19
426.291	454.19
426.513	465.19
426.735	491.19
426.958	507.19
427.18	589.19
427.402	729.19
427.625	767.19
427.847	668.19
428.069	601.19
428.292	518.19
428.514	482.19
428.736	470.19
428.958	421.19
429.181	421.19
429.403	433.19
429.625	436.19
429.847	471.19
430.069	533.19
430.292	519.19
430.514	470.19
430.736	436.19
430.958	420.19
431.18	396.19
431.402	407.19
431.624	394.19
431.846	385.19
432.068	407.19
432.29	394.19
432.512	395.19
432.734	406.19
432.956	402.19
433.178	413.19
433.4	436.19
433.622	404.19
433.844	394.19
434.066	382.19
434.287	399.19
434.509	400.19
434.731	406.19
434.953	425.19
435.175	427.19
435.397	446.19
435.618	462.19
435.84	513.19
436.062	572.19
436.284	657.19
436.505	540.19
436.727	485.19
436.949	452.19
437.17	451.19
437.392	431.19
437.614	439.19
437.835	478.19
438.057	562.19
438.278	659.19
438.5	648.19
438.721	711.19
438.943	679.19
439.165	548.19
439.386	474.19
439.608	482.19
439.829	500.19
440.05	518.19
440.272	565.19
440.493	516.19
440.715	486.19
440.936	455.19
441.158	449.19
441.379	432.19
441.6	460.19
441.822	477.19
442.043	513.19
442.264	571.19
442.486	610.19
442.707	492.19
442.928	484.19
443.149	462.19
443.371	498.19
443.592	546.19
443.813	617.19
444.034	658.19
444.255	536.19
444.476	498.19
444.698	464.19
444.919	448.19
445.14	561.19
445.361	534.19
445.582	532.19
445.803	609.19
446.024	676.19
446.245	684.19
446.466	620.19
446.687	517.19
446.908	485.19
447.129	449.19
447.35	440.19
447.571	445.19
447.792	434.19
448.013	472.19
448.234	460.19
448.455	509.19
448.675	607.19
448.896	688.19
449.117	612.19
449.338	572.19
449.559	658.19
449.779	748.19
450	613.19
450.221	492.19
450.442	466.19
450.662	438.19
450.883	437.19
451.104	479.19
451.324	458.19
451.545	432.19
451.766	400.19
451.986	402.19
452.207	386.19
452.428	400.19
452.648	390.19
452.869	395.19
453.089	401.19
453.31	426.19
453.53	390.19
453.751	401.19
453.971	408.19
454.192	410.19
454.412	415.19
454.633	402.19
454.853	377.19
455.073	376.19
455.294	413.19
455.514	498.19
455.734	453.19
455.955	396.19
456.175	377.19
456.395	344.19
456.616	365.19
456.836	352.19
457.056	356.19
457.276	348.19
457.497	376.19
457.717	362.19
457.937	365.19
458.157	374.19
458.377	379.19
458.598	408.19
458.818	480.19
459.038	534.19
459.258	550.19
459.478	457.19
459.698	406.19
459.918	394.19
460.138	385.19
460.358	386.19
460.578	414.19
460.798	385.19
461.018	386.19
461.238	379.19
461.458	384.19
461.678	379.19
461.898	389.19
462.118	369.19
462.338	379.19
462.558	379.19
462.777	397.19
462.997	407.19
463.217	402.19
463.437	390.19
463.657	408.19
463.876	409.19
464.096	416.19
464.316	424.19
464.536	411.19
464.755	420.19
464.975	419.19
465.195	474.19
465.414	553.19
465.634	467.19
465.854	426.19
466.073	399.19
466.293	378.19
466.512	392.19
466.732	383.19
466.951	383.19
467.171	386.19
467.391	388.19
467.61	407.19
467.829	383.19
468.049	403.19
468.268	408.19
468.488	393.19
468.707	368.19
468.927	362.19
469.146	354.19
469.365	364.19
469.585	380.19
469.804	378.19
470.023	397.19
470.243	381.19
470.462	408.19
470.681	434.19
470.901	413.19
471.12	378.19
471.339	404.19
471.558	400.19
471.777	390.19
471.997	407.19
472.216	395.19
472.435	419.19
472.654	416.19
472.873	388.19
473.092	393.19
473.311	413.19
473.53	404.19
473.749	420.19
473.968	476.19
474.187	549.19
474.406	584.19
474.625	448.19
474.844	398.19
475.063	414.19
475.282	413.19
475.501	388.19
475.72	400.19
475.939	398.19
476.158	384.19
476.377	399.19
476.596	389.19
476.814	423.19
477.033	406.19
477.252	428.19
477.471	407.19
477.69	425.19
477.908	422.19
478.127	427.19
478.346	395.19
478.564	428.19
478.783	432.19
479.002	445.19
479.22	421.19
479.439	467.19
479.658	475.19
479.876	468.19
480.095	489.19
480.313	512.19
480.532	489.19
480.751	488.19
480.969	478.19
481.188	555.19
481.406	600.19
481.624	512.19
481.843	486.19
482.061	474.19
482.28	459.19
482.498	475.19
482.717	460.19
482.935	464.19
483.153	463.19
483.372	446.19
483.59	454.19
483.808	441.19
484.027	454.19
484.245	460.19
484.463	458.19
484.681	469.19
484.9	472.19
485.118	463.19
485.336	476.19
485.554	469.19
485.772	448.19
485.99	462.19
486.209	477.19
486.427	472.19
486.645	486.19
486.863	521.19
487.081	501.19
487.299	491.19
487.517	473.19
487.735	482.19
487.953	485.19
488.171	493.19
488.389	480.19
488.607	497.19
488.825	484.19
489.043	491.19
489.261	507.19
489.479	483.19
489.696	479.19
489.914	478.19
490.132	510.19
490.35	482.19
490.568	534.19
490.786	548.19
491.003	542.19
491.221	550.19
491.439	571.19
491.657	566.19
491.874	576.19
492.092	568.19
492.31	567.19
492.527	564.19
492.745	588.19
492.963	591.19
493.18	584.19
493.398	584.19
493.615	581.19
493.833	590.19
494.05	603.19
494.268	573.19
494.485	587.19
494.703	570.19
494.92	612.19
495.138	594.19
495.355	616.19
495.573	608.19
495.79	593.19
496.008	590.19
496.225	604.19
496.442	586.19
496.66	596.19
496.877	607.19
497.094	605.19
497.312	581.19
497.529	595.19
497.746	618.19
497.963	618.19
498.181	625.19
498.398	636.19
498.615	637.19
498.832	661.19
499.049	632.19
499.267	646.19
499.484	646.19
499.701	668.19
499.918	680.19
500.135	708.19
500.352	704.19
500.569	737.19
500.786	710.19
501.003	721.19
501.22	730.19
501.437	704.19
501.654	722.19
501.871	693.19
