Data from 1981.PennyLincolnUp.Lamp.En5.5.200Scan.071819.P1_HRD10591_16-42-35-961.txt Node
Date: Thu Jul 18 16:42:35 EDT 2019
User: cochatt
Spectrometer: HR+D1059
Trigger mode: 1
Integration Time (sec): 1.000000E-1
Scans to average: 1
Electric dark correction enabled: true
Nonlinearity correction enabled: false
Boxcar width: 0
XAxis mode: Wavelengths
Number of Pixels in Spectrum: 2048
>>>>>Begin Spectral Data<<<<<
223.165	-20.81
223.4	-20.81
223.635	-20.81
223.869	-26.81
224.104	-16.81
224.338	-14.81
224.573	-15.81
224.808	-15.81
225.042	-5.81
225.277	-9.81
225.511	0.19
225.746	7.19
225.98	8.19
226.215	9.19
226.449	22.19
226.683	12.19
226.918	28.19
227.152	39.19
227.387	25.19
227.621	34.19
227.856	46.19
228.09	57.19
228.324	54.19
228.559	59.19
228.793	82.19
229.027	93.19
229.262	116.19
229.496	118.19
229.73	149.19
229.964	178.19
230.199	129.19
230.433	118.19
230.667	119.19
230.901	121.19
231.136	118.19
231.37	109.19
231.604	109.19
231.838	106.19
232.072	102.19
232.306	117.19
232.541	114.19
232.775	114.19
233.009	123.19
233.243	122.19
233.477	110.19
233.711	123.19
233.945	120.19
234.179	126.19
234.413	110.19
234.647	121.19
234.881	116.19
235.115	128.19
235.349	136.19
235.583	125.19
235.817	126.19
236.051	129.19
236.285	136.19
236.519	120.19
236.753	145.19
236.987	154.19
237.221	192.19
237.455	234.19
237.689	205.19
237.922	156.19
238.156	142.19
238.39	136.19
238.624	118.19
238.858	120.19
239.091	129.19
239.325	114.19
239.559	126.19
239.793	134.19
240.027	136.19
240.26	137.19
240.494	158.19
240.728	160.19
240.961	149.19
241.195	146.19
241.429	150.19
241.662	142.19
241.896	141.19
242.13	138.19
242.363	143.19
242.597	142.19
242.83	159.19
243.064	161.19
243.298	142.19
243.531	142.19
243.765	137.19
243.998	163.19
244.232	146.19
244.465	154.19
244.699	155.19
244.932	148.19
245.166	162.19
245.399	140.19
245.633	143.19
245.866	159.19
246.099	143.19
246.333	154.19
246.566	143.19
246.8	156.19
247.033	166.19
247.266	163.19
247.5	166.19
247.733	182.19
247.966	194.19
248.2	167.19
248.433	166.19
248.666	182.19
248.899	207.19
249.133	216.19
249.366	218.19
249.599	210.19
249.832	195.19
250.066	210.19
250.299	191.19
250.532	208.19
250.765	217.19
250.998	222.19
251.231	236.19
251.465	220.19
251.698	228.19
251.931	207.19
252.164	228.19
252.397	200.19
252.63	210.19
252.863	212.19
253.096	226.19
253.329	232.19
253.562	256.19
253.795	236.19
254.028	222.19
254.261	235.19
254.494	254.19
254.727	278.19
254.96	292.19
255.193	280.19
255.426	255.19
255.659	237.19
255.892	256.19
256.124	257.19
256.357	260.19
256.59	240.19
256.823	224.19
257.056	238.19
257.289	242.19
257.521	228.19
257.754	211.19
257.987	212.19
258.22	218.19
258.452	231.19
258.685	230.19
258.918	215.19
259.151	229.19
259.383	253.19
259.616	216.19
259.849	230.19
260.081	252.19
260.314	268.19
260.547	274.19
260.779	247.19
261.012	243.19
261.244	254.19
261.477	233.19
261.71	229.19
261.942	245.19
262.175	246.19
262.407	263.19
262.64	216.19
262.872	219.19
263.105	223.19
263.337	229.19
263.57	222.19
263.802	217.19
264.035	223.19
264.267	215.19
264.499	209.19
264.732	218.19
264.964	221.19
265.197	222.19
265.429	223.19
265.661	233.19
265.894	225.19
266.126	220.19
266.358	233.19
266.591	225.19
266.823	235.19
267.055	248.19
267.287	238.19
267.52	235.19
267.752	226.19
267.984	234.19
268.216	235.19
268.448	248.19
268.681	235.19
268.913	262.19
269.145	282.19
269.377	288.19
269.609	282.19
269.841	284.19
270.073	294.19
270.306	294.19
270.538	333.19
270.77	340.19
271.002	350.19
271.234	315.19
271.466	333.19
271.698	338.19
271.93	340.19
272.162	348.19
272.394	348.19
272.626	335.19
272.858	293.19
273.09	289.19
273.322	290.19
273.553	292.19
273.785	269.19
274.017	267.19
274.249	276.19
274.481	291.19
274.713	291.19
274.945	282.19
275.176	275.19
275.408	279.19
275.64	257.19
275.872	281.19
276.104	283.19
276.335	289.19
276.567	282.19
276.799	291.19
277.031	311.19
277.262	356.19
277.494	335.19
277.726	337.19
277.957	301.19
278.189	302.19
278.421	290.19
278.652	279.19
278.884	282.19
279.115	288.19
279.347	263.19
279.579	263.19
279.81	266.19
280.042	275.19
280.273	263.19
280.505	294.19
280.736	273.19
280.968	254.19
281.199	260.19
281.431	284.19
281.662	285.19
281.894	286.19
282.125	270.19
282.356	291.19
282.588	315.19
282.819	328.19
283.051	312.19
283.282	274.19
283.513	280.19
283.745	291.19
283.976	282.19
284.207	295.19
284.439	287.19
284.67	273.19
284.901	286.19
285.132	290.19
285.364	274.19
285.595	284.19
285.826	283.19
286.057	284.19
286.288	277.19
286.52	298.19
286.751	299.19
286.982	282.19
287.213	291.19
287.444	287.19
287.675	273.19
287.906	310.19
288.138	305.19
288.369	317.19
288.6	320.19
288.831	298.19
289.062	299.19
289.293	286.19
289.524	296.19
289.755	290.19
289.986	274.19
290.217	287.19
290.448	295.19
290.679	290.19
290.91	294.19
291.141	303.19
291.371	288.19
291.602	296.19
291.833	302.19
292.064	283.19
292.295	311.19
292.526	291.19
292.757	287.19
292.987	300.19
293.218	301.19
293.449	318.19
293.68	298.19
293.91	305.19
294.141	305.19
294.372	287.19
294.603	300.19
294.833	296.19
295.064	285.19
295.295	310.19
295.525	295.19
295.756	318.19
295.987	312.19
296.217	322.19
296.448	323.19
296.679	310.19
296.909	320.19
297.14	292.19
297.37	292.19
297.601	307.19
297.831	313.19
298.062	316.19
298.292	302.19
298.523	307.19
298.753	294.19
298.984	298.19
299.214	288.19
299.445	326.19
299.675	321.19
299.905	306.19
300.136	305.19
300.366	297.19
300.597	298.19
300.827	309.19
301.057	323.19
301.288	333.19
301.518	334.19
301.748	320.19
301.979	318.19
302.209	328.19
302.439	322.19
302.669	347.19
302.9	342.19
303.13	317.19
303.36	330.19
303.59	336.19
303.82	335.19
304.051	340.19
304.281	340.19
304.511	318.19
304.741	305.19
304.971	324.19
305.201	334.19
305.431	326.19
305.661	326.19
305.891	328.19
306.121	336.19
306.352	334.19
306.582	336.19
306.812	347.19
307.042	329.19
307.272	340.19
307.502	336.19
307.731	348.19
307.961	334.19
308.191	337.19
308.421	330.19
308.651	345.19
308.881	351.19
309.111	351.19
309.341	338.19
309.571	354.19
309.8	361.19
310.03	390.19
310.26	382.19
310.49	386.19
310.72	385.19
310.949	419.19
311.179	424.19
311.409	392.19
311.639	383.19
311.868	391.19
312.098	394.19
312.328	410.19
312.557	414.19
312.787	422.19
313.017	432.19
313.246	409.19
313.476	399.19
313.706	386.19
313.935	379.19
314.165	396.19
314.394	404.19
314.624	415.19
314.853	387.19
315.083	388.19
315.312	396.19
315.542	382.19
315.771	402.19
316.001	368.19
316.23	381.19
316.46	413.19
316.689	386.19
316.919	393.19
317.148	404.19
317.377	395.19
317.607	385.19
317.836	382.19
318.065	403.19
318.295	388.19
318.524	374.19
318.753	384.19
318.983	366.19
319.212	374.19
319.441	406.19
319.67	386.19
319.9	393.19
320.129	405.19
320.358	398.19
320.587	402.19
320.816	405.19
321.046	414.19
321.275	422.19
321.504	442.19
321.733	411.19
321.962	432.19
322.191	445.19
322.42	451.19
322.649	491.19
322.878	497.19
323.108	490.19
323.337	528.19
323.566	540.19
323.795	609.19
324.024	641.19
324.253	820.19
324.482	1142.19
324.71	1786.19
324.939	2473.19
325.168	2095.19
325.397	1126.19
325.626	748.19
325.855	642.19
326.084	590.19
326.313	568.19
326.542	553.19
326.77	637.19
326.999	766.19
327.228	1054.19
327.457	1576.19
327.686	1822.19
327.914	1235.19
328.143	794.19
328.372	695.19
328.6	646.19
328.829	628.19
329.058	652.19
329.287	662.19
329.515	588.19
329.744	564.19
329.972	539.19
330.201	575.19
330.43	620.19
330.658	664.19
330.887	682.19
331.115	630.19
331.344	556.19
331.572	512.19
331.801	528.19
332.03	500.19
332.258	472.19
332.486	452.19
332.715	467.19
332.943	447.19
333.172	459.19
333.4	456.19
333.629	448.19
333.857	474.19
334.085	484.19
334.314	530.19
334.542	527.19
334.771	540.19
334.999	490.19
335.227	473.19
335.455	470.19
335.684	452.19
335.912	457.19
336.14	446.19
336.369	446.19
336.597	454.19
336.825	448.19
337.053	450.19
337.281	438.19
337.51	443.19
337.738	430.19
337.966	442.19
338.194	431.19
338.422	426.19
338.65	436.19
338.878	431.19
339.106	430.19
339.334	412.19
339.562	440.19
339.79	426.19
340.018	427.19
340.246	419.19
340.474	414.19
340.702	446.19
340.93	424.19
341.158	416.19
341.386	408.19
341.614	433.19
341.842	433.19
342.07	416.19
342.298	412.19
342.526	416.19
342.754	408.19
342.981	415.19
343.209	412.19
343.437	404.19
343.665	418.19
343.893	423.19
344.12	414.19
344.348	410.19
344.576	422.19
344.804	432.19
345.031	435.19
345.259	444.19
345.487	420.19
345.714	421.19
345.942	410.19
346.17	401.19
346.397	409.19
346.625	408.19
346.853	408.19
347.08	415.19
347.308	429.19
347.535	427.19
347.763	426.19
347.99	434.19
348.218	438.19
348.445	427.19
348.673	434.19
348.9	400.19
349.128	403.19
349.355	386.19
349.583	388.19
349.81	409.19
350.037	399.19
350.265	387.19
350.492	377.19
350.72	388.19
350.947	398.19
351.174	414.19
351.402	406.19
351.629	421.19
351.856	416.19
352.083	418.19
352.311	422.19
352.538	414.19
352.765	440.19
352.992	426.19
353.22	401.19
353.447	413.19
353.674	402.19
353.901	400.19
354.128	374.19
354.355	376.19
354.583	374.19
354.81	385.19
355.037	375.19
355.264	381.19
355.491	354.19
355.718	350.19
355.945	359.19
356.172	368.19
356.399	369.19
356.626	353.19
356.853	375.19
357.08	371.19
357.307	353.19
357.534	347.19
357.761	365.19
357.988	358.19
358.215	366.19
358.441	367.19
358.668	379.19
358.895	366.19
359.122	380.19
359.349	399.19
359.576	408.19
359.802	439.19
360.029	442.19
360.256	450.19
360.483	442.19
360.709	405.19
360.936	404.19
361.163	410.19
361.39	407.19
361.616	389.19
361.843	400.19
362.07	430.19
362.296	412.19
362.523	410.19
362.749	381.19
362.976	403.19
363.203	386.19
363.429	362.19
363.656	374.19
363.882	397.19
364.109	373.19
364.335	371.19
364.562	374.19
364.788	357.19
365.015	355.19
365.241	358.19
365.468	375.19
365.694	382.19
365.92	390.19
366.147	354.19
366.373	367.19
366.599	367.19
366.826	358.19
367.052	360.19
367.278	384.19
367.505	366.19
367.731	376.19
367.957	377.19
368.184	353.19
368.41	378.19
368.636	382.19
368.862	383.19
369.089	385.19
369.315	364.19
369.541	353.19
369.767	354.19
369.993	368.19
370.219	368.19
370.445	368.19
370.672	342.19
370.898	371.19
371.124	363.19
371.35	351.19
371.576	352.19
371.802	360.19
372.028	345.19
372.254	369.19
372.48	362.19
372.706	350.19
372.932	352.19
373.158	381.19
373.384	349.19
373.61	374.19
373.835	347.19
374.061	367.19
374.287	367.19
374.513	370.19
374.739	356.19
374.965	356.19
375.191	353.19
375.416	369.19
375.642	353.19
375.868	364.19
376.094	360.19
376.319	351.19
376.545	342.19
376.771	350.19
376.997	336.19
377.222	342.19
377.448	334.19
377.674	352.19
377.899	322.19
378.125	340.19
378.35	315.19
378.576	331.19
378.802	348.19
379.027	344.19
379.253	338.19
379.478	363.19
379.704	348.19
379.929	344.19
380.155	345.19
380.38	340.19
380.606	359.19
380.831	349.19
381.057	360.19
381.282	339.19
381.507	348.19
381.733	338.19
381.958	367.19
382.184	360.19
382.409	354.19
382.634	356.19
382.86	334.19
383.085	363.19
383.31	363.19
383.535	352.19
383.761	341.19
383.986	352.19
384.211	344.19
384.436	356.19
384.662	364.19
384.887	336.19
385.112	347.19
385.337	361.19
385.562	370.19
385.787	369.19
386.013	382.19
386.238	369.19
386.463	376.19
386.688	374.19
386.913	365.19
387.138	363.19
387.363	377.19
387.588	377.19
387.813	381.19
388.038	352.19
388.263	375.19
388.488	362.19
388.713	356.19
388.938	370.19
389.163	356.19
389.387	358.19
389.612	372.19
389.837	376.19
390.062	363.19
390.287	355.19
390.512	358.19
390.736	350.19
390.961	358.19
391.186	363.19
391.411	364.19
391.636	375.19
391.86	353.19
392.085	359.19
392.31	381.19
392.534	388.19
392.759	375.19
392.984	380.19
393.208	360.19
393.433	351.19
393.658	344.19
393.882	359.19
394.107	355.19
394.331	357.19
394.556	367.19
394.78	374.19
395.005	390.19
395.229	360.19
395.454	359.19
395.678	384.19
395.903	372.19
396.127	386.19
396.352	422.19
396.576	379.19
396.801	382.19
397.025	378.19
397.249	381.19
397.474	372.19
397.698	379.19
397.922	386.19
398.147	407.19
398.371	426.19
398.595	408.19
398.82	387.19
399.044	412.19
399.268	391.19
399.492	416.19
399.717	440.19
399.941	464.19
400.165	494.19
400.389	499.19
400.613	470.19
400.837	428.19
401.062	402.19
401.286	409.19
401.51	408.19
401.734	400.19
401.958	417.19
402.182	423.19
402.406	415.19
402.63	439.19
402.854	409.19
403.078	405.19
403.302	390.19
403.526	441.19
403.75	447.19
403.974	424.19
404.198	417.19
404.422	424.19
404.645	447.19
404.869	423.19
405.093	449.19
405.317	482.19
405.541	502.19
405.765	483.19
405.988	460.19
406.212	466.19
406.436	495.19
406.66	505.19
406.883	480.19
407.107	482.19
407.331	500.19
407.555	570.19
407.778	550.19
408.002	510.19
408.226	477.19
408.449	456.19
408.673	493.19
408.896	502.19
409.12	510.19
409.344	491.19
409.567	456.19
409.791	451.19
410.014	418.19
410.238	423.19
410.461	400.19
410.685	431.19
410.908	444.19
411.132	506.19
411.355	478.19
411.578	492.19
411.802	410.19
412.025	419.19
412.249	434.19
412.472	435.19
412.695	468.19
412.919	489.19
413.142	440.19
413.365	418.19
413.589	406.19
413.812	384.19
414.035	404.19
414.258	386.19
414.482	405.19
414.705	390.19
414.928	393.19
415.151	408.19
415.374	384.19
415.597	375.19
415.821	411.19
416.044	396.19
416.267	376.19
416.49	404.19
416.713	394.19
416.936	392.19
417.159	395.19
417.382	391.19
417.605	409.19
417.828	417.19
418.051	414.19
418.274	406.19
418.497	390.19
418.72	397.19
418.943	408.19
419.166	420.19
419.389	425.19
419.611	410.19
419.834	403.19
420.057	413.19
420.28	417.19
420.503	429.19
420.726	419.19
420.948	439.19
421.171	483.19
421.394	491.19
421.617	451.19
421.839	425.19
422.062	435.19
422.285	443.19
422.507	483.19
422.73	568.19
422.953	532.19
423.175	457.19
423.398	453.19
423.621	438.19
423.843	446.19
424.066	461.19
424.288	453.19
424.511	486.19
424.733	521.19
424.956	601.19
425.178	594.19
425.401	562.19
425.623	593.19
425.846	478.19
426.068	474.19
426.291	455.19
426.513	447.19
426.735	474.19
426.958	500.19
427.18	578.19
427.402	696.19
427.625	747.19
427.847	680.19
428.069	609.19
428.292	520.19
428.514	463.19
428.736	470.19
428.958	458.19
429.181	422.19
429.403	425.19
429.625	417.19
429.847	488.19
430.069	547.19
430.292	538.19
430.514	468.19
430.736	433.19
430.958	424.19
431.18	398.19
431.402	400.19
431.624	388.19
431.846	378.19
432.068	394.19
432.29	399.19
432.512	387.19
432.734	422.19
432.956	402.19
433.178	412.19
433.4	422.19
433.622	401.19
433.844	419.19
434.066	401.19
434.287	391.19
434.509	383.19
434.731	402.19
434.953	420.19
435.175	418.19
435.397	457.19
435.618	471.19
435.84	497.19
436.062	602.19
436.284	644.19
436.505	545.19
436.727	502.19
436.949	448.19
437.17	435.19
437.392	446.19
437.614	448.19
437.835	502.19
438.057	579.19
438.278	687.19
438.5	646.19
438.721	704.19
438.943	656.19
439.165	531.19
439.386	491.19
439.608	495.19
439.829	488.19
440.05	500.19
440.272	560.19
440.493	536.19
440.715	464.19
440.936	455.19
441.158	449.19
441.379	422.19
441.6	446.19
441.822	464.19
442.043	493.19
442.264	595.19
442.486	587.19
442.707	522.19
442.928	478.19
443.149	502.19
443.371	507.19
443.592	546.19
443.813	596.19
444.034	659.19
444.255	554.19
444.476	464.19
444.698	471.19
444.919	460.19
445.14	570.19
445.361	526.19
445.582	494.19
445.803	576.19
446.024	688.19
446.245	679.19
446.466	623.19
446.687	522.19
446.908	472.19
447.129	431.19
447.35	429.19
447.571	444.19
447.792	443.19
448.013	463.19
448.234	476.19
448.455	518.19
448.675	622.19
448.896	680.19
449.117	582.19
449.338	570.19
449.559	666.19
449.779	721.19
450	580.19
450.221	493.19
450.442	460.19
450.662	425.19
450.883	454.19
451.104	471.19
451.324	447.19
451.545	415.19
451.766	405.19
451.986	400.19
452.207	390.19
452.428	402.19
452.648	395.19
452.869	398.19
453.089	398.19
453.31	416.19
453.53	386.19
453.751	383.19
453.971	376.19
454.192	411.19
454.412	408.19
454.633	402.19
454.853	382.19
455.073	388.19
455.294	420.19
455.514	492.19
455.734	463.19
455.955	386.19
456.175	385.19
456.395	376.19
456.616	363.19
456.836	346.19
457.056	343.19
457.276	362.19
457.497	365.19
457.717	351.19
457.937	354.19
458.157	350.19
458.377	371.19
458.598	419.19
458.818	468.19
459.038	533.19
459.258	552.19
459.478	464.19
459.698	408.19
459.918	396.19
460.138	401.19
460.358	398.19
460.578	356.19
460.798	390.19
461.018	389.19
461.238	400.19
461.458	422.19
461.678	386.19
461.898	391.19
462.118	378.19
462.338	394.19
462.558	396.19
462.777	391.19
462.997	386.19
463.217	408.19
463.437	399.19
463.657	402.19
463.876	387.19
464.096	392.19
464.316	398.19
464.536	411.19
464.755	424.19
464.975	434.19
465.195	479.19
465.414	558.19
465.634	480.19
465.854	438.19
466.073	404.19
466.293	386.19
466.512	367.19
466.732	396.19
466.951	396.19
467.171	397.19
467.391	385.19
467.61	391.19
467.829	406.19
468.049	401.19
468.268	386.19
468.488	386.19
468.707	358.19
468.927	365.19
469.146	379.19
469.365	390.19
469.585	379.19
469.804	385.19
470.023	384.19
470.243	391.19
470.462	394.19
470.681	428.19
470.901	397.19
471.12	398.19
471.339	404.19
471.558	424.19
471.777	415.19
471.997	383.19
472.216	396.19
472.435	458.19
472.654	433.19
472.873	422.19
473.092	386.19
473.311	397.19
473.53	370.19
473.749	418.19
473.968	468.19
474.187	569.19
474.406	580.19
474.625	454.19
474.844	412.19
475.063	404.19
475.282	387.19
475.501	404.19
475.72	396.19
475.939	404.19
476.158	411.19
476.377	403.19
476.596	395.19
476.814	404.19
477.033	434.19
477.252	428.19
477.471	415.19
477.69	381.19
477.908	417.19
478.127	404.19
478.346	414.19
478.564	422.19
478.783	424.19
479.002	456.19
479.22	452.19
479.439	468.19
479.658	450.19
479.876	460.19
480.095	480.19
480.313	498.19
480.532	476.19
480.751	475.19
480.969	478.19
481.188	541.19
481.406	582.19
481.624	509.19
481.843	507.19
482.061	482.19
482.28	480.19
482.498	460.19
482.717	443.19
482.935	461.19
483.153	467.19
483.372	464.19
483.59	462.19
483.808	471.19
484.027	442.19
484.245	442.19
484.463	464.19
484.681	467.19
484.9	473.19
485.118	451.19
485.336	471.19
485.554	456.19
485.772	469.19
485.99	452.19
486.209	478.19
486.427	498.19
486.645	496.19
486.863	503.19
487.081	500.19
487.299	491.19
487.517	480.19
487.735	486.19
487.953	483.19
488.171	495.19
488.389	506.19
488.607	518.19
488.825	491.19
489.043	504.19
489.261	500.19
489.479	495.19
489.696	499.19
489.914	493.19
490.132	513.19
490.35	518.19
490.568	543.19
490.786	506.19
491.003	518.19
491.221	546.19
491.439	569.19
491.657	542.19
491.874	562.19
492.092	560.19
492.31	569.19
492.527	566.19
492.745	558.19
492.963	569.19
493.18	600.19
493.398	572.19
493.615	573.19
493.833	564.19
494.05	591.19
494.268	568.19
494.485	592.19
494.703	577.19
494.92	570.19
495.138	587.19
495.355	597.19
495.573	595.19
495.79	581.19
496.008	580.19
496.225	578.19
496.442	616.19
496.66	595.19
496.877	614.19
497.094	566.19
497.312	582.19
497.529	589.19
497.746	591.19
497.963	628.19
498.181	652.19
498.398	654.19
498.615	620.19
498.832	635.19
499.049	649.19
499.267	647.19
499.484	643.19
499.701	678.19
499.918	703.19
500.135	686.19
500.352	707.19
500.569	694.19
500.786	719.19
501.003	737.19
501.22	699.19
501.437	709.19
501.654	719.19
501.871	724.19
