Data from 1981.PennyLincolnUp.Lamp.En5.5.200Scan.071819.P1_HRD10591_16-42-19-959.txt Node
Date: Thu Jul 18 16:42:19 EDT 2019
User: cochatt
Spectrometer: HR+D1059
Trigger mode: 1
Integration Time (sec): 1.000000E-1
Scans to average: 1
Electric dark correction enabled: true
Nonlinearity correction enabled: false
Boxcar width: 0
XAxis mode: Wavelengths
Number of Pixels in Spectrum: 2048
>>>>>Begin Spectral Data<<<<<
223.165	-16.56
223.4	-16.56
223.635	-16.56
223.869	-1.56
224.104	-17.56
224.338	-21.56
224.573	-18.56
224.808	-10.56
225.042	-7.56
225.277	-10.56
225.511	-13.56
225.746	10.44
225.98	15.44
226.215	7.44
226.449	10.44
226.683	20.44
226.918	20.44
227.152	33.44
227.387	22.44
227.621	37.44
227.856	40.44
228.09	37.44
228.324	60.44
228.559	75.44
228.793	79.44
229.027	102.44
229.262	116.44
229.496	127.44
229.73	135.44
229.964	135.44
230.199	128.44
230.433	102.44
230.667	108.44
230.901	122.44
231.136	106.44
231.37	116.44
231.604	103.44
231.838	118.44
232.072	105.44
232.306	103.44
232.541	107.44
232.775	109.44
233.009	98.44
233.243	119.44
233.477	118.44
233.711	120.44
233.945	132.44
234.179	116.44
234.413	127.44
234.647	120.44
234.881	108.44
235.115	126.44
235.349	122.44
235.583	126.44
235.817	123.44
236.051	132.44
236.285	128.44
236.519	124.44
236.753	140.44
236.987	142.44
237.221	186.44
237.455	223.44
237.689	203.44
237.922	152.44
238.156	142.44
238.39	136.44
238.624	135.44
238.858	122.44
239.091	125.44
239.325	131.44
239.559	130.44
239.793	142.44
240.027	135.44
240.26	144.44
240.494	181.44
240.728	180.44
240.961	142.44
241.195	150.44
241.429	142.44
241.662	138.44
241.896	145.44
242.13	138.44
242.363	136.44
242.597	134.44
242.83	134.44
243.064	140.44
243.298	148.44
243.531	144.44
243.765	132.44
243.998	139.44
244.232	148.44
244.465	157.44
244.699	161.44
244.932	147.44
245.166	134.44
245.399	140.44
245.633	151.44
245.866	139.44
246.099	157.44
246.333	158.44
246.566	160.44
246.8	149.44
247.033	160.44
247.266	170.44
247.5	164.44
247.733	168.44
247.966	173.44
248.2	184.44
248.433	174.44
248.666	180.44
248.899	192.44
249.133	214.44
249.366	224.44
249.599	195.44
249.832	197.44
250.066	179.44
250.299	186.44
250.532	187.44
250.765	213.44
250.998	235.44
251.231	221.44
251.465	233.44
251.698	218.44
251.931	207.44
252.164	226.44
252.397	208.44
252.63	210.44
252.863	215.44
253.096	235.44
253.329	250.44
253.562	237.44
253.795	254.44
254.028	253.44
254.261	251.44
254.494	252.44
254.727	255.44
254.96	310.44
255.193	285.44
255.426	254.44
255.659	239.44
255.892	254.44
256.124	246.44
256.357	249.44
256.59	239.44
256.823	241.44
257.056	230.44
257.289	246.44
257.521	242.44
257.754	207.44
257.987	210.44
258.22	209.44
258.452	222.44
258.685	226.44
258.918	216.44
259.151	214.44
259.383	232.44
259.616	230.44
259.849	233.44
260.081	237.44
260.314	269.44
260.547	269.44
260.779	248.44
261.012	254.44
261.244	228.44
261.477	237.44
261.71	213.44
261.942	252.44
262.175	248.44
262.407	262.44
262.64	217.44
262.872	220.44
263.105	213.44
263.337	230.44
263.57	221.44
263.802	224.44
264.035	204.44
264.267	210.44
264.499	222.44
264.732	230.44
264.964	219.44
265.197	228.44
265.429	222.44
265.661	237.44
265.894	222.44
266.126	218.44
266.358	216.44
266.591	219.44
266.823	219.44
267.055	236.44
267.287	243.44
267.52	234.44
267.752	240.44
267.984	244.44
268.216	242.44
268.448	243.44
268.681	250.44
268.913	267.44
269.145	265.44
269.377	291.44
269.609	292.44
269.841	277.44
270.073	292.44
270.306	287.44
270.538	336.44
270.77	326.44
271.002	301.44
271.234	304.44
271.466	326.44
271.698	347.44
271.93	320.44
272.162	336.44
272.394	336.44
272.626	307.44
272.858	303.44
273.09	290.44
273.322	304.44
273.553	269.44
273.785	292.44
274.017	276.44
274.249	277.44
274.481	278.44
274.713	287.44
274.945	269.44
275.176	270.44
275.408	286.44
275.64	280.44
275.872	272.44
276.104	286.44
276.335	279.44
276.567	280.44
276.799	284.44
277.031	328.44
277.262	304.44
277.494	341.44
277.726	317.44
277.957	291.44
278.189	299.44
278.421	276.44
278.652	288.44
278.884	273.44
279.115	286.44
279.347	294.44
279.579	271.44
279.81	273.44
280.042	265.44
280.273	277.44
280.505	282.44
280.736	280.44
280.968	261.44
281.199	284.44
281.431	277.44
281.662	268.44
281.894	251.44
282.125	261.44
282.356	282.44
282.588	328.44
282.819	297.44
283.051	286.44
283.282	280.44
283.513	272.44
283.745	285.44
283.976	283.44
284.207	288.44
284.439	289.44
284.67	276.44
284.901	281.44
285.132	295.44
285.364	284.44
285.595	282.44
285.826	278.44
286.057	273.44
286.288	255.44
286.52	277.44
286.751	288.44
286.982	267.44
287.213	276.44
287.444	271.44
287.675	271.44
287.906	298.44
288.138	303.44
288.369	302.44
288.6	310.44
288.831	297.44
289.062	292.44
289.293	288.44
289.524	290.44
289.755	279.44
289.986	287.44
290.217	287.44
290.448	285.44
290.679	287.44
290.91	285.44
291.141	281.44
291.371	279.44
291.602	267.44
291.833	288.44
292.064	282.44
292.295	267.44
292.526	284.44
292.757	294.44
292.987	284.44
293.218	282.44
293.449	298.44
293.68	291.44
293.91	290.44
294.141	290.44
294.372	288.44
294.603	276.44
294.833	288.44
295.064	303.44
295.295	307.44
295.525	284.44
295.756	286.44
295.987	315.44
296.217	339.44
296.448	342.44
296.679	295.44
296.909	290.44
297.14	286.44
297.37	292.44
297.601	285.44
297.831	299.44
298.062	300.44
298.292	301.44
298.523	302.44
298.753	288.44
298.984	295.44
299.214	294.44
299.445	294.44
299.675	311.44
299.905	314.44
300.136	311.44
300.366	303.44
300.597	303.44
300.827	325.44
301.057	335.44
301.288	316.44
301.518	323.44
301.748	335.44
301.979	322.44
302.209	322.44
302.439	340.44
302.669	320.44
302.9	336.44
303.13	335.44
303.36	319.44
303.59	320.44
303.82	338.44
304.051	330.44
304.281	315.44
304.511	313.44
304.741	332.44
304.971	347.44
305.201	314.44
305.431	345.44
305.661	340.44
305.891	312.44
306.121	331.44
306.352	333.44
306.582	329.44
306.812	330.44
307.042	331.44
307.272	341.44
307.502	329.44
307.731	328.44
307.961	323.44
308.191	327.44
308.421	325.44
308.651	323.44
308.881	334.44
309.111	321.44
309.341	356.44
309.571	376.44
309.8	352.44
310.03	386.44
310.26	381.44
310.49	379.44
310.72	391.44
310.949	399.44
311.179	428.44
311.409	406.44
311.639	374.44
311.868	390.44
312.098	396.44
312.328	408.44
312.557	428.44
312.787	412.44
313.017	417.44
313.246	394.44
313.476	381.44
313.706	386.44
313.935	365.44
314.165	396.44
314.394	396.44
314.624	413.44
314.853	404.44
315.083	390.44
315.312	381.44
315.542	382.44
315.771	384.44
316.001	393.44
316.23	371.44
316.46	374.44
316.689	376.44
316.919	378.44
317.148	392.44
317.377	405.44
317.607	402.44
317.836	375.44
318.065	395.44
318.295	399.44
318.524	367.44
318.753	374.44
318.983	396.44
319.212	368.44
319.441	402.44
319.67	410.44
319.9	387.44
320.129	384.44
320.358	393.44
320.587	400.44
320.816	421.44
321.046	374.44
321.275	422.44
321.504	417.44
321.733	412.44
321.962	427.44
322.191	443.44
322.42	442.44
322.649	456.44
322.878	456.44
323.108	485.44
323.337	501.44
323.566	550.44
323.795	582.44
324.024	658.44
324.253	813.44
324.482	1146.44
324.71	1730.44
324.939	2405.44
325.168	2036.44
325.397	1074.44
325.626	733.44
325.855	604.44
326.084	551.44
326.313	546.44
326.542	543.44
326.77	630.44
326.999	727.44
327.228	1010.44
327.457	1520.44
327.686	1796.44
327.914	1175.44
328.143	788.44
328.372	691.44
328.6	642.44
328.829	596.44
329.058	622.44
329.287	631.44
329.515	570.44
329.744	566.44
329.972	523.44
330.201	532.44
330.43	598.44
330.658	632.44
330.887	651.44
331.115	622.44
331.344	559.44
331.572	490.44
331.801	487.44
332.03	509.44
332.258	479.44
332.486	454.44
332.715	470.44
332.943	445.44
333.172	428.44
333.4	448.44
333.629	461.44
333.857	472.44
334.085	469.44
334.314	503.44
334.542	511.44
334.771	531.44
334.999	488.44
335.227	472.44
335.455	458.44
335.684	445.44
335.912	442.44
336.14	425.44
336.369	436.44
336.597	441.44
336.825	455.44
337.053	436.44
337.281	436.44
337.51	412.44
337.738	426.44
337.966	428.44
338.194	443.44
338.422	424.44
338.65	416.44
338.878	438.44
339.106	425.44
339.334	418.44
339.562	432.44
339.79	438.44
340.018	406.44
340.246	417.44
340.474	424.44
340.702	425.44
340.93	434.44
341.158	418.44
341.386	428.44
341.614	424.44
341.842	428.44
342.07	415.44
342.298	391.44
342.526	399.44
342.754	414.44
342.981	396.44
343.209	394.44
343.437	388.44
343.665	407.44
343.893	387.44
344.12	415.44
344.348	410.44
344.576	420.44
344.804	429.44
345.031	436.44
345.259	427.44
345.487	418.44
345.714	427.44
345.942	438.44
346.17	410.44
346.397	403.44
346.625	402.44
346.853	394.44
347.08	392.44
347.308	427.44
347.535	434.44
347.763	425.44
347.99	414.44
348.218	412.44
348.445	426.44
348.673	419.44
348.9	409.44
349.128	396.44
349.355	392.44
349.583	384.44
349.81	383.44
350.037	384.44
350.265	390.44
350.492	402.44
350.72	368.44
350.947	386.44
351.174	410.44
351.402	419.44
351.629	425.44
351.856	411.44
352.083	425.44
352.311	432.44
352.538	435.44
352.765	406.44
352.992	399.44
353.22	400.44
353.447	426.44
353.674	406.44
353.901	379.44
354.128	390.44
354.355	383.44
354.583	368.44
354.81	372.44
355.037	378.44
355.264	358.44
355.491	372.44
355.718	362.44
355.945	370.44
356.172	366.44
356.399	372.44
356.626	356.44
356.853	368.44
357.08	363.44
357.307	374.44
357.534	380.44
357.761	358.44
357.988	370.44
358.215	362.44
358.441	380.44
358.668	364.44
358.895	366.44
359.122	379.44
359.349	380.44
359.576	405.44
359.802	425.44
360.029	455.44
360.256	467.44
360.483	441.44
360.709	406.44
360.936	390.44
361.163	391.44
361.39	419.44
361.616	391.44
361.843	398.44
362.07	397.44
362.296	388.44
362.523	392.44
362.749	389.44
362.976	388.44
363.203	400.44
363.429	380.44
363.656	358.44
363.882	380.44
364.109	364.44
364.335	366.44
364.562	372.44
364.788	358.44
365.015	373.44
365.241	373.44
365.468	359.44
365.694	388.44
365.92	384.44
366.147	373.44
366.373	365.44
366.599	363.44
366.826	381.44
367.052	366.44
367.278	370.44
367.505	364.44
367.731	367.44
367.957	377.44
368.184	376.44
368.41	386.44
368.636	406.44
368.862	395.44
369.089	367.44
369.315	358.44
369.541	344.44
369.767	351.44
369.993	337.44
370.219	352.44
370.445	348.44
370.672	352.44
370.898	353.44
371.124	358.44
371.35	346.44
371.576	372.44
371.802	346.44
372.028	361.44
372.254	355.44
372.48	347.44
372.706	357.44
372.932	357.44
373.158	352.44
373.384	364.44
373.61	337.44
373.835	366.44
374.061	357.44
374.287	348.44
374.513	373.44
374.739	362.44
374.965	355.44
375.191	363.44
375.416	357.44
375.642	343.44
375.868	370.44
376.094	358.44
376.319	330.44
376.545	338.44
376.771	354.44
376.997	353.44
377.222	349.44
377.448	332.44
377.674	356.44
377.899	338.44
378.125	351.44
378.35	348.44
378.576	344.44
378.802	338.44
379.027	351.44
379.253	349.44
379.478	343.44
379.704	339.44
379.929	358.44
380.155	349.44
380.38	342.44
380.606	340.44
380.831	345.44
381.057	379.44
381.282	349.44
381.507	344.44
381.733	363.44
381.958	333.44
382.184	349.44
382.409	358.44
382.634	346.44
382.86	356.44
383.085	338.44
383.31	351.44
383.535	342.44
383.761	346.44
383.986	343.44
384.211	357.44
384.436	356.44
384.662	358.44
384.887	365.44
385.112	339.44
385.337	363.44
385.562	361.44
385.787	355.44
386.013	374.44
386.238	394.44
386.463	374.44
386.688	377.44
386.913	361.44
387.138	362.44
387.363	361.44
387.588	342.44
387.813	351.44
388.038	360.44
388.263	379.44
388.488	386.44
388.713	378.44
388.938	370.44
389.163	370.44
389.387	368.44
389.612	339.44
389.837	380.44
390.062	363.44
390.287	362.44
390.512	360.44
390.736	352.44
390.961	354.44
391.186	362.44
391.411	352.44
391.636	350.44
391.86	365.44
392.085	372.44
392.31	380.44
392.534	374.44
392.759	374.44
392.984	374.44
393.208	365.44
393.433	333.44
393.658	370.44
393.882	374.44
394.107	360.44
394.331	363.44
394.556	376.44
394.78	355.44
395.005	368.44
395.229	352.44
395.454	376.44
395.678	384.44
395.903	381.44
396.127	402.44
396.352	394.44
396.576	383.44
396.801	380.44
397.025	367.44
397.249	365.44
397.474	382.44
397.698	379.44
397.922	377.44
398.147	386.44
398.371	424.44
398.595	394.44
398.82	390.44
399.044	390.44
399.268	396.44
399.492	420.44
399.717	445.44
399.941	469.44
400.165	477.44
400.389	516.44
400.613	442.44
400.837	446.44
401.062	431.44
401.286	400.44
401.51	418.44
401.734	402.44
401.958	418.44
402.182	414.44
402.406	412.44
402.63	412.44
402.854	396.44
403.078	408.44
403.302	442.44
403.526	420.44
403.75	392.44
403.974	416.44
404.198	422.44
404.422	433.44
404.645	447.44
404.869	425.44
405.093	453.44
405.317	504.44
405.541	504.44
405.765	490.44
405.988	440.44
406.212	457.44
406.436	460.44
406.66	484.44
406.883	481.44
407.107	508.44
407.331	531.44
407.555	550.44
407.778	557.44
408.002	523.44
408.226	454.44
408.449	480.44
408.673	489.44
408.896	508.44
409.12	506.44
409.344	485.44
409.567	434.44
409.791	426.44
410.014	418.44
410.238	420.44
410.461	452.44
410.685	445.44
410.908	444.44
411.132	468.44
411.355	526.44
411.578	470.44
411.802	425.44
412.025	425.44
412.249	435.44
412.472	450.44
412.695	473.44
412.919	466.44
413.142	421.44
413.365	419.44
413.589	410.44
413.812	412.44
414.035	389.44
414.258	382.44
414.482	388.44
414.705	380.44
414.928	389.44
415.151	375.44
415.374	376.44
415.597	367.44
415.821	397.44
416.044	406.44
416.267	385.44
416.49	384.44
416.713	372.44
416.936	386.44
417.159	404.44
417.382	400.44
417.605	389.44
417.828	407.44
418.051	432.44
418.274	424.44
418.497	402.44
418.72	396.44
418.943	388.44
419.166	394.44
419.389	414.44
419.611	413.44
419.834	443.44
420.057	416.44
420.28	406.44
420.503	412.44
420.726	415.44
420.948	443.44
421.171	471.44
421.394	488.44
421.617	438.44
421.839	411.44
422.062	420.44
422.285	439.44
422.507	502.44
422.73	541.44
422.953	522.44
423.175	470.44
423.398	450.44
423.621	438.44
423.843	448.44
424.066	448.44
424.288	461.44
424.511	497.44
424.733	510.44
424.956	602.44
425.178	558.44
425.401	555.44
425.623	598.44
425.846	503.44
426.068	464.44
426.291	454.44
426.513	461.44
426.735	477.44
426.958	512.44
427.18	579.44
427.402	677.44
427.625	777.44
427.847	675.44
428.069	598.44
428.292	532.44
428.514	461.44
428.736	437.44
428.958	433.44
429.181	417.44
429.403	424.44
429.625	427.44
429.847	463.44
430.069	527.44
430.292	532.44
430.514	444.44
430.736	431.44
430.958	422.44
431.18	425.44
431.402	403.44
431.624	399.44
431.846	390.44
432.068	435.44
432.29	404.44
432.512	390.44
432.734	421.44
432.956	397.44
433.178	416.44
433.4	417.44
433.622	402.44
433.844	400.44
434.066	399.44
434.287	385.44
434.509	406.44
434.731	413.44
434.953	430.44
435.175	410.44
435.397	452.44
435.618	456.44
435.84	518.44
436.062	594.44
436.284	638.44
436.505	532.44
436.727	487.44
436.949	450.44
437.17	453.44
437.392	452.44
437.614	448.44
437.835	484.44
438.057	554.44
438.278	637.44
438.5	646.44
438.721	722.44
438.943	685.44
439.165	531.44
439.386	466.44
439.608	468.44
439.829	500.44
440.05	516.44
440.272	553.44
440.493	528.44
440.715	472.44
440.936	455.44
441.158	428.44
441.379	427.44
441.6	430.44
441.822	457.44
442.043	504.44
442.264	568.44
442.486	588.44
442.707	513.44
442.928	463.44
443.149	491.44
443.371	511.44
443.592	555.44
443.813	633.44
444.034	658.44
444.255	553.44
444.476	473.44
444.698	467.44
444.919	445.44
445.14	593.44
445.361	539.44
445.582	509.44
445.803	585.44
446.024	648.44
446.245	670.44
446.466	597.44
446.687	511.44
446.908	467.44
447.129	450.44
447.35	444.44
447.571	446.44
447.792	439.44
448.013	422.44
448.234	458.44
448.455	495.44
448.675	592.44
448.896	699.44
449.117	587.44
449.338	580.44
449.559	655.44
449.779	720.44
450	580.44
450.221	505.44
450.442	470.44
450.662	424.44
450.883	422.44
451.104	440.44
451.324	443.44
451.545	420.44
451.766	411.44
451.986	414.44
452.207	378.44
452.428	385.44
452.648	399.44
452.869	400.44
453.089	421.44
453.31	424.44
453.53	401.44
453.751	392.44
453.971	416.44
454.192	414.44
454.412	399.44
454.633	379.44
454.853	378.44
455.073	404.44
455.294	412.44
455.514	482.44
455.734	460.44
455.955	377.44
456.175	370.44
456.395	367.44
456.616	380.44
456.836	377.44
457.056	370.44
457.276	375.44
457.497	375.44
457.717	367.44
457.937	342.44
458.157	354.44
458.377	386.44
458.598	399.44
458.818	454.44
459.038	533.44
459.258	559.44
459.478	443.44
459.698	408.44
459.918	408.44
460.138	395.44
460.358	393.44
460.578	395.44
460.798	386.44
461.018	390.44
461.238	392.44
461.458	394.44
461.678	386.44
461.898	386.44
462.118	377.44
462.338	403.44
462.558	393.44
462.777	404.44
462.997	411.44
463.217	393.44
463.437	396.44
463.657	398.44
463.876	401.44
464.096	415.44
464.316	404.44
464.536	400.44
464.755	423.44
464.975	424.44
465.195	492.44
465.414	562.44
465.634	490.44
465.854	440.44
466.073	397.44
466.293	395.44
466.512	404.44
466.732	406.44
466.951	394.44
467.171	373.44
467.391	380.44
467.61	398.44
467.829	403.44
468.049	417.44
468.268	373.44
468.488	380.44
468.707	381.44
468.927	357.44
469.146	370.44
469.365	391.44
469.585	386.44
469.804	389.44
470.023	387.44
470.243	400.44
470.462	398.44
470.681	400.44
470.901	400.44
471.12	415.44
471.339	381.44
471.558	392.44
471.777	405.44
471.997	392.44
472.216	414.44
472.435	404.44
472.654	416.44
472.873	395.44
473.092	373.44
473.311	388.44
473.53	386.44
473.749	394.44
473.968	456.44
474.187	551.44
474.406	570.44
474.625	471.44
474.844	428.44
475.063	392.44
475.282	401.44
475.501	390.44
475.72	393.44
475.939	393.44
476.158	383.44
476.377	399.44
476.596	401.44
476.814	424.44
477.033	415.44
477.252	434.44
477.471	414.44
477.69	418.44
477.908	419.44
478.127	427.44
478.346	420.44
478.564	458.44
478.783	422.44
479.002	439.44
479.22	442.44
479.439	447.44
479.658	470.44
479.876	458.44
480.095	452.44
480.313	489.44
480.532	477.44
480.751	481.44
480.969	476.44
481.188	545.44
481.406	538.44
481.624	513.44
481.843	482.44
482.061	475.44
482.28	477.44
482.498	458.44
482.717	461.44
482.935	459.44
483.153	459.44
483.372	477.44
483.59	468.44
483.808	455.44
484.027	452.44
484.245	457.44
484.463	474.44
484.681	476.44
484.9	472.44
485.118	473.44
485.336	471.44
485.554	498.44
485.772	469.44
485.99	473.44
486.209	452.44
486.427	478.44
486.645	493.44
486.863	506.44
487.081	516.44
487.299	499.44
487.517	475.44
487.735	514.44
487.953	486.44
488.171	492.44
488.389	510.44
488.607	482.44
488.825	507.44
489.043	507.44
489.261	520.44
489.479	510.44
489.696	526.44
489.914	484.44
490.132	502.44
490.35	512.44
490.568	517.44
490.786	521.44
491.003	532.44
491.221	527.44
491.439	528.44
491.657	568.44
491.874	567.44
492.092	552.44
492.31	576.44
492.527	571.44
492.745	562.44
492.963	568.44
493.18	566.44
493.398	574.44
493.615	599.44
493.833	579.44
494.05	591.44
494.268	582.44
494.485	550.44
494.703	605.44
494.92	611.44
495.138	581.44
495.355	592.44
495.573	606.44
495.79	557.44
496.008	583.44
496.225	601.44
496.442	583.44
496.66	604.44
496.877	566.44
497.094	584.44
497.312	570.44
497.529	591.44
497.746	605.44
497.963	599.44
498.181	641.44
498.398	648.44
498.615	617.44
498.832	630.44
499.049	630.44
499.267	649.44
499.484	665.44
499.701	655.44
499.918	687.44
500.135	711.44
500.352	725.44
500.569	701.44
500.786	732.44
501.003	726.44
501.22	710.44
501.437	710.44
501.654	698.44
501.871	686.44
