Data from 1981.PennyLincolnUp.Lamp.En5.5.200Scan.071819.P1_HRD10591_16-43-07-960.txt Node
Date: Thu Jul 18 16:43:07 EDT 2019
User: cochatt
Spectrometer: HR+D1059
Trigger mode: 1
Integration Time (sec): 1.000000E-1
Scans to average: 1
Electric dark correction enabled: true
Nonlinearity correction enabled: false
Boxcar width: 0
XAxis mode: Wavelengths
Number of Pixels in Spectrum: 2048
>>>>>Begin Spectral Data<<<<<
223.165	-13.88
223.4	-13.88
223.635	-13.88
223.869	-12.88
224.104	-25.88
224.338	-13.88
224.573	-8.88
224.808	-18.88
225.042	-1.88
225.277	-18.88
225.511	6.12
225.746	-1.88
225.98	22.12
226.215	5.12
226.449	11.12
226.683	20.12
226.918	26.12
227.152	26.12
227.387	33.12
227.621	39.12
227.856	30.12
228.09	30.12
228.324	31.12
228.559	56.12
228.793	71.12
229.027	94.12
229.262	116.12
229.496	123.12
229.73	155.12
229.964	150.12
230.199	125.12
230.433	121.12
230.667	119.12
230.901	102.12
231.136	92.12
231.37	114.12
231.604	95.12
231.838	117.12
232.072	125.12
232.306	111.12
232.541	101.12
232.775	131.12
233.009	109.12
233.243	122.12
233.477	110.12
233.711	110.12
233.945	119.12
234.179	134.12
234.413	111.12
234.647	114.12
234.881	120.12
235.115	116.12
235.349	111.12
235.583	122.12
235.817	134.12
236.051	128.12
236.285	123.12
236.519	137.12
236.753	137.12
236.987	147.12
237.221	199.12
237.455	227.12
237.689	196.12
237.922	149.12
238.156	130.12
238.39	120.12
238.624	123.12
238.858	139.12
239.091	126.12
239.325	122.12
239.559	129.12
239.793	140.12
240.027	141.12
240.26	145.12
240.494	173.12
240.728	165.12
240.961	157.12
241.195	139.12
241.429	142.12
241.662	132.12
241.896	154.12
242.13	138.12
242.363	134.12
242.597	142.12
242.83	143.12
243.064	133.12
243.298	139.12
243.531	139.12
243.765	143.12
243.998	144.12
244.232	130.12
244.465	154.12
244.699	151.12
244.932	159.12
245.166	159.12
245.399	161.12
245.633	169.12
245.866	150.12
246.099	138.12
246.333	142.12
246.566	142.12
246.8	151.12
247.033	153.12
247.266	154.12
247.5	172.12
247.733	175.12
247.966	182.12
248.2	164.12
248.433	163.12
248.666	195.12
248.899	196.12
249.133	210.12
249.366	205.12
249.599	205.12
249.832	191.12
250.066	189.12
250.299	196.12
250.532	199.12
250.765	201.12
250.998	246.12
251.231	253.12
251.465	232.12
251.698	214.12
251.931	212.12
252.164	211.12
252.397	216.12
252.63	212.12
252.863	224.12
253.096	239.12
253.329	227.12
253.562	235.12
253.795	252.12
254.028	231.12
254.261	231.12
254.494	238.12
254.727	290.12
254.96	322.12
255.193	290.12
255.426	296.12
255.659	252.12
255.892	259.12
256.124	262.12
256.357	264.12
256.59	247.12
256.823	240.12
257.056	254.12
257.289	223.12
257.521	208.12
257.754	208.12
257.987	231.12
258.22	243.12
258.452	215.12
258.685	216.12
258.918	224.12
259.151	213.12
259.383	233.12
259.616	229.12
259.849	235.12
260.081	260.12
260.314	289.12
260.547	288.12
260.779	278.12
261.012	249.12
261.244	216.12
261.477	246.12
261.71	224.12
261.942	239.12
262.175	260.12
262.407	243.12
262.64	249.12
262.872	218.12
263.105	220.12
263.337	226.12
263.57	218.12
263.802	227.12
264.035	223.12
264.267	229.12
264.499	226.12
264.732	236.12
264.964	222.12
265.197	230.12
265.429	225.12
265.661	220.12
265.894	219.12
266.126	235.12
266.358	230.12
266.591	260.12
266.823	239.12
267.055	248.12
267.287	250.12
267.52	243.12
267.752	219.12
267.984	238.12
268.216	247.12
268.448	242.12
268.681	247.12
268.913	253.12
269.145	282.12
269.377	287.12
269.609	310.12
269.841	294.12
270.073	296.12
270.306	326.12
270.538	337.12
270.77	339.12
271.002	331.12
271.234	314.12
271.466	338.12
271.698	352.12
271.93	344.12
272.162	353.12
272.394	374.12
272.626	340.12
272.858	321.12
273.09	293.12
273.322	295.12
273.553	297.12
273.785	274.12
274.017	276.12
274.249	283.12
274.481	299.12
274.713	285.12
274.945	308.12
275.176	287.12
275.408	284.12
275.64	287.12
275.872	269.12
276.104	290.12
276.335	272.12
276.567	292.12
276.799	297.12
277.031	327.12
277.262	344.12
277.494	346.12
277.726	328.12
277.957	312.12
278.189	287.12
278.421	306.12
278.652	298.12
278.884	291.12
279.115	303.12
279.347	297.12
279.579	291.12
279.81	287.12
280.042	289.12
280.273	281.12
280.505	286.12
280.736	288.12
280.968	263.12
281.199	286.12
281.431	266.12
281.662	299.12
281.894	282.12
282.125	284.12
282.356	320.12
282.588	329.12
282.819	330.12
283.051	296.12
283.282	271.12
283.513	272.12
283.745	292.12
283.976	307.12
284.207	309.12
284.439	303.12
284.67	312.12
284.901	291.12
285.132	297.12
285.364	280.12
285.595	288.12
285.826	286.12
286.057	295.12
286.288	280.12
286.52	296.12
286.751	303.12
286.982	308.12
287.213	282.12
287.444	302.12
287.675	287.12
287.906	302.12
288.138	318.12
288.369	320.12
288.6	328.12
288.831	312.12
289.062	294.12
289.293	298.12
289.524	298.12
289.755	308.12
289.986	295.12
290.217	283.12
290.448	298.12
290.679	276.12
290.91	308.12
291.141	297.12
291.371	294.12
291.602	283.12
291.833	301.12
292.064	299.12
292.295	291.12
292.526	298.12
292.757	277.12
292.987	302.12
293.218	312.12
293.449	272.12
293.68	303.12
293.91	290.12
294.141	300.12
294.372	285.12
294.603	306.12
294.833	319.12
295.064	293.12
295.295	293.12
295.525	298.12
295.756	320.12
295.987	316.12
296.217	330.12
296.448	343.12
296.679	302.12
296.909	289.12
297.14	308.12
297.37	308.12
297.601	297.12
297.831	296.12
298.062	315.12
298.292	312.12
298.523	314.12
298.753	326.12
298.984	302.12
299.214	300.12
299.445	302.12
299.675	330.12
299.905	329.12
300.136	354.12
300.366	309.12
300.597	334.12
300.827	314.12
301.057	323.12
301.288	346.12
301.518	338.12
301.748	308.12
301.979	338.12
302.209	344.12
302.439	339.12
302.669	343.12
302.9	336.12
303.13	314.12
303.36	330.12
303.59	350.12
303.82	340.12
304.051	349.12
304.281	333.12
304.511	311.12
304.741	323.12
304.971	348.12
305.201	342.12
305.431	344.12
305.661	346.12
305.891	347.12
306.121	343.12
306.352	330.12
306.582	346.12
306.812	339.12
307.042	331.12
307.272	350.12
307.502	356.12
307.731	350.12
307.961	350.12
308.191	343.12
308.421	350.12
308.651	344.12
308.881	334.12
309.111	362.12
309.341	374.12
309.571	374.12
309.8	387.12
310.03	386.12
310.26	378.12
310.49	384.12
310.72	422.12
310.949	438.12
311.179	415.12
311.409	414.12
311.639	393.12
311.868	394.12
312.098	398.12
312.328	403.12
312.557	427.12
312.787	427.12
313.017	438.12
313.246	421.12
313.476	400.12
313.706	411.12
313.935	429.12
314.165	412.12
314.394	437.12
314.624	438.12
314.853	415.12
315.083	405.12
315.312	398.12
315.542	400.12
315.771	376.12
316.001	393.12
316.23	394.12
316.46	395.12
316.689	384.12
316.919	411.12
317.148	399.12
317.377	418.12
317.607	413.12
317.836	414.12
318.065	380.12
318.295	388.12
318.524	404.12
318.753	408.12
318.983	392.12
319.212	414.12
319.441	408.12
319.67	390.12
319.9	400.12
320.129	406.12
320.358	415.12
320.587	426.12
320.816	410.12
321.046	429.12
321.275	441.12
321.504	424.12
321.733	418.12
321.962	428.12
322.191	449.12
322.42	463.12
322.649	465.12
322.878	520.12
323.108	509.12
323.337	530.12
323.566	572.12
323.795	610.12
324.024	682.12
324.253	836.12
324.482	1224.12
324.71	1872.12
324.939	2582.12
325.168	2167.12
325.397	1142.12
325.626	789.12
325.855	650.12
326.084	590.12
326.313	554.12
326.542	586.12
326.77	634.12
326.999	802.12
327.228	1090.12
327.457	1646.12
327.686	1922.12
327.914	1261.12
328.143	854.12
328.372	734.12
328.6	678.12
328.829	649.12
329.058	661.12
329.287	669.12
329.515	605.12
329.744	590.12
329.972	541.12
330.201	572.12
330.43	650.12
330.658	656.12
330.887	716.12
331.115	648.12
331.344	551.12
331.572	546.12
331.801	524.12
332.03	514.12
332.258	506.12
332.486	469.12
332.715	482.12
332.943	485.12
333.172	467.12
333.4	478.12
333.629	474.12
333.857	482.12
334.085	505.12
334.314	500.12
334.542	538.12
334.771	568.12
334.999	540.12
335.227	452.12
335.455	455.12
335.684	459.12
335.912	448.12
336.14	445.12
336.369	456.12
336.597	452.12
336.825	456.12
337.053	459.12
337.281	454.12
337.51	450.12
337.738	460.12
337.966	456.12
338.194	448.12
338.422	456.12
338.65	444.12
338.878	427.12
339.106	435.12
339.334	430.12
339.562	431.12
339.79	427.12
340.018	448.12
340.246	431.12
340.474	453.12
340.702	427.12
340.93	446.12
341.158	439.12
341.386	421.12
341.614	430.12
341.842	446.12
342.07	444.12
342.298	413.12
342.526	421.12
342.754	434.12
342.981	407.12
343.209	418.12
343.437	431.12
343.665	432.12
343.893	430.12
344.12	431.12
344.348	434.12
344.576	424.12
344.804	440.12
345.031	450.12
345.259	460.12
345.487	420.12
345.714	430.12
345.942	430.12
346.17	434.12
346.397	410.12
346.625	410.12
346.853	395.12
347.08	407.12
347.308	429.12
347.535	442.12
347.763	432.12
347.99	433.12
348.218	442.12
348.445	455.12
348.673	434.12
348.9	414.12
349.128	427.12
349.355	400.12
349.583	402.12
349.81	395.12
350.037	407.12
350.265	402.12
350.492	388.12
350.72	420.12
350.947	409.12
351.174	417.12
351.402	429.12
351.629	428.12
351.856	450.12
352.083	440.12
352.311	437.12
352.538	453.12
352.765	439.12
352.992	428.12
353.22	419.12
353.447	400.12
353.674	414.12
353.901	382.12
354.128	398.12
354.355	384.12
354.583	376.12
354.81	376.12
355.037	383.12
355.264	384.12
355.491	364.12
355.718	379.12
355.945	388.12
356.172	365.12
356.399	376.12
356.626	352.12
356.853	368.12
357.08	373.12
357.307	372.12
357.534	382.12
357.761	368.12
357.988	374.12
358.215	384.12
358.441	386.12
358.668	386.12
358.895	372.12
359.122	381.12
359.349	403.12
359.576	420.12
359.802	432.12
360.029	470.12
360.256	474.12
360.483	446.12
360.709	414.12
360.936	420.12
361.163	405.12
361.39	412.12
361.616	419.12
361.843	414.12
362.07	416.12
362.296	397.12
362.523	397.12
362.749	405.12
362.976	406.12
363.203	382.12
363.429	373.12
363.656	401.12
363.882	393.12
364.109	386.12
364.335	376.12
364.562	372.12
364.788	367.12
365.015	396.12
365.241	394.12
365.468	386.12
365.694	396.12
365.92	395.12
366.147	404.12
366.373	394.12
366.599	363.12
366.826	376.12
367.052	378.12
367.278	364.12
367.505	370.12
367.731	382.12
367.957	383.12
368.184	418.12
368.41	383.12
368.636	408.12
368.862	374.12
369.089	403.12
369.315	372.12
369.541	377.12
369.767	367.12
369.993	398.12
370.219	366.12
370.445	376.12
370.672	372.12
370.898	372.12
371.124	356.12
371.35	355.12
371.576	353.12
371.802	361.12
372.028	350.12
372.254	365.12
372.48	372.12
372.706	347.12
372.932	363.12
373.158	363.12
373.384	380.12
373.61	350.12
373.835	388.12
374.061	374.12
374.287	364.12
374.513	378.12
374.739	364.12
374.965	374.12
375.191	374.12
375.416	352.12
375.642	349.12
375.868	363.12
376.094	368.12
376.319	360.12
376.545	358.12
376.771	369.12
376.997	350.12
377.222	364.12
377.448	358.12
377.674	375.12
377.899	343.12
378.125	362.12
378.35	352.12
378.576	348.12
378.802	351.12
379.027	352.12
379.253	349.12
379.478	344.12
379.704	330.12
379.929	345.12
380.155	367.12
380.38	357.12
380.606	371.12
380.831	342.12
381.057	367.12
381.282	354.12
381.507	366.12
381.733	381.12
381.958	345.12
382.184	350.12
382.409	373.12
382.634	354.12
382.86	374.12
383.085	376.12
383.31	357.12
383.535	381.12
383.761	372.12
383.986	345.12
384.211	350.12
384.436	382.12
384.662	366.12
384.887	357.12
385.112	360.12
385.337	375.12
385.562	387.12
385.787	377.12
386.013	406.12
386.238	388.12
386.463	382.12
386.688	376.12
386.913	371.12
387.138	371.12
387.363	378.12
387.588	378.12
387.813	390.12
388.038	379.12
388.263	364.12
388.488	354.12
388.713	379.12
388.938	380.12
389.163	377.12
389.387	386.12
389.612	371.12
389.837	364.12
390.062	365.12
390.287	379.12
390.512	364.12
390.736	380.12
390.961	388.12
391.186	370.12
391.411	359.12
391.636	363.12
391.86	377.12
392.085	385.12
392.31	362.12
392.534	363.12
392.759	395.12
392.984	378.12
393.208	376.12
393.433	387.12
393.658	372.12
393.882	365.12
394.107	359.12
394.331	352.12
394.556	379.12
394.78	367.12
395.005	372.12
395.229	370.12
395.454	391.12
395.678	374.12
395.903	397.12
396.127	395.12
396.352	409.12
396.576	385.12
396.801	380.12
397.025	376.12
397.249	400.12
397.474	384.12
397.698	379.12
397.922	399.12
398.147	414.12
398.371	428.12
398.595	392.12
398.82	418.12
399.044	402.12
399.268	441.12
399.492	431.12
399.717	447.12
399.941	476.12
400.165	513.12
400.389	500.12
400.613	486.12
400.837	449.12
401.062	425.12
401.286	422.12
401.51	404.12
401.734	395.12
401.958	421.12
402.182	429.12
402.406	415.12
402.63	428.12
402.854	452.12
403.078	431.12
403.302	444.12
403.526	429.12
403.75	412.12
403.974	421.12
404.198	431.12
404.422	451.12
404.645	423.12
404.869	445.12
405.093	479.12
405.317	516.12
405.541	524.12
405.765	489.12
405.988	450.12
406.212	452.12
406.436	483.12
406.66	463.12
406.883	494.12
407.107	503.12
407.331	535.12
407.555	566.12
407.778	572.12
408.002	517.12
408.226	490.12
408.449	495.12
408.673	471.12
408.896	478.12
409.12	536.12
409.344	488.12
409.567	445.12
409.791	444.12
410.014	440.12
410.238	443.12
410.461	446.12
410.685	435.12
410.908	460.12
411.132	482.12
411.355	516.12
411.578	489.12
411.802	433.12
412.025	420.12
412.249	456.12
412.472	465.12
412.695	502.12
412.919	500.12
413.142	431.12
413.365	431.12
413.589	441.12
413.812	446.12
414.035	401.12
414.258	396.12
414.482	397.12
414.705	405.12
414.928	397.12
415.151	395.12
415.374	388.12
415.597	389.12
415.821	401.12
416.044	398.12
416.267	409.12
416.49	421.12
416.713	400.12
416.936	411.12
417.159	403.12
417.382	400.12
417.605	415.12
417.828	408.12
418.051	436.12
418.274	436.12
418.497	416.12
418.72	414.12
418.943	377.12
419.166	420.12
419.389	422.12
419.611	447.12
419.834	436.12
420.057	445.12
420.28	427.12
420.503	429.12
420.726	430.12
420.948	463.12
421.171	476.12
421.394	494.12
421.617	459.12
421.839	429.12
422.062	433.12
422.285	455.12
422.507	520.12
422.73	568.12
422.953	538.12
423.175	486.12
423.398	436.12
423.621	461.12
423.843	473.12
424.066	485.12
424.288	473.12
424.511	478.12
424.733	555.12
424.956	604.12
425.178	584.12
425.401	582.12
425.623	608.12
425.846	522.12
426.068	475.12
426.291	470.12
426.513	471.12
426.735	495.12
426.958	507.12
427.18	586.12
427.402	716.12
427.625	778.12
427.847	729.12
428.069	611.12
428.292	551.12
428.514	504.12
428.736	471.12
428.958	444.12
429.181	428.12
429.403	442.12
429.625	432.12
429.847	503.12
430.069	547.12
430.292	536.12
430.514	474.12
430.736	450.12
430.958	422.12
431.18	436.12
431.402	395.12
431.624	392.12
431.846	399.12
432.068	413.12
432.29	405.12
432.512	426.12
432.734	437.12
432.956	418.12
433.178	433.12
433.4	451.12
433.622	414.12
433.844	406.12
434.066	408.12
434.287	405.12
434.509	407.12
434.731	434.12
434.953	440.12
435.175	440.12
435.397	476.12
435.618	467.12
435.84	525.12
436.062	615.12
436.284	675.12
436.505	554.12
436.727	520.12
436.949	466.12
437.17	466.12
437.392	452.12
437.614	461.12
437.835	494.12
438.057	593.12
438.278	695.12
438.5	693.12
438.721	706.12
438.943	712.12
439.165	547.12
439.386	518.12
439.608	522.12
439.829	518.12
440.05	557.12
440.272	590.12
440.493	538.12
440.715	493.12
440.936	459.12
441.158	448.12
441.379	443.12
441.6	448.12
441.822	476.12
442.043	517.12
442.264	582.12
442.486	658.12
442.707	558.12
442.928	494.12
443.149	491.12
443.371	524.12
443.592	560.12
443.813	654.12
444.034	683.12
444.255	560.12
444.476	488.12
444.698	456.12
444.919	474.12
445.14	589.12
445.361	532.12
445.582	535.12
445.803	591.12
446.024	696.12
446.245	668.12
446.466	630.12
446.687	543.12
446.908	490.12
447.129	460.12
447.35	442.12
447.571	449.12
447.792	428.12
448.013	440.12
448.234	475.12
448.455	514.12
448.675	618.12
448.896	706.12
449.117	615.12
449.338	577.12
449.559	671.12
449.779	762.12
450	600.12
450.221	516.12
450.442	477.12
450.662	456.12
450.883	469.12
451.104	480.12
451.324	454.12
451.545	423.12
451.766	420.12
451.986	385.12
452.207	391.12
452.428	386.12
452.648	398.12
452.869	382.12
453.089	418.12
453.31	416.12
453.53	395.12
453.751	395.12
453.971	411.12
454.192	411.12
454.412	425.12
454.633	415.12
454.853	406.12
455.073	389.12
455.294	411.12
455.514	495.12
455.734	468.12
455.955	418.12
456.175	382.12
456.395	374.12
456.616	363.12
456.836	388.12
457.056	356.12
457.276	358.12
457.497	362.12
457.717	359.12
457.937	359.12
458.157	377.12
458.377	394.12
458.598	411.12
458.818	469.12
459.038	550.12
459.258	556.12
459.478	457.12
459.698	419.12
459.918	408.12
460.138	400.12
460.358	380.12
460.578	390.12
460.798	418.12
461.018	405.12
461.238	403.12
461.458	400.12
461.678	389.12
461.898	398.12
462.118	405.12
462.338	403.12
462.558	412.12
462.777	407.12
462.997	426.12
463.217	395.12
463.437	426.12
463.657	438.12
463.876	414.12
464.096	416.12
464.316	405.12
464.536	440.12
464.755	419.12
464.975	434.12
465.195	482.12
465.414	582.12
465.634	486.12
465.854	452.12
466.073	431.12
466.293	414.12
466.512	413.12
466.732	398.12
466.951	390.12
467.171	402.12
467.391	398.12
467.61	411.12
467.829	400.12
468.049	403.12
468.268	401.12
468.488	383.12
468.707	391.12
468.927	381.12
469.146	384.12
469.365	382.12
469.585	368.12
469.804	400.12
470.023	381.12
470.243	396.12
470.462	390.12
470.681	419.12
470.901	429.12
471.12	414.12
471.339	396.12
471.558	391.12
471.777	398.12
471.997	394.12
472.216	400.12
472.435	462.12
472.654	405.12
472.873	409.12
473.092	409.12
473.311	399.12
473.53	397.12
473.749	437.12
473.968	466.12
474.187	582.12
474.406	592.12
474.625	487.12
474.844	445.12
475.063	431.12
475.282	429.12
475.501	410.12
475.72	413.12
475.939	427.12
476.158	402.12
476.377	419.12
476.596	408.12
476.814	434.12
477.033	443.12
477.252	438.12
477.471	446.12
477.69	438.12
477.908	452.12
478.127	412.12
478.346	437.12
478.564	428.12
478.783	424.12
479.002	442.12
479.22	451.12
479.439	471.12
479.658	472.12
479.876	491.12
480.095	469.12
480.313	528.12
480.532	481.12
480.751	493.12
480.969	488.12
481.188	562.12
481.406	598.12
481.624	516.12
481.843	498.12
482.061	488.12
482.28	486.12
482.498	472.12
482.717	490.12
482.935	489.12
483.153	487.12
483.372	477.12
483.59	462.12
483.808	462.12
484.027	472.12
484.245	479.12
484.463	479.12
484.681	489.12
484.9	460.12
485.118	464.12
485.336	472.12
485.554	477.12
485.772	495.12
485.99	479.12
486.209	475.12
486.427	517.12
486.645	503.12
486.863	512.12
487.081	520.12
487.299	497.12
487.517	503.12
487.735	510.12
487.953	477.12
488.171	502.12
488.389	525.12
488.607	515.12
488.825	499.12
489.043	516.12
489.261	528.12
489.479	536.12
489.696	524.12
489.914	495.12
490.132	493.12
490.35	501.12
490.568	512.12
490.786	515.12
491.003	559.12
491.221	570.12
491.439	567.12
491.657	568.12
491.874	583.12
492.092	579.12
492.31	598.12
492.527	600.12
492.745	600.12
492.963	590.12
493.18	599.12
493.398	593.12
493.615	590.12
493.833	595.12
494.05	600.12
494.268	605.12
494.485	598.12
494.703	613.12
494.92	620.12
495.138	591.12
495.355	599.12
495.573	598.12
495.79	618.12
496.008	618.12
496.225	610.12
496.442	608.12
496.66	605.12
496.877	599.12
497.094	594.12
497.312	605.12
497.529	610.12
497.746	623.12
497.963	644.12
498.181	640.12
498.398	654.12
498.615	641.12
498.832	664.12
499.049	669.12
499.267	657.12
499.484	677.12
499.701	705.12
499.918	697.12
500.135	739.12
500.352	725.12
500.569	728.12
500.786	715.12
501.003	745.12
501.22	711.12
501.437	726.12
501.654	715.12
501.871	716.12
