Data from 1981.PennyLincolnUp.Lamp.En5.5.200Scan.071819.P1_HRD10591_16-41-40-960.txt Node
Date: Thu Jul 18 16:41:40 EDT 2019
User: cochatt
Spectrometer: HR+D1059
Trigger mode: 1
Integration Time (sec): 1.000000E-1
Scans to average: 1
Electric dark correction enabled: true
Nonlinearity correction enabled: false
Boxcar width: 0
XAxis mode: Wavelengths
Number of Pixels in Spectrum: 2048
>>>>>Begin Spectral Data<<<<<
223.165	-12.62
223.4	-12.62
223.635	-12.62
223.869	-8.62
224.104	-23.62
224.338	-19.62
224.573	-25.62
224.808	-25.62
225.042	-2.62
225.277	-5.62
225.511	2.38
225.746	-0.62
225.98	2.38
226.215	11.38
226.449	23.38
226.683	26.38
226.918	28.38
227.152	30.38
227.387	34.38
227.621	37.38
227.856	38.38
228.09	42.38
228.324	75.38
228.559	67.38
228.793	76.38
229.027	103.38
229.262	106.38
229.496	128.38
229.73	143.38
229.964	151.38
230.199	143.38
230.433	112.38
230.667	129.38
230.901	119.38
231.136	115.38
231.37	91.38
231.604	99.38
231.838	110.38
232.072	121.38
232.306	112.38
232.541	107.38
232.775	112.38
233.009	123.38
233.243	108.38
233.477	87.38
233.711	108.38
233.945	107.38
234.179	111.38
234.413	121.38
234.647	127.38
234.881	115.38
235.115	118.38
235.349	131.38
235.583	132.38
235.817	126.38
236.051	118.38
236.285	135.38
236.519	134.38
236.753	144.38
236.987	153.38
237.221	201.38
237.455	252.38
237.689	208.38
237.922	144.38
238.156	133.38
238.39	141.38
238.624	134.38
238.858	122.38
239.091	123.38
239.325	128.38
239.559	130.38
239.793	148.38
240.027	141.38
240.26	126.38
240.494	159.38
240.728	156.38
240.961	153.38
241.195	131.38
241.429	143.38
241.662	130.38
241.896	134.38
242.13	140.38
242.363	142.38
242.597	144.38
242.83	120.38
243.064	139.38
243.298	135.38
243.531	149.38
243.765	143.38
243.998	146.38
244.232	142.38
244.465	130.38
244.699	166.38
244.932	157.38
245.166	130.38
245.399	151.38
245.633	130.38
245.866	162.38
246.099	157.38
246.333	162.38
246.566	159.38
246.8	167.38
247.033	155.38
247.266	154.38
247.5	168.38
247.733	172.38
247.966	179.38
248.2	164.38
248.433	183.38
248.666	189.38
248.899	179.38
249.133	202.38
249.366	216.38
249.599	175.38
249.832	192.38
250.066	191.38
250.299	202.38
250.532	189.38
250.765	219.38
250.998	231.38
251.231	245.38
251.465	218.38
251.698	235.38
251.931	204.38
252.164	223.38
252.397	192.38
252.63	212.38
252.863	216.38
253.096	223.38
253.329	253.38
253.562	234.38
253.795	229.38
254.028	238.38
254.261	223.38
254.494	242.38
254.727	278.38
254.96	288.38
255.193	271.38
255.426	280.38
255.659	258.38
255.892	261.38
256.124	243.38
256.357	250.38
256.59	250.38
256.823	237.38
257.056	231.38
257.289	219.38
257.521	208.38
257.754	232.38
257.987	211.38
258.22	227.38
258.452	229.38
258.685	217.38
258.918	215.38
259.151	217.38
259.383	232.38
259.616	228.38
259.849	243.38
260.081	232.38
260.314	244.38
260.547	273.38
260.779	250.38
261.012	243.38
261.244	263.38
261.477	238.38
261.71	226.38
261.942	246.38
262.175	278.38
262.407	252.38
262.64	235.38
262.872	232.38
263.105	234.38
263.337	233.38
263.57	231.38
263.802	223.38
264.035	237.38
264.267	222.38
264.499	229.38
264.732	227.38
264.964	229.38
265.197	218.38
265.429	228.38
265.661	216.38
265.894	218.38
266.126	231.38
266.358	224.38
266.591	226.38
266.823	238.38
267.055	236.38
267.287	256.38
267.52	226.38
267.752	227.38
267.984	232.38
268.216	233.38
268.448	235.38
268.681	237.38
268.913	229.38
269.145	253.38
269.377	288.38
269.609	278.38
269.841	288.38
270.073	291.38
270.306	319.38
270.538	322.38
270.77	338.38
271.002	319.38
271.234	308.38
271.466	313.38
271.698	323.38
271.93	321.38
272.162	338.38
272.394	336.38
272.626	311.38
272.858	304.38
273.09	315.38
273.322	303.38
273.553	281.38
273.785	271.38
274.017	294.38
274.249	295.38
274.481	290.38
274.713	266.38
274.945	284.38
275.176	283.38
275.408	280.38
275.64	262.38
275.872	300.38
276.104	279.38
276.335	262.38
276.567	294.38
276.799	288.38
277.031	322.38
277.262	332.38
277.494	328.38
277.726	326.38
277.957	317.38
278.189	294.38
278.421	270.38
278.652	276.38
278.884	273.38
279.115	276.38
279.347	262.38
279.579	271.38
279.81	285.38
280.042	275.38
280.273	293.38
280.505	285.38
280.736	279.38
280.968	262.38
281.199	276.38
281.431	278.38
281.662	270.38
281.894	282.38
282.125	294.38
282.356	307.38
282.588	326.38
282.819	318.38
283.051	304.38
283.282	282.38
283.513	281.38
283.745	281.38
283.976	297.38
284.207	267.38
284.439	291.38
284.67	290.38
284.901	300.38
285.132	286.38
285.364	271.38
285.595	291.38
285.826	270.38
286.057	264.38
286.288	287.38
286.52	288.38
286.751	282.38
286.982	275.38
287.213	292.38
287.444	307.38
287.675	302.38
287.906	318.38
288.138	306.38
288.369	314.38
288.6	326.38
288.831	292.38
289.062	298.38
289.293	311.38
289.524	294.38
289.755	299.38
289.986	283.38
290.217	282.38
290.448	284.38
290.679	298.38
290.91	295.38
291.141	303.38
291.371	301.38
291.602	293.38
291.833	276.38
292.064	289.38
292.295	294.38
292.526	289.38
292.757	298.38
292.987	298.38
293.218	284.38
293.449	292.38
293.68	289.38
293.91	292.38
294.141	295.38
294.372	285.38
294.603	303.38
294.833	298.38
295.064	287.38
295.295	294.38
295.525	298.38
295.756	310.38
295.987	320.38
296.217	340.38
296.448	342.38
296.679	324.38
296.909	317.38
297.14	297.38
297.37	302.38
297.601	323.38
297.831	299.38
298.062	286.38
298.292	303.38
298.523	314.38
298.753	301.38
298.984	300.38
299.214	328.38
299.445	297.38
299.675	316.38
299.905	326.38
300.136	315.38
300.366	314.38
300.597	311.38
300.827	308.38
301.057	348.38
301.288	318.38
301.518	322.38
301.748	327.38
301.979	341.38
302.209	339.38
302.439	324.38
302.669	348.38
302.9	294.38
303.13	327.38
303.36	342.38
303.59	333.38
303.82	339.38
304.051	339.38
304.281	332.38
304.511	309.38
304.741	334.38
304.971	331.38
305.201	339.38
305.431	316.38
305.661	326.38
305.891	347.38
306.121	310.38
306.352	332.38
306.582	332.38
306.812	337.38
307.042	351.38
307.272	322.38
307.502	344.38
307.731	334.38
307.961	342.38
308.191	333.38
308.421	348.38
308.651	335.38
308.881	342.38
309.111	338.38
309.341	339.38
309.571	363.38
309.8	381.38
310.03	368.38
310.26	368.38
310.49	371.38
310.72	399.38
310.949	415.38
311.179	429.38
311.409	415.38
311.639	391.38
311.868	384.38
312.098	390.38
312.328	428.38
312.557	426.38
312.787	425.38
313.017	415.38
313.246	415.38
313.476	401.38
313.706	388.38
313.935	415.38
314.165	410.38
314.394	409.38
314.624	418.38
314.853	396.38
315.083	397.38
315.312	388.38
315.542	383.38
315.771	364.38
316.001	368.38
316.23	355.38
316.46	364.38
316.689	412.38
316.919	386.38
317.148	394.38
317.377	409.38
317.607	413.38
317.836	384.38
318.065	386.38
318.295	382.38
318.524	377.38
318.753	375.38
318.983	395.38
319.212	384.38
319.441	394.38
319.67	398.38
319.9	382.38
320.129	404.38
320.358	396.38
320.587	404.38
320.816	399.38
321.046	417.38
321.275	392.38
321.504	425.38
321.733	405.38
321.962	407.38
322.191	448.38
322.42	442.38
322.649	449.38
322.878	494.38
323.108	495.38
323.337	524.38
323.566	560.38
323.795	581.38
324.024	634.38
324.253	784.38
324.482	1151.38
324.71	1771.38
324.939	2391.38
325.168	2106.38
325.397	1093.38
325.626	731.38
325.855	603.38
326.084	570.38
326.313	553.38
326.542	586.38
326.77	627.38
326.999	743.38
327.228	1028.38
327.457	1562.38
327.686	1820.38
327.914	1175.38
328.143	812.38
328.372	665.38
328.6	654.38
328.829	615.38
329.058	606.38
329.287	607.38
329.515	583.38
329.744	537.38
329.972	557.38
330.201	539.38
330.43	588.38
330.658	631.38
330.887	660.38
331.115	615.38
331.344	552.38
331.572	528.38
331.801	525.38
332.03	496.38
332.258	489.38
332.486	456.38
332.715	460.38
332.943	445.38
333.172	448.38
333.4	434.38
333.629	455.38
333.857	498.38
334.085	457.38
334.314	499.38
334.542	482.38
334.771	543.38
334.999	510.38
335.227	482.38
335.455	457.38
335.684	433.38
335.912	446.38
336.14	435.38
336.369	446.38
336.597	449.38
336.825	435.38
337.053	461.38
337.281	427.38
337.51	435.38
337.738	429.38
337.966	436.38
338.194	438.38
338.422	428.38
338.65	432.38
338.878	410.38
339.106	409.38
339.334	409.38
339.562	433.38
339.79	439.38
340.018	429.38
340.246	430.38
340.474	438.38
340.702	433.38
340.93	439.38
341.158	404.38
341.386	433.38
341.614	435.38
341.842	420.38
342.07	430.38
342.298	430.38
342.526	407.38
342.754	394.38
342.981	401.38
343.209	412.38
343.437	412.38
343.665	426.38
343.893	419.38
344.12	413.38
344.348	415.38
344.576	434.38
344.804	420.38
345.031	440.38
345.259	444.38
345.487	442.38
345.714	431.38
345.942	409.38
346.17	416.38
346.397	412.38
346.625	400.38
346.853	420.38
347.08	405.38
347.308	416.38
347.535	426.38
347.763	436.38
347.99	452.38
348.218	421.38
348.445	428.38
348.673	430.38
348.9	407.38
349.128	418.38
349.355	394.38
349.583	393.38
349.81	376.38
350.037	394.38
350.265	389.38
350.492	385.38
350.72	398.38
350.947	402.38
351.174	414.38
351.402	412.38
351.629	414.38
351.856	415.38
352.083	403.38
352.311	428.38
352.538	432.38
352.765	432.38
352.992	422.38
353.22	412.38
353.447	423.38
353.674	420.38
353.901	391.38
354.128	379.38
354.355	388.38
354.583	374.38
354.81	375.38
355.037	363.38
355.264	388.38
355.491	358.38
355.718	358.38
355.945	374.38
356.172	364.38
356.399	344.38
356.626	366.38
356.853	371.38
357.08	367.38
357.307	358.38
357.534	357.38
357.761	361.38
357.988	368.38
358.215	357.38
358.441	378.38
358.668	378.38
358.895	385.38
359.122	381.38
359.349	393.38
359.576	408.38
359.802	424.38
360.029	446.38
360.256	472.38
360.483	454.38
360.709	400.38
360.936	377.38
361.163	411.38
361.39	400.38
361.616	387.38
361.843	386.38
362.07	401.38
362.296	412.38
362.523	413.38
362.749	380.38
362.976	386.38
363.203	395.38
363.429	396.38
363.656	395.38
363.882	377.38
364.109	376.38
364.335	366.38
364.562	365.38
364.788	388.38
365.015	375.38
365.241	370.38
365.468	382.38
365.694	382.38
365.92	395.38
366.147	367.38
366.373	373.38
366.599	376.38
366.826	381.38
367.052	354.38
367.278	381.38
367.505	384.38
367.731	388.38
367.957	367.38
368.184	368.38
368.41	372.38
368.636	398.38
368.862	396.38
369.089	367.38
369.315	366.38
369.541	352.38
369.767	378.38
369.993	364.38
370.219	382.38
370.445	378.38
370.672	365.38
370.898	357.38
371.124	361.38
371.35	358.38
371.576	358.38
371.802	363.38
372.028	370.38
372.254	360.38
372.48	356.38
372.706	343.38
372.932	360.38
373.158	352.38
373.384	382.38
373.61	374.38
373.835	373.38
374.061	374.38
374.287	365.38
374.513	360.38
374.739	344.38
374.965	345.38
375.191	362.38
375.416	350.38
375.642	363.38
375.868	359.38
376.094	365.38
376.319	354.38
376.545	364.38
376.771	350.38
376.997	364.38
377.222	363.38
377.448	354.38
377.674	328.38
377.899	365.38
378.125	342.38
378.35	354.38
378.576	342.38
378.802	350.38
379.027	361.38
379.253	357.38
379.478	338.38
379.704	371.38
379.929	340.38
380.155	376.38
380.38	374.38
380.606	350.38
380.831	367.38
381.057	371.38
381.282	367.38
381.507	348.38
381.733	358.38
381.958	356.38
382.184	354.38
382.409	344.38
382.634	361.38
382.86	367.38
383.085	362.38
383.31	367.38
383.535	392.38
383.761	350.38
383.986	376.38
384.211	362.38
384.436	362.38
384.662	367.38
384.887	379.38
385.112	361.38
385.337	375.38
385.562	370.38
385.787	372.38
386.013	403.38
386.238	376.38
386.463	356.38
386.688	373.38
386.913	356.38
387.138	370.38
387.363	372.38
387.588	372.38
387.813	370.38
388.038	375.38
388.263	374.38
388.488	378.38
388.713	374.38
388.938	359.38
389.163	363.38
389.387	386.38
389.612	354.38
389.837	356.38
390.062	368.38
390.287	358.38
390.512	370.38
390.736	378.38
390.961	375.38
391.186	362.38
391.411	348.38
391.636	366.38
391.86	376.38
392.085	382.38
392.31	388.38
392.534	377.38
392.759	363.38
392.984	380.38
393.208	388.38
393.433	363.38
393.658	390.38
393.882	374.38
394.107	347.38
394.331	364.38
394.556	347.38
394.78	366.38
395.005	384.38
395.229	358.38
395.454	371.38
395.678	388.38
395.903	399.38
396.127	405.38
396.352	408.38
396.576	394.38
396.801	375.38
397.025	375.38
397.249	371.38
397.474	396.38
397.698	398.38
397.922	396.38
398.147	393.38
398.371	394.38
398.595	414.38
398.82	400.38
399.044	398.38
399.268	420.38
399.492	432.38
399.717	432.38
399.941	470.38
400.165	483.38
400.389	521.38
400.613	474.38
400.837	442.38
401.062	446.38
401.286	412.38
401.51	410.38
401.734	403.38
401.958	420.38
402.182	414.38
402.406	431.38
402.63	437.38
402.854	406.38
403.078	398.38
403.302	425.38
403.526	445.38
403.75	442.38
403.974	419.38
404.198	422.38
404.422	398.38
404.645	431.38
404.869	440.38
405.093	464.38
405.317	511.38
405.541	532.38
405.765	466.38
405.988	448.38
406.212	448.38
406.436	486.38
406.66	485.38
406.883	467.38
407.107	489.38
407.331	536.38
407.555	586.38
407.778	577.38
408.002	530.38
408.226	461.38
408.449	471.38
408.673	462.38
408.896	486.38
409.12	550.38
409.344	494.38
409.567	445.38
409.791	430.38
410.014	420.38
410.238	426.38
410.461	434.38
410.685	426.38
410.908	431.38
411.132	456.38
411.355	515.38
411.578	491.38
411.802	445.38
412.025	434.38
412.249	435.38
412.472	448.38
412.695	462.38
412.919	466.38
413.142	432.38
413.365	420.38
413.589	407.38
413.812	404.38
414.035	409.38
414.258	404.38
414.482	395.38
414.705	395.38
414.928	376.38
415.151	388.38
415.374	395.38
415.597	410.38
415.821	386.38
416.044	408.38
416.267	426.38
416.49	397.38
416.713	398.38
416.936	414.38
417.159	406.38
417.382	395.38
417.605	404.38
417.828	414.38
418.051	446.38
418.274	438.38
418.497	397.38
418.72	386.38
418.943	406.38
419.166	421.38
419.389	434.38
419.611	404.38
419.834	422.38
420.057	427.38
420.28	426.38
420.503	431.38
420.726	444.38
420.948	440.38
421.171	467.38
421.394	485.38
421.617	473.38
421.839	424.38
422.062	423.38
422.285	436.38
422.507	493.38
422.73	551.38
422.953	532.38
423.175	478.38
423.398	438.38
423.621	458.38
423.843	477.38
424.066	457.38
424.288	450.38
424.511	482.38
424.733	500.38
424.956	594.38
425.178	568.38
425.401	584.38
425.623	587.38
425.846	523.38
426.068	468.38
426.291	438.38
426.513	463.38
426.735	459.38
426.958	524.38
427.18	608.38
427.402	706.38
427.625	814.38
427.847	690.38
428.069	566.38
428.292	528.38
428.514	491.38
428.736	463.38
428.958	470.38
429.181	438.38
429.403	430.38
429.625	452.38
429.847	470.38
430.069	528.38
430.292	542.38
430.514	475.38
430.736	420.38
430.958	420.38
431.18	410.38
431.402	412.38
431.624	384.38
431.846	399.38
432.068	395.38
432.29	406.38
432.512	390.38
432.734	410.38
432.956	412.38
433.178	411.38
433.4	438.38
433.622	393.38
433.844	406.38
434.066	399.38
434.287	410.38
434.509	398.38
434.731	427.38
434.953	411.38
435.175	419.38
435.397	458.38
435.618	476.38
435.84	516.38
436.062	580.38
436.284	644.38
436.505	549.38
436.727	489.38
436.949	454.38
437.17	426.38
437.392	449.38
437.614	459.38
437.835	484.38
438.057	604.38
438.278	661.38
438.5	667.38
438.721	719.38
438.943	699.38
439.165	548.38
439.386	518.38
439.608	469.38
439.829	515.38
440.05	518.38
440.272	547.38
440.493	516.38
440.715	485.38
440.936	446.38
441.158	453.38
441.379	438.38
441.6	448.38
441.822	475.38
442.043	507.38
442.264	599.38
442.486	615.38
442.707	531.38
442.928	488.38
443.149	497.38
443.371	515.38
443.592	540.38
443.813	638.38
444.034	674.38
444.255	563.38
444.476	506.38
444.698	458.38
444.919	460.38
445.14	592.38
445.361	530.38
445.582	529.38
445.803	568.38
446.024	678.38
446.245	677.38
446.466	611.38
446.687	540.38
446.908	470.38
447.129	443.38
447.35	443.38
447.571	454.38
447.792	425.38
448.013	456.38
448.234	452.38
448.455	536.38
448.675	640.38
448.896	695.38
449.117	615.38
449.338	568.38
449.559	642.38
449.779	725.38
450	595.38
450.221	512.38
450.442	464.38
450.662	432.38
450.883	460.38
451.104	455.38
451.324	430.38
451.545	406.38
451.766	423.38
451.986	395.38
452.207	393.38
452.428	397.38
452.648	387.38
452.869	390.38
453.089	416.38
453.31	407.38
453.53	406.38
453.751	396.38
453.971	384.38
454.192	422.38
454.412	423.38
454.633	385.38
454.853	394.38
455.073	397.38
455.294	412.38
455.514	488.38
455.734	482.38
455.955	397.38
456.175	384.38
456.395	367.38
456.616	371.38
456.836	362.38
457.056	367.38
457.276	371.38
457.497	353.38
457.717	376.38
457.937	370.38
458.157	378.38
458.377	375.38
458.598	406.38
458.818	470.38
459.038	531.38
459.258	555.38
459.478	470.38
459.698	426.38
459.918	420.38
460.138	388.38
460.358	397.38
460.578	390.38
460.798	396.38
461.018	402.38
461.238	381.38
461.458	404.38
461.678	394.38
461.898	401.38
462.118	390.38
462.338	400.38
462.558	396.38
462.777	421.38
462.997	402.38
463.217	411.38
463.437	420.38
463.657	406.38
463.876	423.38
464.096	406.38
464.316	404.38
464.536	423.38
464.755	434.38
464.975	426.38
465.195	478.38
465.414	557.38
465.634	492.38
465.854	440.38
466.073	420.38
466.293	393.38
466.512	378.38
466.732	392.38
466.951	399.38
467.171	387.38
467.391	392.38
467.61	422.38
467.829	413.38
468.049	410.38
468.268	381.38
468.488	398.38
468.707	396.38
468.927	371.38
469.146	371.38
469.365	395.38
469.585	367.38
469.804	399.38
470.023	390.38
470.243	384.38
470.462	386.38
470.681	425.38
470.901	413.38
471.12	407.38
471.339	389.38
471.558	399.38
471.777	396.38
471.997	394.38
472.216	398.38
472.435	415.38
472.654	394.38
472.873	390.38
473.092	399.38
473.311	389.38
473.53	413.38
473.749	409.38
473.968	446.38
474.187	578.38
474.406	583.38
474.625	455.38
474.844	415.38
475.063	384.38
475.282	404.38
475.501	400.38
475.72	392.38
475.939	412.38
476.158	415.38
476.377	416.38
476.596	422.38
476.814	424.38
477.033	426.38
477.252	425.38
477.471	388.38
477.69	420.38
477.908	417.38
478.127	432.38
478.346	418.38
478.564	438.38
478.783	430.38
479.002	444.38
479.22	428.38
479.439	462.38
479.658	467.38
479.876	486.38
480.095	502.38
480.313	496.38
480.532	482.38
480.751	464.38
480.969	490.38
481.188	564.38
481.406	555.38
481.624	514.38
481.843	467.38
482.061	467.38
482.28	487.38
482.498	452.38
482.717	477.38
482.935	460.38
483.153	455.38
483.372	453.38
483.59	467.38
483.808	467.38
484.027	477.38
484.245	459.38
484.463	461.38
484.681	490.38
484.9	479.38
485.118	498.38
485.336	486.38
485.554	479.38
485.772	473.38
485.99	478.38
486.209	495.38
486.427	482.38
486.645	510.38
486.863	511.38
487.081	518.38
487.299	498.38
487.517	498.38
487.735	470.38
487.953	468.38
488.171	505.38
488.389	499.38
488.607	487.38
488.825	522.38
489.043	492.38
489.261	490.38
489.479	509.38
489.696	507.38
489.914	518.38
490.132	513.38
490.35	526.38
490.568	523.38
490.786	548.38
491.003	519.38
491.221	556.38
491.439	539.38
491.657	578.38
491.874	570.38
492.092	575.38
492.31	572.38
492.527	574.38
492.745	551.38
492.963	584.38
493.18	560.38
493.398	583.38
493.615	569.38
493.833	581.38
494.05	602.38
494.268	609.38
494.485	588.38
494.703	575.38
494.92	574.38
495.138	603.38
495.355	597.38
495.573	598.38
495.79	571.38
496.008	597.38
496.225	604.38
496.442	580.38
496.66	598.38
496.877	566.38
497.094	596.38
497.312	603.38
497.529	607.38
497.746	613.38
497.963	634.38
498.181	644.38
498.398	640.38
498.615	643.38
498.832	646.38
499.049	642.38
499.267	648.38
499.484	679.38
499.701	681.38
499.918	688.38
500.135	706.38
500.352	712.38
500.569	730.38
500.786	746.38
501.003	717.38
501.22	733.38
501.437	708.38
501.654	717.38
501.871	694.38
