Data from 1981.PennyLincolnUp.Lamp.En5.5.200Scan.071819.P1_HRD10591_16-42-32-960.txt Node
Date: Thu Jul 18 16:42:32 EDT 2019
User: cochatt
Spectrometer: HR+D1059
Trigger mode: 1
Integration Time (sec): 1.000000E-1
Scans to average: 1
Electric dark correction enabled: true
Nonlinearity correction enabled: false
Boxcar width: 0
XAxis mode: Wavelengths
Number of Pixels in Spectrum: 2048
>>>>>Begin Spectral Data<<<<<
223.165	-11.81
223.4	-11.81
223.635	-11.81
223.869	-20.81
224.104	-8.81
224.338	-25.81
224.573	2.19
224.808	0.19
225.042	-11.81
225.277	-19.81
225.511	-8.81
225.746	8.19
225.98	14.19
226.215	3.19
226.449	13.19
226.683	23.19
226.918	17.19
227.152	26.19
227.387	35.19
227.621	41.19
227.856	41.19
228.09	44.19
228.324	57.19
228.559	59.19
228.793	67.19
229.027	104.19
229.262	106.19
229.496	120.19
229.73	128.19
229.964	158.19
230.199	144.19
230.433	124.19
230.667	122.19
230.901	115.19
231.136	121.19
231.37	109.19
231.604	116.19
231.838	108.19
232.072	108.19
232.306	118.19
232.541	115.19
232.775	95.19
233.009	121.19
233.243	106.19
233.477	108.19
233.711	109.19
233.945	113.19
234.179	107.19
234.413	117.19
234.647	112.19
234.881	121.19
235.115	107.19
235.349	109.19
235.583	136.19
235.817	124.19
236.051	118.19
236.285	123.19
236.519	119.19
236.753	146.19
236.987	134.19
237.221	189.19
237.455	241.19
237.689	192.19
237.922	140.19
238.156	127.19
238.39	130.19
238.624	126.19
238.858	112.19
239.091	130.19
239.325	115.19
239.559	121.19
239.793	132.19
240.027	131.19
240.26	141.19
240.494	162.19
240.728	157.19
240.961	143.19
241.195	140.19
241.429	124.19
241.662	137.19
241.896	132.19
242.13	125.19
242.363	146.19
242.597	126.19
242.83	140.19
243.064	142.19
243.298	133.19
243.531	157.19
243.765	133.19
243.998	136.19
244.232	146.19
244.465	148.19
244.699	159.19
244.932	157.19
245.166	164.19
245.399	130.19
245.633	146.19
245.866	146.19
246.099	141.19
246.333	144.19
246.566	146.19
246.8	158.19
247.033	164.19
247.266	149.19
247.5	153.19
247.733	170.19
247.966	173.19
248.2	174.19
248.433	191.19
248.666	179.19
248.899	190.19
249.133	208.19
249.366	220.19
249.599	215.19
249.832	172.19
250.066	194.19
250.299	193.19
250.532	208.19
250.765	200.19
250.998	233.19
251.231	250.19
251.465	224.19
251.698	226.19
251.931	216.19
252.164	213.19
252.397	226.19
252.63	214.19
252.863	222.19
253.096	226.19
253.329	224.19
253.562	246.19
253.795	248.19
254.028	235.19
254.261	233.19
254.494	242.19
254.727	273.19
254.96	305.19
255.193	281.19
255.426	264.19
255.659	249.19
255.892	251.19
256.124	240.19
256.357	258.19
256.59	241.19
256.823	229.19
257.056	235.19
257.289	221.19
257.521	240.19
257.754	224.19
257.987	222.19
258.22	218.19
258.452	206.19
258.685	211.19
258.918	218.19
259.151	227.19
259.383	228.19
259.616	240.19
259.849	244.19
260.081	230.19
260.314	248.19
260.547	260.19
260.779	264.19
261.012	241.19
261.244	233.19
261.477	234.19
261.71	256.19
261.942	264.19
262.175	258.19
262.407	252.19
262.64	231.19
262.872	224.19
263.105	214.19
263.337	218.19
263.57	225.19
263.802	216.19
264.035	224.19
264.267	202.19
264.499	225.19
264.732	231.19
264.964	221.19
265.197	211.19
265.429	227.19
265.661	221.19
265.894	230.19
266.126	227.19
266.358	234.19
266.591	234.19
266.823	245.19
267.055	226.19
267.287	245.19
267.52	226.19
267.752	228.19
267.984	221.19
268.216	245.19
268.448	235.19
268.681	238.19
268.913	268.19
269.145	275.19
269.377	299.19
269.609	281.19
269.841	282.19
270.073	289.19
270.306	301.19
270.538	353.19
270.77	326.19
271.002	330.19
271.234	308.19
271.466	310.19
271.698	348.19
271.93	334.19
272.162	345.19
272.394	337.19
272.626	319.19
272.858	292.19
273.09	315.19
273.322	284.19
273.553	276.19
273.785	286.19
274.017	269.19
274.249	270.19
274.481	268.19
274.713	272.19
274.945	274.19
275.176	260.19
275.408	268.19
275.64	255.19
275.872	271.19
276.104	274.19
276.335	279.19
276.567	284.19
276.799	298.19
277.031	325.19
277.262	342.19
277.494	330.19
277.726	320.19
277.957	290.19
278.189	284.19
278.421	276.19
278.652	284.19
278.884	283.19
279.115	264.19
279.347	276.19
279.579	269.19
279.81	285.19
280.042	269.19
280.273	277.19
280.505	277.19
280.736	275.19
280.968	251.19
281.199	258.19
281.431	270.19
281.662	281.19
281.894	270.19
282.125	290.19
282.356	300.19
282.588	302.19
282.819	325.19
283.051	292.19
283.282	262.19
283.513	266.19
283.745	269.19
283.976	294.19
284.207	276.19
284.439	293.19
284.67	284.19
284.901	280.19
285.132	271.19
285.364	283.19
285.595	278.19
285.826	280.19
286.057	250.19
286.288	284.19
286.52	273.19
286.751	276.19
286.982	279.19
287.213	277.19
287.444	288.19
287.675	278.19
287.906	296.19
288.138	283.19
288.369	301.19
288.6	298.19
288.831	297.19
289.062	288.19
289.293	295.19
289.524	284.19
289.755	293.19
289.986	290.19
290.217	296.19
290.448	289.19
290.679	268.19
290.91	276.19
291.141	305.19
291.371	288.19
291.602	279.19
291.833	283.19
292.064	295.19
292.295	289.19
292.526	278.19
292.757	270.19
292.987	282.19
293.218	274.19
293.449	277.19
293.68	285.19
293.91	297.19
294.141	284.19
294.372	298.19
294.603	291.19
294.833	290.19
295.064	289.19
295.295	281.19
295.525	282.19
295.756	301.19
295.987	312.19
296.217	326.19
296.448	331.19
296.679	317.19
296.909	315.19
297.14	301.19
297.37	281.19
297.601	300.19
297.831	290.19
298.062	285.19
298.292	288.19
298.523	306.19
298.753	299.19
298.984	311.19
299.214	299.19
299.445	310.19
299.675	306.19
299.905	310.19
300.136	308.19
300.366	313.19
300.597	308.19
300.827	322.19
301.057	293.19
301.288	329.19
301.518	318.19
301.748	318.19
301.979	326.19
302.209	327.19
302.439	321.19
302.669	317.19
302.9	324.19
303.13	324.19
303.36	324.19
303.59	317.19
303.82	312.19
304.051	318.19
304.281	332.19
304.511	326.19
304.741	306.19
304.971	326.19
305.201	334.19
305.431	319.19
305.661	325.19
305.891	321.19
306.121	319.19
306.352	328.19
306.582	317.19
306.812	340.19
307.042	319.19
307.272	347.19
307.502	326.19
307.731	346.19
307.961	328.19
308.191	341.19
308.421	334.19
308.651	340.19
308.881	355.19
309.111	334.19
309.341	342.19
309.571	361.19
309.8	359.19
310.03	364.19
310.26	386.19
310.49	390.19
310.72	404.19
310.949	413.19
311.179	439.19
311.409	372.19
311.639	388.19
311.868	390.19
312.098	382.19
312.328	403.19
312.557	403.19
312.787	423.19
313.017	415.19
313.246	382.19
313.476	378.19
313.706	375.19
313.935	392.19
314.165	416.19
314.394	395.19
314.624	420.19
314.853	406.19
315.083	405.19
315.312	372.19
315.542	382.19
315.771	357.19
316.001	372.19
316.23	376.19
316.46	363.19
316.689	378.19
316.919	384.19
317.148	406.19
317.377	395.19
317.607	388.19
317.836	396.19
318.065	382.19
318.295	386.19
318.524	376.19
318.753	384.19
318.983	371.19
319.212	379.19
319.441	389.19
319.67	392.19
319.9	375.19
320.129	387.19
320.358	383.19
320.587	394.19
320.816	402.19
321.046	406.19
321.275	405.19
321.504	391.19
321.733	404.19
321.962	423.19
322.191	451.19
322.42	467.19
322.649	482.19
322.878	487.19
323.108	487.19
323.337	516.19
323.566	557.19
323.795	606.19
324.024	678.19
324.253	836.19
324.482	1190.19
324.71	1893.19
324.939	2497.19
325.168	2134.19
325.397	1128.19
325.626	747.19
325.855	632.19
326.084	572.19
326.313	538.19
326.542	562.19
326.77	619.19
326.999	739.19
327.228	1053.19
327.457	1578.19
327.686	1877.19
327.914	1254.19
328.143	826.19
328.372	724.19
328.6	649.19
328.829	638.19
329.058	632.19
329.287	648.19
329.515	580.19
329.744	564.19
329.972	548.19
330.201	583.19
330.43	614.19
330.658	648.19
330.887	647.19
331.115	642.19
331.344	566.19
331.572	532.19
331.801	515.19
332.03	501.19
332.258	473.19
332.486	461.19
332.715	458.19
332.943	444.19
333.172	428.19
333.4	438.19
333.629	432.19
333.857	474.19
334.085	491.19
334.314	490.19
334.542	522.19
334.771	548.19
334.999	509.19
335.227	480.19
335.455	438.19
335.684	446.19
335.912	449.19
336.14	426.19
336.369	432.19
336.597	456.19
336.825	455.19
337.053	434.19
337.281	417.19
337.51	435.19
337.738	420.19
337.966	425.19
338.194	424.19
338.422	425.19
338.65	428.19
338.878	420.19
339.106	428.19
339.334	420.19
339.562	427.19
339.79	422.19
340.018	421.19
340.246	394.19
340.474	431.19
340.702	420.19
340.93	427.19
341.158	432.19
341.386	423.19
341.614	427.19
341.842	409.19
342.07	419.19
342.298	412.19
342.526	422.19
342.754	394.19
342.981	387.19
343.209	382.19
343.437	401.19
343.665	394.19
343.893	405.19
344.12	386.19
344.348	408.19
344.576	414.19
344.804	416.19
345.031	456.19
345.259	412.19
345.487	429.19
345.714	391.19
345.942	404.19
346.17	407.19
346.397	408.19
346.625	392.19
346.853	413.19
347.08	397.19
347.308	385.19
347.535	416.19
347.763	425.19
347.99	402.19
348.218	423.19
348.445	395.19
348.673	395.19
348.9	405.19
349.128	415.19
349.355	383.19
349.583	389.19
349.81	376.19
350.037	395.19
350.265	404.19
350.492	388.19
350.72	382.19
350.947	424.19
351.174	394.19
351.402	397.19
351.629	391.19
351.856	396.19
352.083	416.19
352.311	423.19
352.538	408.19
352.765	424.19
352.992	386.19
353.22	404.19
353.447	384.19
353.674	383.19
353.901	385.19
354.128	369.19
354.355	374.19
354.583	365.19
354.81	359.19
355.037	364.19
355.264	357.19
355.491	362.19
355.718	349.19
355.945	349.19
356.172	347.19
356.399	350.19
356.626	371.19
356.853	357.19
357.08	357.19
357.307	339.19
357.534	365.19
357.761	369.19
357.988	372.19
358.215	353.19
358.441	362.19
358.668	362.19
358.895	353.19
359.122	380.19
359.349	388.19
359.576	406.19
359.802	423.19
360.029	448.19
360.256	448.19
360.483	455.19
360.709	414.19
360.936	391.19
361.163	396.19
361.39	390.19
361.616	408.19
361.843	383.19
362.07	384.19
362.296	389.19
362.523	389.19
362.749	394.19
362.976	394.19
363.203	392.19
363.429	384.19
363.656	380.19
363.882	376.19
364.109	384.19
364.335	377.19
364.562	368.19
364.788	384.19
365.015	378.19
365.241	362.19
365.468	377.19
365.694	381.19
365.92	393.19
366.147	387.19
366.373	382.19
366.599	363.19
366.826	361.19
367.052	349.19
367.278	377.19
367.505	351.19
367.731	364.19
367.957	362.19
368.184	354.19
368.41	352.19
368.636	389.19
368.862	383.19
369.089	384.19
369.315	354.19
369.541	361.19
369.767	343.19
369.993	349.19
370.219	368.19
370.445	368.19
370.672	358.19
370.898	364.19
371.124	367.19
371.35	352.19
371.576	345.19
371.802	331.19
372.028	341.19
372.254	357.19
372.48	344.19
372.706	370.19
372.932	353.19
373.158	349.19
373.384	338.19
373.61	371.19
373.835	356.19
374.061	356.19
374.287	362.19
374.513	348.19
374.739	354.19
374.965	349.19
375.191	339.19
375.416	343.19
375.642	371.19
375.868	338.19
376.094	360.19
376.319	360.19
376.545	331.19
376.771	349.19
376.997	350.19
377.222	350.19
377.448	350.19
377.674	333.19
377.899	334.19
378.125	349.19
378.35	332.19
378.576	326.19
378.802	335.19
379.027	318.19
379.253	345.19
379.478	344.19
379.704	343.19
379.929	334.19
380.155	349.19
380.38	333.19
380.606	336.19
380.831	349.19
381.057	342.19
381.282	352.19
381.507	358.19
381.733	358.19
381.958	360.19
382.184	355.19
382.409	349.19
382.634	348.19
382.86	339.19
383.085	348.19
383.31	353.19
383.535	341.19
383.761	344.19
383.986	349.19
384.211	336.19
384.436	347.19
384.662	363.19
384.887	365.19
385.112	361.19
385.337	353.19
385.562	358.19
385.787	357.19
386.013	359.19
386.238	363.19
386.463	381.19
386.688	356.19
386.913	340.19
387.138	356.19
387.363	355.19
387.588	361.19
387.813	356.19
388.038	360.19
388.263	339.19
388.488	358.19
388.713	351.19
388.938	366.19
389.163	359.19
389.387	349.19
389.612	369.19
389.837	372.19
390.062	354.19
390.287	356.19
390.512	349.19
390.736	346.19
390.961	336.19
391.186	344.19
391.411	361.19
391.636	369.19
391.86	361.19
392.085	376.19
392.31	355.19
392.534	361.19
392.759	369.19
392.984	371.19
393.208	359.19
393.433	340.19
393.658	368.19
393.882	355.19
394.107	345.19
394.331	347.19
394.556	337.19
394.78	358.19
395.005	379.19
395.229	363.19
395.454	368.19
395.678	369.19
395.903	376.19
396.127	367.19
396.352	393.19
396.576	382.19
396.801	365.19
397.025	352.19
397.249	364.19
397.474	370.19
397.698	358.19
397.922	398.19
398.147	394.19
398.371	402.19
398.595	373.19
398.82	393.19
399.044	386.19
399.268	393.19
399.492	415.19
399.717	408.19
399.941	458.19
400.165	477.19
400.389	487.19
400.613	457.19
400.837	440.19
401.062	407.19
401.286	406.19
401.51	382.19
401.734	401.19
401.958	409.19
402.182	430.19
402.406	419.19
402.63	395.19
402.854	397.19
403.078	404.19
403.302	401.19
403.526	388.19
403.75	409.19
403.974	398.19
404.198	404.19
404.422	419.19
404.645	432.19
404.869	414.19
405.093	448.19
405.317	482.19
405.541	514.19
405.765	472.19
405.988	448.19
406.212	463.19
406.436	469.19
406.66	481.19
406.883	440.19
407.107	476.19
407.331	500.19
407.555	540.19
407.778	541.19
408.002	510.19
408.226	466.19
408.449	461.19
408.673	465.19
408.896	506.19
409.12	520.19
409.344	496.19
409.567	445.19
409.791	441.19
410.014	395.19
410.238	393.19
410.461	396.19
410.685	414.19
410.908	429.19
411.132	461.19
411.355	501.19
411.578	472.19
411.802	404.19
412.025	426.19
412.249	423.19
412.472	430.19
412.695	476.19
412.919	473.19
413.142	425.19
413.365	398.19
413.589	411.19
413.812	392.19
414.035	397.19
414.258	403.19
414.482	376.19
414.705	380.19
414.928	379.19
415.151	385.19
415.374	367.19
415.597	380.19
415.821	382.19
416.044	394.19
416.267	375.19
416.49	402.19
416.713	385.19
416.936	382.19
417.159	384.19
417.382	380.19
417.605	393.19
417.828	419.19
418.051	438.19
418.274	409.19
418.497	394.19
418.72	400.19
418.943	393.19
419.166	408.19
419.389	417.19
419.611	430.19
419.834	397.19
420.057	420.19
420.28	423.19
420.503	406.19
420.726	404.19
420.948	435.19
421.171	464.19
421.394	498.19
421.617	443.19
421.839	428.19
422.062	408.19
422.285	424.19
422.507	466.19
422.73	550.19
422.953	522.19
423.175	435.19
423.398	427.19
423.621	427.19
423.843	457.19
424.066	449.19
424.288	449.19
424.511	485.19
424.733	528.19
424.956	570.19
425.178	578.19
425.401	546.19
425.623	602.19
425.846	478.19
426.068	466.19
426.291	442.19
426.513	452.19
426.735	473.19
426.958	538.19
427.18	575.19
427.402	681.19
427.625	721.19
427.847	692.19
428.069	576.19
428.292	525.19
428.514	474.19
428.736	427.19
428.958	444.19
429.181	409.19
429.403	429.19
429.625	438.19
429.847	466.19
430.069	520.19
430.292	532.19
430.514	438.19
430.736	434.19
430.958	411.19
431.18	395.19
431.402	389.19
431.624	402.19
431.846	390.19
432.068	374.19
432.29	406.19
432.512	391.19
432.734	407.19
432.956	417.19
433.178	428.19
433.4	406.19
433.622	408.19
433.844	375.19
434.066	385.19
434.287	376.19
434.509	380.19
434.731	386.19
434.953	417.19
435.175	416.19
435.397	455.19
435.618	444.19
435.84	493.19
436.062	603.19
436.284	628.19
436.505	566.19
436.727	467.19
436.949	451.19
437.17	425.19
437.392	427.19
437.614	436.19
437.835	484.19
438.057	575.19
438.278	636.19
438.5	628.19
438.721	692.19
438.943	672.19
439.165	545.19
439.386	485.19
439.608	478.19
439.829	475.19
440.05	541.19
440.272	538.19
440.493	524.19
440.715	477.19
440.936	446.19
441.158	426.19
441.379	412.19
441.6	430.19
441.822	474.19
442.043	485.19
442.264	586.19
442.486	604.19
442.707	530.19
442.928	468.19
443.149	477.19
443.371	510.19
443.592	539.19
443.813	608.19
444.034	648.19
444.255	545.19
444.476	485.19
444.698	456.19
444.919	456.19
445.14	532.19
445.361	506.19
445.582	516.19
445.803	565.19
446.024	671.19
446.245	666.19
446.466	624.19
446.687	515.19
446.908	469.19
447.129	437.19
447.35	417.19
447.571	410.19
447.792	420.19
448.013	436.19
448.234	451.19
448.455	522.19
448.675	611.19
448.896	678.19
449.117	622.19
449.338	580.19
449.559	654.19
449.779	736.19
450	587.19
450.221	476.19
450.442	448.19
450.662	433.19
450.883	436.19
451.104	446.19
451.324	440.19
451.545	420.19
451.766	400.19
451.986	382.19
452.207	374.19
452.428	377.19
452.648	364.19
452.869	404.19
453.089	397.19
453.31	417.19
453.53	387.19
453.751	414.19
453.971	396.19
454.192	404.19
454.412	408.19
454.633	381.19
454.853	375.19
455.073	399.19
455.294	427.19
455.514	469.19
455.734	476.19
455.955	399.19
456.175	385.19
456.395	356.19
456.616	332.19
456.836	351.19
457.056	351.19
457.276	349.19
457.497	348.19
457.717	361.19
457.937	361.19
458.157	372.19
458.377	398.19
458.598	386.19
458.818	458.19
459.038	537.19
459.258	550.19
459.478	456.19
459.698	394.19
459.918	398.19
460.138	373.19
460.358	369.19
460.578	365.19
460.798	396.19
461.018	384.19
461.238	385.19
461.458	395.19
461.678	375.19
461.898	381.19
462.118	388.19
462.338	392.19
462.558	390.19
462.777	388.19
462.997	393.19
463.217	387.19
463.437	411.19
463.657	395.19
463.876	405.19
464.096	370.19
464.316	371.19
464.536	414.19
464.755	394.19
464.975	407.19
465.195	470.19
465.414	558.19
465.634	466.19
465.854	436.19
466.073	410.19
466.293	384.19
466.512	383.19
466.732	370.19
466.951	357.19
467.171	374.19
467.391	387.19
467.61	375.19
467.829	428.19
468.049	402.19
468.268	396.19
468.488	372.19
468.707	358.19
468.927	364.19
469.146	370.19
469.365	387.19
469.585	370.19
469.804	375.19
470.023	393.19
470.243	369.19
470.462	394.19
470.681	412.19
470.901	393.19
471.12	377.19
471.339	387.19
471.558	396.19
471.777	393.19
471.997	382.19
472.216	383.19
472.435	426.19
472.654	395.19
472.873	384.19
473.092	412.19
473.311	391.19
473.53	388.19
473.749	387.19
473.968	466.19
474.187	548.19
474.406	561.19
474.625	456.19
474.844	415.19
475.063	394.19
475.282	399.19
475.501	399.19
475.72	393.19
475.939	398.19
476.158	413.19
476.377	404.19
476.596	393.19
476.814	412.19
477.033	410.19
477.252	402.19
477.471	416.19
477.69	405.19
477.908	398.19
478.127	437.19
478.346	422.19
478.564	448.19
478.783	419.19
479.002	426.19
479.22	422.19
479.439	428.19
479.658	462.19
479.876	463.19
480.095	473.19
480.313	489.19
480.532	484.19
480.751	468.19
480.969	496.19
481.188	548.19
481.406	578.19
481.624	506.19
481.843	458.19
482.061	470.19
482.28	456.19
482.498	446.19
482.717	452.19
482.935	442.19
483.153	448.19
483.372	450.19
483.59	425.19
483.808	461.19
484.027	451.19
484.245	456.19
484.463	454.19
484.681	477.19
484.9	440.19
485.118	456.19
485.336	458.19
485.554	459.19
485.772	468.19
485.99	474.19
486.209	479.19
486.427	480.19
486.645	498.19
486.863	502.19
487.081	493.19
487.299	473.19
487.517	491.19
487.735	509.19
487.953	489.19
488.171	501.19
488.389	461.19
488.607	484.19
488.825	508.19
489.043	518.19
489.261	507.19
489.479	510.19
489.696	498.19
489.914	487.19
490.132	496.19
490.35	491.19
490.568	506.19
490.786	508.19
491.003	520.19
491.221	525.19
491.439	548.19
491.657	545.19
491.874	581.19
492.092	569.19
492.31	573.19
492.527	555.19
492.745	602.19
492.963	578.19
493.18	570.19
493.398	589.19
493.615	594.19
493.833	584.19
494.05	582.19
494.268	581.19
494.485	592.19
494.703	585.19
494.92	560.19
495.138	569.19
495.355	582.19
495.573	590.19
495.79	570.19
496.008	582.19
496.225	563.19
496.442	594.19
496.66	595.19
496.877	593.19
497.094	582.19
497.312	579.19
497.529	589.19
497.746	571.19
497.963	584.19
498.181	614.19
498.398	616.19
498.615	622.19
498.832	634.19
499.049	625.19
499.267	647.19
499.484	636.19
499.701	639.19
499.918	664.19
500.135	683.19
500.352	701.19
500.569	706.19
500.786	698.19
501.003	685.19
501.22	691.19
501.437	700.19
501.654	682.19
501.871	706.19
