Data from 1981.PennyLincolnUp.Lamp.En5.5.200Scan.071819.P1_HRD10591_16-42-44-959.txt Node
Date: Thu Jul 18 16:42:44 EDT 2019
User: cochatt
Spectrometer: HR+D1059
Trigger mode: 1
Integration Time (sec): 1.000000E-1
Scans to average: 1
Electric dark correction enabled: true
Nonlinearity correction enabled: false
Boxcar width: 0
XAxis mode: Wavelengths
Number of Pixels in Spectrum: 2048
>>>>>Begin Spectral Data<<<<<
223.165	2.5
223.4	2.5
223.635	2.5
223.869	-32.5
224.104	-11.5
224.338	-11.5
224.573	-28.5
224.808	-12.5
225.042	2.5
225.277	-11.5
225.511	-13.5
225.746	0.5
225.98	14.5
226.215	18.5
226.449	19.5
226.683	9.5
226.918	23.5
227.152	30.5
227.387	15.5
227.621	27.5
227.856	42.5
228.09	41.5
228.324	62.5
228.559	64.5
228.793	69.5
229.027	98.5
229.262	109.5
229.496	123.5
229.73	132.5
229.964	149.5
230.199	129.5
230.433	107.5
230.667	121.5
230.901	107.5
231.136	104.5
231.37	103.5
231.604	119.5
231.838	119.5
232.072	101.5
232.306	99.5
232.541	117.5
232.775	106.5
233.009	120.5
233.243	118.5
233.477	107.5
233.711	108.5
233.945	113.5
234.179	107.5
234.413	122.5
234.647	129.5
234.881	125.5
235.115	123.5
235.349	124.5
235.583	122.5
235.817	124.5
236.051	135.5
236.285	136.5
236.519	122.5
236.753	118.5
236.987	154.5
237.221	187.5
237.455	238.5
237.689	206.5
237.922	154.5
238.156	131.5
238.39	128.5
238.624	123.5
238.858	129.5
239.091	126.5
239.325	123.5
239.559	118.5
239.793	124.5
240.027	138.5
240.26	139.5
240.494	162.5
240.728	156.5
240.961	143.5
241.195	155.5
241.429	124.5
241.662	147.5
241.896	137.5
242.13	131.5
242.363	130.5
242.597	140.5
242.83	142.5
243.064	139.5
243.298	144.5
243.531	133.5
243.765	140.5
243.998	149.5
244.232	143.5
244.465	149.5
244.699	166.5
244.932	135.5
245.166	137.5
245.399	144.5
245.633	143.5
245.866	143.5
246.099	148.5
246.333	143.5
246.566	154.5
246.8	155.5
247.033	178.5
247.266	165.5
247.5	179.5
247.733	179.5
247.966	182.5
248.2	172.5
248.433	169.5
248.666	184.5
248.899	190.5
249.133	215.5
249.366	214.5
249.599	191.5
249.832	202.5
250.066	200.5
250.299	188.5
250.532	197.5
250.765	214.5
250.998	218.5
251.231	229.5
251.465	234.5
251.698	198.5
251.931	211.5
252.164	205.5
252.397	206.5
252.63	198.5
252.863	214.5
253.096	240.5
253.329	225.5
253.562	243.5
253.795	236.5
254.028	216.5
254.261	251.5
254.494	260.5
254.727	270.5
254.96	275.5
255.193	279.5
255.426	267.5
255.659	241.5
255.892	262.5
256.124	236.5
256.357	257.5
256.59	236.5
256.823	221.5
257.056	231.5
257.289	238.5
257.521	204.5
257.754	212.5
257.987	221.5
258.22	206.5
258.452	213.5
258.685	227.5
258.918	218.5
259.151	215.5
259.383	221.5
259.616	218.5
259.849	237.5
260.081	235.5
260.314	258.5
260.547	259.5
260.779	266.5
261.012	246.5
261.244	261.5
261.477	230.5
261.71	238.5
261.942	246.5
262.175	243.5
262.407	240.5
262.64	235.5
262.872	226.5
263.105	226.5
263.337	223.5
263.57	227.5
263.802	223.5
264.035	206.5
264.267	208.5
264.499	208.5
264.732	232.5
264.964	203.5
265.197	218.5
265.429	222.5
265.661	213.5
265.894	226.5
266.126	236.5
266.358	217.5
266.591	212.5
266.823	229.5
267.055	222.5
267.287	215.5
267.52	220.5
267.752	234.5
267.984	235.5
268.216	250.5
268.448	277.5
268.681	245.5
268.913	254.5
269.145	279.5
269.377	285.5
269.609	290.5
269.841	269.5
270.073	289.5
270.306	303.5
270.538	332.5
270.77	324.5
271.002	320.5
271.234	315.5
271.466	308.5
271.698	324.5
271.93	331.5
272.162	325.5
272.394	340.5
272.626	342.5
272.858	325.5
273.09	307.5
273.322	301.5
273.553	271.5
273.785	275.5
274.017	291.5
274.249	300.5
274.481	257.5
274.713	278.5
274.945	281.5
275.176	276.5
275.408	271.5
275.64	281.5
275.872	269.5
276.104	263.5
276.335	278.5
276.567	306.5
276.799	297.5
277.031	309.5
277.262	351.5
277.494	353.5
277.726	320.5
277.957	294.5
278.189	305.5
278.421	287.5
278.652	267.5
278.884	273.5
279.115	266.5
279.347	292.5
279.579	275.5
279.81	269.5
280.042	275.5
280.273	287.5
280.505	276.5
280.736	284.5
280.968	275.5
281.199	273.5
281.431	260.5
281.662	287.5
281.894	286.5
282.125	279.5
282.356	300.5
282.588	306.5
282.819	328.5
283.051	290.5
283.282	274.5
283.513	291.5
283.745	291.5
283.976	282.5
284.207	292.5
284.439	293.5
284.67	282.5
284.901	313.5
285.132	295.5
285.364	309.5
285.595	287.5
285.826	284.5
286.057	300.5
286.288	295.5
286.52	272.5
286.751	276.5
286.982	285.5
287.213	281.5
287.444	293.5
287.675	294.5
287.906	271.5
288.138	299.5
288.369	305.5
288.6	310.5
288.831	315.5
289.062	298.5
289.293	287.5
289.524	305.5
289.755	281.5
289.986	310.5
290.217	275.5
290.448	292.5
290.679	278.5
290.91	278.5
291.141	301.5
291.371	285.5
291.602	298.5
291.833	293.5
292.064	280.5
292.295	282.5
292.526	306.5
292.757	299.5
292.987	290.5
293.218	264.5
293.449	296.5
293.68	284.5
293.91	297.5
294.141	295.5
294.372	277.5
294.603	291.5
294.833	311.5
295.064	298.5
295.295	294.5
295.525	297.5
295.756	289.5
295.987	293.5
296.217	322.5
296.448	355.5
296.679	318.5
296.909	318.5
297.14	302.5
297.37	312.5
297.601	288.5
297.831	302.5
298.062	301.5
298.292	308.5
298.523	299.5
298.753	302.5
298.984	308.5
299.214	327.5
299.445	324.5
299.675	305.5
299.905	323.5
300.136	325.5
300.366	331.5
300.597	315.5
300.827	312.5
301.057	334.5
301.288	309.5
301.518	335.5
301.748	328.5
301.979	326.5
302.209	310.5
302.439	334.5
302.669	328.5
302.9	317.5
303.13	338.5
303.36	338.5
303.59	340.5
303.82	345.5
304.051	359.5
304.281	336.5
304.511	321.5
304.741	325.5
304.971	325.5
305.201	331.5
305.431	348.5
305.661	329.5
305.891	317.5
306.121	335.5
306.352	334.5
306.582	343.5
306.812	345.5
307.042	329.5
307.272	347.5
307.502	340.5
307.731	350.5
307.961	326.5
308.191	340.5
308.421	334.5
308.651	338.5
308.881	339.5
309.111	347.5
309.341	339.5
309.571	364.5
309.8	369.5
310.03	373.5
310.26	386.5
310.49	366.5
310.72	396.5
310.949	426.5
311.179	398.5
311.409	397.5
311.639	385.5
311.868	379.5
312.098	398.5
312.328	405.5
312.557	413.5
312.787	431.5
313.017	426.5
313.246	406.5
313.476	391.5
313.706	404.5
313.935	396.5
314.165	430.5
314.394	414.5
314.624	409.5
314.853	403.5
315.083	377.5
315.312	393.5
315.542	394.5
315.771	370.5
316.001	399.5
316.23	390.5
316.46	376.5
316.689	393.5
316.919	380.5
317.148	399.5
317.377	407.5
317.607	407.5
317.836	405.5
318.065	386.5
318.295	386.5
318.524	389.5
318.753	381.5
318.983	367.5
319.212	381.5
319.441	403.5
319.67	409.5
319.9	404.5
320.129	379.5
320.358	387.5
320.587	403.5
320.816	417.5
321.046	421.5
321.275	422.5
321.504	421.5
321.733	428.5
321.962	438.5
322.191	439.5
322.42	459.5
322.649	486.5
322.878	474.5
323.108	502.5
323.337	533.5
323.566	549.5
323.795	604.5
324.024	673.5
324.253	810.5
324.482	1167.5
324.71	1772.5
324.939	2431.5
325.168	2063.5
325.397	1118.5
325.626	739.5
325.855	626.5
326.084	571.5
326.313	570.5
326.542	572.5
326.77	633.5
326.999	737.5
327.228	1044.5
327.457	1568.5
327.686	1800.5
327.914	1227.5
328.143	797.5
328.372	702.5
328.6	649.5
328.829	630.5
329.058	629.5
329.287	652.5
329.515	605.5
329.744	571.5
329.972	570.5
330.201	575.5
330.43	610.5
330.658	635.5
330.887	662.5
331.115	658.5
331.344	553.5
331.572	503.5
331.801	523.5
332.03	540.5
332.258	494.5
332.486	478.5
332.715	457.5
332.943	463.5
333.172	436.5
333.4	444.5
333.629	466.5
333.857	503.5
334.085	518.5
334.314	523.5
334.542	540.5
334.771	565.5
334.999	479.5
335.227	465.5
335.455	462.5
335.684	455.5
335.912	428.5
336.14	440.5
336.369	428.5
336.597	465.5
336.825	470.5
337.053	456.5
337.281	407.5
337.51	437.5
337.738	434.5
337.966	435.5
338.194	433.5
338.422	462.5
338.65	445.5
338.878	436.5
339.106	418.5
339.334	436.5
339.562	428.5
339.79	406.5
340.018	411.5
340.246	434.5
340.474	439.5
340.702	430.5
340.93	429.5
341.158	419.5
341.386	421.5
341.614	449.5
341.842	433.5
342.07	423.5
342.298	429.5
342.526	416.5
342.754	406.5
342.981	395.5
343.209	386.5
343.437	396.5
343.665	400.5
343.893	410.5
344.12	426.5
344.348	440.5
344.576	435.5
344.804	428.5
345.031	443.5
345.259	461.5
345.487	439.5
345.714	457.5
345.942	426.5
346.17	408.5
346.397	426.5
346.625	413.5
346.853	417.5
347.08	392.5
347.308	409.5
347.535	440.5
347.763	423.5
347.99	423.5
348.218	437.5
348.445	428.5
348.673	404.5
348.9	405.5
349.128	409.5
349.355	385.5
349.583	397.5
349.81	409.5
350.037	383.5
350.265	407.5
350.492	404.5
350.72	400.5
350.947	398.5
351.174	405.5
351.402	409.5
351.629	389.5
351.856	430.5
352.083	424.5
352.311	423.5
352.538	421.5
352.765	442.5
352.992	417.5
353.22	408.5
353.447	383.5
353.674	405.5
353.901	385.5
354.128	379.5
354.355	381.5
354.583	383.5
354.81	372.5
355.037	373.5
355.264	374.5
355.491	374.5
355.718	375.5
355.945	348.5
356.172	364.5
356.399	364.5
356.626	369.5
356.853	371.5
357.08	384.5
357.307	374.5
357.534	367.5
357.761	365.5
357.988	375.5
358.215	361.5
358.441	371.5
358.668	389.5
358.895	369.5
359.122	382.5
359.349	409.5
359.576	427.5
359.802	437.5
360.029	476.5
360.256	466.5
360.483	462.5
360.709	411.5
360.936	401.5
361.163	406.5
361.39	408.5
361.616	406.5
361.843	396.5
362.07	389.5
362.296	411.5
362.523	400.5
362.749	409.5
362.976	398.5
363.203	385.5
363.429	374.5
363.656	402.5
363.882	385.5
364.109	364.5
364.335	372.5
364.562	376.5
364.788	389.5
365.015	385.5
365.241	373.5
365.468	364.5
365.694	366.5
365.92	358.5
366.147	386.5
366.373	389.5
366.599	389.5
366.826	372.5
367.052	357.5
367.278	375.5
367.505	375.5
367.731	378.5
367.957	373.5
368.184	355.5
368.41	375.5
368.636	395.5
368.862	389.5
369.089	358.5
369.315	381.5
369.541	370.5
369.767	361.5
369.993	358.5
370.219	365.5
370.445	378.5
370.672	381.5
370.898	343.5
371.124	387.5
371.35	358.5
371.576	380.5
371.802	351.5
372.028	337.5
372.254	370.5
372.48	361.5
372.706	372.5
372.932	362.5
373.158	369.5
373.384	361.5
373.61	351.5
373.835	364.5
374.061	354.5
374.287	376.5
374.513	361.5
374.739	371.5
374.965	361.5
375.191	367.5
375.416	356.5
375.642	358.5
375.868	355.5
376.094	363.5
376.319	360.5
376.545	356.5
376.771	332.5
376.997	369.5
377.222	345.5
377.448	372.5
377.674	358.5
377.899	346.5
378.125	379.5
378.35	369.5
378.576	330.5
378.802	353.5
379.027	371.5
379.253	356.5
379.478	353.5
379.704	341.5
379.929	371.5
380.155	358.5
380.38	362.5
380.606	357.5
380.831	362.5
381.057	346.5
381.282	361.5
381.507	356.5
381.733	361.5
381.958	352.5
382.184	364.5
382.409	358.5
382.634	368.5
382.86	341.5
383.085	364.5
383.31	350.5
383.535	353.5
383.761	342.5
383.986	360.5
384.211	366.5
384.436	376.5
384.662	369.5
384.887	355.5
385.112	387.5
385.337	373.5
385.562	381.5
385.787	380.5
386.013	394.5
386.238	379.5
386.463	393.5
386.688	379.5
386.913	373.5
387.138	361.5
387.363	375.5
387.588	393.5
387.813	395.5
388.038	384.5
388.263	371.5
388.488	384.5
388.713	381.5
388.938	365.5
389.163	379.5
389.387	381.5
389.612	363.5
389.837	364.5
390.062	373.5
390.287	365.5
390.512	359.5
390.736	370.5
390.961	370.5
391.186	382.5
391.411	362.5
391.636	369.5
391.86	369.5
392.085	370.5
392.31	379.5
392.534	385.5
392.759	360.5
392.984	371.5
393.208	362.5
393.433	373.5
393.658	387.5
393.882	379.5
394.107	365.5
394.331	374.5
394.556	367.5
394.78	370.5
395.005	357.5
395.229	370.5
395.454	381.5
395.678	388.5
395.903	396.5
396.127	414.5
396.352	425.5
396.576	394.5
396.801	369.5
397.025	388.5
397.249	391.5
397.474	394.5
397.698	385.5
397.922	389.5
398.147	405.5
398.371	429.5
398.595	402.5
398.82	423.5
399.044	402.5
399.268	403.5
399.492	429.5
399.717	466.5
399.941	481.5
400.165	503.5
400.389	527.5
400.613	469.5
400.837	451.5
401.062	433.5
401.286	414.5
401.51	400.5
401.734	402.5
401.958	414.5
402.182	420.5
402.406	423.5
402.63	422.5
402.854	413.5
403.078	411.5
403.302	418.5
403.526	434.5
403.75	429.5
403.974	427.5
404.198	429.5
404.422	421.5
404.645	417.5
404.869	432.5
405.093	468.5
405.317	476.5
405.541	513.5
405.765	475.5
405.988	437.5
406.212	461.5
406.436	485.5
406.66	521.5
406.883	488.5
407.107	475.5
407.331	527.5
407.555	601.5
407.778	571.5
408.002	511.5
408.226	465.5
408.449	452.5
408.673	482.5
408.896	511.5
409.12	519.5
409.344	482.5
409.567	451.5
409.791	427.5
410.014	424.5
410.238	425.5
410.461	430.5
410.685	444.5
410.908	443.5
411.132	480.5
411.355	494.5
411.578	486.5
411.802	453.5
412.025	459.5
412.249	428.5
412.472	451.5
412.695	480.5
412.919	473.5
413.142	458.5
413.365	425.5
413.589	415.5
413.812	417.5
414.035	412.5
414.258	417.5
414.482	420.5
414.705	385.5
414.928	398.5
415.151	376.5
415.374	407.5
415.597	388.5
415.821	407.5
416.044	408.5
416.267	411.5
416.49	382.5
416.713	397.5
416.936	380.5
417.159	409.5
417.382	403.5
417.605	420.5
417.828	395.5
418.051	423.5
418.274	424.5
418.497	400.5
418.72	410.5
418.943	412.5
419.166	427.5
419.389	422.5
419.611	410.5
419.834	431.5
420.057	414.5
420.28	426.5
420.503	430.5
420.726	434.5
420.948	450.5
421.171	483.5
421.394	513.5
421.617	465.5
421.839	439.5
422.062	452.5
422.285	458.5
422.507	489.5
422.73	561.5
422.953	537.5
423.175	465.5
423.398	463.5
423.621	459.5
423.843	466.5
424.066	457.5
424.288	454.5
424.511	499.5
424.733	524.5
424.956	601.5
425.178	592.5
425.401	584.5
425.623	617.5
425.846	522.5
426.068	488.5
426.291	471.5
426.513	484.5
426.735	509.5
426.958	526.5
427.18	593.5
427.402	724.5
427.625	806.5
427.847	683.5
428.069	591.5
428.292	521.5
428.514	484.5
428.736	445.5
428.958	443.5
429.181	435.5
429.403	446.5
429.625	442.5
429.847	487.5
430.069	562.5
430.292	528.5
430.514	470.5
430.736	413.5
430.958	422.5
431.18	417.5
431.402	407.5
431.624	397.5
431.846	415.5
432.068	390.5
432.29	413.5
432.512	389.5
432.734	402.5
432.956	423.5
433.178	428.5
433.4	427.5
433.622	403.5
433.844	388.5
434.066	407.5
434.287	403.5
434.509	404.5
434.731	415.5
434.953	438.5
435.175	440.5
435.397	450.5
435.618	464.5
435.84	502.5
436.062	592.5
436.284	669.5
436.505	535.5
436.727	485.5
436.949	445.5
437.17	451.5
437.392	451.5
437.614	449.5
437.835	490.5
438.057	573.5
438.278	658.5
438.5	677.5
438.721	745.5
438.943	675.5
439.165	559.5
439.386	518.5
439.608	486.5
439.829	497.5
440.05	525.5
440.272	564.5
440.493	533.5
440.715	492.5
440.936	469.5
441.158	443.5
441.379	438.5
441.6	456.5
441.822	461.5
442.043	503.5
442.264	580.5
442.486	611.5
442.707	527.5
442.928	477.5
443.149	510.5
443.371	492.5
443.592	549.5
443.813	614.5
444.034	677.5
444.255	572.5
444.476	508.5
444.698	476.5
444.919	473.5
445.14	547.5
445.361	536.5
445.582	510.5
445.803	571.5
446.024	678.5
446.245	673.5
446.466	630.5
446.687	527.5
446.908	449.5
447.129	459.5
447.35	454.5
447.571	456.5
447.792	433.5
448.013	448.5
448.234	478.5
448.455	515.5
448.675	599.5
448.896	693.5
449.117	606.5
449.338	580.5
449.559	662.5
449.779	705.5
450	600.5
450.221	509.5
450.442	464.5
450.662	431.5
450.883	455.5
451.104	421.5
451.324	450.5
451.545	418.5
451.766	409.5
451.986	409.5
452.207	383.5
452.428	401.5
452.648	385.5
452.869	389.5
453.089	399.5
453.31	434.5
453.53	393.5
453.751	395.5
453.971	397.5
454.192	415.5
454.412	406.5
454.633	402.5
454.853	395.5
455.073	394.5
455.294	405.5
455.514	481.5
455.734	468.5
455.955	397.5
456.175	383.5
456.395	375.5
456.616	371.5
456.836	363.5
457.056	358.5
457.276	361.5
457.497	355.5
457.717	366.5
457.937	380.5
458.157	368.5
458.377	399.5
458.598	398.5
458.818	446.5
459.038	549.5
459.258	541.5
459.478	482.5
459.698	414.5
459.918	409.5
460.138	387.5
460.358	400.5
460.578	373.5
460.798	387.5
461.018	406.5
461.238	393.5
461.458	398.5
461.678	376.5
461.898	398.5
462.118	395.5
462.338	382.5
462.558	395.5
462.777	397.5
462.997	403.5
463.217	403.5
463.437	420.5
463.657	413.5
463.876	374.5
464.096	416.5
464.316	430.5
464.536	422.5
464.755	397.5
464.975	453.5
465.195	481.5
465.414	553.5
465.634	479.5
465.854	439.5
466.073	428.5
466.293	403.5
466.512	407.5
466.732	390.5
466.951	388.5
467.171	408.5
467.391	393.5
467.61	399.5
467.829	416.5
468.049	410.5
468.268	390.5
468.488	378.5
468.707	371.5
468.927	405.5
469.146	369.5
469.365	377.5
469.585	365.5
469.804	395.5
470.023	404.5
470.243	381.5
470.462	413.5
470.681	428.5
470.901	421.5
471.12	375.5
471.339	389.5
471.558	418.5
471.777	418.5
471.997	403.5
472.216	415.5
472.435	444.5
472.654	420.5
472.873	414.5
473.092	392.5
473.311	380.5
473.53	388.5
473.749	406.5
473.968	440.5
474.187	549.5
474.406	561.5
474.625	491.5
474.844	429.5
475.063	404.5
475.282	404.5
475.501	399.5
475.72	405.5
475.939	413.5
476.158	399.5
476.377	406.5
476.596	413.5
476.814	430.5
477.033	423.5
477.252	423.5
477.471	442.5
477.69	411.5
477.908	430.5
478.127	437.5
478.346	423.5
478.564	422.5
478.783	442.5
479.002	445.5
479.22	425.5
479.439	462.5
479.658	478.5
479.876	495.5
480.095	506.5
480.313	511.5
480.532	493.5
480.751	487.5
480.969	501.5
481.188	547.5
481.406	555.5
481.624	509.5
481.843	483.5
482.061	484.5
482.28	500.5
482.498	477.5
482.717	464.5
482.935	442.5
483.153	469.5
483.372	474.5
483.59	479.5
483.808	487.5
484.027	463.5
484.245	464.5
484.463	461.5
484.681	483.5
484.9	469.5
485.118	467.5
485.336	463.5
485.554	500.5
485.772	506.5
485.99	504.5
486.209	497.5
486.427	493.5
486.645	494.5
486.863	520.5
487.081	521.5
487.299	492.5
487.517	500.5
487.735	479.5
487.953	492.5
488.171	503.5
488.389	494.5
488.607	507.5
488.825	516.5
489.043	513.5
489.261	530.5
489.479	524.5
489.696	527.5
489.914	519.5
490.132	497.5
490.35	512.5
490.568	493.5
490.786	537.5
491.003	542.5
491.221	545.5
491.439	561.5
491.657	557.5
491.874	586.5
492.092	563.5
492.31	577.5
492.527	566.5
492.745	562.5
492.963	571.5
493.18	604.5
493.398	606.5
493.615	587.5
493.833	586.5
494.05	598.5
494.268	580.5
494.485	576.5
494.703	614.5
494.92	589.5
495.138	604.5
495.355	617.5
495.573	599.5
495.79	607.5
496.008	598.5
496.225	581.5
496.442	602.5
496.66	589.5
496.877	593.5
497.094	596.5
497.312	629.5
497.529	614.5
497.746	625.5
497.963	605.5
498.181	639.5
498.398	637.5
498.615	651.5
498.832	662.5
499.049	641.5
499.267	665.5
499.484	662.5
499.701	672.5
499.918	693.5
500.135	710.5
500.352	717.5
500.569	735.5
500.786	724.5
501.003	718.5
501.22	714.5
501.437	714.5
501.654	715.5
501.871	710.5
502.088	701.5
502.305	697.5
502.522	660.5
502.739	634.5
502.956	641.5
503.172	621.5
503.389	622.5
503.606	614.5
503.823	629.5
504.04	622.5
504.256	599.5
504.473	587.5
504.69	587.5
504.907	593.5
505.123	581.5
505.34	575.5
505.557	575.5
505.773	572.5
505.99	597.5
506.207	613.5
506.423	586.5
506.64	585.5
506.856	571.5
507.073	574.5
507.289	560.5
507.506	583.5
507.722	591.5
507.939	613.5
508.155	589.5
508.372	582.5
508.588	557.5
508.805	547.5
509.021	539.5
509.238	578.5
509.454	565.5
509.67	564.5
509.887	558.5
510.103	551.5
510.319	578.5
510.536	665.5
510.752	1103.5
510.968	903.5
511.184	561.5
511.401	552.5
511.617	574.5
511.833	526.5
512.049	526.5
512.265	522.5
512.481	551.5
512.698	534.5
512.914	536.5
513.13	527.5
513.346	524.5
513.562	535.5
513.778	535.5
513.994	522.5
514.21	555.5
514.426	590.5
514.642	620.5
514.858	667.5
515.074	668.5
515.29	814.5
515.506	1285.5
515.721	979.5
515.937	667.5
516.153	610.5
516.369	575.5
516.585	565.5
516.801	561.5
517.016	535.5
517.232	524.5
517.448	531.5
517.664	537.5
517.879	543.5
518.095	525.5
518.311	545.5
518.527	533.5
518.742	520.5
518.958	536.5
519.173	544.5
519.389	526.5
519.605	536.5
519.82	534.5
