Data from 1981.PennyLincolnUp.Lamp.En5.5.200Scan.071819.P1_HRD10591_16-42-36-960.txt Node
Date: Thu Jul 18 16:42:36 EDT 2019
User: cochatt
Spectrometer: HR+D1059
Trigger mode: 1
Integration Time (sec): 1.000000E-1
Scans to average: 1
Electric dark correction enabled: true
Nonlinearity correction enabled: false
Boxcar width: 0
XAxis mode: Wavelengths
Number of Pixels in Spectrum: 2048
>>>>>Begin Spectral Data<<<<<
223.165	-10.69
223.4	-10.69
223.635	-10.69
223.869	-22.69
224.104	-20.69
224.338	-11.69
224.573	-22.69
224.808	-17.69
225.042	10.31
225.277	-8.69
225.511	5.31
225.746	5.31
225.98	3.31
226.215	10.31
226.449	23.31
226.683	29.31
226.918	4.31
227.152	23.31
227.387	33.31
227.621	33.31
227.856	34.31
228.09	42.31
228.324	39.31
228.559	55.31
228.793	71.31
229.027	106.31
229.262	122.31
229.496	124.31
229.73	144.31
229.964	143.31
230.199	116.31
230.433	101.31
230.667	110.31
230.901	114.31
231.136	104.31
231.37	110.31
231.604	121.31
231.838	118.31
232.072	120.31
232.306	118.31
232.541	108.31
232.775	116.31
233.009	119.31
233.243	108.31
233.477	113.31
233.711	116.31
233.945	105.31
234.179	133.31
234.413	124.31
234.647	119.31
234.881	125.31
235.115	112.31
235.349	112.31
235.583	116.31
235.817	122.31
236.051	121.31
236.285	109.31
236.519	127.31
236.753	128.31
236.987	149.31
237.221	183.31
237.455	221.31
237.689	194.31
237.922	135.31
238.156	133.31
238.39	146.31
238.624	129.31
238.858	124.31
239.091	127.31
239.325	125.31
239.559	117.31
239.793	129.31
240.027	116.31
240.26	138.31
240.494	144.31
240.728	138.31
240.961	157.31
241.195	155.31
241.429	137.31
241.662	131.31
241.896	133.31
242.13	142.31
242.363	138.31
242.597	125.31
242.83	153.31
243.064	145.31
243.298	144.31
243.531	124.31
243.765	141.31
243.998	136.31
244.232	148.31
244.465	145.31
244.699	164.31
244.932	153.31
245.166	153.31
245.399	146.31
245.633	155.31
245.866	149.31
246.099	137.31
246.333	143.31
246.566	155.31
246.8	156.31
247.033	154.31
247.266	179.31
247.5	162.31
247.733	177.31
247.966	192.31
248.2	178.31
248.433	163.31
248.666	169.31
248.899	180.31
249.133	219.31
249.366	225.31
249.599	223.31
249.832	188.31
250.066	195.31
250.299	196.31
250.532	201.31
250.765	229.31
250.998	222.31
251.231	237.31
251.465	242.31
251.698	216.31
251.931	206.31
252.164	195.31
252.397	214.31
252.63	214.31
252.863	221.31
253.096	225.31
253.329	233.31
253.562	270.31
253.795	243.31
254.028	244.31
254.261	228.31
254.494	239.31
254.727	281.31
254.96	286.31
255.193	318.31
255.426	266.31
255.659	262.31
255.892	255.31
256.124	245.31
256.357	257.31
256.59	247.31
256.823	239.31
257.056	209.31
257.289	247.31
257.521	222.31
257.754	220.31
257.987	225.31
258.22	220.31
258.452	215.31
258.685	226.31
258.918	233.31
259.151	242.31
259.383	221.31
259.616	228.31
259.849	223.31
260.081	259.31
260.314	276.31
260.547	275.31
260.779	281.31
261.012	245.31
261.244	236.31
261.477	250.31
261.71	244.31
261.942	257.31
262.175	253.31
262.407	246.31
262.64	215.31
262.872	228.31
263.105	215.31
263.337	235.31
263.57	217.31
263.802	224.31
264.035	207.31
264.267	236.31
264.499	230.31
264.732	218.31
264.964	218.31
265.197	229.31
265.429	225.31
265.661	219.31
265.894	231.31
266.126	236.31
266.358	240.31
266.591	232.31
266.823	231.31
267.055	232.31
267.287	230.31
267.52	252.31
267.752	238.31
267.984	244.31
268.216	239.31
268.448	247.31
268.681	247.31
268.913	236.31
269.145	277.31
269.377	294.31
269.609	298.31
269.841	291.31
270.073	285.31
270.306	328.31
270.538	345.31
270.77	348.31
271.002	319.31
271.234	324.31
271.466	321.31
271.698	344.31
271.93	336.31
272.162	341.31
272.394	334.31
272.626	337.31
272.858	321.31
273.09	298.31
273.322	278.31
273.553	291.31
273.785	292.31
274.017	304.31
274.249	290.31
274.481	303.31
274.713	283.31
274.945	275.31
275.176	277.31
275.408	289.31
275.64	293.31
275.872	277.31
276.104	292.31
276.335	286.31
276.567	293.31
276.799	283.31
277.031	329.31
277.262	332.31
277.494	334.31
277.726	325.31
277.957	313.31
278.189	281.31
278.421	310.31
278.652	287.31
278.884	296.31
279.115	275.31
279.347	287.31
279.579	279.31
279.81	284.31
280.042	274.31
280.273	283.31
280.505	294.31
280.736	279.31
280.968	265.31
281.199	268.31
281.431	275.31
281.662	267.31
281.894	277.31
282.125	287.31
282.356	306.31
282.588	332.31
282.819	330.31
283.051	291.31
283.282	278.31
283.513	313.31
283.745	286.31
283.976	280.31
284.207	296.31
284.439	308.31
284.67	287.31
284.901	294.31
285.132	280.31
285.364	300.31
285.595	293.31
285.826	276.31
286.057	293.31
286.288	295.31
286.52	294.31
286.751	283.31
286.982	293.31
287.213	305.31
287.444	284.31
287.675	313.31
287.906	301.31
288.138	309.31
288.369	316.31
288.6	313.31
288.831	323.31
289.062	315.31
289.293	305.31
289.524	315.31
289.755	294.31
289.986	293.31
290.217	278.31
290.448	319.31
290.679	303.31
290.91	292.31
291.141	290.31
291.371	301.31
291.602	296.31
291.833	301.31
292.064	302.31
292.295	290.31
292.526	312.31
292.757	289.31
292.987	287.31
293.218	288.31
293.449	309.31
293.68	299.31
293.91	292.31
294.141	288.31
294.372	306.31
294.603	293.31
294.833	293.31
295.064	312.31
295.295	292.31
295.525	284.31
295.756	311.31
295.987	337.31
296.217	317.31
296.448	342.31
296.679	319.31
296.909	300.31
297.14	300.31
297.37	306.31
297.601	326.31
297.831	308.31
298.062	305.31
298.292	305.31
298.523	307.31
298.753	315.31
298.984	300.31
299.214	306.31
299.445	305.31
299.675	320.31
299.905	311.31
300.136	321.31
300.366	315.31
300.597	325.31
300.827	329.31
301.057	313.31
301.288	334.31
301.518	327.31
301.748	329.31
301.979	329.31
302.209	332.31
302.439	334.31
302.669	326.31
302.9	318.31
303.13	352.31
303.36	354.31
303.59	345.31
303.82	336.31
304.051	348.31
304.281	351.31
304.511	327.31
304.741	326.31
304.971	330.31
305.201	325.31
305.431	334.31
305.661	335.31
305.891	343.31
306.121	319.31
306.352	330.31
306.582	356.31
306.812	338.31
307.042	319.31
307.272	325.31
307.502	343.31
307.731	349.31
307.961	349.31
308.191	332.31
308.421	335.31
308.651	340.31
308.881	354.31
309.111	348.31
309.341	355.31
309.571	376.31
309.8	375.31
310.03	372.31
310.26	387.31
310.49	388.31
310.72	396.31
310.949	427.31
311.179	414.31
311.409	376.31
311.639	400.31
311.868	410.31
312.098	396.31
312.328	430.31
312.557	417.31
312.787	425.31
313.017	437.31
313.246	416.31
313.476	407.31
313.706	411.31
313.935	410.31
314.165	418.31
314.394	414.31
314.624	426.31
314.853	435.31
315.083	392.31
315.312	409.31
315.542	389.31
315.771	387.31
316.001	381.31
316.23	390.31
316.46	389.31
316.689	383.31
316.919	389.31
317.148	411.31
317.377	397.31
317.607	414.31
317.836	397.31
318.065	411.31
318.295	385.31
318.524	397.31
318.753	386.31
318.983	387.31
319.212	396.31
319.441	434.31
319.67	412.31
319.9	387.31
320.129	406.31
320.358	414.31
320.587	398.31
320.816	415.31
321.046	425.31
321.275	437.31
321.504	421.31
321.733	437.31
321.962	423.31
322.191	457.31
322.42	443.31
322.649	490.31
322.878	494.31
323.108	495.31
323.337	534.31
323.566	560.31
323.795	605.31
324.024	676.31
324.253	835.31
324.482	1213.31
324.71	1847.31
324.939	2501.31
325.168	2080.31
325.397	1121.31
325.626	771.31
325.855	634.31
326.084	579.31
326.313	561.31
326.542	571.31
326.77	605.31
326.999	759.31
327.228	1038.31
327.457	1592.31
327.686	1888.31
327.914	1210.31
328.143	805.31
328.372	709.31
328.6	653.31
328.829	631.31
329.058	666.31
329.287	643.31
329.515	590.31
329.744	555.31
329.972	552.31
330.201	599.31
330.43	612.31
330.658	632.31
330.887	653.31
331.115	666.31
331.344	577.31
331.572	518.31
331.801	520.31
332.03	524.31
332.258	474.31
332.486	474.31
332.715	470.31
332.943	486.31
333.172	457.31
333.4	471.31
333.629	454.31
333.857	471.31
334.085	487.31
334.314	518.31
334.542	527.31
334.771	547.31
334.999	489.31
335.227	479.31
335.455	486.31
335.684	461.31
335.912	447.31
336.14	449.31
336.369	449.31
336.597	460.31
336.825	452.31
337.053	453.31
337.281	450.31
337.51	447.31
337.738	451.31
337.966	441.31
338.194	454.31
338.422	441.31
338.65	427.31
338.878	434.31
339.106	439.31
339.334	453.31
339.562	437.31
339.79	411.31
340.018	436.31
340.246	426.31
340.474	426.31
340.702	422.31
340.93	427.31
341.158	422.31
341.386	425.31
341.614	431.31
341.842	434.31
342.07	406.31
342.298	427.31
342.526	448.31
342.754	415.31
342.981	413.31
343.209	409.31
343.437	419.31
343.665	429.31
343.893	420.31
344.12	417.31
344.348	421.31
344.576	412.31
344.804	433.31
345.031	456.31
345.259	458.31
345.487	444.31
345.714	436.31
345.942	411.31
346.17	424.31
346.397	428.31
346.625	419.31
346.853	405.31
347.08	413.31
347.308	416.31
347.535	418.31
347.763	421.31
347.99	415.31
348.218	420.31
348.445	424.31
348.673	415.31
348.9	424.31
349.128	400.31
349.355	421.31
349.583	389.31
349.81	385.31
350.037	382.31
350.265	393.31
350.492	391.31
350.72	417.31
350.947	420.31
351.174	410.31
351.402	439.31
351.629	431.31
351.856	424.31
352.083	425.31
352.311	410.31
352.538	436.31
352.765	447.31
352.992	444.31
353.22	422.31
353.447	406.31
353.674	397.31
353.901	391.31
354.128	385.31
354.355	395.31
354.583	371.31
354.81	365.31
355.037	371.31
355.264	381.31
355.491	358.31
355.718	377.31
355.945	355.31
356.172	376.31
356.399	385.31
356.626	365.31
356.853	383.31
357.08	382.31
357.307	378.31
357.534	374.31
357.761	352.31
357.988	377.31
358.215	372.31
358.441	373.31
358.668	370.31
358.895	363.31
359.122	383.31
359.349	418.31
359.576	393.31
359.802	423.31
360.029	455.31
360.256	469.31
360.483	460.31
360.709	415.31
360.936	422.31
361.163	422.31
361.39	388.31
361.616	410.31
361.843	427.31
362.07	417.31
362.296	426.31
362.523	385.31
362.749	407.31
362.976	381.31
363.203	394.31
363.429	375.31
363.656	387.31
363.882	375.31
364.109	375.31
364.335	386.31
364.562	414.31
364.788	373.31
365.015	369.31
365.241	377.31
365.468	377.31
365.694	397.31
365.92	401.31
366.147	381.31
366.373	367.31
366.599	361.31
366.826	375.31
367.052	392.31
367.278	381.31
367.505	366.31
367.731	381.31
367.957	387.31
368.184	365.31
368.41	381.31
368.636	380.31
368.862	410.31
369.089	382.31
369.315	381.31
369.541	376.31
369.767	383.31
369.993	371.31
370.219	359.31
370.445	373.31
370.672	364.31
370.898	358.31
371.124	371.31
371.35	345.31
371.576	377.31
371.802	348.31
372.028	354.31
372.254	375.31
372.48	347.31
372.706	387.31
372.932	361.31
373.158	355.31
373.384	372.31
373.61	355.31
373.835	364.31
374.061	357.31
374.287	369.31
374.513	366.31
374.739	359.31
374.965	369.31
375.191	378.31
375.416	355.31
375.642	362.31
375.868	365.31
376.094	368.31
376.319	369.31
376.545	345.31
376.771	353.31
376.997	356.31
377.222	363.31
377.448	370.31
377.674	373.31
377.899	351.31
378.125	375.31
378.35	359.31
378.576	347.31
378.802	349.31
379.027	349.31
379.253	338.31
379.478	363.31
379.704	359.31
379.929	363.31
380.155	363.31
380.38	360.31
380.606	367.31
380.831	366.31
381.057	350.31
381.282	343.31
381.507	358.31
381.733	360.31
381.958	341.31
382.184	364.31
382.409	369.31
382.634	347.31
382.86	383.31
383.085	354.31
383.31	369.31
383.535	350.31
383.761	343.31
383.986	372.31
384.211	359.31
384.436	349.31
384.662	372.31
384.887	373.31
385.112	361.31
385.337	365.31
385.562	347.31
385.787	369.31
386.013	385.31
386.238	402.31
386.463	377.31
386.688	368.31
386.913	365.31
387.138	388.31
387.363	377.31
387.588	371.31
387.813	372.31
388.038	356.31
388.263	366.31
388.488	372.31
388.713	373.31
388.938	382.31
389.163	370.31
389.387	373.31
389.612	357.31
389.837	381.31
390.062	376.31
390.287	333.31
390.512	369.31
390.736	383.31
390.961	377.31
391.186	377.31
391.411	356.31
391.636	377.31
391.86	371.31
392.085	370.31
392.31	378.31
392.534	377.31
392.759	364.31
392.984	390.31
393.208	369.31
393.433	359.31
393.658	361.31
393.882	366.31
394.107	373.31
394.331	391.31
394.556	385.31
394.78	364.31
395.005	386.31
395.229	380.31
395.454	377.31
395.678	404.31
395.903	393.31
396.127	411.31
396.352	399.31
396.576	390.31
396.801	389.31
397.025	377.31
397.249	377.31
397.474	386.31
397.698	370.31
397.922	419.31
398.147	433.31
398.371	425.31
398.595	405.31
398.82	420.31
399.044	416.31
399.268	440.31
399.492	439.31
399.717	460.31
399.941	481.31
400.165	496.31
400.389	505.31
400.613	478.31
400.837	456.31
401.062	426.31
401.286	417.31
401.51	407.31
401.734	414.31
401.958	406.31
402.182	412.31
402.406	435.31
402.63	432.31
402.854	434.31
403.078	417.31
403.302	421.31
403.526	441.31
403.75	437.31
403.974	423.31
404.198	422.31
404.422	419.31
404.645	438.31
404.869	446.31
405.093	460.31
405.317	492.31
405.541	534.31
405.765	455.31
405.988	459.31
406.212	484.31
406.436	476.31
406.66	502.31
406.883	469.31
407.107	493.31
407.331	520.31
407.555	573.31
407.778	559.31
408.002	533.31
408.226	478.31
408.449	481.31
408.673	479.31
408.896	502.31
409.12	557.31
409.344	503.31
409.567	473.31
409.791	437.31
410.014	434.31
410.238	412.31
410.461	445.31
410.685	432.31
410.908	447.31
411.132	497.31
411.355	523.31
411.578	508.31
411.802	439.31
412.025	446.31
412.249	462.31
412.472	465.31
412.695	498.31
412.919	483.31
413.142	456.31
413.365	433.31
413.589	428.31
413.812	398.31
414.035	418.31
414.258	403.31
414.482	386.31
414.705	400.31
414.928	366.31
415.151	392.31
415.374	393.31
415.597	409.31
415.821	410.31
416.044	396.31
416.267	409.31
416.49	415.31
416.713	408.31
416.936	383.31
417.159	397.31
417.382	421.31
417.605	418.31
417.828	411.31
418.051	434.31
418.274	421.31
418.497	407.31
418.72	416.31
418.943	412.31
419.166	401.31
419.389	439.31
419.611	433.31
419.834	434.31
420.057	436.31
420.28	436.31
420.503	405.31
420.726	452.31
420.948	437.31
421.171	507.31
421.394	523.31
421.617	443.31
421.839	435.31
422.062	437.31
422.285	457.31
422.507	509.31
422.73	531.31
422.953	531.31
423.175	470.31
423.398	463.31
423.621	453.31
423.843	467.31
424.066	462.31
424.288	466.31
424.511	492.31
424.733	523.31
424.956	606.31
425.178	572.31
425.401	597.31
425.623	601.31
425.846	525.31
426.068	477.31
426.291	477.31
426.513	454.31
426.735	509.31
426.958	542.31
427.18	605.31
427.402	689.31
427.625	771.31
427.847	691.31
428.069	598.31
428.292	524.31
428.514	486.31
428.736	463.31
428.958	440.31
429.181	454.31
429.403	425.31
429.625	460.31
429.847	492.31
430.069	545.31
430.292	517.31
430.514	457.31
430.736	439.31
430.958	451.31
431.18	422.31
431.402	415.31
431.624	399.31
431.846	399.31
432.068	403.31
432.29	393.31
432.512	410.31
432.734	429.31
432.956	397.31
433.178	406.31
433.4	423.31
433.622	422.31
433.844	406.31
434.066	388.31
434.287	381.31
434.509	402.31
434.731	414.31
434.953	426.31
435.175	440.31
435.397	463.31
435.618	476.31
435.84	519.31
436.062	599.31
436.284	662.31
436.505	565.31
436.727	488.31
436.949	470.31
437.17	450.31
437.392	437.31
437.614	449.31
437.835	489.31
438.057	577.31
438.278	664.31
438.5	661.31
438.721	719.31
438.943	678.31
439.165	576.31
439.386	514.31
439.608	528.31
439.829	506.31
440.05	541.31
440.272	542.31
440.493	551.31
440.715	484.31
440.936	441.31
441.158	469.31
441.379	447.31
441.6	456.31
441.822	484.31
442.043	529.31
442.264	587.31
442.486	647.31
442.707	526.31
442.928	515.31
443.149	515.31
443.371	523.31
443.592	552.31
443.813	647.31
444.034	686.31
444.255	557.31
444.476	484.31
444.698	479.31
444.919	460.31
445.14	553.31
445.361	535.31
445.582	533.31
445.803	594.31
446.024	698.31
446.245	675.31
446.466	629.31
446.687	537.31
446.908	480.31
447.129	458.31
447.35	447.31
447.571	450.31
447.792	455.31
448.013	454.31
448.234	482.31
448.455	508.31
448.675	613.31
448.896	723.31
449.117	609.31
449.338	603.31
449.559	660.31
449.779	738.31
450	606.31
450.221	506.31
450.442	461.31
450.662	459.31
450.883	457.31
451.104	461.31
451.324	438.31
451.545	414.31
451.766	421.31
451.986	396.31
452.207	397.31
452.428	394.31
452.648	393.31
452.869	390.31
453.089	415.31
453.31	405.31
453.53	415.31
453.751	405.31
453.971	407.31
454.192	435.31
454.412	429.31
454.633	420.31
454.853	410.31
455.073	381.31
455.294	422.31
455.514	492.31
455.734	474.31
455.955	383.31
456.175	388.31
456.395	358.31
456.616	384.31
456.836	356.31
457.056	354.31
457.276	344.31
457.497	375.31
457.717	367.31
457.937	369.31
458.157	380.31
458.377	377.31
458.598	400.31
458.818	473.31
459.038	544.31
459.258	561.31
459.478	451.31
459.698	418.31
459.918	392.31
460.138	401.31
460.358	386.31
460.578	385.31
460.798	406.31
461.018	396.31
461.238	401.31
461.458	387.31
461.678	396.31
461.898	388.31
462.118	414.31
462.338	401.31
462.558	402.31
462.777	398.31
462.997	420.31
463.217	399.31
463.437	419.31
463.657	415.31
463.876	421.31
464.096	420.31
464.316	418.31
464.536	436.31
464.755	455.31
464.975	427.31
465.195	506.31
465.414	569.31
465.634	484.31
465.854	433.31
466.073	414.31
466.293	409.31
466.512	387.31
466.732	389.31
466.951	380.31
467.171	411.31
467.391	408.31
467.61	418.31
467.829	427.31
468.049	423.31
468.268	415.31
468.488	380.31
468.707	391.31
468.927	371.31
469.146	376.31
469.365	373.31
469.585	391.31
469.804	395.31
470.023	394.31
470.243	387.31
470.462	405.31
470.681	413.31
470.901	434.31
471.12	418.31
471.339	397.31
471.558	390.31
471.777	393.31
471.997	391.31
472.216	395.31
472.435	434.31
472.654	414.31
472.873	413.31
473.092	414.31
473.311	414.31
473.53	403.31
473.749	424.31
473.968	469.31
474.187	564.31
474.406	586.31
474.625	446.31
474.844	431.31
475.063	436.31
475.282	395.31
475.501	387.31
475.72	430.31
475.939	388.31
476.158	415.31
476.377	422.31
476.596	420.31
476.814	406.31
477.033	418.31
477.252	414.31
477.471	412.31
477.69	416.31
477.908	427.31
478.127	415.31
478.346	425.31
478.564	427.31
478.783	427.31
479.002	442.31
479.22	475.31
479.439	471.31
479.658	492.31
479.876	475.31
480.095	478.31
480.313	496.31
480.532	517.31
480.751	500.31
480.969	513.31
481.188	554.31
481.406	580.31
481.624	509.31
481.843	487.31
482.061	482.31
482.28	456.31
482.498	471.31
482.717	479.31
482.935	476.31
483.153	480.31
483.372	466.31
483.59	472.31
483.808	439.31
484.027	467.31
484.245	475.31
484.463	474.31
484.681	494.31
484.9	472.31
485.118	460.31
485.336	469.31
485.554	480.31
485.772	469.31
485.99	492.31
486.209	481.31
486.427	480.31
486.645	503.31
486.863	521.31
487.081	534.31
487.299	529.31
487.517	508.31
487.735	503.31
487.953	531.31
488.171	508.31
488.389	491.31
488.607	515.31
488.825	547.31
489.043	520.31
489.261	515.31
489.479	515.31
489.696	546.31
489.914	510.31
490.132	530.31
490.35	519.31
490.568	534.31
490.786	538.31
491.003	538.31
491.221	563.31
491.439	552.31
491.657	575.31
491.874	578.31
492.092	577.31
492.31	596.31
492.527	605.31
492.745	581.31
492.963	596.31
493.18	571.31
493.398	587.31
493.615	584.31
493.833	601.31
494.05	579.31
494.268	578.31
494.485	589.31
494.703	582.31
494.92	573.31
495.138	632.31
495.355	614.31
495.573	592.31
495.79	607.31
496.008	591.31
496.225	609.31
496.442	612.31
496.66	614.31
496.877	605.31
497.094	608.31
497.312	627.31
497.529	606.31
497.746	625.31
497.963	639.31
498.181	647.31
498.398	663.31
498.615	655.31
498.832	650.31
499.049	627.31
499.267	642.31
499.484	676.31
499.701	697.31
499.918	715.31
500.135	717.31
500.352	723.31
500.569	723.31
500.786	732.31
501.003	695.31
501.22	719.31
501.437	722.31
501.654	732.31
501.871	733.31
