Data from 1981.PennyLincolnUp.Lamp.En5.5.200Scan.071819.P1_HRD10591_16-43-38-960.txt Node
Date: Thu Jul 18 16:43:38 EDT 2019
User: cochatt
Spectrometer: HR+D1059
Trigger mode: 1
Integration Time (sec): 1.000000E-1
Scans to average: 1
Electric dark correction enabled: true
Nonlinearity correction enabled: false
Boxcar width: 0
XAxis mode: Wavelengths
Number of Pixels in Spectrum: 2048
>>>>>Begin Spectral Data<<<<<
223.165	-17.38
223.4	-17.38
223.635	-17.38
223.869	-20.38
224.104	-27.38
224.338	-15.38
224.573	-12.38
224.808	12.62
225.042	-6.38
225.277	-6.38
225.511	-0.38
225.746	3.62
225.98	3.62
226.215	11.62
226.449	15.62
226.683	14.62
226.918	5.62
227.152	38.62
227.387	28.62
227.621	30.62
227.856	32.62
228.09	29.62
228.324	28.62
228.559	50.62
228.793	69.62
229.027	108.62
229.262	116.62
229.496	120.62
229.73	151.62
229.964	148.62
230.199	133.62
230.433	124.62
230.667	114.62
230.901	106.62
231.136	101.62
231.37	104.62
231.604	100.62
231.838	106.62
232.072	106.62
232.306	93.62
232.541	110.62
232.775	112.62
233.009	105.62
233.243	114.62
233.477	126.62
233.711	115.62
233.945	113.62
234.179	105.62
234.413	114.62
234.647	113.62
234.881	114.62
235.115	109.62
235.349	106.62
235.583	114.62
235.817	114.62
236.051	127.62
236.285	116.62
236.519	125.62
236.753	125.62
236.987	151.62
237.221	178.62
237.455	229.62
237.689	201.62
237.922	151.62
238.156	132.62
238.39	122.62
238.624	116.62
238.858	116.62
239.091	124.62
239.325	124.62
239.559	138.62
239.793	108.62
240.027	128.62
240.26	146.62
240.494	159.62
240.728	144.62
240.961	155.62
241.195	140.62
241.429	143.62
241.662	136.62
241.896	154.62
242.13	130.62
242.363	114.62
242.597	134.62
242.83	131.62
243.064	154.62
243.298	146.62
243.531	133.62
243.765	140.62
243.998	140.62
244.232	144.62
244.465	140.62
244.699	136.62
244.932	122.62
245.166	162.62
245.399	146.62
245.633	140.62
245.866	154.62
246.099	142.62
246.333	142.62
246.566	140.62
246.8	152.62
247.033	150.62
247.266	156.62
247.5	140.62
247.733	183.62
247.966	186.62
248.2	191.62
248.433	168.62
248.666	162.62
248.899	179.62
249.133	213.62
249.366	226.62
249.599	223.62
249.832	193.62
250.066	185.62
250.299	179.62
250.532	207.62
250.765	199.62
250.998	234.62
251.231	244.62
251.465	238.62
251.698	216.62
251.931	202.62
252.164	232.62
252.397	204.62
252.63	225.62
252.863	204.62
253.096	232.62
253.329	224.62
253.562	241.62
253.795	238.62
254.028	250.62
254.261	218.62
254.494	245.62
254.727	295.62
254.96	304.62
255.193	286.62
255.426	270.62
255.659	251.62
255.892	248.62
256.124	255.62
256.357	251.62
256.59	239.62
256.823	226.62
257.056	223.62
257.289	237.62
257.521	232.62
257.754	217.62
257.987	231.62
258.22	218.62
258.452	212.62
258.685	191.62
258.918	203.62
259.151	234.62
259.383	232.62
259.616	202.62
259.849	235.62
260.081	243.62
260.314	269.62
260.547	258.62
260.779	251.62
261.012	260.62
261.244	238.62
261.477	241.62
261.71	259.62
261.942	233.62
262.175	262.62
262.407	240.62
262.64	230.62
262.872	226.62
263.105	236.62
263.337	209.62
263.57	207.62
263.802	222.62
264.035	224.62
264.267	226.62
264.499	209.62
264.732	234.62
264.964	220.62
265.197	220.62
265.429	210.62
265.661	207.62
265.894	224.62
266.126	232.62
266.358	219.62
266.591	208.62
266.823	222.62
267.055	233.62
267.287	226.62
267.52	233.62
267.752	228.62
267.984	225.62
268.216	241.62
268.448	228.62
268.681	258.62
268.913	245.62
269.145	282.62
269.377	290.62
269.609	293.62
269.841	284.62
270.073	288.62
270.306	305.62
270.538	321.62
270.77	325.62
271.002	323.62
271.234	331.62
271.466	332.62
271.698	325.62
271.93	337.62
272.162	341.62
272.394	336.62
272.626	337.62
272.858	306.62
273.09	278.62
273.322	294.62
273.553	295.62
273.785	300.62
274.017	297.62
274.249	292.62
274.481	276.62
274.713	296.62
274.945	274.62
275.176	282.62
275.408	272.62
275.64	263.62
275.872	283.62
276.104	293.62
276.335	289.62
276.567	289.62
276.799	296.62
277.031	307.62
277.262	315.62
277.494	350.62
277.726	317.62
277.957	307.62
278.189	282.62
278.421	287.62
278.652	277.62
278.884	296.62
279.115	279.62
279.347	286.62
279.579	275.62
279.81	280.62
280.042	261.62
280.273	266.62
280.505	284.62
280.736	294.62
280.968	293.62
281.199	267.62
281.431	263.62
281.662	274.62
281.894	278.62
282.125	277.62
282.356	297.62
282.588	324.62
282.819	318.62
283.051	295.62
283.282	294.62
283.513	278.62
283.745	292.62
283.976	278.62
284.207	290.62
284.439	289.62
284.67	286.62
284.901	276.62
285.132	273.62
285.364	273.62
285.595	266.62
285.826	281.62
286.057	286.62
286.288	267.62
286.52	283.62
286.751	264.62
286.982	284.62
287.213	268.62
287.444	296.62
287.675	277.62
287.906	296.62
288.138	305.62
288.369	308.62
288.6	323.62
288.831	317.62
289.062	302.62
289.293	313.62
289.524	302.62
289.755	286.62
289.986	296.62
290.217	290.62
290.448	293.62
290.679	296.62
290.91	289.62
291.141	284.62
291.371	274.62
291.602	286.62
291.833	282.62
292.064	279.62
292.295	272.62
292.526	292.62
292.757	281.62
292.987	305.62
293.218	310.62
293.449	304.62
293.68	289.62
293.91	313.62
294.141	286.62
294.372	288.62
294.603	272.62
294.833	295.62
295.064	307.62
295.295	321.62
295.525	303.62
295.756	285.62
295.987	308.62
296.217	334.62
296.448	342.62
296.679	329.62
296.909	282.62
297.14	303.62
297.37	292.62
297.601	300.62
297.831	287.62
298.062	303.62
298.292	303.62
298.523	302.62
298.753	306.62
298.984	310.62
299.214	306.62
299.445	299.62
299.675	320.62
299.905	316.62
300.136	310.62
300.366	299.62
300.597	319.62
300.827	315.62
301.057	325.62
301.288	312.62
301.518	331.62
301.748	337.62
301.979	333.62
302.209	333.62
302.439	338.62
302.669	333.62
302.9	323.62
303.13	345.62
303.36	311.62
303.59	335.62
303.82	345.62
304.051	329.62
304.281	331.62
304.511	340.62
304.741	332.62
304.971	326.62
305.201	322.62
305.431	323.62
305.661	318.62
305.891	344.62
306.121	332.62
306.352	356.62
306.582	329.62
306.812	335.62
307.042	328.62
307.272	340.62
307.502	336.62
307.731	346.62
307.961	352.62
308.191	339.62
308.421	337.62
308.651	351.62
308.881	332.62
309.111	354.62
309.341	336.62
309.571	363.62
309.8	372.62
310.03	374.62
310.26	378.62
310.49	380.62
310.72	419.62
310.949	435.62
311.179	434.62
311.409	403.62
311.639	396.62
311.868	397.62
312.098	398.62
312.328	409.62
312.557	427.62
312.787	422.62
313.017	448.62
313.246	416.62
313.476	377.62
313.706	390.62
313.935	402.62
314.165	392.62
314.394	414.62
314.624	430.62
314.853	397.62
315.083	371.62
315.312	383.62
315.542	383.62
315.771	377.62
316.001	379.62
316.23	399.62
316.46	370.62
316.689	382.62
316.919	400.62
317.148	410.62
317.377	397.62
317.607	411.62
317.836	402.62
318.065	380.62
318.295	393.62
318.524	382.62
318.753	362.62
318.983	361.62
319.212	376.62
319.441	414.62
319.67	412.62
319.9	384.62
320.129	386.62
320.358	404.62
320.587	408.62
320.816	408.62
321.046	398.62
321.275	430.62
321.504	422.62
321.733	414.62
321.962	422.62
322.191	444.62
322.42	452.62
322.649	473.62
322.878	506.62
323.108	508.62
323.337	545.62
323.566	554.62
323.795	592.62
324.024	670.62
324.253	879.62
324.482	1278.62
324.71	1870.62
324.939	2588.62
325.168	2174.62
325.397	1163.62
325.626	764.62
325.855	631.62
326.084	585.62
326.313	548.62
326.542	582.62
326.77	638.62
326.999	778.62
327.228	1086.62
327.457	1660.62
327.686	1941.62
327.914	1278.62
328.143	848.62
328.372	748.62
328.6	699.62
328.829	629.62
329.058	651.62
329.287	670.62
329.515	618.62
329.744	563.62
329.972	552.62
330.201	594.62
330.43	614.62
330.658	650.62
330.887	689.62
331.115	665.62
331.344	580.62
331.572	542.62
331.801	516.62
332.03	506.62
332.258	490.62
332.486	474.62
332.715	471.62
332.943	482.62
333.172	461.62
333.4	458.62
333.629	459.62
333.857	474.62
334.085	479.62
334.314	518.62
334.542	560.62
334.771	584.62
334.999	486.62
335.227	480.62
335.455	476.62
335.684	448.62
335.912	458.62
336.14	425.62
336.369	437.62
336.597	462.62
336.825	448.62
337.053	436.62
337.281	445.62
337.51	432.62
337.738	440.62
337.966	442.62
338.194	428.62
338.422	450.62
338.65	408.62
338.878	422.62
339.106	423.62
339.334	418.62
339.562	426.62
339.79	425.62
340.018	425.62
340.246	419.62
340.474	435.62
340.702	406.62
340.93	411.62
341.158	442.62
341.386	434.62
341.614	440.62
341.842	422.62
342.07	406.62
342.298	440.62
342.526	408.62
342.754	394.62
342.981	395.62
343.209	396.62
343.437	415.62
343.665	420.62
343.893	434.62
344.12	405.62
344.348	408.62
344.576	433.62
344.804	437.62
345.031	439.62
345.259	465.62
345.487	447.62
345.714	426.62
345.942	448.62
346.17	417.62
346.397	419.62
346.625	415.62
346.853	396.62
347.08	395.62
347.308	414.62
347.535	434.62
347.763	450.62
347.99	438.62
348.218	406.62
348.445	442.62
348.673	419.62
348.9	404.62
349.128	395.62
349.355	372.62
349.583	391.62
349.81	405.62
350.037	396.62
350.265	388.62
350.492	406.62
350.72	398.62
350.947	390.62
351.174	424.62
351.402	438.62
351.629	428.62
351.856	404.62
352.083	415.62
352.311	434.62
352.538	433.62
352.765	428.62
352.992	426.62
353.22	408.62
353.447	387.62
353.674	404.62
353.901	402.62
354.128	395.62
354.355	394.62
354.583	382.62
354.81	397.62
355.037	371.62
355.264	377.62
355.491	373.62
355.718	366.62
355.945	363.62
356.172	372.62
356.399	358.62
356.626	368.62
356.853	362.62
357.08	364.62
357.307	358.62
357.534	355.62
357.761	396.62
357.988	374.62
358.215	370.62
358.441	372.62
358.668	350.62
358.895	378.62
359.122	391.62
359.349	399.62
359.576	411.62
359.802	439.62
360.029	458.62
360.256	470.62
360.483	450.62
360.709	414.62
360.936	425.62
361.163	390.62
361.39	396.62
361.616	415.62
361.843	394.62
362.07	418.62
362.296	400.62
362.523	395.62
362.749	402.62
362.976	382.62
363.203	390.62
363.429	406.62
363.656	386.62
363.882	394.62
364.109	361.62
364.335	373.62
364.562	357.62
364.788	379.62
365.015	368.62
365.241	384.62
365.468	361.62
365.694	374.62
365.92	394.62
366.147	381.62
366.373	368.62
366.599	374.62
366.826	354.62
367.052	382.62
367.278	380.62
367.505	387.62
367.731	372.62
367.957	394.62
368.184	392.62
368.41	392.62
368.636	389.62
368.862	379.62
369.089	375.62
369.315	369.62
369.541	380.62
369.767	375.62
369.993	350.62
370.219	373.62
370.445	351.62
370.672	366.62
370.898	378.62
371.124	358.62
371.35	349.62
371.576	347.62
371.802	367.62
372.028	340.62
372.254	366.62
372.48	358.62
372.706	347.62
372.932	352.62
373.158	366.62
373.384	372.62
373.61	362.62
373.835	355.62
374.061	348.62
374.287	370.62
374.513	341.62
374.739	352.62
374.965	343.62
375.191	355.62
375.416	351.62
375.642	352.62
375.868	360.62
376.094	338.62
376.319	376.62
376.545	346.62
376.771	359.62
376.997	340.62
377.222	336.62
377.448	347.62
377.674	355.62
377.899	338.62
378.125	340.62
378.35	362.62
378.576	363.62
378.802	339.62
379.027	345.62
379.253	333.62
379.478	352.62
379.704	361.62
379.929	335.62
380.155	359.62
380.38	376.62
380.606	342.62
380.831	349.62
381.057	358.62
381.282	356.62
381.507	354.62
381.733	351.62
381.958	348.62
382.184	347.62
382.409	349.62
382.634	354.62
382.86	345.62
383.085	351.62
383.31	352.62
383.535	366.62
383.761	350.62
383.986	347.62
384.211	366.62
384.436	338.62
384.662	355.62
384.887	343.62
385.112	360.62
385.337	354.62
385.562	362.62
385.787	372.62
386.013	370.62
386.238	363.62
386.463	378.62
386.688	361.62
386.913	370.62
387.138	365.62
387.363	358.62
387.588	356.62
387.813	380.62
388.038	361.62
388.263	362.62
388.488	356.62
388.713	368.62
388.938	368.62
389.163	370.62
389.387	354.62
389.612	356.62
389.837	350.62
390.062	362.62
390.287	356.62
390.512	364.62
390.736	346.62
390.961	368.62
391.186	366.62
391.411	358.62
391.636	382.62
391.86	356.62
392.085	384.62
392.31	352.62
392.534	376.62
392.759	380.62
392.984	350.62
393.208	371.62
393.433	354.62
393.658	345.62
393.882	375.62
394.107	363.62
394.331	366.62
394.556	369.62
394.78	358.62
395.005	374.62
395.229	360.62
395.454	381.62
395.678	382.62
395.903	384.62
396.127	394.62
396.352	419.62
396.576	371.62
396.801	360.62
397.025	369.62
397.249	374.62
397.474	394.62
397.698	378.62
397.922	399.62
398.147	416.62
398.371	399.62
398.595	392.62
398.82	388.62
399.044	406.62
399.268	419.62
399.492	444.62
399.717	450.62
399.941	448.62
400.165	467.62
400.389	502.62
400.613	446.62
400.837	432.62
401.062	414.62
401.286	412.62
401.51	413.62
401.734	402.62
401.958	412.62
402.182	412.62
402.406	403.62
402.63	412.62
402.854	408.62
403.078	409.62
403.302	415.62
403.526	425.62
403.75	420.62
403.974	430.62
404.198	416.62
404.422	440.62
404.645	425.62
404.869	430.62
405.093	445.62
405.317	489.62
405.541	511.62
405.765	478.62
405.988	478.62
406.212	462.62
406.436	482.62
406.66	492.62
406.883	491.62
407.107	475.62
407.331	501.62
407.555	545.62
407.778	560.62
408.002	522.62
408.226	483.62
408.449	476.62
408.673	472.62
408.896	487.62
409.12	523.62
409.344	482.62
409.567	458.62
409.791	412.62
410.014	433.62
410.238	430.62
410.461	417.62
410.685	450.62
410.908	479.62
411.132	467.62
411.355	489.62
411.578	490.62
411.802	439.62
412.025	416.62
412.249	434.62
412.472	438.62
412.695	483.62
412.919	464.62
413.142	434.62
413.365	400.62
413.589	418.62
413.812	406.62
414.035	416.62
414.258	396.62
414.482	398.62
414.705	408.62
414.928	393.62
415.151	392.62
415.374	392.62
415.597	387.62
415.821	368.62
416.044	405.62
416.267	414.62
416.49	388.62
416.713	379.62
416.936	398.62
417.159	394.62
417.382	394.62
417.605	386.62
417.828	422.62
418.051	422.62
418.274	414.62
418.497	399.62
418.72	392.62
418.943	386.62
419.166	404.62
419.389	408.62
419.611	433.62
419.834	406.62
420.057	434.62
420.28	425.62
420.503	416.62
420.726	437.62
420.948	446.62
421.171	484.62
421.394	504.62
421.617	423.62
421.839	422.62
422.062	427.62
422.285	429.62
422.507	494.62
422.73	574.62
422.953	514.62
423.175	465.62
423.398	445.62
423.621	436.62
423.843	467.62
424.066	458.62
424.288	454.62
424.511	466.62
424.733	537.62
424.956	604.62
425.178	604.62
425.401	581.62
425.623	589.62
425.846	516.62
426.068	464.62
426.291	449.62
426.513	452.62
426.735	480.62
426.958	526.62
427.18	589.62
427.402	704.62
427.625	782.62
427.847	673.62
428.069	612.62
428.292	512.62
428.514	464.62
428.736	462.62
428.958	452.62
429.181	444.62
429.403	434.62
429.625	460.62
429.847	483.62
430.069	526.62
430.292	544.62
430.514	448.62
430.736	436.62
430.958	428.62
431.18	407.62
431.402	396.62
431.624	383.62
431.846	407.62
432.068	385.62
432.29	403.62
432.512	400.62
432.734	406.62
432.956	408.62
433.178	419.62
433.4	412.62
433.622	408.62
433.844	401.62
434.066	389.62
434.287	405.62
434.509	388.62
434.731	416.62
434.953	418.62
435.175	432.62
435.397	478.62
435.618	468.62
435.84	524.62
436.062	588.62
436.284	660.62
436.505	566.62
436.727	483.62
436.949	452.62
437.17	436.62
437.392	457.62
437.614	447.62
437.835	491.62
438.057	575.62
438.278	697.62
438.5	652.62
438.721	722.62
438.943	680.62
439.165	552.62
439.386	496.62
439.608	485.62
439.829	485.62
440.05	531.62
440.272	559.62
440.493	510.62
440.715	483.62
440.936	440.62
441.158	446.62
441.379	443.62
441.6	439.62
441.822	473.62
442.043	508.62
442.264	584.62
442.486	611.62
442.707	522.62
442.928	488.62
443.149	502.62
443.371	518.62
443.592	554.62
443.813	622.62
444.034	683.62
444.255	562.62
444.476	498.62
444.698	461.62
444.919	463.62
445.14	552.62
445.361	510.62
445.582	512.62
445.803	575.62
446.024	690.62
446.245	668.62
446.466	615.62
446.687	555.62
446.908	471.62
447.129	462.62
447.35	442.62
447.571	445.62
447.792	426.62
448.013	454.62
448.234	475.62
448.455	505.62
448.675	633.62
448.896	686.62
449.117	604.62
449.338	572.62
449.559	659.62
449.779	746.62
450	590.62
450.221	522.62
450.442	463.62
450.662	454.62
450.883	442.62
451.104	448.62
451.324	451.62
451.545	424.62
451.766	422.62
451.986	393.62
452.207	399.62
452.428	384.62
452.648	402.62
452.869	399.62
453.089	400.62
453.31	424.62
453.53	391.62
453.751	417.62
453.971	397.62
454.192	395.62
454.412	412.62
454.633	397.62
454.853	394.62
455.073	378.62
455.294	412.62
455.514	465.62
455.734	483.62
455.955	391.62
456.175	379.62
456.395	382.62
456.616	373.62
456.836	356.62
457.056	362.62
457.276	347.62
457.497	375.62
457.717	352.62
457.937	356.62
458.157	391.62
458.377	376.62
458.598	401.62
458.818	472.62
459.038	532.62
459.258	556.62
459.478	471.62
459.698	408.62
459.918	395.62
460.138	404.62
460.358	396.62
460.578	377.62
460.798	375.62
461.018	387.62
461.238	377.62
461.458	383.62
461.678	374.62
461.898	382.62
462.118	387.62
462.338	391.62
462.558	400.62
462.777	389.62
462.997	400.62
463.217	391.62
463.437	387.62
463.657	397.62
463.876	400.62
464.096	396.62
464.316	410.62
464.536	424.62
464.755	428.62
464.975	428.62
465.195	480.62
465.414	561.62
465.634	486.62
465.854	439.62
466.073	423.62
466.293	404.62
466.512	368.62
466.732	385.62
466.951	375.62
467.171	376.62
467.391	388.62
467.61	404.62
467.829	406.62
468.049	386.62
468.268	388.62
468.488	392.62
468.707	367.62
468.927	386.62
469.146	391.62
469.365	367.62
469.585	379.62
469.804	374.62
470.023	406.62
470.243	417.62
470.462	402.62
470.681	402.62
470.901	419.62
471.12	411.62
471.339	393.62
471.558	395.62
471.777	402.62
471.997	387.62
472.216	400.62
472.435	440.62
472.654	448.62
472.873	400.62
473.092	375.62
473.311	397.62
473.53	388.62
473.749	411.62
473.968	455.62
474.187	576.62
474.406	582.62
474.625	481.62
474.844	436.62
475.063	397.62
475.282	396.62
475.501	396.62
475.72	400.62
475.939	409.62
476.158	392.62
476.377	395.62
476.596	408.62
476.814	409.62
477.033	412.62
477.252	422.62
477.471	425.62
477.69	422.62
477.908	403.62
478.127	431.62
478.346	404.62
478.564	404.62
478.783	397.62
479.002	448.62
479.22	440.62
479.439	471.62
479.658	464.62
479.876	463.62
480.095	481.62
480.313	512.62
480.532	485.62
480.751	468.62
480.969	468.62
481.188	547.62
481.406	579.62
481.624	544.62
481.843	500.62
482.061	477.62
482.28	484.62
482.498	460.62
482.717	470.62
482.935	469.62
483.153	478.62
483.372	460.62
483.59	460.62
483.808	467.62
484.027	465.62
484.245	464.62
484.463	461.62
484.681	478.62
484.9	461.62
485.118	458.62
485.336	473.62
485.554	476.62
485.772	465.62
485.99	478.62
486.209	480.62
486.427	479.62
486.645	506.62
486.863	507.62
487.081	525.62
487.299	506.62
487.517	491.62
487.735	476.62
487.953	489.62
488.171	460.62
488.389	491.62
488.607	470.62
488.825	520.62
489.043	508.62
489.261	503.62
489.479	512.62
489.696	511.62
489.914	514.62
490.132	514.62
490.35	529.62
490.568	510.62
490.786	533.62
491.003	560.62
491.221	550.62
491.439	564.62
491.657	567.62
491.874	550.62
492.092	576.62
492.31	568.62
492.527	572.62
492.745	579.62
492.963	555.62
493.18	586.62
493.398	587.62
493.615	599.62
493.833	592.62
494.05	577.62
494.268	584.62
494.485	601.62
494.703	578.62
494.92	587.62
495.138	587.62
495.355	598.62
495.573	600.62
495.79	589.62
496.008	602.62
496.225	590.62
496.442	562.62
496.66	585.62
496.877	602.62
497.094	609.62
497.312	582.62
497.529	595.62
497.746	572.62
497.963	598.62
498.181	642.62
498.398	640.62
498.615	640.62
498.832	635.62
499.049	636.62
499.267	664.62
499.484	656.62
499.701	678.62
499.918	663.62
500.135	703.62
500.352	708.62
500.569	709.62
500.786	716.62
501.003	728.62
501.22	684.62
501.437	701.62
501.654	699.62
501.871	720.62
