Data from 1981.PennyLincolnUp.Lamp.En5.5.200Scan.071819.P1_HRD10591_16-41-52-959.txt Node
Date: Thu Jul 18 16:41:52 EDT 2019
User: cochatt
Spectrometer: HR+D1059
Trigger mode: 1
Integration Time (sec): 1.000000E-1
Scans to average: 1
Electric dark correction enabled: true
Nonlinearity correction enabled: false
Boxcar width: 0
XAxis mode: Wavelengths
Number of Pixels in Spectrum: 2048
>>>>>Begin Spectral Data<<<<<
223.165	-16.19
223.4	-16.19
223.635	-16.19
223.869	-0.19
224.104	-21.19
224.338	-10.19
224.573	-15.19
224.808	-25.19
225.042	-10.19
225.277	-6.19
225.511	-18.19
225.746	-9.19
225.98	7.81
226.215	14.81
226.449	13.81
226.683	27.81
226.918	32.81
227.152	34.81
227.387	37.81
227.621	34.81
227.856	39.81
228.09	40.81
228.324	52.81
228.559	60.81
228.793	69.81
229.027	100.81
229.262	120.81
229.496	127.81
229.73	116.81
229.964	154.81
230.199	127.81
230.433	131.81
230.667	118.81
230.901	109.81
231.136	111.81
231.37	105.81
231.604	124.81
231.838	116.81
232.072	104.81
232.306	115.81
232.541	118.81
232.775	122.81
233.009	99.81
233.243	119.81
233.477	100.81
233.711	106.81
233.945	103.81
234.179	106.81
234.413	122.81
234.647	101.81
234.881	106.81
235.115	119.81
235.349	114.81
235.583	112.81
235.817	117.81
236.051	112.81
236.285	117.81
236.519	123.81
236.753	115.81
236.987	149.81
237.221	187.81
237.455	227.81
237.689	186.81
237.922	138.81
238.156	140.81
238.39	142.81
238.624	119.81
238.858	120.81
239.091	131.81
239.325	140.81
239.559	133.81
239.793	131.81
240.027	149.81
240.26	138.81
240.494	160.81
240.728	134.81
240.961	137.81
241.195	147.81
241.429	146.81
241.662	142.81
241.896	157.81
242.13	125.81
242.363	131.81
242.597	134.81
242.83	133.81
243.064	145.81
243.298	112.81
243.531	129.81
243.765	123.81
243.998	131.81
244.232	146.81
244.465	140.81
244.699	151.81
244.932	131.81
245.166	148.81
245.399	135.81
245.633	142.81
245.866	152.81
246.099	145.81
246.333	143.81
246.566	144.81
246.8	146.81
247.033	140.81
247.266	149.81
247.5	157.81
247.733	185.81
247.966	154.81
248.2	168.81
248.433	175.81
248.666	175.81
248.899	194.81
249.133	210.81
249.366	206.81
249.599	180.81
249.832	192.81
250.066	187.81
250.299	179.81
250.532	191.81
250.765	189.81
250.998	215.81
251.231	225.81
251.465	233.81
251.698	207.81
251.931	198.81
252.164	203.81
252.397	201.81
252.63	217.81
252.863	221.81
253.096	222.81
253.329	243.81
253.562	254.81
253.795	238.81
254.028	237.81
254.261	225.81
254.494	229.81
254.727	274.81
254.96	298.81
255.193	287.81
255.426	265.81
255.659	234.81
255.892	241.81
256.124	242.81
256.357	244.81
256.59	227.81
256.823	226.81
257.056	217.81
257.289	218.81
257.521	211.81
257.754	203.81
257.987	219.81
258.22	216.81
258.452	204.81
258.685	216.81
258.918	222.81
259.151	214.81
259.383	206.81
259.616	232.81
259.849	230.81
260.081	243.81
260.314	267.81
260.547	266.81
260.779	252.81
261.012	224.81
261.244	238.81
261.477	264.81
261.71	240.81
261.942	221.81
262.175	242.81
262.407	227.81
262.64	223.81
262.872	207.81
263.105	227.81
263.337	219.81
263.57	214.81
263.802	232.81
264.035	230.81
264.267	211.81
264.499	213.81
264.732	208.81
264.964	231.81
265.197	202.81
265.429	219.81
265.661	215.81
265.894	224.81
266.126	227.81
266.358	220.81
266.591	230.81
266.823	224.81
267.055	244.81
267.287	239.81
267.52	230.81
267.752	239.81
267.984	234.81
268.216	216.81
268.448	244.81
268.681	243.81
268.913	232.81
269.145	265.81
269.377	308.81
269.609	284.81
269.841	284.81
270.073	254.81
270.306	297.81
270.538	330.81
270.77	332.81
271.002	330.81
271.234	309.81
271.466	322.81
271.698	315.81
271.93	334.81
272.162	309.81
272.394	331.81
272.626	315.81
272.858	321.81
273.09	289.81
273.322	312.81
273.553	273.81
273.785	290.81
274.017	277.81
274.249	277.81
274.481	275.81
274.713	264.81
274.945	279.81
275.176	278.81
275.408	272.81
275.64	274.81
275.872	266.81
276.104	275.81
276.335	267.81
276.567	291.81
276.799	300.81
277.031	326.81
277.262	314.81
277.494	323.81
277.726	315.81
277.957	284.81
278.189	291.81
278.421	304.81
278.652	271.81
278.884	277.81
279.115	281.81
279.347	257.81
279.579	263.81
279.81	283.81
280.042	278.81
280.273	267.81
280.505	261.81
280.736	273.81
280.968	281.81
281.199	262.81
281.431	263.81
281.662	269.81
281.894	261.81
282.125	275.81
282.356	304.81
282.588	310.81
282.819	319.81
283.051	275.81
283.282	279.81
283.513	291.81
283.745	281.81
283.976	283.81
284.207	281.81
284.439	287.81
284.67	276.81
284.901	282.81
285.132	290.81
285.364	287.81
285.595	266.81
285.826	272.81
286.057	275.81
286.288	285.81
286.52	278.81
286.751	290.81
286.982	281.81
287.213	297.81
287.444	285.81
287.675	304.81
287.906	305.81
288.138	303.81
288.369	323.81
288.6	307.81
288.831	273.81
289.062	276.81
289.293	304.81
289.524	290.81
289.755	282.81
289.986	299.81
290.217	277.81
290.448	295.81
290.679	298.81
290.91	267.81
291.141	302.81
291.371	277.81
291.602	287.81
291.833	295.81
292.064	276.81
292.295	280.81
292.526	287.81
292.757	296.81
292.987	271.81
293.218	290.81
293.449	302.81
293.68	271.81
293.91	287.81
294.141	300.81
294.372	289.81
294.603	304.81
294.833	291.81
295.064	270.81
295.295	288.81
295.525	290.81
295.756	298.81
295.987	298.81
296.217	320.81
296.448	325.81
296.679	310.81
296.909	276.81
297.14	293.81
297.37	300.81
297.601	314.81
297.831	295.81
298.062	291.81
298.292	300.81
298.523	333.81
298.753	305.81
298.984	286.81
299.214	296.81
299.445	307.81
299.675	313.81
299.905	323.81
300.136	297.81
300.366	304.81
300.597	313.81
300.827	317.81
301.057	320.81
301.288	309.81
301.518	316.81
301.748	321.81
301.979	305.81
302.209	338.81
302.439	317.81
302.669	319.81
302.9	329.81
303.13	316.81
303.36	318.81
303.59	320.81
303.82	340.81
304.051	323.81
304.281	324.81
304.511	305.81
304.741	327.81
304.971	317.81
305.201	313.81
305.431	323.81
305.661	331.81
305.891	311.81
306.121	332.81
306.352	336.81
306.582	337.81
306.812	333.81
307.042	315.81
307.272	329.81
307.502	333.81
307.731	352.81
307.961	323.81
308.191	339.81
308.421	351.81
308.651	336.81
308.881	330.81
309.111	353.81
309.341	323.81
309.571	374.81
309.8	357.81
310.03	385.81
310.26	380.81
310.49	373.81
310.72	397.81
310.949	403.81
311.179	407.81
311.409	389.81
311.639	379.81
311.868	440.81
312.098	396.81
312.328	396.81
312.557	435.81
312.787	425.81
313.017	426.81
313.246	397.81
313.476	381.81
313.706	372.81
313.935	365.81
314.165	403.81
314.394	408.81
314.624	408.81
314.853	384.81
315.083	380.81
315.312	384.81
315.542	393.81
315.771	399.81
316.001	367.81
316.23	376.81
316.46	383.81
316.689	375.81
316.919	406.81
317.148	407.81
317.377	405.81
317.607	397.81
317.836	400.81
318.065	377.81
318.295	379.81
318.524	366.81
318.753	401.81
318.983	376.81
319.212	383.81
319.441	370.81
319.67	399.81
319.9	379.81
320.129	385.81
320.358	395.81
320.587	393.81
320.816	404.81
321.046	424.81
321.275	411.81
321.504	425.81
321.733	421.81
321.962	434.81
322.191	449.81
322.42	453.81
322.649	453.81
322.878	475.81
323.108	481.81
323.337	518.81
323.566	559.81
323.795	592.81
324.024	635.81
324.253	812.81
324.482	1139.81
324.71	1725.81
324.939	2407.81
325.168	2071.81
325.397	1093.81
325.626	741.81
325.855	627.81
326.084	574.81
326.313	556.81
326.542	543.81
326.77	623.81
326.999	751.81
327.228	1002.81
327.457	1517.81
327.686	1767.81
327.914	1194.81
328.143	793.81
328.372	677.81
328.6	649.81
328.829	605.81
329.058	620.81
329.287	618.81
329.515	582.81
329.744	563.81
329.972	531.81
330.201	562.81
330.43	594.81
330.658	623.81
330.887	642.81
331.115	601.81
331.344	551.81
331.572	501.81
331.801	513.81
332.03	486.81
332.258	479.81
332.486	472.81
332.715	452.81
332.943	442.81
333.172	460.81
333.4	434.81
333.629	433.81
333.857	480.81
334.085	485.81
334.314	478.81
334.542	517.81
334.771	525.81
334.999	507.81
335.227	444.81
335.455	451.81
335.684	452.81
335.912	415.81
336.14	429.81
336.369	421.81
336.597	432.81
336.825	428.81
337.053	435.81
337.281	438.81
337.51	425.81
337.738	426.81
337.966	438.81
338.194	434.81
338.422	450.81
338.65	422.81
338.878	431.81
339.106	407.81
339.334	405.81
339.562	408.81
339.79	420.81
340.018	418.81
340.246	417.81
340.474	428.81
340.702	410.81
340.93	435.81
341.158	427.81
341.386	406.81
341.614	443.81
341.842	436.81
342.07	422.81
342.298	417.81
342.526	402.81
342.754	403.81
342.981	406.81
343.209	391.81
343.437	397.81
343.665	414.81
343.893	409.81
344.12	403.81
344.348	422.81
344.576	421.81
344.804	423.81
345.031	434.81
345.259	431.81
345.487	409.81
345.714	433.81
345.942	418.81
346.17	441.81
346.397	425.81
346.625	413.81
346.853	420.81
347.08	414.81
347.308	401.81
347.535	428.81
347.763	429.81
347.99	413.81
348.218	424.81
348.445	451.81
348.673	424.81
348.9	404.81
349.128	398.81
349.355	384.81
349.583	407.81
349.81	402.81
350.037	372.81
350.265	357.81
350.492	373.81
350.72	414.81
350.947	408.81
351.174	409.81
351.402	407.81
351.629	427.81
351.856	421.81
352.083	406.81
352.311	425.81
352.538	415.81
352.765	428.81
352.992	395.81
353.22	410.81
353.447	400.81
353.674	402.81
353.901	376.81
354.128	356.81
354.355	368.81
354.583	368.81
354.81	364.81
355.037	371.81
355.264	375.81
355.491	364.81
355.718	369.81
355.945	361.81
356.172	363.81
356.399	384.81
356.626	335.81
356.853	366.81
357.08	375.81
357.307	367.81
357.534	348.81
357.761	383.81
357.988	367.81
358.215	364.81
358.441	377.81
358.668	363.81
358.895	369.81
359.122	365.81
359.349	391.81
359.576	407.81
359.802	447.81
360.029	436.81
360.256	465.81
360.483	428.81
360.709	401.81
360.936	389.81
361.163	421.81
361.39	401.81
361.616	394.81
361.843	412.81
362.07	393.81
362.296	404.81
362.523	392.81
362.749	380.81
362.976	382.81
363.203	383.81
363.429	385.81
363.656	378.81
363.882	354.81
364.109	389.81
364.335	357.81
364.562	367.81
364.788	346.81
365.015	361.81
365.241	367.81
365.468	367.81
365.694	380.81
365.92	367.81
366.147	385.81
366.373	373.81
366.599	374.81
366.826	359.81
367.052	372.81
367.278	359.81
367.505	364.81
367.731	363.81
367.957	379.81
368.184	387.81
368.41	385.81
368.636	378.81
368.862	392.81
369.089	376.81
369.315	367.81
369.541	375.81
369.767	381.81
369.993	361.81
370.219	370.81
370.445	369.81
370.672	354.81
370.898	353.81
371.124	372.81
371.35	362.81
371.576	371.81
371.802	361.81
372.028	350.81
372.254	343.81
372.48	345.81
372.706	348.81
372.932	375.81
373.158	351.81
373.384	341.81
373.61	360.81
373.835	367.81
374.061	360.81
374.287	359.81
374.513	372.81
374.739	347.81
374.965	347.81
375.191	368.81
375.416	357.81
375.642	364.81
375.868	356.81
376.094	352.81
376.319	347.81
376.545	346.81
376.771	344.81
376.997	356.81
377.222	348.81
377.448	345.81
377.674	354.81
377.899	356.81
378.125	339.81
378.35	340.81
378.576	344.81
378.802	343.81
379.027	344.81
379.253	349.81
379.478	348.81
379.704	381.81
379.929	355.81
380.155	371.81
380.38	358.81
380.606	364.81
380.831	341.81
381.057	355.81
381.282	368.81
381.507	348.81
381.733	327.81
381.958	372.81
382.184	368.81
382.409	359.81
382.634	356.81
382.86	369.81
383.085	380.81
383.31	369.81
383.535	371.81
383.761	354.81
383.986	355.81
384.211	359.81
384.436	364.81
384.662	362.81
384.887	367.81
385.112	348.81
385.337	343.81
385.562	373.81
385.787	370.81
386.013	383.81
386.238	376.81
386.463	379.81
386.688	347.81
386.913	373.81
387.138	358.81
387.363	371.81
387.588	365.81
387.813	375.81
388.038	357.81
388.263	365.81
388.488	341.81
388.713	369.81
388.938	375.81
389.163	367.81
389.387	361.81
389.612	373.81
389.837	362.81
390.062	357.81
390.287	363.81
390.512	354.81
390.736	355.81
390.961	369.81
391.186	371.81
391.411	354.81
391.636	357.81
391.86	370.81
392.085	381.81
392.31	387.81
392.534	379.81
392.759	354.81
392.984	356.81
393.208	375.81
393.433	375.81
393.658	346.81
393.882	372.81
394.107	373.81
394.331	376.81
394.556	389.81
394.78	359.81
395.005	387.81
395.229	347.81
395.454	361.81
395.678	390.81
395.903	396.81
396.127	407.81
396.352	415.81
396.576	361.81
396.801	379.81
397.025	388.81
397.249	356.81
397.474	383.81
397.698	393.81
397.922	405.81
398.147	414.81
398.371	404.81
398.595	398.81
398.82	386.81
399.044	406.81
399.268	393.81
399.492	399.81
399.717	450.81
399.941	436.81
400.165	493.81
400.389	502.81
400.613	463.81
400.837	418.81
401.062	434.81
401.286	415.81
401.51	424.81
401.734	412.81
401.958	400.81
402.182	420.81
402.406	435.81
402.63	421.81
402.854	389.81
403.078	403.81
403.302	427.81
403.526	421.81
403.75	431.81
403.974	425.81
404.198	414.81
404.422	397.81
404.645	427.81
404.869	443.81
405.093	492.81
405.317	482.81
405.541	512.81
405.765	477.81
405.988	460.81
406.212	455.81
406.436	492.81
406.66	496.81
406.883	478.81
407.107	472.81
407.331	506.81
407.555	580.81
407.778	580.81
408.002	527.81
408.226	447.81
408.449	473.81
408.673	462.81
408.896	469.81
409.12	519.81
409.344	495.81
409.567	443.81
409.791	425.81
410.014	405.81
410.238	418.81
410.461	419.81
410.685	434.81
410.908	440.81
411.132	471.81
411.355	510.81
411.578	496.81
411.802	467.81
412.025	409.81
412.249	408.81
412.472	437.81
412.695	469.81
412.919	458.81
413.142	441.81
413.365	428.81
413.589	398.81
413.812	385.81
414.035	393.81
414.258	380.81
414.482	405.81
414.705	393.81
414.928	387.81
415.151	372.81
415.374	390.81
415.597	382.81
415.821	394.81
416.044	386.81
416.267	404.81
416.49	400.81
416.713	392.81
416.936	370.81
417.159	401.81
417.382	397.81
417.605	391.81
417.828	427.81
418.051	410.81
418.274	423.81
418.497	415.81
418.72	409.81
418.943	388.81
419.166	403.81
419.389	401.81
419.611	424.81
419.834	407.81
420.057	450.81
420.28	420.81
420.503	415.81
420.726	424.81
420.948	448.81
421.171	480.81
421.394	473.81
421.617	467.81
421.839	437.81
422.062	425.81
422.285	418.81
422.507	500.81
422.73	571.81
422.953	521.81
423.175	449.81
423.398	447.81
423.621	425.81
423.843	437.81
424.066	451.81
424.288	467.81
424.511	484.81
424.733	519.81
424.956	597.81
425.178	563.81
425.401	572.81
425.623	604.81
425.846	506.81
426.068	467.81
426.291	450.81
426.513	466.81
426.735	493.81
426.958	524.81
427.18	588.81
427.402	695.81
427.625	788.81
427.847	702.81
428.069	587.81
428.292	536.81
428.514	467.81
428.736	409.81
428.958	465.81
429.181	438.81
429.403	427.81
429.625	455.81
429.847	465.81
430.069	539.81
430.292	555.81
430.514	455.81
430.736	449.81
430.958	417.81
431.18	405.81
431.402	417.81
431.624	382.81
431.846	391.81
432.068	390.81
432.29	386.81
432.512	378.81
432.734	395.81
432.956	421.81
433.178	404.81
433.4	411.81
433.622	412.81
433.844	408.81
434.066	387.81
434.287	388.81
434.509	412.81
434.731	383.81
434.953	393.81
435.175	426.81
435.397	442.81
435.618	461.81
435.84	514.81
436.062	575.81
436.284	618.81
436.505	543.81
436.727	473.81
436.949	444.81
437.17	434.81
437.392	445.81
437.614	451.81
437.835	489.81
438.057	585.81
438.278	675.81
438.5	671.81
438.721	708.81
438.943	654.81
439.165	543.81
439.386	489.81
439.608	496.81
439.829	479.81
440.05	499.81
440.272	538.81
440.493	511.81
440.715	448.81
440.936	439.81
441.158	428.81
441.379	444.81
441.6	448.81
441.822	475.81
442.043	503.81
442.264	561.81
442.486	607.81
442.707	545.81
442.928	485.81
443.149	483.81
443.371	491.81
443.592	531.81
443.813	636.81
444.034	648.81
444.255	564.81
444.476	499.81
444.698	456.81
444.919	460.81
445.14	588.81
445.361	524.81
445.582	512.81
445.803	578.81
446.024	671.81
446.245	681.81
446.466	623.81
446.687	524.81
446.908	479.81
447.129	455.81
447.35	451.81
447.571	431.81
447.792	423.81
448.013	432.81
448.234	481.81
448.455	514.81
448.675	597.81
448.896	699.81
449.117	580.81
449.338	554.81
449.559	639.81
449.779	733.81
450	589.81
450.221	496.81
450.442	441.81
450.662	426.81
450.883	438.81
451.104	433.81
451.324	461.81
451.545	414.81
451.766	417.81
451.986	394.81
452.207	403.81
452.428	381.81
452.648	385.81
452.869	384.81
453.089	387.81
453.31	431.81
453.53	401.81
453.751	407.81
453.971	415.81
454.192	408.81
454.412	398.81
454.633	389.81
454.853	370.81
455.073	364.81
455.294	416.81
455.514	472.81
455.734	467.81
455.955	388.81
456.175	384.81
456.395	368.81
456.616	355.81
456.836	362.81
457.056	367.81
457.276	333.81
457.497	365.81
457.717	360.81
457.937	358.81
458.157	358.81
458.377	372.81
458.598	412.81
458.818	460.81
459.038	537.81
459.258	553.81
459.478	460.81
459.698	439.81
459.918	394.81
460.138	396.81
460.358	386.81
460.578	380.81
460.798	400.81
461.018	411.81
461.238	409.81
461.458	403.81
461.678	370.81
461.898	396.81
462.118	389.81
462.338	379.81
462.558	391.81
462.777	402.81
462.997	406.81
463.217	402.81
463.437	405.81
463.657	397.81
463.876	393.81
464.096	422.81
464.316	397.81
464.536	404.81
464.755	408.81
464.975	419.81
465.195	468.81
465.414	552.81
465.634	480.81
465.854	433.81
466.073	439.81
466.293	407.81
466.512	410.81
466.732	380.81
466.951	376.81
467.171	371.81
467.391	400.81
467.61	397.81
467.829	412.81
468.049	398.81
468.268	404.81
468.488	385.81
468.707	356.81
468.927	375.81
469.146	358.81
469.365	357.81
469.585	377.81
469.804	369.81
470.023	395.81
470.243	384.81
470.462	404.81
470.681	440.81
470.901	417.81
471.12	392.81
471.339	379.81
471.558	385.81
471.777	379.81
471.997	377.81
472.216	393.81
472.435	423.81
472.654	409.81
472.873	399.81
473.092	405.81
473.311	383.81
473.53	395.81
473.749	400.81
473.968	443.81
474.187	564.81
474.406	538.81
474.625	471.81
474.844	420.81
475.063	410.81
475.282	427.81
475.501	395.81
475.72	397.81
475.939	410.81
476.158	395.81
476.377	428.81
476.596	407.81
476.814	408.81
477.033	404.81
477.252	416.81
477.471	410.81
477.69	424.81
477.908	419.81
478.127	412.81
478.346	401.81
478.564	440.81
478.783	418.81
479.002	438.81
479.22	436.81
479.439	468.81
479.658	481.81
479.876	500.81
480.095	473.81
480.313	485.81
480.532	488.81
480.751	471.81
480.969	487.81
481.188	539.81
481.406	587.81
481.624	503.81
481.843	474.81
482.061	459.81
482.28	470.81
482.498	438.81
482.717	444.81
482.935	451.81
483.153	467.81
483.372	458.81
483.59	469.81
483.808	459.81
484.027	447.81
484.245	465.81
484.463	455.81
484.681	467.81
484.9	450.81
485.118	459.81
485.336	468.81
485.554	480.81
485.772	459.81
485.99	475.81
486.209	464.81
486.427	497.81
486.645	477.81
486.863	513.81
487.081	505.81
487.299	481.81
487.517	490.81
487.735	493.81
487.953	486.81
488.171	509.81
488.389	506.81
488.607	501.81
488.825	488.81
489.043	490.81
489.261	508.81
489.479	519.81
489.696	512.81
489.914	502.81
490.132	515.81
490.35	495.81
490.568	510.81
490.786	535.81
491.003	542.81
491.221	553.81
491.439	551.81
491.657	556.81
491.874	559.81
492.092	563.81
492.31	563.81
492.527	584.81
492.745	562.81
492.963	583.81
493.18	553.81
493.398	583.81
493.615	576.81
493.833	580.81
494.05	572.81
494.268	573.81
494.485	598.81
494.703	581.81
494.92	579.81
495.138	577.81
495.355	576.81
495.573	592.81
495.79	588.81
496.008	583.81
496.225	577.81
496.442	583.81
496.66	583.81
496.877	575.81
497.094	581.81
497.312	595.81
497.529	625.81
497.746	636.81
497.963	593.81
498.181	645.81
498.398	641.81
498.615	615.81
498.832	646.81
499.049	635.81
499.267	648.81
499.484	651.81
499.701	670.81
499.918	673.81
500.135	701.81
500.352	716.81
500.569	723.81
500.786	727.81
501.003	717.81
501.22	731.81
501.437	714.81
501.654	691.81
501.871	723.81
