Data from 1981.PennyLincolnUp.Lamp.En5.5.200Scan.071819.P1_HRD10591_16-41-37-959.txt Node
Date: Thu Jul 18 16:41:37 EDT 2019
User: cochatt
Spectrometer: HR+D1059
Trigger mode: 1
Integration Time (sec): 1.000000E-1
Scans to average: 1
Electric dark correction enabled: true
Nonlinearity correction enabled: false
Boxcar width: 0
XAxis mode: Wavelengths
Number of Pixels in Spectrum: 2048
>>>>>Begin Spectral Data<<<<<
223.165	-13.25
223.4	-13.25
223.635	-13.25
223.869	-20.25
224.104	-15.25
224.338	-20.25
224.573	-16.25
224.808	-6.25
225.042	-7.25
225.277	6.75
225.511	3.75
225.746	-12.25
225.98	4.75
226.215	11.75
226.449	17.75
226.683	22.75
226.918	13.75
227.152	29.75
227.387	38.75
227.621	35.75
227.856	29.75
228.09	37.75
228.324	38.75
228.559	59.75
228.793	72.75
229.027	95.75
229.262	111.75
229.496	124.75
229.73	142.75
229.964	153.75
230.199	127.75
230.433	105.75
230.667	100.75
230.901	108.75
231.136	124.75
231.37	104.75
231.604	116.75
231.838	101.75
232.072	119.75
232.306	113.75
232.541	109.75
232.775	102.75
233.009	113.75
233.243	117.75
233.477	105.75
233.711	127.75
233.945	118.75
234.179	117.75
234.413	115.75
234.647	116.75
234.881	96.75
235.115	115.75
235.349	125.75
235.583	125.75
235.817	126.75
236.051	136.75
236.285	126.75
236.519	109.75
236.753	133.75
236.987	155.75
237.221	169.75
237.455	239.75
237.689	190.75
237.922	156.75
238.156	143.75
238.39	139.75
238.624	131.75
238.858	136.75
239.091	133.75
239.325	126.75
239.559	128.75
239.793	129.75
240.027	132.75
240.26	137.75
240.494	165.75
240.728	142.75
240.961	147.75
241.195	173.75
241.429	144.75
241.662	133.75
241.896	133.75
242.13	126.75
242.363	141.75
242.597	146.75
242.83	136.75
243.064	134.75
243.298	149.75
243.531	135.75
243.765	129.75
243.998	131.75
244.232	132.75
244.465	137.75
244.699	148.75
244.932	156.75
245.166	146.75
245.399	148.75
245.633	147.75
245.866	147.75
246.099	161.75
246.333	127.75
246.566	159.75
246.8	151.75
247.033	154.75
247.266	169.75
247.5	181.75
247.733	182.75
247.966	166.75
248.2	161.75
248.433	169.75
248.666	182.75
248.899	211.75
249.133	212.75
249.366	211.75
249.599	209.75
249.832	172.75
250.066	195.75
250.299	174.75
250.532	197.75
250.765	204.75
250.998	225.75
251.231	247.75
251.465	215.75
251.698	222.75
251.931	217.75
252.164	203.75
252.397	203.75
252.63	198.75
252.863	219.75
253.096	234.75
253.329	257.75
253.562	234.75
253.795	215.75
254.028	220.75
254.261	229.75
254.494	228.75
254.727	266.75
254.96	295.75
255.193	309.75
255.426	271.75
255.659	243.75
255.892	247.75
256.124	258.75
256.357	231.75
256.59	229.75
256.823	233.75
257.056	227.75
257.289	220.75
257.521	231.75
257.754	213.75
257.987	213.75
258.22	215.75
258.452	217.75
258.685	212.75
258.918	216.75
259.151	212.75
259.383	244.75
259.616	235.75
259.849	217.75
260.081	255.75
260.314	262.75
260.547	268.75
260.779	256.75
261.012	242.75
261.244	232.75
261.477	243.75
261.71	250.75
261.942	233.75
262.175	241.75
262.407	255.75
262.64	237.75
262.872	228.75
263.105	225.75
263.337	239.75
263.57	214.75
263.802	220.75
264.035	240.75
264.267	222.75
264.499	207.75
264.732	216.75
264.964	201.75
265.197	222.75
265.429	225.75
265.661	227.75
265.894	220.75
266.126	243.75
266.358	221.75
266.591	230.75
266.823	220.75
267.055	229.75
267.287	215.75
267.52	226.75
267.752	225.75
267.984	230.75
268.216	236.75
268.448	241.75
268.681	243.75
268.913	267.75
269.145	273.75
269.377	274.75
269.609	282.75
269.841	303.75
270.073	278.75
270.306	311.75
270.538	333.75
270.77	325.75
271.002	335.75
271.234	300.75
271.466	313.75
271.698	314.75
271.93	335.75
272.162	334.75
272.394	338.75
272.626	323.75
272.858	293.75
273.09	293.75
273.322	297.75
273.553	297.75
273.785	276.75
274.017	289.75
274.249	279.75
274.481	278.75
274.713	278.75
274.945	281.75
275.176	307.75
275.408	283.75
275.64	293.75
275.872	289.75
276.104	283.75
276.335	261.75
276.567	269.75
276.799	293.75
277.031	317.75
277.262	326.75
277.494	328.75
277.726	321.75
277.957	294.75
278.189	301.75
278.421	270.75
278.652	295.75
278.884	277.75
279.115	269.75
279.347	283.75
279.579	257.75
279.81	284.75
280.042	297.75
280.273	273.75
280.505	270.75
280.736	257.75
280.968	270.75
281.199	295.75
281.431	281.75
281.662	275.75
281.894	275.75
282.125	278.75
282.356	297.75
282.588	317.75
282.819	312.75
283.051	287.75
283.282	278.75
283.513	290.75
283.745	299.75
283.976	292.75
284.207	296.75
284.439	290.75
284.67	292.75
284.901	284.75
285.132	295.75
285.364	284.75
285.595	283.75
285.826	286.75
286.057	280.75
286.288	258.75
286.52	281.75
286.751	294.75
286.982	278.75
287.213	286.75
287.444	302.75
287.675	307.75
287.906	302.75
288.138	302.75
288.369	301.75
288.6	296.75
288.831	317.75
289.062	279.75
289.293	297.75
289.524	290.75
289.755	294.75
289.986	289.75
290.217	284.75
290.448	289.75
290.679	293.75
290.91	276.75
291.141	270.75
291.371	283.75
291.602	279.75
291.833	284.75
292.064	278.75
292.295	307.75
292.526	283.75
292.757	285.75
292.987	278.75
293.218	289.75
293.449	292.75
293.68	306.75
293.91	287.75
294.141	296.75
294.372	290.75
294.603	295.75
294.833	285.75
295.064	290.75
295.295	291.75
295.525	300.75
295.756	301.75
295.987	300.75
296.217	329.75
296.448	340.75
296.679	297.75
296.909	302.75
297.14	296.75
297.37	296.75
297.601	289.75
297.831	294.75
298.062	292.75
298.292	289.75
298.523	306.75
298.753	300.75
298.984	302.75
299.214	301.75
299.445	326.75
299.675	313.75
299.905	307.75
300.136	314.75
300.366	329.75
300.597	286.75
300.827	311.75
301.057	344.75
301.288	333.75
301.518	297.75
301.748	299.75
301.979	325.75
302.209	320.75
302.439	309.75
302.669	321.75
302.9	318.75
303.13	339.75
303.36	325.75
303.59	317.75
303.82	340.75
304.051	342.75
304.281	311.75
304.511	320.75
304.741	321.75
304.971	310.75
305.201	323.75
305.431	343.75
305.661	328.75
305.891	341.75
306.121	341.75
306.352	332.75
306.582	333.75
306.812	323.75
307.042	331.75
307.272	341.75
307.502	338.75
307.731	336.75
307.961	337.75
308.191	333.75
308.421	348.75
308.651	331.75
308.881	326.75
309.111	345.75
309.341	354.75
309.571	362.75
309.8	377.75
310.03	379.75
310.26	397.75
310.49	389.75
310.72	389.75
310.949	389.75
311.179	404.75
311.409	425.75
311.639	394.75
311.868	390.75
312.098	405.75
312.328	381.75
312.557	413.75
312.787	425.75
313.017	422.75
313.246	402.75
313.476	397.75
313.706	384.75
313.935	390.75
314.165	419.75
314.394	412.75
314.624	403.75
314.853	416.75
315.083	390.75
315.312	398.75
315.542	388.75
315.771	375.75
316.001	368.75
316.23	384.75
316.46	391.75
316.689	389.75
316.919	382.75
317.148	382.75
317.377	400.75
317.607	405.75
317.836	389.75
318.065	376.75
318.295	392.75
318.524	389.75
318.753	391.75
318.983	379.75
319.212	395.75
319.441	402.75
319.67	397.75
319.9	382.75
320.129	395.75
320.358	400.75
320.587	393.75
320.816	407.75
321.046	401.75
321.275	409.75
321.504	415.75
321.733	401.75
321.962	403.75
322.191	430.75
322.42	445.75
322.649	480.75
322.878	469.75
323.108	501.75
323.337	503.75
323.566	553.75
323.795	561.75
324.024	630.75
324.253	838.75
324.482	1156.75
324.71	1796.75
324.939	2437.75
325.168	2081.75
325.397	1092.75
325.626	735.75
325.855	614.75
326.084	573.75
326.313	542.75
326.542	540.75
326.77	614.75
326.999	718.75
327.228	1030.75
327.457	1501.75
327.686	1772.75
327.914	1208.75
328.143	777.75
328.372	682.75
328.6	637.75
328.829	599.75
329.058	620.75
329.287	625.75
329.515	579.75
329.744	546.75
329.972	553.75
330.201	578.75
330.43	602.75
330.658	641.75
330.887	651.75
331.115	630.75
331.344	554.75
331.572	511.75
331.801	509.75
332.03	497.75
332.258	487.75
332.486	453.75
332.715	451.75
332.943	428.75
333.172	443.75
333.4	453.75
333.629	447.75
333.857	474.75
334.085	479.75
334.314	507.75
334.542	529.75
334.771	524.75
334.999	498.75
335.227	478.75
335.455	469.75
335.684	442.75
335.912	454.75
336.14	433.75
336.369	455.75
336.597	452.75
336.825	434.75
337.053	458.75
337.281	422.75
337.51	430.75
337.738	427.75
337.966	430.75
338.194	435.75
338.422	426.75
338.65	435.75
338.878	420.75
339.106	424.75
339.334	418.75
339.562	427.75
339.79	415.75
340.018	439.75
340.246	413.75
340.474	441.75
340.702	417.75
340.93	422.75
341.158	404.75
341.386	404.75
341.614	427.75
341.842	417.75
342.07	396.75
342.298	394.75
342.526	409.75
342.754	392.75
342.981	417.75
343.209	411.75
343.437	428.75
343.665	417.75
343.893	406.75
344.12	423.75
344.348	430.75
344.576	415.75
344.804	438.75
345.031	437.75
345.259	436.75
345.487	429.75
345.714	407.75
345.942	428.75
346.17	410.75
346.397	416.75
346.625	394.75
346.853	417.75
347.08	397.75
347.308	393.75
347.535	416.75
347.763	436.75
347.99	419.75
348.218	423.75
348.445	403.75
348.673	412.75
348.9	421.75
349.128	398.75
349.355	395.75
349.583	395.75
349.81	387.75
350.037	401.75
350.265	379.75
350.492	393.75
350.72	377.75
350.947	424.75
351.174	406.75
351.402	413.75
351.629	408.75
351.856	411.75
352.083	444.75
352.311	441.75
352.538	437.75
352.765	421.75
352.992	429.75
353.22	401.75
353.447	404.75
353.674	385.75
353.901	358.75
354.128	391.75
354.355	383.75
354.583	385.75
354.81	377.75
355.037	361.75
355.264	369.75
355.491	359.75
355.718	364.75
355.945	364.75
356.172	359.75
356.399	350.75
356.626	375.75
356.853	369.75
357.08	374.75
357.307	373.75
357.534	351.75
357.761	372.75
357.988	366.75
358.215	374.75
358.441	362.75
358.668	364.75
358.895	393.75
359.122	406.75
359.349	398.75
359.576	392.75
359.802	436.75
360.029	457.75
360.256	460.75
360.483	446.75
360.709	399.75
360.936	396.75
361.163	400.75
361.39	407.75
361.616	405.75
361.843	405.75
362.07	389.75
362.296	432.75
362.523	399.75
362.749	389.75
362.976	375.75
363.203	380.75
363.429	373.75
363.656	406.75
363.882	378.75
364.109	376.75
364.335	376.75
364.562	395.75
364.788	382.75
365.015	379.75
365.241	374.75
365.468	385.75
365.694	387.75
365.92	381.75
366.147	387.75
366.373	358.75
366.599	383.75
366.826	369.75
367.052	373.75
367.278	375.75
367.505	351.75
367.731	393.75
367.957	371.75
368.184	373.75
368.41	374.75
368.636	362.75
368.862	378.75
369.089	384.75
369.315	369.75
369.541	381.75
369.767	370.75
369.993	371.75
370.219	357.75
370.445	387.75
370.672	365.75
370.898	352.75
371.124	368.75
371.35	327.75
371.576	366.75
371.802	345.75
372.028	369.75
372.254	367.75
372.48	358.75
372.706	366.75
372.932	356.75
373.158	350.75
373.384	377.75
373.61	354.75
373.835	385.75
374.061	360.75
374.287	374.75
374.513	374.75
374.739	343.75
374.965	358.75
375.191	375.75
375.416	369.75
375.642	351.75
375.868	359.75
376.094	335.75
376.319	351.75
376.545	349.75
376.771	349.75
376.997	353.75
377.222	356.75
377.448	366.75
377.674	366.75
377.899	342.75
378.125	358.75
378.35	356.75
378.576	347.75
378.802	337.75
379.027	359.75
379.253	353.75
379.478	376.75
379.704	361.75
379.929	361.75
380.155	354.75
380.38	358.75
380.606	361.75
380.831	357.75
381.057	351.75
381.282	333.75
381.507	368.75
381.733	355.75
381.958	342.75
382.184	356.75
382.409	348.75
382.634	363.75
382.86	349.75
383.085	350.75
383.31	366.75
383.535	372.75
383.761	333.75
383.986	356.75
384.211	378.75
384.436	338.75
384.662	363.75
384.887	359.75
385.112	366.75
385.337	367.75
385.562	366.75
385.787	371.75
386.013	367.75
386.238	372.75
386.463	370.75
386.688	359.75
386.913	364.75
387.138	360.75
387.363	378.75
387.588	351.75
387.813	370.75
388.038	389.75
388.263	379.75
388.488	370.75
388.713	385.75
388.938	379.75
389.163	375.75
389.387	369.75
389.612	375.75
389.837	373.75
390.062	381.75
390.287	376.75
390.512	359.75
390.736	347.75
390.961	378.75
391.186	370.75
391.411	359.75
391.636	371.75
391.86	377.75
392.085	362.75
392.31	364.75
392.534	375.75
392.759	390.75
392.984	371.75
393.208	364.75
393.433	361.75
393.658	364.75
393.882	355.75
394.107	357.75
394.331	360.75
394.556	371.75
394.78	373.75
395.005	388.75
395.229	369.75
395.454	373.75
395.678	386.75
395.903	364.75
396.127	377.75
396.352	403.75
396.576	394.75
396.801	378.75
397.025	361.75
397.249	377.75
397.474	378.75
397.698	388.75
397.922	399.75
398.147	412.75
398.371	413.75
398.595	391.75
398.82	390.75
399.044	412.75
399.268	423.75
399.492	439.75
399.717	447.75
399.941	460.75
400.165	491.75
400.389	505.75
400.613	480.75
400.837	426.75
401.062	433.75
401.286	417.75
401.51	416.75
401.734	403.75
401.958	409.75
402.182	441.75
402.406	420.75
402.63	403.75
402.854	399.75
403.078	413.75
403.302	421.75
403.526	439.75
403.75	428.75
403.974	436.75
404.198	427.75
404.422	428.75
404.645	417.75
404.869	430.75
405.093	478.75
405.317	478.75
405.541	500.75
405.765	469.75
405.988	454.75
406.212	455.75
406.436	489.75
406.66	486.75
406.883	471.75
407.107	502.75
407.331	531.75
407.555	541.75
407.778	565.75
408.002	514.75
408.226	469.75
408.449	485.75
408.673	471.75
408.896	480.75
409.12	539.75
409.344	499.75
409.567	431.75
409.791	448.75
410.014	420.75
410.238	427.75
410.461	409.75
410.685	419.75
410.908	435.75
411.132	469.75
411.355	498.75
411.578	479.75
411.802	458.75
412.025	419.75
412.249	454.75
412.472	434.75
412.695	485.75
412.919	467.75
413.142	432.75
413.365	417.75
413.589	402.75
413.812	388.75
414.035	411.75
414.258	426.75
414.482	399.75
414.705	407.75
414.928	404.75
415.151	393.75
415.374	379.75
415.597	385.75
415.821	385.75
416.044	402.75
416.267	398.75
416.49	405.75
416.713	409.75
416.936	386.75
417.159	393.75
417.382	411.75
417.605	403.75
417.828	413.75
418.051	424.75
418.274	413.75
418.497	382.75
418.72	403.75
418.943	405.75
419.166	393.75
419.389	428.75
419.611	418.75
419.834	413.75
420.057	415.75
420.28	419.75
420.503	420.75
420.726	414.75
420.948	440.75
421.171	470.75
421.394	498.75
421.617	439.75
421.839	445.75
422.062	441.75
422.285	440.75
422.507	493.75
422.73	563.75
422.953	540.75
423.175	471.75
423.398	451.75
423.621	447.75
423.843	458.75
424.066	453.75
424.288	457.75
424.511	459.75
424.733	506.75
424.956	605.75
425.178	576.75
425.401	565.75
425.623	583.75
425.846	526.75
426.068	473.75
426.291	442.75
426.513	461.75
426.735	481.75
426.958	536.75
427.18	596.75
427.402	669.75
427.625	755.75
427.847	694.75
428.069	577.75
428.292	519.75
428.514	487.75
428.736	470.75
428.958	468.75
429.181	470.75
429.403	441.75
429.625	449.75
429.847	456.75
430.069	536.75
430.292	533.75
430.514	432.75
430.736	444.75
430.958	425.75
431.18	407.75
431.402	417.75
431.624	396.75
431.846	403.75
432.068	419.75
432.29	412.75
432.512	393.75
432.734	398.75
432.956	406.75
433.178	438.75
433.4	430.75
433.622	403.75
433.844	388.75
434.066	399.75
434.287	377.75
434.509	392.75
434.731	403.75
434.953	403.75
435.175	445.75
435.397	447.75
435.618	468.75
435.84	533.75
436.062	595.75
436.284	650.75
436.505	545.75
436.727	483.75
436.949	458.75
437.17	438.75
437.392	425.75
437.614	453.75
437.835	486.75
438.057	570.75
438.278	683.75
438.5	673.75
438.721	712.75
438.943	675.75
439.165	541.75
439.386	506.75
439.608	489.75
439.829	472.75
440.05	509.75
440.272	559.75
440.493	533.75
440.715	485.75
440.936	460.75
441.158	454.75
441.379	426.75
441.6	440.75
441.822	473.75
442.043	494.75
442.264	574.75
442.486	607.75
442.707	527.75
442.928	482.75
443.149	494.75
443.371	519.75
443.592	549.75
443.813	626.75
444.034	641.75
444.255	553.75
444.476	492.75
444.698	456.75
444.919	462.75
445.14	581.75
445.361	517.75
445.582	523.75
445.803	565.75
446.024	649.75
446.245	659.75
446.466	625.75
446.687	514.75
446.908	478.75
447.129	459.75
447.35	457.75
447.571	431.75
447.792	417.75
448.013	445.75
448.234	470.75
448.455	537.75
448.675	633.75
448.896	681.75
449.117	603.75
449.338	583.75
449.559	655.75
449.779	741.75
450	562.75
450.221	483.75
450.442	458.75
450.662	433.75
450.883	431.75
451.104	455.75
451.324	436.75
451.545	413.75
451.766	405.75
451.986	397.75
452.207	389.75
452.428	392.75
452.648	384.75
452.869	370.75
453.089	394.75
453.31	431.75
453.53	395.75
453.751	394.75
453.971	402.75
454.192	403.75
454.412	402.75
454.633	396.75
454.853	378.75
455.073	397.75
455.294	405.75
455.514	475.75
455.734	460.75
455.955	397.75
456.175	383.75
456.395	354.75
456.616	367.75
456.836	361.75
457.056	346.75
457.276	364.75
457.497	362.75
457.717	358.75
457.937	378.75
458.157	374.75
458.377	376.75
458.598	407.75
458.818	461.75
459.038	541.75
459.258	549.75
459.478	484.75
459.698	405.75
459.918	384.75
460.138	395.75
460.358	395.75
460.578	380.75
460.798	400.75
461.018	393.75
461.238	383.75
461.458	397.75
461.678	386.75
461.898	384.75
462.118	389.75
462.338	395.75
462.558	415.75
462.777	412.75
462.997	398.75
463.217	417.75
463.437	424.75
463.657	414.75
463.876	421.75
464.096	438.75
464.316	414.75
464.536	415.75
464.755	420.75
464.975	431.75
465.195	475.75
465.414	545.75
465.634	477.75
465.854	447.75
466.073	412.75
466.293	393.75
466.512	405.75
466.732	415.75
466.951	401.75
467.171	394.75
467.391	389.75
467.61	386.75
467.829	396.75
468.049	387.75
468.268	397.75
468.488	402.75
468.707	385.75
468.927	387.75
469.146	381.75
469.365	378.75
469.585	373.75
469.804	399.75
470.023	396.75
470.243	387.75
470.462	389.75
470.681	403.75
470.901	415.75
471.12	401.75
471.339	424.75
471.558	391.75
471.777	409.75
471.997	393.75
472.216	412.75
472.435	442.75
472.654	418.75
472.873	389.75
473.092	398.75
473.311	394.75
473.53	408.75
473.749	389.75
473.968	468.75
474.187	565.75
474.406	571.75
474.625	446.75
474.844	422.75
475.063	394.75
475.282	408.75
475.501	387.75
475.72	406.75
475.939	408.75
476.158	412.75
476.377	409.75
476.596	399.75
476.814	421.75
477.033	417.75
477.252	425.75
477.471	408.75
477.69	414.75
477.908	425.75
478.127	411.75
478.346	399.75
478.564	417.75
478.783	449.75
479.002	435.75
479.22	449.75
479.439	450.75
479.658	488.75
479.876	492.75
480.095	466.75
480.313	500.75
480.532	482.75
480.751	486.75
480.969	499.75
481.188	542.75
481.406	561.75
481.624	500.75
481.843	477.75
482.061	465.75
482.28	469.75
482.498	454.75
482.717	458.75
482.935	454.75
483.153	456.75
483.372	466.75
483.59	470.75
483.808	478.75
484.027	472.75
484.245	482.75
484.463	471.75
484.681	477.75
484.9	482.75
485.118	467.75
485.336	492.75
485.554	470.75
485.772	472.75
485.99	469.75
486.209	471.75
486.427	481.75
486.645	492.75
486.863	498.75
487.081	525.75
487.299	482.75
487.517	515.75
487.735	503.75
487.953	493.75
488.171	497.75
488.389	491.75
488.607	513.75
488.825	524.75
489.043	493.75
489.261	500.75
489.479	502.75
489.696	490.75
489.914	513.75
490.132	499.75
490.35	517.75
490.568	525.75
490.786	535.75
491.003	516.75
491.221	536.75
491.439	527.75
491.657	545.75
491.874	576.75
492.092	556.75
492.31	590.75
492.527	583.75
492.745	580.75
492.963	564.75
493.18	570.75
493.398	592.75
493.615	580.75
493.833	589.75
494.05	579.75
494.268	596.75
494.485	574.75
494.703	585.75
494.92	595.75
495.138	583.75
495.355	595.75
495.573	595.75
495.79	619.75
496.008	591.75
496.225	587.75
496.442	578.75
496.66	589.75
496.877	578.75
497.094	579.75
497.312	569.75
497.529	589.75
497.746	576.75
497.963	597.75
498.181	634.75
498.398	617.75
498.615	645.75
498.832	635.75
499.049	639.75
499.267	665.75
499.484	663.75
499.701	677.75
499.918	689.75
500.135	709.75
500.352	739.75
500.569	732.75
500.786	730.75
501.003	726.75
501.22	723.75
501.437	733.75
501.654	703.75
501.871	730.75
