Data from 1981.PennyLincolnUp.Lamp.En5.5.200Scan.071819.P1_HRD10591_16-41-08-961.txt Node
Date: Thu Jul 18 16:41:08 EDT 2019
User: cochatt
Spectrometer: HR+D1059
Trigger mode: 1
Integration Time (sec): 1.000000E-1
Scans to average: 1
Electric dark correction enabled: true
Nonlinearity correction enabled: false
Boxcar width: 0
XAxis mode: Wavelengths
Number of Pixels in Spectrum: 2048
>>>>>Begin Spectral Data<<<<<
223.165	-19.38
223.4	-19.38
223.635	-19.38
223.869	-9.38
224.104	-13.38
224.338	-17.38
224.573	-26.38
224.808	-12.38
225.042	-6.38
225.277	-6.38
225.511	4.62
225.746	2.62
225.98	10.62
226.215	13.62
226.449	8.62
226.683	20.62
226.918	22.62
227.152	27.62
227.387	20.62
227.621	31.62
227.856	37.62
228.09	55.62
228.324	51.62
228.559	51.62
228.793	50.62
229.027	87.62
229.262	104.62
229.496	116.62
229.73	130.62
229.964	143.62
230.199	124.62
230.433	102.62
230.667	119.62
230.901	109.62
231.136	114.62
231.37	116.62
231.604	116.62
231.838	121.62
232.072	122.62
232.306	112.62
232.541	90.62
232.775	115.62
233.009	109.62
233.243	116.62
233.477	124.62
233.711	117.62
233.945	120.62
234.179	119.62
234.413	100.62
234.647	108.62
234.881	107.62
235.115	117.62
235.349	98.62
235.583	130.62
235.817	102.62
236.051	121.62
236.285	122.62
236.519	128.62
236.753	126.62
236.987	137.62
237.221	180.62
237.455	218.62
237.689	186.62
237.922	132.62
238.156	126.62
238.39	140.62
238.624	134.62
238.858	112.62
239.091	112.62
239.325	114.62
239.559	129.62
239.793	119.62
240.027	134.62
240.26	131.62
240.494	157.62
240.728	134.62
240.961	142.62
241.195	140.62
241.429	132.62
241.662	124.62
241.896	139.62
242.13	126.62
242.363	132.62
242.597	131.62
242.83	134.62
243.064	126.62
243.298	136.62
243.531	126.62
243.765	154.62
243.998	133.62
244.232	136.62
244.465	143.62
244.699	135.62
244.932	124.62
245.166	132.62
245.399	145.62
245.633	121.62
245.866	142.62
246.099	130.62
246.333	124.62
246.566	155.62
246.8	142.62
247.033	147.62
247.266	155.62
247.5	151.62
247.733	171.62
247.966	166.62
248.2	159.62
248.433	169.62
248.666	154.62
248.899	176.62
249.133	188.62
249.366	219.62
249.599	188.62
249.832	200.62
250.066	168.62
250.299	160.62
250.532	183.62
250.765	205.62
250.998	212.62
251.231	229.62
251.465	206.62
251.698	211.62
251.931	210.62
252.164	196.62
252.397	195.62
252.63	192.62
252.863	218.62
253.096	214.62
253.329	224.62
253.562	221.62
253.795	233.62
254.028	210.62
254.261	209.62
254.494	219.62
254.727	248.62
254.96	270.62
255.193	264.62
255.426	245.62
255.659	226.62
255.892	224.62
256.124	212.62
256.357	218.62
256.59	225.62
256.823	205.62
257.056	202.62
257.289	225.62
257.521	210.62
257.754	210.62
257.987	213.62
258.22	205.62
258.452	194.62
258.685	208.62
258.918	207.62
259.151	212.62
259.383	214.62
259.616	244.62
259.849	200.62
260.081	236.62
260.314	244.62
260.547	256.62
260.779	228.62
261.012	249.62
261.244	228.62
261.477	218.62
261.71	232.62
261.942	227.62
262.175	243.62
262.407	242.62
262.64	235.62
262.872	230.62
263.105	218.62
263.337	207.62
263.57	212.62
263.802	212.62
264.035	204.62
264.267	219.62
264.499	199.62
264.732	217.62
264.964	223.62
265.197	208.62
265.429	204.62
265.661	206.62
265.894	217.62
266.126	212.62
266.358	212.62
266.591	200.62
266.823	206.62
267.055	223.62
267.287	220.62
267.52	207.62
267.752	221.62
267.984	220.62
268.216	227.62
268.448	227.62
268.681	213.62
268.913	233.62
269.145	240.62
269.377	261.62
269.609	269.62
269.841	260.62
270.073	260.62
270.306	286.62
270.538	315.62
270.77	309.62
271.002	307.62
271.234	286.62
271.466	298.62
271.698	281.62
271.93	311.62
272.162	296.62
272.394	319.62
272.626	280.62
272.858	299.62
273.09	300.62
273.322	256.62
273.553	270.62
273.785	250.62
274.017	269.62
274.249	262.62
274.481	264.62
274.713	253.62
274.945	251.62
275.176	261.62
275.408	265.62
275.64	235.62
275.872	283.62
276.104	237.62
276.335	256.62
276.567	270.62
276.799	272.62
277.031	274.62
277.262	309.62
277.494	304.62
277.726	318.62
277.957	289.62
278.189	260.62
278.421	254.62
278.652	272.62
278.884	266.62
279.115	260.62
279.347	259.62
279.579	265.62
279.81	246.62
280.042	254.62
280.273	250.62
280.505	251.62
280.736	242.62
280.968	270.62
281.199	246.62
281.431	267.62
281.662	235.62
281.894	261.62
282.125	256.62
282.356	290.62
282.588	303.62
282.819	296.62
283.051	299.62
283.282	257.62
283.513	256.62
283.745	248.62
283.976	286.62
284.207	261.62
284.439	297.62
284.67	274.62
284.901	269.62
285.132	250.62
285.364	274.62
285.595	270.62
285.826	282.62
286.057	265.62
286.288	261.62
286.52	254.62
286.751	254.62
286.982	273.62
287.213	274.62
287.444	269.62
287.675	292.62
287.906	287.62
288.138	284.62
288.369	290.62
288.6	289.62
288.831	275.62
289.062	280.62
289.293	288.62
289.524	291.62
289.755	276.62
289.986	267.62
290.217	266.62
290.448	261.62
290.679	269.62
290.91	267.62
291.141	282.62
291.371	276.62
291.602	266.62
291.833	281.62
292.064	278.62
292.295	283.62
292.526	268.62
292.757	279.62
292.987	278.62
293.218	251.62
293.449	274.62
293.68	279.62
293.91	266.62
294.141	284.62
294.372	277.62
294.603	281.62
294.833	275.62
295.064	283.62
295.295	276.62
295.525	284.62
295.756	277.62
295.987	288.62
296.217	304.62
296.448	315.62
296.679	305.62
296.909	294.62
297.14	282.62
297.37	301.62
297.601	271.62
297.831	280.62
298.062	290.62
298.292	294.62
298.523	296.62
298.753	286.62
298.984	270.62
299.214	279.62
299.445	294.62
299.675	307.62
299.905	293.62
300.136	310.62
300.366	295.62
300.597	296.62
300.827	306.62
301.057	299.62
301.288	310.62
301.518	320.62
301.748	296.62
301.979	309.62
302.209	293.62
302.439	308.62
302.669	301.62
302.9	295.62
303.13	304.62
303.36	296.62
303.59	315.62
303.82	312.62
304.051	324.62
304.281	314.62
304.511	305.62
304.741	311.62
304.971	294.62
305.201	302.62
305.431	281.62
305.661	316.62
305.891	324.62
306.121	311.62
306.352	310.62
306.582	323.62
306.812	307.62
307.042	308.62
307.272	307.62
307.502	312.62
307.731	298.62
307.961	310.62
308.191	314.62
308.421	298.62
308.651	322.62
308.881	330.62
309.111	339.62
309.341	310.62
309.571	323.62
309.8	348.62
310.03	353.62
310.26	362.62
310.49	334.62
310.72	380.62
310.949	403.62
311.179	404.62
311.409	365.62
311.639	356.62
311.868	375.62
312.098	370.62
312.328	356.62
312.557	380.62
312.787	399.62
313.017	377.62
313.246	384.62
313.476	356.62
313.706	349.62
313.935	381.62
314.165	396.62
314.394	378.62
314.624	378.62
314.853	375.62
315.083	369.62
315.312	365.62
315.542	372.62
315.771	365.62
316.001	342.62
316.23	357.62
316.46	360.62
316.689	354.62
316.919	344.62
317.148	386.62
317.377	392.62
317.607	369.62
317.836	354.62
318.065	353.62
318.295	353.62
318.524	368.62
318.753	356.62
318.983	353.62
319.212	359.62
319.441	360.62
319.67	364.62
319.9	366.62
320.129	382.62
320.358	358.62
320.587	378.62
320.816	362.62
321.046	376.62
321.275	372.62
321.504	380.62
321.733	394.62
321.962	383.62
322.191	397.62
322.42	434.62
322.649	446.62
322.878	438.62
323.108	444.62
323.337	497.62
323.566	500.62
323.795	561.62
324.024	596.62
324.253	705.62
324.482	1054.62
324.71	1565.62
324.939	2173.62
325.168	1865.62
325.397	997.62
325.626	658.62
325.855	540.62
326.084	508.62
326.313	493.62
326.542	518.62
326.77	538.62
326.999	679.62
327.228	910.62
327.457	1376.62
327.686	1626.62
327.914	1093.62
328.143	719.62
328.372	612.62
328.6	566.62
328.829	570.62
329.058	580.62
329.287	568.62
329.515	542.62
329.744	510.62
329.972	492.62
330.201	520.62
330.43	541.62
330.658	562.62
330.887	588.62
331.115	589.62
331.344	518.62
331.572	450.62
331.801	462.62
332.03	465.62
332.258	467.62
332.486	426.62
332.715	420.62
332.943	427.62
333.172	409.62
333.4	412.62
333.629	446.62
333.857	422.62
334.085	456.62
334.314	446.62
334.542	454.62
334.771	483.62
334.999	459.62
335.227	419.62
335.455	425.62
335.684	399.62
335.912	418.62
336.14	402.62
336.369	416.62
336.597	406.62
336.825	448.62
337.053	430.62
337.281	425.62
337.51	416.62
337.738	408.62
337.966	395.62
338.194	411.62
338.422	398.62
338.65	410.62
338.878	413.62
339.106	415.62
339.334	406.62
339.562	402.62
339.79	399.62
340.018	397.62
340.246	383.62
340.474	393.62
340.702	386.62
340.93	391.62
341.158	394.62
341.386	382.62
341.614	402.62
341.842	387.62
342.07	394.62
342.298	405.62
342.526	390.62
342.754	390.62
342.981	383.62
343.209	376.62
343.437	373.62
343.665	360.62
343.893	368.62
344.12	380.62
344.348	389.62
344.576	413.62
344.804	421.62
345.031	402.62
345.259	437.62
345.487	408.62
345.714	398.62
345.942	393.62
346.17	397.62
346.397	397.62
346.625	413.62
346.853	375.62
347.08	392.62
347.308	402.62
347.535	408.62
347.763	389.62
347.99	384.62
348.218	383.62
348.445	408.62
348.673	392.62
348.9	381.62
349.128	371.62
349.355	348.62
349.583	382.62
349.81	377.62
350.037	364.62
350.265	356.62
350.492	346.62
350.72	366.62
350.947	367.62
351.174	390.62
351.402	395.62
351.629	386.62
351.856	373.62
352.083	381.62
352.311	396.62
352.538	404.62
352.765	410.62
352.992	384.62
353.22	377.62
353.447	388.62
353.674	392.62
353.901	360.62
354.128	354.62
354.355	345.62
354.583	374.62
354.81	338.62
355.037	348.62
355.264	360.62
355.491	362.62
355.718	348.62
355.945	352.62
356.172	344.62
356.399	328.62
356.626	353.62
356.853	340.62
357.08	332.62
357.307	343.62
357.534	331.62
357.761	359.62
357.988	328.62
358.215	333.62
358.441	359.62
358.668	354.62
358.895	348.62
359.122	359.62
359.349	375.62
359.576	380.62
359.802	416.62
360.029	420.62
360.256	421.62
360.483	427.62
360.709	392.62
360.936	386.62
361.163	382.62
361.39	369.62
361.616	383.62
361.843	381.62
362.07	360.62
362.296	372.62
362.523	374.62
362.749	387.62
362.976	381.62
363.203	367.62
363.429	354.62
363.656	357.62
363.882	366.62
364.109	353.62
364.335	350.62
364.562	348.62
364.788	339.62
365.015	352.62
365.241	344.62
365.468	358.62
365.694	372.62
365.92	366.62
366.147	360.62
366.373	350.62
366.599	348.62
366.826	340.62
367.052	359.62
367.278	358.62
367.505	346.62
367.731	346.62
367.957	346.62
368.184	327.62
368.41	353.62
368.636	364.62
368.862	359.62
369.089	339.62
369.315	326.62
369.541	343.62
369.767	343.62
369.993	349.62
370.219	339.62
370.445	351.62
370.672	350.62
370.898	338.62
371.124	356.62
371.35	321.62
371.576	341.62
371.802	324.62
372.028	344.62
372.254	342.62
372.48	356.62
372.706	337.62
372.932	359.62
373.158	356.62
373.384	321.62
373.61	357.62
373.835	344.62
374.061	313.62
374.287	326.62
374.513	335.62
374.739	343.62
374.965	337.62
375.191	338.62
375.416	345.62
375.642	343.62
375.868	340.62
376.094	342.62
376.319	324.62
376.545	332.62
376.771	329.62
376.997	326.62
377.222	347.62
377.448	333.62
377.674	330.62
377.899	345.62
378.125	316.62
378.35	326.62
378.576	338.62
378.802	326.62
379.027	333.62
379.253	332.62
379.478	323.62
379.704	347.62
379.929	327.62
380.155	330.62
380.38	342.62
380.606	361.62
380.831	345.62
381.057	316.62
381.282	340.62
381.507	347.62
381.733	342.62
381.958	347.62
382.184	332.62
382.409	342.62
382.634	348.62
382.86	326.62
383.085	352.62
383.31	336.62
383.535	345.62
383.761	346.62
383.986	348.62
384.211	327.62
384.436	356.62
384.662	356.62
384.887	333.62
385.112	329.62
385.337	358.62
385.562	340.62
385.787	332.62
386.013	346.62
386.238	383.62
386.463	345.62
386.688	339.62
386.913	354.62
387.138	351.62
387.363	324.62
387.588	352.62
387.813	356.62
388.038	338.62
388.263	352.62
388.488	340.62
388.713	349.62
388.938	357.62
389.163	347.62
389.387	344.62
389.612	347.62
389.837	345.62
390.062	334.62
390.287	349.62
390.512	355.62
390.736	340.62
390.961	346.62
391.186	337.62
391.411	351.62
391.636	353.62
391.86	346.62
392.085	354.62
392.31	341.62
392.534	343.62
392.759	356.62
392.984	340.62
393.208	347.62
393.433	355.62
393.658	345.62
393.882	343.62
394.107	344.62
394.331	368.62
394.556	348.62
394.78	348.62
395.005	360.62
395.229	356.62
395.454	349.62
395.678	348.62
395.903	361.62
396.127	394.62
396.352	381.62
396.576	368.62
396.801	372.62
397.025	364.62
397.249	377.62
397.474	369.62
397.698	365.62
397.922	391.62
398.147	388.62
398.371	379.62
398.595	385.62
398.82	374.62
399.044	377.62
399.268	396.62
399.492	416.62
399.717	431.62
399.941	423.62
400.165	474.62
400.389	484.62
400.613	456.62
400.837	412.62
401.062	394.62
401.286	395.62
401.51	392.62
401.734	372.62
401.958	378.62
402.182	390.62
402.406	393.62
402.63	405.62
402.854	386.62
403.078	392.62
403.302	393.62
403.526	407.62
403.75	412.62
403.974	405.62
404.198	390.62
404.422	424.62
404.645	409.62
404.869	412.62
405.093	442.62
405.317	457.62
405.541	477.62
405.765	440.62
405.988	420.62
406.212	429.62
406.436	457.62
406.66	465.62
406.883	458.62
407.107	447.62
407.331	489.62
407.555	538.62
407.778	539.62
408.002	507.62
408.226	460.62
408.449	446.62
408.673	443.62
408.896	463.62
409.12	504.62
409.344	497.62
409.567	425.62
409.791	411.62
410.014	391.62
410.238	387.62
410.461	389.62
410.685	417.62
410.908	432.62
411.132	453.62
411.355	460.62
411.578	458.62
411.802	402.62
412.025	412.62
412.249	437.62
412.472	410.62
412.695	427.62
412.919	441.62
413.142	414.62
413.365	378.62
413.589	383.62
413.812	391.62
414.035	378.62
414.258	375.62
414.482	376.62
414.705	388.62
414.928	386.62
415.151	363.62
415.374	372.62
415.597	372.62
415.821	378.62
416.044	374.62
416.267	357.62
416.49	374.62
416.713	377.62
416.936	368.62
417.159	374.62
417.382	372.62
417.605	373.62
417.828	387.62
418.051	395.62
418.274	395.62
418.497	393.62
418.72	389.62
418.943	364.62
419.166	402.62
419.389	404.62
419.611	373.62
419.834	391.62
420.057	387.62
420.28	422.62
420.503	392.62
420.726	379.62
420.948	409.62
421.171	450.62
421.394	477.62
421.617	416.62
421.839	416.62
422.062	411.62
422.285	433.62
422.507	454.62
422.73	523.62
422.953	506.62
423.175	426.62
423.398	422.62
423.621	417.62
423.843	446.62
424.066	424.62
424.288	426.62
424.511	461.62
424.733	503.62
424.956	541.62
425.178	543.62
425.401	546.62
425.623	571.62
425.846	481.62
426.068	449.62
426.291	413.62
426.513	437.62
426.735	452.62
426.958	467.62
427.18	545.62
427.402	654.62
427.625	709.62
427.847	651.62
428.069	548.62
428.292	477.62
428.514	468.62
428.736	443.62
428.958	410.62
429.181	412.62
429.403	403.62
429.625	436.62
429.847	436.62
430.069	487.62
430.292	498.62
430.514	432.62
430.736	420.62
430.958	411.62
431.18	380.62
431.402	413.62
431.624	373.62
431.846	399.62
432.068	373.62
432.29	372.62
432.512	373.62
432.734	389.62
432.956	375.62
433.178	392.62
433.4	397.62
433.622	375.62
433.844	387.62
434.066	361.62
434.287	363.62
434.509	371.62
434.731	396.62
434.953	386.62
435.175	393.62
435.397	432.62
435.618	444.62
435.84	460.62
436.062	554.62
436.284	624.62
436.505	518.62
436.727	467.62
436.949	432.62
437.17	426.62
437.392	423.62
437.614	429.62
437.835	468.62
438.057	533.62
438.278	602.62
438.5	595.62
438.721	667.62
438.943	641.62
439.165	494.62
439.386	473.62
439.608	453.62
439.829	457.62
440.05	487.62
440.272	507.62
440.493	496.62
440.715	446.62
440.936	428.62
441.158	438.62
441.379	399.62
441.6	422.62
441.822	436.62
442.043	475.62
442.264	533.62
442.486	583.62
442.707	479.62
442.928	427.62
443.149	459.62
443.371	462.62
443.592	527.62
443.813	605.62
444.034	638.62
444.255	508.62
444.476	449.62
444.698	437.62
444.919	438.62
445.14	521.62
445.361	480.62
445.582	463.62
445.803	545.62
446.024	636.62
446.245	634.62
446.466	574.62
446.687	489.62
446.908	453.62
447.129	437.62
447.35	401.62
447.571	392.62
447.792	389.62
448.013	414.62
448.234	430.62
448.455	503.62
448.675	548.62
448.896	651.62
449.117	559.62
449.338	525.62
449.559	613.62
449.779	676.62
450	576.62
450.221	478.62
450.442	409.62
450.662	413.62
450.883	418.62
451.104	398.62
451.324	408.62
451.545	404.62
451.766	375.62
451.986	365.62
452.207	397.62
452.428	379.62
452.648	370.62
452.869	386.62
453.089	382.62
453.31	382.62
453.53	382.62
453.751	362.62
453.971	373.62
454.192	374.62
454.412	376.62
454.633	365.62
454.853	382.62
455.073	369.62
455.294	405.62
455.514	441.62
455.734	443.62
455.955	374.62
456.175	371.62
456.395	343.62
456.616	352.62
456.836	351.62
457.056	323.62
457.276	318.62
457.497	350.62
457.717	339.62
457.937	347.62
458.157	338.62
458.377	333.62
458.598	377.62
458.818	451.62
459.038	488.62
459.258	504.62
459.478	435.62
459.698	398.62
459.918	388.62
460.138	362.62
460.358	380.62
460.578	394.62
460.798	381.62
461.018	376.62
461.238	365.62
461.458	374.62
461.678	342.62
461.898	372.62
462.118	354.62
462.338	368.62
462.558	377.62
462.777	373.62
462.997	392.62
463.217	396.62
463.437	393.62
463.657	387.62
463.876	386.62
464.096	391.62
464.316	380.62
464.536	389.62
464.755	391.62
464.975	405.62
465.195	447.62
465.414	505.62
465.634	446.62
465.854	399.62
466.073	415.62
466.293	382.62
466.512	386.62
466.732	372.62
466.951	353.62
467.171	363.62
467.391	356.62
467.61	371.62
467.829	368.62
468.049	386.62
468.268	353.62
468.488	364.62
468.707	357.62
468.927	366.62
469.146	347.62
469.365	378.62
469.585	355.62
469.804	380.62
470.023	376.62
470.243	390.62
470.462	388.62
470.681	372.62
470.901	375.62
471.12	366.62
471.339	392.62
471.558	374.62
471.777	381.62
471.997	386.62
472.216	361.62
472.435	400.62
472.654	376.62
472.873	374.62
473.092	359.62
473.311	384.62
473.53	386.62
473.749	378.62
473.968	428.62
474.187	516.62
474.406	532.62
474.625	433.62
474.844	401.62
475.063	398.62
475.282	380.62
475.501	374.62
475.72	382.62
475.939	385.62
476.158	388.62
476.377	378.62
476.596	388.62
476.814	404.62
477.033	388.62
477.252	402.62
477.471	386.62
477.69	366.62
477.908	402.62
478.127	402.62
478.346	391.62
478.564	402.62
478.783	394.62
479.002	411.62
479.22	416.62
479.439	441.62
479.658	436.62
479.876	441.62
480.095	457.62
480.313	500.62
480.532	461.62
480.751	452.62
480.969	449.62
481.188	505.62
481.406	520.62
481.624	456.62
481.843	460.62
482.061	447.62
482.28	448.62
482.498	427.62
482.717	442.62
482.935	420.62
483.153	434.62
483.372	427.62
483.59	437.62
483.808	436.62
484.027	420.62
484.245	428.62
484.463	446.62
484.681	422.62
484.9	432.62
485.118	467.62
485.336	440.62
485.554	450.62
485.772	444.62
485.99	440.62
486.209	446.62
486.427	448.62
486.645	448.62
486.863	498.62
487.081	491.62
487.299	472.62
487.517	486.62
487.735	458.62
487.953	446.62
488.171	483.62
488.389	456.62
488.607	476.62
488.825	464.62
489.043	470.62
489.261	472.62
489.479	477.62
489.696	480.62
489.914	473.62
490.132	461.62
490.35	490.62
490.568	484.62
490.786	515.62
491.003	504.62
491.221	522.62
491.439	517.62
491.657	534.62
491.874	503.62
492.092	548.62
492.31	546.62
492.527	532.62
492.745	515.62
492.963	549.62
493.18	537.62
493.398	536.62
493.615	548.62
493.833	548.62
494.05	545.62
494.268	575.62
494.485	539.62
494.703	530.62
494.92	547.62
495.138	554.62
495.355	559.62
495.573	546.62
495.79	571.62
496.008	581.62
496.225	553.62
496.442	532.62
496.66	539.62
496.877	567.62
497.094	544.62
497.312	524.62
497.529	560.62
497.746	568.62
497.963	579.62
498.181	571.62
498.398	576.62
498.615	584.62
498.832	604.62
499.049	603.62
499.267	630.62
499.484	626.62
499.701	652.62
499.918	640.62
500.135	667.62
500.352	700.62
500.569	694.62
500.786	686.62
501.003	665.62
501.22	690.62
501.437	694.62
501.654	670.62
501.871	668.62
