Data from 1981.PennyLincolnUp.Lamp.En5.5.200Scan.071819.P1_HRD10591_16-40-58-958.txt Node
Date: Thu Jul 18 16:40:58 EDT 2019
User: cochatt
Spectrometer: HR+D1059
Trigger mode: 1
Integration Time (sec): 1.000000E-1
Scans to average: 1
Electric dark correction enabled: true
Nonlinearity correction enabled: false
Boxcar width: 0
XAxis mode: Wavelengths
Number of Pixels in Spectrum: 2048
>>>>>Begin Spectral Data<<<<<
223.165	-15.88
223.4	-15.88
223.635	-15.88
223.869	-15.88
224.104	-28.88
224.338	-7.88
224.573	-12.88
224.808	-5.88
225.042	-1.88
225.277	-5.88
225.511	-5.88
225.746	8.12
225.98	-0.88
226.215	15.12
226.449	5.12
226.683	13.12
226.918	24.12
227.152	36.12
227.387	44.12
227.621	30.12
227.856	54.12
228.09	43.12
228.324	48.12
228.559	46.12
228.793	68.12
229.027	102.12
229.262	112.12
229.496	108.12
229.73	118.12
229.964	139.12
230.199	128.12
230.433	116.12
230.667	108.12
230.901	104.12
231.136	117.12
231.37	120.12
231.604	107.12
231.838	100.12
232.072	105.12
232.306	113.12
232.541	122.12
232.775	106.12
233.009	97.12
233.243	108.12
233.477	112.12
233.711	109.12
233.945	115.12
234.179	104.12
234.413	120.12
234.647	111.12
234.881	112.12
235.115	114.12
235.349	120.12
235.583	124.12
235.817	105.12
236.051	121.12
236.285	133.12
236.519	123.12
236.753	130.12
236.987	149.12
237.221	169.12
237.455	210.12
237.689	171.12
237.922	132.12
238.156	138.12
238.39	138.12
238.624	121.12
238.858	113.12
239.091	125.12
239.325	135.12
239.559	128.12
239.793	123.12
240.027	134.12
240.26	144.12
240.494	140.12
240.728	168.12
240.961	147.12
241.195	141.12
241.429	135.12
241.662	130.12
241.896	139.12
242.13	129.12
242.363	130.12
242.597	132.12
242.83	135.12
243.064	113.12
243.298	130.12
243.531	142.12
243.765	137.12
243.998	146.12
244.232	140.12
244.465	136.12
244.699	140.12
244.932	135.12
245.166	146.12
245.399	135.12
245.633	158.12
245.866	149.12
246.099	131.12
246.333	140.12
246.566	146.12
246.8	136.12
247.033	164.12
247.266	162.12
247.5	174.12
247.733	164.12
247.966	172.12
248.2	158.12
248.433	183.12
248.666	169.12
248.899	172.12
249.133	204.12
249.366	210.12
249.599	186.12
249.832	185.12
250.066	187.12
250.299	178.12
250.532	195.12
250.765	214.12
250.998	208.12
251.231	212.12
251.465	230.12
251.698	203.12
251.931	209.12
252.164	185.12
252.397	188.12
252.63	200.12
252.863	213.12
253.096	237.12
253.329	216.12
253.562	223.12
253.795	244.12
254.028	240.12
254.261	229.12
254.494	230.12
254.727	252.12
254.96	272.12
255.193	277.12
255.426	244.12
255.659	235.12
255.892	230.12
256.124	224.12
256.357	235.12
256.59	219.12
256.823	203.12
257.056	201.12
257.289	219.12
257.521	212.12
257.754	205.12
257.987	197.12
258.22	221.12
258.452	214.12
258.685	216.12
258.918	193.12
259.151	198.12
259.383	224.12
259.616	225.12
259.849	201.12
260.081	216.12
260.314	261.12
260.547	258.12
260.779	239.12
261.012	228.12
261.244	213.12
261.477	232.12
261.71	221.12
261.942	215.12
262.175	229.12
262.407	206.12
262.64	215.12
262.872	190.12
263.105	215.12
263.337	207.12
263.57	227.12
263.802	208.12
264.035	218.12
264.267	197.12
264.499	203.12
264.732	221.12
264.964	211.12
265.197	204.12
265.429	207.12
265.661	218.12
265.894	196.12
266.126	230.12
266.358	219.12
266.591	195.12
266.823	222.12
267.055	225.12
267.287	220.12
267.52	215.12
267.752	233.12
267.984	228.12
268.216	239.12
268.448	231.12
268.681	249.12
268.913	240.12
269.145	258.12
269.377	262.12
269.609	271.12
269.841	284.12
270.073	271.12
270.306	301.12
270.538	304.12
270.77	324.12
271.002	326.12
271.234	289.12
271.466	286.12
271.698	299.12
271.93	315.12
272.162	306.12
272.394	328.12
272.626	298.12
272.858	280.12
273.09	268.12
273.322	274.12
273.553	270.12
273.785	267.12
274.017	270.12
274.249	232.12
274.481	259.12
274.713	254.12
274.945	262.12
275.176	271.12
275.408	276.12
275.64	266.12
275.872	256.12
276.104	262.12
276.335	258.12
276.567	265.12
276.799	287.12
277.031	313.12
277.262	312.12
277.494	310.12
277.726	299.12
277.957	276.12
278.189	281.12
278.421	269.12
278.652	246.12
278.884	263.12
279.115	263.12
279.347	271.12
279.579	258.12
279.81	266.12
280.042	263.12
280.273	266.12
280.505	270.12
280.736	257.12
280.968	276.12
281.199	252.12
281.431	266.12
281.662	267.12
281.894	252.12
282.125	259.12
282.356	289.12
282.588	309.12
282.819	301.12
283.051	270.12
283.282	270.12
283.513	261.12
283.745	272.12
283.976	278.12
284.207	263.12
284.439	273.12
284.67	284.12
284.901	259.12
285.132	273.12
285.364	283.12
285.595	284.12
285.826	264.12
286.057	264.12
286.288	261.12
286.52	274.12
286.751	260.12
286.982	272.12
287.213	288.12
287.444	265.12
287.675	274.12
287.906	276.12
288.138	284.12
288.369	280.12
288.6	305.12
288.831	284.12
289.062	284.12
289.293	282.12
289.524	275.12
289.755	286.12
289.986	257.12
290.217	266.12
290.448	282.12
290.679	281.12
290.91	263.12
291.141	276.12
291.371	277.12
291.602	284.12
291.833	284.12
292.064	296.12
292.295	285.12
292.526	275.12
292.757	296.12
292.987	262.12
293.218	260.12
293.449	269.12
293.68	280.12
293.91	273.12
294.141	274.12
294.372	300.12
294.603	255.12
294.833	278.12
295.064	278.12
295.295	279.12
295.525	290.12
295.756	284.12
295.987	295.12
296.217	330.12
296.448	319.12
296.679	293.12
296.909	285.12
297.14	261.12
297.37	297.12
297.601	296.12
297.831	288.12
298.062	288.12
298.292	282.12
298.523	279.12
298.753	280.12
298.984	298.12
299.214	301.12
299.445	274.12
299.675	301.12
299.905	305.12
300.136	308.12
300.366	298.12
300.597	290.12
300.827	292.12
301.057	305.12
301.288	313.12
301.518	308.12
301.748	305.12
301.979	311.12
302.209	295.12
302.439	309.12
302.669	302.12
302.9	308.12
303.13	302.12
303.36	321.12
303.59	309.12
303.82	312.12
304.051	301.12
304.281	289.12
304.511	308.12
304.741	287.12
304.971	308.12
305.201	314.12
305.431	304.12
305.661	313.12
305.891	326.12
306.121	312.12
306.352	312.12
306.582	321.12
306.812	308.12
307.042	305.12
307.272	321.12
307.502	319.12
307.731	327.12
307.961	291.12
308.191	311.12
308.421	314.12
308.651	321.12
308.881	334.12
309.111	317.12
309.341	324.12
309.571	324.12
309.8	351.12
310.03	345.12
310.26	357.12
310.49	361.12
310.72	373.12
310.949	363.12
311.179	380.12
311.409	364.12
311.639	362.12
311.868	373.12
312.098	379.12
312.328	362.12
312.557	408.12
312.787	383.12
313.017	409.12
313.246	382.12
313.476	362.12
313.706	384.12
313.935	380.12
314.165	353.12
314.394	392.12
314.624	391.12
314.853	389.12
315.083	379.12
315.312	386.12
315.542	354.12
315.771	363.12
316.001	358.12
316.23	345.12
316.46	342.12
316.689	352.12
316.919	351.12
317.148	357.12
317.377	369.12
317.607	378.12
317.836	360.12
318.065	370.12
318.295	382.12
318.524	343.12
318.753	352.12
318.983	363.12
319.212	362.12
319.441	373.12
319.67	371.12
319.9	370.12
320.129	375.12
320.358	358.12
320.587	389.12
320.816	378.12
321.046	393.12
321.275	378.12
321.504	396.12
321.733	390.12
321.962	415.12
322.191	408.12
322.42	389.12
322.649	437.12
322.878	472.12
323.108	466.12
323.337	454.12
323.566	508.12
323.795	541.12
324.024	612.12
324.253	717.12
324.482	1018.12
324.71	1537.12
324.939	2136.12
325.168	1835.12
325.397	996.12
325.626	658.12
325.855	556.12
326.084	536.12
326.313	515.12
326.542	493.12
326.77	544.12
326.999	676.12
327.228	906.12
327.457	1329.12
327.686	1591.12
327.914	1064.12
328.143	719.12
328.372	628.12
328.6	586.12
328.829	546.12
329.058	573.12
329.287	560.12
329.515	525.12
329.744	501.12
329.972	526.12
330.201	488.12
330.43	512.12
330.658	556.12
330.887	583.12
331.115	572.12
331.344	501.12
331.572	487.12
331.801	468.12
332.03	467.12
332.258	433.12
332.486	419.12
332.715	434.12
332.943	403.12
333.172	427.12
333.4	429.12
333.629	430.12
333.857	450.12
334.085	454.12
334.314	452.12
334.542	450.12
334.771	465.12
334.999	440.12
335.227	446.12
335.455	433.12
335.684	422.12
335.912	418.12
336.14	393.12
336.369	418.12
336.597	410.12
336.825	420.12
337.053	396.12
337.281	407.12
337.51	396.12
337.738	416.12
337.966	408.12
338.194	405.12
338.422	416.12
338.65	414.12
338.878	423.12
339.106	382.12
339.334	399.12
339.562	413.12
339.79	400.12
340.018	412.12
340.246	407.12
340.474	416.12
340.702	393.12
340.93	388.12
341.158	404.12
341.386	391.12
341.614	415.12
341.842	412.12
342.07	407.12
342.298	410.12
342.526	378.12
342.754	380.12
342.981	365.12
343.209	392.12
343.437	374.12
343.665	393.12
343.893	392.12
344.12	399.12
344.348	394.12
344.576	404.12
344.804	409.12
345.031	408.12
345.259	394.12
345.487	411.12
345.714	405.12
345.942	407.12
346.17	410.12
346.397	394.12
346.625	396.12
346.853	396.12
347.08	389.12
347.308	370.12
347.535	389.12
347.763	392.12
347.99	405.12
348.218	397.12
348.445	413.12
348.673	382.12
348.9	376.12
349.128	387.12
349.355	386.12
349.583	369.12
349.81	374.12
350.037	374.12
350.265	375.12
350.492	366.12
350.72	378.12
350.947	406.12
351.174	388.12
351.402	394.12
351.629	379.12
351.856	376.12
352.083	376.12
352.311	413.12
352.538	393.12
352.765	417.12
352.992	412.12
353.22	416.12
353.447	395.12
353.674	364.12
353.901	380.12
354.128	366.12
354.355	357.12
354.583	373.12
354.81	361.12
355.037	362.12
355.264	365.12
355.491	341.12
355.718	360.12
355.945	363.12
356.172	339.12
356.399	353.12
356.626	359.12
356.853	350.12
357.08	351.12
357.307	344.12
357.534	331.12
357.761	360.12
357.988	357.12
358.215	354.12
358.441	357.12
358.668	368.12
358.895	366.12
359.122	374.12
359.349	361.12
359.576	355.12
359.802	404.12
360.029	412.12
360.256	423.12
360.483	409.12
360.709	391.12
360.936	368.12
361.163	386.12
361.39	376.12
361.616	378.12
361.843	381.12
362.07	384.12
362.296	377.12
362.523	366.12
362.749	378.12
362.976	372.12
363.203	373.12
363.429	359.12
363.656	379.12
363.882	360.12
364.109	370.12
364.335	355.12
364.562	358.12
364.788	341.12
365.015	359.12
365.241	364.12
365.468	354.12
365.694	348.12
365.92	344.12
366.147	359.12
366.373	372.12
366.599	371.12
366.826	354.12
367.052	345.12
367.278	350.12
367.505	363.12
367.731	351.12
367.957	363.12
368.184	350.12
368.41	356.12
368.636	355.12
368.862	369.12
369.089	363.12
369.315	346.12
369.541	357.12
369.767	350.12
369.993	334.12
370.219	358.12
370.445	341.12
370.672	330.12
370.898	350.12
371.124	329.12
371.35	353.12
371.576	358.12
371.802	344.12
372.028	336.12
372.254	349.12
372.48	351.12
372.706	351.12
372.932	356.12
373.158	333.12
373.384	344.12
373.61	354.12
373.835	347.12
374.061	340.12
374.287	344.12
374.513	342.12
374.739	355.12
374.965	366.12
375.191	347.12
375.416	330.12
375.642	342.12
375.868	349.12
376.094	333.12
376.319	338.12
376.545	343.12
376.771	358.12
376.997	346.12
377.222	336.12
377.448	340.12
377.674	346.12
377.899	322.12
378.125	336.12
378.35	331.12
378.576	334.12
378.802	328.12
379.027	333.12
379.253	345.12
379.478	322.12
379.704	336.12
379.929	354.12
380.155	344.12
380.38	345.12
380.606	354.12
380.831	347.12
381.057	334.12
381.282	338.12
381.507	354.12
381.733	343.12
381.958	334.12
382.184	320.12
382.409	360.12
382.634	359.12
382.86	349.12
383.085	354.12
383.31	340.12
383.535	346.12
383.761	365.12
383.986	350.12
384.211	358.12
384.436	354.12
384.662	352.12
384.887	339.12
385.112	337.12
385.337	354.12
385.562	361.12
385.787	346.12
386.013	351.12
386.238	380.12
386.463	363.12
386.688	360.12
386.913	357.12
387.138	365.12
387.363	351.12
387.588	354.12
387.813	343.12
388.038	360.12
388.263	355.12
388.488	357.12
388.713	355.12
388.938	361.12
389.163	356.12
389.387	365.12
389.612	350.12
389.837	348.12
390.062	346.12
390.287	377.12
390.512	361.12
390.736	344.12
390.961	357.12
391.186	355.12
391.411	349.12
391.636	333.12
391.86	354.12
392.085	364.12
392.31	349.12
392.534	354.12
392.759	361.12
392.984	359.12
393.208	377.12
393.433	365.12
393.658	349.12
393.882	348.12
394.107	354.12
394.331	356.12
394.556	350.12
394.78	360.12
395.005	357.12
395.229	349.12
395.454	349.12
395.678	370.12
395.903	384.12
396.127	382.12
396.352	378.12
396.576	372.12
396.801	355.12
397.025	380.12
397.249	386.12
397.474	406.12
397.698	377.12
397.922	377.12
398.147	397.12
398.371	384.12
398.595	407.12
398.82	403.12
399.044	402.12
399.268	406.12
399.492	397.12
399.717	440.12
399.941	448.12
400.165	492.12
400.389	468.12
400.613	440.12
400.837	429.12
401.062	405.12
401.286	412.12
401.51	393.12
401.734	390.12
401.958	384.12
402.182	405.12
402.406	429.12
402.63	419.12
402.854	422.12
403.078	402.12
403.302	392.12
403.526	401.12
403.75	397.12
403.974	416.12
404.198	404.12
404.422	402.12
404.645	417.12
404.869	412.12
405.093	436.12
405.317	465.12
405.541	477.12
405.765	465.12
405.988	457.12
406.212	425.12
406.436	471.12
406.66	459.12
406.883	428.12
407.107	446.12
407.331	486.12
407.555	538.12
407.778	556.12
408.002	475.12
408.226	464.12
408.449	450.12
408.673	449.12
408.896	496.12
409.12	518.12
409.344	475.12
409.567	418.12
409.791	406.12
410.014	405.12
410.238	428.12
410.461	415.12
410.685	400.12
410.908	460.12
411.132	449.12
411.355	485.12
411.578	460.12
411.802	428.12
412.025	414.12
412.249	407.12
412.472	417.12
412.695	445.12
412.919	437.12
413.142	389.12
413.365	398.12
413.589	406.12
413.812	394.12
414.035	393.12
414.258	386.12
414.482	394.12
414.705	393.12
414.928	392.12
415.151	398.12
415.374	387.12
415.597	377.12
415.821	384.12
416.044	412.12
416.267	371.12
416.49	387.12
416.713	395.12
416.936	392.12
417.159	382.12
417.382	399.12
417.605	384.12
417.828	388.12
418.051	422.12
418.274	397.12
418.497	392.12
418.72	379.12
418.943	371.12
419.166	393.12
419.389	402.12
419.611	402.12
419.834	401.12
420.057	401.12
420.28	401.12
420.503	411.12
420.726	407.12
420.948	425.12
421.171	457.12
421.394	457.12
421.617	396.12
421.839	425.12
422.062	405.12
422.285	428.12
422.507	475.12
422.73	538.12
422.953	487.12
423.175	454.12
423.398	444.12
423.621	421.12
423.843	444.12
424.066	461.12
424.288	425.12
424.511	470.12
424.733	493.12
424.956	578.12
425.178	565.12
425.401	542.12
425.623	554.12
425.846	469.12
426.068	441.12
426.291	445.12
426.513	457.12
426.735	438.12
426.958	493.12
427.18	558.12
427.402	636.12
427.625	708.12
427.847	657.12
428.069	545.12
428.292	460.12
428.514	449.12
428.736	423.12
428.958	428.12
429.181	425.12
429.403	405.12
429.625	418.12
429.847	446.12
430.069	514.12
430.292	502.12
430.514	440.12
430.736	386.12
430.958	395.12
431.18	385.12
431.402	386.12
431.624	396.12
431.846	383.12
432.068	361.12
432.29	390.12
432.512	382.12
432.734	404.12
432.956	389.12
433.178	394.12
433.4	411.12
433.622	392.12
433.844	370.12
434.066	390.12
434.287	372.12
434.509	378.12
434.731	390.12
434.953	382.12
435.175	404.12
435.397	440.12
435.618	439.12
435.84	485.12
436.062	568.12
436.284	617.12
436.505	532.12
436.727	458.12
436.949	413.12
437.17	426.12
437.392	406.12
437.614	442.12
437.835	485.12
438.057	547.12
438.278	624.12
438.5	634.12
438.721	695.12
438.943	619.12
439.165	540.12
439.386	480.12
439.608	455.12
439.829	452.12
440.05	485.12
440.272	529.12
440.493	483.12
440.715	454.12
440.936	433.12
441.158	423.12
441.379	425.12
441.6	438.12
441.822	439.12
442.043	480.12
442.264	520.12
442.486	544.12
442.707	490.12
442.928	465.12
443.149	482.12
443.371	497.12
443.592	520.12
443.813	565.12
444.034	619.12
444.255	536.12
444.476	458.12
444.698	444.12
444.919	449.12
445.14	522.12
445.361	469.12
445.582	485.12
445.803	555.12
446.024	653.12
446.245	617.12
446.466	548.12
446.687	503.12
446.908	451.12
447.129	441.12
447.35	422.12
447.571	396.12
447.792	421.12
448.013	417.12
448.234	424.12
448.455	488.12
448.675	562.12
448.896	652.12
449.117	557.12
449.338	553.12
449.559	644.12
449.779	685.12
450	546.12
450.221	473.12
450.442	437.12
450.662	416.12
450.883	422.12
451.104	455.12
451.324	420.12
451.545	396.12
451.766	394.12
451.986	382.12
452.207	376.12
452.428	359.12
452.648	372.12
452.869	374.12
453.089	390.12
453.31	405.12
453.53	380.12
453.751	370.12
453.971	369.12
454.192	372.12
454.412	391.12
454.633	364.12
454.853	368.12
455.073	370.12
455.294	394.12
455.514	461.12
455.734	436.12
455.955	379.12
456.175	373.12
456.395	345.12
456.616	353.12
456.836	342.12
457.056	330.12
457.276	327.12
457.497	346.12
457.717	335.12
457.937	356.12
458.157	360.12
458.377	364.12
458.598	393.12
458.818	439.12
459.038	481.12
459.258	503.12
459.478	428.12
459.698	384.12
459.918	380.12
460.138	385.12
460.358	374.12
460.578	375.12
460.798	382.12
461.018	393.12
461.238	372.12
461.458	390.12
461.678	359.12
461.898	372.12
462.118	380.12
462.338	387.12
462.558	377.12
462.777	373.12
462.997	387.12
463.217	402.12
463.437	396.12
463.657	396.12
463.876	396.12
464.096	388.12
464.316	385.12
464.536	403.12
464.755	419.12
464.975	393.12
465.195	461.12
465.414	536.12
465.634	434.12
465.854	434.12
466.073	393.12
466.293	384.12
466.512	384.12
466.732	381.12
466.951	373.12
467.171	373.12
467.391	381.12
467.61	373.12
467.829	385.12
468.049	382.12
468.268	372.12
468.488	361.12
468.707	362.12
468.927	352.12
469.146	370.12
469.365	370.12
469.585	357.12
469.804	376.12
470.023	400.12
470.243	369.12
470.462	366.12
470.681	374.12
470.901	400.12
471.12	372.12
471.339	379.12
471.558	371.12
471.777	371.12
471.997	374.12
472.216	384.12
472.435	402.12
472.654	371.12
472.873	368.12
473.092	384.12
473.311	362.12
473.53	361.12
473.749	398.12
473.968	436.12
474.187	509.12
474.406	563.12
474.625	456.12
474.844	414.12
475.063	388.12
475.282	372.12
475.501	363.12
475.72	382.12
475.939	388.12
476.158	383.12
476.377	388.12
476.596	381.12
476.814	405.12
477.033	406.12
477.252	412.12
477.471	390.12
477.69	392.12
477.908	405.12
478.127	386.12
478.346	412.12
478.564	424.12
478.783	416.12
479.002	418.12
479.22	427.12
479.439	442.12
479.658	458.12
479.876	453.12
480.095	435.12
480.313	472.12
480.532	469.12
480.751	460.12
480.969	461.12
481.188	497.12
481.406	515.12
481.624	458.12
481.843	458.12
482.061	472.12
482.28	462.12
482.498	450.12
482.717	426.12
482.935	426.12
483.153	422.12
483.372	425.12
483.59	407.12
483.808	453.12
484.027	455.12
484.245	426.12
484.463	433.12
484.681	447.12
484.9	428.12
485.118	439.12
485.336	432.12
485.554	459.12
485.772	469.12
485.99	467.12
486.209	452.12
486.427	474.12
486.645	473.12
486.863	491.12
487.081	489.12
487.299	490.12
487.517	485.12
487.735	474.12
487.953	464.12
488.171	472.12
488.389	490.12
488.607	473.12
488.825	485.12
489.043	475.12
489.261	499.12
489.479	487.12
489.696	489.12
489.914	486.12
490.132	500.12
490.35	484.12
490.568	473.12
490.786	498.12
491.003	512.12
491.221	526.12
491.439	516.12
491.657	526.12
491.874	533.12
492.092	538.12
492.31	545.12
492.527	546.12
492.745	548.12
492.963	549.12
493.18	544.12
493.398	566.12
493.615	569.12
493.833	541.12
494.05	538.12
494.268	552.12
494.485	573.12
494.703	550.12
494.92	557.12
495.138	532.12
495.355	564.12
495.573	557.12
495.79	551.12
496.008	583.12
496.225	554.12
496.442	561.12
496.66	555.12
496.877	553.12
497.094	567.12
497.312	560.12
497.529	589.12
497.746	576.12
497.963	611.12
498.181	633.12
498.398	609.12
498.615	617.12
498.832	635.12
499.049	655.12
499.267	635.12
499.484	626.12
499.701	658.12
499.918	670.12
500.135	673.12
500.352	692.12
500.569	668.12
500.786	705.12
501.003	693.12
501.22	693.12
501.437	666.12
501.654	671.12
501.871	681.12
