Data from 1981.PennyLincolnUp.Lamp.En5.5.200Scan.071819.P1_HRD10591_16-41-09-958.txt Node
Date: Thu Jul 18 16:41:09 EDT 2019
User: cochatt
Spectrometer: HR+D1059
Trigger mode: 1
Integration Time (sec): 1.000000E-1
Scans to average: 1
Electric dark correction enabled: true
Nonlinearity correction enabled: false
Boxcar width: 0
XAxis mode: Wavelengths
Number of Pixels in Spectrum: 2048
>>>>>Begin Spectral Data<<<<<
223.165	-29.31
223.4	-29.31
223.635	-29.31
223.869	-10.31
224.104	-15.31
224.338	-6.31
224.573	-6.31
224.808	4.69
225.042	-23.31
225.277	-4.31
225.511	-14.31
225.746	0.69
225.98	11.69
226.215	10.69
226.449	15.69
226.683	24.69
226.918	18.69
227.152	22.69
227.387	30.69
227.621	60.69
227.856	48.69
228.09	42.69
228.324	47.69
228.559	47.69
228.793	77.69
229.027	85.69
229.262	101.69
229.496	111.69
229.73	126.69
229.964	163.69
230.199	129.69
230.433	111.69
230.667	123.69
230.901	115.69
231.136	104.69
231.37	115.69
231.604	106.69
231.838	123.69
232.072	108.69
232.306	103.69
232.541	99.69
232.775	101.69
233.009	101.69
233.243	115.69
233.477	108.69
233.711	115.69
233.945	135.69
234.179	133.69
234.413	111.69
234.647	110.69
234.881	122.69
235.115	130.69
235.349	134.69
235.583	118.69
235.817	131.69
236.051	132.69
236.285	133.69
236.519	112.69
236.753	127.69
236.987	136.69
237.221	181.69
237.455	221.69
237.689	179.69
237.922	130.69
238.156	119.69
238.39	123.69
238.624	124.69
238.858	141.69
239.091	123.69
239.325	110.69
239.559	140.69
239.793	137.69
240.027	128.69
240.26	142.69
240.494	166.69
240.728	144.69
240.961	169.69
241.195	140.69
241.429	150.69
241.662	143.69
241.896	121.69
242.13	118.69
242.363	128.69
242.597	146.69
242.83	119.69
243.064	123.69
243.298	125.69
243.531	133.69
243.765	129.69
243.998	141.69
244.232	131.69
244.465	152.69
244.699	140.69
244.932	148.69
245.166	149.69
245.399	152.69
245.633	153.69
245.866	144.69
246.099	131.69
246.333	136.69
246.566	159.69
246.8	157.69
247.033	163.69
247.266	152.69
247.5	158.69
247.733	185.69
247.966	169.69
248.2	172.69
248.433	167.69
248.666	178.69
248.899	192.69
249.133	193.69
249.366	221.69
249.599	198.69
249.832	193.69
250.066	190.69
250.299	191.69
250.532	183.69
250.765	205.69
250.998	215.69
251.231	216.69
251.465	199.69
251.698	215.69
251.931	196.69
252.164	208.69
252.397	205.69
252.63	199.69
252.863	211.69
253.096	219.69
253.329	231.69
253.562	224.69
253.795	222.69
254.028	227.69
254.261	238.69
254.494	231.69
254.727	251.69
254.96	287.69
255.193	261.69
255.426	267.69
255.659	232.69
255.892	239.69
256.124	240.69
256.357	232.69
256.59	214.69
256.823	224.69
257.056	227.69
257.289	215.69
257.521	207.69
257.754	220.69
257.987	216.69
258.22	224.69
258.452	206.69
258.685	219.69
258.918	226.69
259.151	230.69
259.383	224.69
259.616	207.69
259.849	218.69
260.081	231.69
260.314	257.69
260.547	250.69
260.779	239.69
261.012	252.69
261.244	236.69
261.477	237.69
261.71	243.69
261.942	221.69
262.175	249.69
262.407	224.69
262.64	211.69
262.872	224.69
263.105	226.69
263.337	217.69
263.57	217.69
263.802	212.69
264.035	223.69
264.267	210.69
264.499	213.69
264.732	207.69
264.964	205.69
265.197	205.69
265.429	210.69
265.661	213.69
265.894	227.69
266.126	206.69
266.358	217.69
266.591	216.69
266.823	209.69
267.055	230.69
267.287	211.69
267.52	218.69
267.752	240.69
267.984	214.69
268.216	209.69
268.448	249.69
268.681	237.69
268.913	230.69
269.145	248.69
269.377	264.69
269.609	271.69
269.841	260.69
270.073	269.69
270.306	288.69
270.538	316.69
270.77	309.69
271.002	291.69
271.234	295.69
271.466	334.69
271.698	313.69
271.93	331.69
272.162	328.69
272.394	320.69
272.626	288.69
272.858	302.69
273.09	269.69
273.322	249.69
273.553	264.69
273.785	286.69
274.017	274.69
274.249	269.69
274.481	262.69
274.713	265.69
274.945	285.69
275.176	285.69
275.408	275.69
275.64	267.69
275.872	239.69
276.104	257.69
276.335	267.69
276.567	267.69
276.799	276.69
277.031	284.69
277.262	312.69
277.494	324.69
277.726	308.69
277.957	273.69
278.189	286.69
278.421	277.69
278.652	275.69
278.884	264.69
279.115	267.69
279.347	267.69
279.579	279.69
279.81	294.69
280.042	269.69
280.273	257.69
280.505	264.69
280.736	244.69
280.968	277.69
281.199	248.69
281.431	261.69
281.662	271.69
281.894	246.69
282.125	278.69
282.356	279.69
282.588	297.69
282.819	312.69
283.051	259.69
283.282	255.69
283.513	264.69
283.745	280.69
283.976	285.69
284.207	277.69
284.439	285.69
284.67	272.69
284.901	256.69
285.132	279.69
285.364	271.69
285.595	272.69
285.826	270.69
286.057	279.69
286.288	276.69
286.52	270.69
286.751	280.69
286.982	287.69
287.213	261.69
287.444	285.69
287.675	287.69
287.906	289.69
288.138	295.69
288.369	295.69
288.6	282.69
288.831	280.69
289.062	295.69
289.293	294.69
289.524	285.69
289.755	288.69
289.986	289.69
290.217	271.69
290.448	272.69
290.679	282.69
290.91	283.69
291.141	287.69
291.371	280.69
291.602	279.69
291.833	287.69
292.064	286.69
292.295	271.69
292.526	274.69
292.757	273.69
292.987	268.69
293.218	279.69
293.449	292.69
293.68	280.69
293.91	283.69
294.141	274.69
294.372	262.69
294.603	278.69
294.833	285.69
295.064	274.69
295.295	297.69
295.525	277.69
295.756	272.69
295.987	309.69
296.217	319.69
296.448	319.69
296.679	295.69
296.909	309.69
297.14	279.69
297.37	292.69
297.601	276.69
297.831	295.69
298.062	283.69
298.292	294.69
298.523	294.69
298.753	298.69
298.984	289.69
299.214	285.69
299.445	302.69
299.675	285.69
299.905	315.69
300.136	307.69
300.366	292.69
300.597	305.69
300.827	324.69
301.057	317.69
301.288	329.69
301.518	289.69
301.748	302.69
301.979	318.69
302.209	307.69
302.439	312.69
302.669	325.69
302.9	324.69
303.13	313.69
303.36	313.69
303.59	299.69
303.82	311.69
304.051	311.69
304.281	317.69
304.511	328.69
304.741	338.69
304.971	295.69
305.201	320.69
305.431	311.69
305.661	316.69
305.891	316.69
306.121	333.69
306.352	320.69
306.582	330.69
306.812	333.69
307.042	309.69
307.272	344.69
307.502	319.69
307.731	328.69
307.961	330.69
308.191	332.69
308.421	314.69
308.651	337.69
308.881	334.69
309.111	338.69
309.341	325.69
309.571	338.69
309.8	364.69
310.03	347.69
310.26	354.69
310.49	374.69
310.72	371.69
310.949	393.69
311.179	407.69
311.409	377.69
311.639	372.69
311.868	369.69
312.098	368.69
312.328	375.69
312.557	383.69
312.787	428.69
313.017	400.69
313.246	388.69
313.476	366.69
313.706	372.69
313.935	379.69
314.165	391.69
314.394	390.69
314.624	407.69
314.853	380.69
315.083	364.69
315.312	350.69
315.542	364.69
315.771	354.69
316.001	359.69
316.23	371.69
316.46	364.69
316.689	364.69
316.919	368.69
317.148	380.69
317.377	367.69
317.607	355.69
317.836	366.69
318.065	386.69
318.295	362.69
318.524	377.69
318.753	375.69
318.983	373.69
319.212	380.69
319.441	381.69
319.67	382.69
319.9	363.69
320.129	362.69
320.358	383.69
320.587	405.69
320.816	394.69
321.046	424.69
321.275	411.69
321.504	380.69
321.733	407.69
321.962	403.69
322.191	406.69
322.42	436.69
322.649	460.69
322.878	458.69
323.108	457.69
323.337	485.69
323.566	517.69
323.795	556.69
324.024	599.69
324.253	695.69
324.482	1019.69
324.71	1555.69
324.939	2137.69
325.168	1870.69
325.397	987.69
325.626	668.69
325.855	572.69
326.084	511.69
326.313	517.69
326.542	514.69
326.77	574.69
326.999	669.69
327.228	909.69
327.457	1387.69
327.686	1585.69
327.914	1086.69
328.143	733.69
328.372	619.69
328.6	604.69
328.829	566.69
329.058	582.69
329.287	580.69
329.515	543.69
329.744	509.69
329.972	498.69
330.201	515.69
330.43	575.69
330.658	566.69
330.887	586.69
331.115	574.69
331.344	522.69
331.572	485.69
331.801	478.69
332.03	483.69
332.258	464.69
332.486	425.69
332.715	437.69
332.943	443.69
333.172	430.69
333.4	426.69
333.629	451.69
333.857	439.69
334.085	468.69
334.314	454.69
334.542	475.69
334.771	462.69
334.999	469.69
335.227	434.69
335.455	435.69
335.684	409.69
335.912	412.69
336.14	403.69
336.369	413.69
336.597	415.69
336.825	420.69
337.053	419.69
337.281	414.69
337.51	405.69
337.738	395.69
337.966	415.69
338.194	428.69
338.422	410.69
338.65	416.69
338.878	388.69
339.106	393.69
339.334	417.69
339.562	387.69
339.79	403.69
340.018	388.69
340.246	407.69
340.474	408.69
340.702	418.69
340.93	421.69
341.158	414.69
341.386	401.69
341.614	419.69
341.842	409.69
342.07	395.69
342.298	390.69
342.526	395.69
342.754	400.69
342.981	385.69
343.209	361.69
343.437	403.69
343.665	397.69
343.893	383.69
344.12	404.69
344.348	401.69
344.576	399.69
344.804	409.69
345.031	412.69
345.259	431.69
345.487	418.69
345.714	400.69
345.942	393.69
346.17	389.69
346.397	403.69
346.625	392.69
346.853	389.69
347.08	379.69
347.308	406.69
347.535	396.69
347.763	400.69
347.99	390.69
348.218	400.69
348.445	397.69
348.673	396.69
348.9	387.69
349.128	368.69
349.355	359.69
349.583	357.69
349.81	379.69
350.037	388.69
350.265	388.69
350.492	372.69
350.72	368.69
350.947	393.69
351.174	383.69
351.402	384.69
351.629	408.69
351.856	386.69
352.083	406.69
352.311	418.69
352.538	406.69
352.765	415.69
352.992	402.69
353.22	383.69
353.447	364.69
353.674	370.69
353.901	377.69
354.128	378.69
354.355	367.69
354.583	378.69
354.81	367.69
355.037	366.69
355.264	344.69
355.491	351.69
355.718	365.69
355.945	367.69
356.172	353.69
356.399	348.69
356.626	346.69
356.853	355.69
357.08	353.69
357.307	364.69
357.534	353.69
357.761	355.69
357.988	351.69
358.215	347.69
358.441	340.69
358.668	346.69
358.895	359.69
359.122	396.69
359.349	378.69
359.576	378.69
359.802	396.69
360.029	436.69
360.256	437.69
360.483	407.69
360.709	381.69
360.936	397.69
361.163	382.69
361.39	379.69
361.616	391.69
361.843	389.69
362.07	376.69
362.296	414.69
362.523	381.69
362.749	385.69
362.976	360.69
363.203	363.69
363.429	358.69
363.656	352.69
363.882	365.69
364.109	367.69
364.335	350.69
364.562	349.69
364.788	357.69
365.015	388.69
365.241	365.69
365.468	366.69
365.694	341.69
365.92	377.69
366.147	349.69
366.373	357.69
366.599	342.69
366.826	357.69
367.052	358.69
367.278	343.69
367.505	376.69
367.731	375.69
367.957	352.69
368.184	365.69
368.41	383.69
368.636	371.69
368.862	368.69
369.089	367.69
369.315	355.69
369.541	359.69
369.767	372.69
369.993	358.69
370.219	369.69
370.445	360.69
370.672	355.69
370.898	356.69
371.124	350.69
371.35	356.69
371.576	347.69
371.802	350.69
372.028	339.69
372.254	359.69
372.48	345.69
372.706	346.69
372.932	371.69
373.158	350.69
373.384	354.69
373.61	353.69
373.835	355.69
374.061	335.69
374.287	373.69
374.513	359.69
374.739	354.69
374.965	351.69
375.191	357.69
375.416	362.69
375.642	350.69
375.868	353.69
376.094	329.69
376.319	332.69
376.545	353.69
376.771	352.69
376.997	337.69
377.222	352.69
377.448	356.69
377.674	343.69
377.899	344.69
378.125	337.69
378.35	332.69
378.576	350.69
378.802	330.69
379.027	344.69
379.253	350.69
379.478	342.69
379.704	340.69
379.929	361.69
380.155	342.69
380.38	361.69
380.606	343.69
380.831	342.69
381.057	342.69
381.282	344.69
381.507	336.69
381.733	346.69
381.958	342.69
382.184	347.69
382.409	325.69
382.634	340.69
382.86	323.69
383.085	341.69
383.31	342.69
383.535	338.69
383.761	337.69
383.986	346.69
384.211	352.69
384.436	346.69
384.662	356.69
384.887	355.69
385.112	338.69
385.337	357.69
385.562	353.69
385.787	353.69
386.013	379.69
386.238	372.69
386.463	358.69
386.688	352.69
386.913	363.69
387.138	363.69
387.363	359.69
387.588	351.69
387.813	379.69
388.038	359.69
388.263	373.69
388.488	351.69
388.713	375.69
388.938	366.69
389.163	356.69
389.387	362.69
389.612	348.69
389.837	347.69
390.062	372.69
390.287	354.69
390.512	367.69
390.736	348.69
390.961	349.69
391.186	375.69
391.411	359.69
391.636	344.69
391.86	360.69
392.085	345.69
392.31	368.69
392.534	357.69
392.759	352.69
392.984	371.69
393.208	358.69
393.433	359.69
393.658	350.69
393.882	371.69
394.107	355.69
394.331	357.69
394.556	377.69
394.78	373.69
395.005	369.69
395.229	370.69
395.454	383.69
395.678	370.69
395.903	376.69
396.127	396.69
396.352	400.69
396.576	364.69
396.801	377.69
397.025	366.69
397.249	382.69
397.474	375.69
397.698	380.69
397.922	382.69
398.147	401.69
398.371	379.69
398.595	402.69
398.82	394.69
399.044	386.69
399.268	408.69
399.492	427.69
399.717	431.69
399.941	459.69
400.165	479.69
400.389	476.69
400.613	446.69
400.837	402.69
401.062	406.69
401.286	410.69
401.51	414.69
401.734	385.69
401.958	391.69
402.182	387.69
402.406	422.69
402.63	387.69
402.854	400.69
403.078	395.69
403.302	385.69
403.526	396.69
403.75	418.69
403.974	399.69
404.198	390.69
404.422	425.69
404.645	413.69
404.869	414.69
405.093	449.69
405.317	458.69
405.541	494.69
405.765	432.69
405.988	448.69
406.212	434.69
406.436	471.69
406.66	471.69
406.883	465.69
407.107	471.69
407.331	500.69
407.555	553.69
407.778	557.69
408.002	510.69
408.226	472.69
408.449	471.69
408.673	450.69
408.896	481.69
409.12	523.69
409.344	496.69
409.567	438.69
409.791	413.69
410.014	409.69
410.238	414.69
410.461	412.69
410.685	424.69
410.908	423.69
411.132	458.69
411.355	471.69
411.578	483.69
411.802	424.69
412.025	445.69
412.249	437.69
412.472	423.69
412.695	464.69
412.919	442.69
413.142	422.69
413.365	413.69
413.589	387.69
413.812	388.69
414.035	380.69
414.258	389.69
414.482	382.69
414.705	394.69
414.928	375.69
415.151	388.69
415.374	389.69
415.597	392.69
415.821	400.69
416.044	387.69
416.267	394.69
416.49	370.69
416.713	382.69
416.936	393.69
417.159	385.69
417.382	381.69
417.605	417.69
417.828	387.69
418.051	398.69
418.274	399.69
418.497	400.69
418.72	419.69
418.943	368.69
419.166	379.69
419.389	399.69
419.611	398.69
419.834	409.69
420.057	415.69
420.28	407.69
420.503	417.69
420.726	423.69
420.948	421.69
421.171	451.69
421.394	473.69
421.617	425.69
421.839	410.69
422.062	405.69
422.285	424.69
422.507	455.69
422.73	519.69
422.953	519.69
423.175	438.69
423.398	443.69
423.621	422.69
423.843	457.69
424.066	446.69
424.288	448.69
424.511	464.69
424.733	513.69
424.956	577.69
425.178	551.69
425.401	542.69
425.623	554.69
425.846	476.69
426.068	449.69
426.291	451.69
426.513	449.69
426.735	468.69
426.958	469.69
427.18	561.69
427.402	661.69
427.625	732.69
427.847	650.69
428.069	583.69
428.292	498.69
428.514	469.69
428.736	437.69
428.958	437.69
429.181	420.69
429.403	416.69
429.625	435.69
429.847	461.69
430.069	507.69
430.292	509.69
430.514	448.69
430.736	423.69
430.958	414.69
431.18	410.69
431.402	384.69
431.624	378.69
431.846	381.69
432.068	378.69
432.29	387.69
432.512	408.69
432.734	400.69
432.956	381.69
433.178	404.69
433.4	400.69
433.622	393.69
433.844	384.69
434.066	382.69
434.287	391.69
434.509	389.69
434.731	387.69
434.953	397.69
435.175	409.69
435.397	430.69
435.618	447.69
435.84	496.69
436.062	581.69
436.284	613.69
436.505	503.69
436.727	481.69
436.949	453.69
437.17	419.69
437.392	426.69
437.614	432.69
437.835	461.69
438.057	576.69
438.278	627.69
438.5	639.69
438.721	663.69
438.943	646.69
439.165	511.69
439.386	465.69
439.608	461.69
439.829	486.69
440.05	475.69
440.272	552.69
440.493	486.69
440.715	457.69
440.936	436.69
441.158	441.69
441.379	410.69
441.6	443.69
441.822	443.69
442.043	493.69
442.264	556.69
442.486	573.69
442.707	513.69
442.928	485.69
443.149	467.69
443.371	484.69
443.592	532.69
443.813	590.69
444.034	627.69
444.255	528.69
444.476	484.69
444.698	464.69
444.919	444.69
445.14	533.69
445.361	492.69
445.582	476.69
445.803	547.69
446.024	656.69
446.245	653.69
446.466	570.69
446.687	490.69
446.908	445.69
447.129	439.69
447.35	396.69
447.571	433.69
447.792	423.69
448.013	435.69
448.234	437.69
448.455	488.69
448.675	585.69
448.896	639.69
449.117	576.69
449.338	530.69
449.559	606.69
449.779	682.69
450	557.69
450.221	477.69
450.442	437.69
450.662	425.69
450.883	437.69
451.104	430.69
451.324	438.69
451.545	390.69
451.766	396.69
451.986	388.69
452.207	392.69
452.428	374.69
452.648	399.69
452.869	378.69
453.089	387.69
453.31	391.69
453.53	394.69
453.751	397.69
453.971	392.69
454.192	400.69
454.412	381.69
454.633	359.69
454.853	359.69
455.073	377.69
455.294	400.69
455.514	473.69
455.734	423.69
455.955	368.69
456.175	355.69
456.395	366.69
456.616	377.69
456.836	353.69
457.056	346.69
457.276	347.69
457.497	337.69
457.717	361.69
457.937	345.69
458.157	378.69
458.377	375.69
458.598	387.69
458.818	449.69
459.038	511.69
459.258	528.69
459.478	428.69
459.698	413.69
459.918	408.69
460.138	383.69
460.358	393.69
460.578	386.69
460.798	389.69
461.018	382.69
461.238	388.69
461.458	388.69
461.678	377.69
461.898	372.69
462.118	380.69
462.338	386.69
462.558	383.69
462.777	398.69
462.997	421.69
463.217	410.69
463.437	396.69
463.657	390.69
463.876	399.69
464.096	386.69
464.316	393.69
464.536	391.69
464.755	394.69
464.975	396.69
465.195	481.69
465.414	529.69
465.634	474.69
465.854	427.69
466.073	421.69
466.293	398.69
466.512	379.69
466.732	380.69
466.951	377.69
467.171	389.69
467.391	359.69
467.61	379.69
467.829	373.69
468.049	405.69
468.268	368.69
468.488	379.69
468.707	365.69
468.927	350.69
469.146	358.69
469.365	372.69
469.585	376.69
469.804	346.69
470.023	381.69
470.243	376.69
470.462	386.69
470.681	386.69
470.901	367.69
471.12	381.69
471.339	384.69
471.558	365.69
471.777	368.69
471.997	371.69
472.216	371.69
472.435	399.69
472.654	409.69
472.873	369.69
473.092	387.69
473.311	386.69
473.53	379.69
473.749	379.69
473.968	433.69
474.187	541.69
474.406	547.69
474.625	453.69
474.844	385.69
475.063	387.69
475.282	393.69
475.501	385.69
475.72	405.69
475.939	400.69
476.158	383.69
476.377	391.69
476.596	385.69
476.814	396.69
477.033	399.69
477.252	389.69
477.471	406.69
477.69	397.69
477.908	393.69
478.127	395.69
478.346	407.69
478.564	399.69
478.783	424.69
479.002	435.69
479.22	445.69
479.439	426.69
479.658	465.69
479.876	460.69
480.095	459.69
480.313	466.69
480.532	483.69
480.751	455.69
480.969	472.69
481.188	475.69
481.406	534.69
481.624	480.69
481.843	473.69
482.061	466.69
482.28	431.69
482.498	441.69
482.717	432.69
482.935	439.69
483.153	454.69
483.372	438.69
483.59	457.69
483.808	438.69
484.027	427.69
484.245	456.69
484.463	438.69
484.681	461.69
484.9	459.69
485.118	449.69
485.336	431.69
485.554	467.69
485.772	465.69
485.99	470.69
486.209	486.69
486.427	463.69
486.645	477.69
486.863	488.69
487.081	468.69
487.299	483.69
487.517	505.69
487.735	474.69
487.953	479.69
488.171	481.69
488.389	486.69
488.607	469.69
488.825	490.69
489.043	499.69
489.261	508.69
489.479	503.69
489.696	489.69
489.914	490.69
490.132	492.69
490.35	495.69
490.568	477.69
490.786	491.69
491.003	512.69
491.221	535.69
491.439	528.69
491.657	525.69
491.874	556.69
492.092	509.69
492.31	552.69
492.527	558.69
492.745	553.69
492.963	542.69
493.18	533.69
493.398	560.69
493.615	567.69
493.833	548.69
494.05	553.69
494.268	573.69
494.485	557.69
494.703	556.69
494.92	550.69
495.138	535.69
495.355	574.69
495.573	584.69
495.79	573.69
496.008	583.69
496.225	574.69
496.442	559.69
496.66	557.69
496.877	563.69
497.094	556.69
497.312	575.69
497.529	592.69
497.746	589.69
497.963	601.69
498.181	624.69
498.398	594.69
498.615	642.69
498.832	620.69
499.049	612.69
499.267	645.69
499.484	628.69
499.701	654.69
499.918	660.69
500.135	701.69
500.352	718.69
500.569	716.69
500.786	691.69
501.003	703.69
501.22	700.69
501.437	676.69
501.654	681.69
501.871	676.69
