Data from 1981.PennyLincolnUp.Lamp.En5.5.200Scan.071819.P1_HRD10591_16-42-14-960.txt Node
Date: Thu Jul 18 16:42:14 EDT 2019
User: cochatt
Spectrometer: HR+D1059
Trigger mode: 1
Integration Time (sec): 1.000000E-1
Scans to average: 1
Electric dark correction enabled: true
Nonlinearity correction enabled: false
Boxcar width: 0
XAxis mode: Wavelengths
Number of Pixels in Spectrum: 2048
>>>>>Begin Spectral Data<<<<<
223.165	-16.62
223.4	-16.62
223.635	-16.62
223.869	-9.62
224.104	-11.62
224.338	-10.62
224.573	-26.62
224.808	-20.62
225.042	-10.62
225.277	-10.62
225.511	3.38
225.746	1.38
225.98	10.38
226.215	0.38
226.449	13.38
226.683	9.38
226.918	37.38
227.152	41.38
227.387	30.38
227.621	51.38
227.856	50.38
228.09	48.38
228.324	51.38
228.559	50.38
228.793	76.38
229.027	100.38
229.262	92.38
229.496	110.38
229.73	136.38
229.964	163.38
230.199	131.38
230.433	125.38
230.667	102.38
230.901	109.38
231.136	125.38
231.37	121.38
231.604	110.38
231.838	114.38
232.072	115.38
232.306	120.38
232.541	116.38
232.775	113.38
233.009	107.38
233.243	118.38
233.477	116.38
233.711	106.38
233.945	108.38
234.179	110.38
234.413	115.38
234.647	117.38
234.881	118.38
235.115	107.38
235.349	126.38
235.583	136.38
235.817	116.38
236.051	122.38
236.285	123.38
236.519	121.38
236.753	131.38
236.987	139.38
237.221	191.38
237.455	228.38
237.689	195.38
237.922	158.38
238.156	154.38
238.39	141.38
238.624	125.38
238.858	123.38
239.091	120.38
239.325	137.38
239.559	117.38
239.793	130.38
240.027	133.38
240.26	140.38
240.494	157.38
240.728	165.38
240.961	156.38
241.195	153.38
241.429	148.38
241.662	140.38
241.896	135.38
242.13	141.38
242.363	140.38
242.597	133.38
242.83	129.38
243.064	130.38
243.298	143.38
243.531	145.38
243.765	144.38
243.998	141.38
244.232	154.38
244.465	135.38
244.699	151.38
244.932	152.38
245.166	145.38
245.399	155.38
245.633	155.38
245.866	141.38
246.099	136.38
246.333	153.38
246.566	150.38
246.8	142.38
247.033	152.38
247.266	162.38
247.5	153.38
247.733	169.38
247.966	170.38
248.2	189.38
248.433	173.38
248.666	181.38
248.899	181.38
249.133	200.38
249.366	219.38
249.599	196.38
249.832	198.38
250.066	199.38
250.299	196.38
250.532	204.38
250.765	193.38
250.998	228.38
251.231	235.38
251.465	218.38
251.698	194.38
251.931	221.38
252.164	198.38
252.397	216.38
252.63	229.38
252.863	229.38
253.096	234.38
253.329	225.38
253.562	243.38
253.795	226.38
254.028	228.38
254.261	233.38
254.494	236.38
254.727	277.38
254.96	310.38
255.193	283.38
255.426	266.38
255.659	239.38
255.892	233.38
256.124	252.38
256.357	241.38
256.59	263.38
256.823	214.38
257.056	228.38
257.289	223.38
257.521	226.38
257.754	214.38
257.987	231.38
258.22	220.38
258.452	226.38
258.685	216.38
258.918	216.38
259.151	230.38
259.383	234.38
259.616	224.38
259.849	238.38
260.081	257.38
260.314	275.38
260.547	273.38
260.779	245.38
261.012	247.38
261.244	265.38
261.477	241.38
261.71	235.38
261.942	243.38
262.175	241.38
262.407	229.38
262.64	231.38
262.872	217.38
263.105	235.38
263.337	232.38
263.57	229.38
263.802	222.38
264.035	219.38
264.267	210.38
264.499	229.38
264.732	228.38
264.964	230.38
265.197	213.38
265.429	207.38
265.661	190.38
265.894	228.38
266.126	194.38
266.358	245.38
266.591	211.38
266.823	231.38
267.055	242.38
267.287	217.38
267.52	247.38
267.752	221.38
267.984	231.38
268.216	241.38
268.448	257.38
268.681	238.38
268.913	263.38
269.145	281.38
269.377	292.38
269.609	301.38
269.841	294.38
270.073	284.38
270.306	312.38
270.538	332.38
270.77	315.38
271.002	321.38
271.234	321.38
271.466	345.38
271.698	354.38
271.93	350.38
272.162	338.38
272.394	358.38
272.626	311.38
272.858	320.38
273.09	295.38
273.322	295.38
273.553	282.38
273.785	287.38
274.017	281.38
274.249	272.38
274.481	261.38
274.713	270.38
274.945	273.38
275.176	283.38
275.408	274.38
275.64	274.38
275.872	283.38
276.104	290.38
276.335	291.38
276.567	286.38
276.799	305.38
277.031	337.38
277.262	321.38
277.494	324.38
277.726	314.38
277.957	301.38
278.189	294.38
278.421	287.38
278.652	263.38
278.884	267.38
279.115	267.38
279.347	278.38
279.579	273.38
279.81	278.38
280.042	278.38
280.273	264.38
280.505	266.38
280.736	259.38
280.968	284.38
281.199	270.38
281.431	266.38
281.662	268.38
281.894	273.38
282.125	278.38
282.356	286.38
282.588	316.38
282.819	309.38
283.051	294.38
283.282	284.38
283.513	296.38
283.745	265.38
283.976	284.38
284.207	282.38
284.439	300.38
284.67	279.38
284.901	297.38
285.132	279.38
285.364	289.38
285.595	281.38
285.826	280.38
286.057	287.38
286.288	254.38
286.52	306.38
286.751	271.38
286.982	286.38
287.213	285.38
287.444	295.38
287.675	300.38
287.906	309.38
288.138	317.38
288.369	300.38
288.6	299.38
288.831	294.38
289.062	291.38
289.293	297.38
289.524	302.38
289.755	307.38
289.986	300.38
290.217	301.38
290.448	281.38
290.679	283.38
290.91	287.38
291.141	280.38
291.371	289.38
291.602	309.38
291.833	293.38
292.064	286.38
292.295	276.38
292.526	282.38
292.757	269.38
292.987	291.38
293.218	297.38
293.449	296.38
293.68	305.38
293.91	279.38
294.141	306.38
294.372	293.38
294.603	285.38
294.833	282.38
295.064	271.38
295.295	310.38
295.525	280.38
295.756	296.38
295.987	308.38
296.217	334.38
296.448	350.38
296.679	317.38
296.909	311.38
297.14	294.38
297.37	299.38
297.601	317.38
297.831	279.38
298.062	305.38
298.292	305.38
298.523	314.38
298.753	309.38
298.984	300.38
299.214	316.38
299.445	311.38
299.675	320.38
299.905	315.38
300.136	308.38
300.366	301.38
300.597	315.38
300.827	314.38
301.057	339.38
301.288	328.38
301.518	334.38
301.748	315.38
301.979	331.38
302.209	310.38
302.439	311.38
302.669	319.38
302.9	338.38
303.13	327.38
303.36	337.38
303.59	318.38
303.82	352.38
304.051	337.38
304.281	327.38
304.511	318.38
304.741	318.38
304.971	340.38
305.201	312.38
305.431	323.38
305.661	333.38
305.891	339.38
306.121	324.38
306.352	300.38
306.582	332.38
306.812	332.38
307.042	330.38
307.272	322.38
307.502	318.38
307.731	343.38
307.961	334.38
308.191	319.38
308.421	366.38
308.651	330.38
308.881	336.38
309.111	347.38
309.341	351.38
309.571	353.38
309.8	354.38
310.03	381.38
310.26	407.38
310.49	402.38
310.72	391.38
310.949	405.38
311.179	414.38
311.409	401.38
311.639	381.38
311.868	392.38
312.098	383.38
312.328	425.38
312.557	413.38
312.787	434.38
313.017	431.38
313.246	395.38
313.476	395.38
313.706	399.38
313.935	416.38
314.165	411.38
314.394	420.38
314.624	408.38
314.853	404.38
315.083	387.38
315.312	372.38
315.542	377.38
315.771	379.38
316.001	357.38
316.23	378.38
316.46	385.38
316.689	371.38
316.919	392.38
317.148	415.38
317.377	413.38
317.607	403.38
317.836	385.38
318.065	394.38
318.295	391.38
318.524	362.38
318.753	379.38
318.983	385.38
319.212	389.38
319.441	417.38
319.67	399.38
319.9	402.38
320.129	384.38
320.358	393.38
320.587	395.38
320.816	412.38
321.046	419.38
321.275	424.38
321.504	416.38
321.733	415.38
321.962	438.38
322.191	453.38
322.42	441.38
322.649	462.38
322.878	477.38
323.108	500.38
323.337	530.38
323.566	562.38
323.795	581.38
324.024	661.38
324.253	805.38
324.482	1185.38
324.71	1859.38
324.939	2496.38
325.168	2104.38
325.397	1090.38
325.626	733.38
325.855	633.38
326.084	546.38
326.313	563.38
326.542	582.38
326.77	626.38
326.999	737.38
327.228	1066.38
327.457	1549.38
327.686	1821.38
327.914	1239.38
328.143	825.38
328.372	703.38
328.6	674.38
328.829	645.38
329.058	634.38
329.287	649.38
329.515	598.38
329.744	543.38
329.972	547.38
330.201	573.38
330.43	609.38
330.658	636.38
330.887	653.38
331.115	639.38
331.344	583.38
331.572	501.38
331.801	513.38
332.03	485.38
332.258	503.38
332.486	458.38
332.715	466.38
332.943	468.38
333.172	436.38
333.4	453.38
333.629	454.38
333.857	474.38
334.085	475.38
334.314	511.38
334.542	529.38
334.771	529.38
334.999	515.38
335.227	455.38
335.455	451.38
335.684	450.38
335.912	452.38
336.14	433.38
336.369	418.38
336.597	462.38
336.825	473.38
337.053	424.38
337.281	431.38
337.51	418.38
337.738	442.38
337.966	454.38
338.194	439.38
338.422	427.38
338.65	423.38
338.878	426.38
339.106	423.38
339.334	413.38
339.562	423.38
339.79	418.38
340.018	438.38
340.246	438.38
340.474	428.38
340.702	416.38
340.93	423.38
341.158	421.38
341.386	420.38
341.614	432.38
341.842	420.38
342.07	423.38
342.298	417.38
342.526	407.38
342.754	418.38
342.981	412.38
343.209	410.38
343.437	407.38
343.665	421.38
343.893	403.38
344.12	426.38
344.348	433.38
344.576	430.38
344.804	435.38
345.031	452.38
345.259	433.38
345.487	443.38
345.714	435.38
345.942	410.38
346.17	416.38
346.397	420.38
346.625	409.38
346.853	429.38
347.08	407.38
347.308	428.38
347.535	415.38
347.763	419.38
347.99	425.38
348.218	412.38
348.445	433.38
348.673	440.38
348.9	408.38
349.128	411.38
349.355	386.38
349.583	386.38
349.81	397.38
350.037	386.38
350.265	411.38
350.492	389.38
350.72	409.38
350.947	424.38
351.174	421.38
351.402	426.38
351.629	416.38
351.856	420.38
352.083	417.38
352.311	454.38
352.538	429.38
352.765	443.38
352.992	430.38
353.22	417.38
353.447	410.38
353.674	414.38
353.901	394.38
354.128	377.38
354.355	391.38
354.583	370.38
354.81	364.38
355.037	379.38
355.264	371.38
355.491	351.38
355.718	362.38
355.945	371.38
356.172	361.38
356.399	351.38
356.626	345.38
356.853	364.38
357.08	358.38
357.307	381.38
357.534	355.38
357.761	389.38
357.988	379.38
358.215	377.38
358.441	343.38
358.668	346.38
358.895	387.38
359.122	383.38
359.349	380.38
359.576	387.38
359.802	414.38
360.029	463.38
360.256	454.38
360.483	447.38
360.709	403.38
360.936	394.38
361.163	395.38
361.39	412.38
361.616	422.38
361.843	385.38
362.07	403.38
362.296	409.38
362.523	383.38
362.749	385.38
362.976	409.38
363.203	396.38
363.429	384.38
363.656	376.38
363.882	369.38
364.109	366.38
364.335	331.38
364.562	358.38
364.788	372.38
365.015	371.38
365.241	381.38
365.468	388.38
365.694	385.38
365.92	373.38
366.147	371.38
366.373	378.38
366.599	370.38
366.826	375.38
367.052	358.38
367.278	371.38
367.505	359.38
367.731	379.38
367.957	360.38
368.184	373.38
368.41	370.38
368.636	391.38
368.862	383.38
369.089	375.38
369.315	390.38
369.541	361.38
369.767	373.38
369.993	369.38
370.219	357.38
370.445	357.38
370.672	359.38
370.898	363.38
371.124	377.38
371.35	358.38
371.576	367.38
371.802	350.38
372.028	341.38
372.254	355.38
372.48	349.38
372.706	357.38
372.932	364.38
373.158	366.38
373.384	342.38
373.61	368.38
373.835	369.38
374.061	354.38
374.287	359.38
374.513	383.38
374.739	361.38
374.965	362.38
375.191	358.38
375.416	350.38
375.642	360.38
375.868	362.38
376.094	343.38
376.319	365.38
376.545	366.38
376.771	351.38
376.997	347.38
377.222	363.38
377.448	350.38
377.674	358.38
377.899	341.38
378.125	357.38
378.35	338.38
378.576	339.38
378.802	327.38
379.027	341.38
379.253	337.38
379.478	328.38
379.704	342.38
379.929	354.38
380.155	351.38
380.38	371.38
380.606	357.38
380.831	350.38
381.057	347.38
381.282	362.38
381.507	353.38
381.733	356.38
381.958	345.38
382.184	343.38
382.409	375.38
382.634	350.38
382.86	372.38
383.085	343.38
383.31	350.38
383.535	351.38
383.761	377.38
383.986	349.38
384.211	353.38
384.436	355.38
384.662	370.38
384.887	360.38
385.112	369.38
385.337	373.38
385.562	377.38
385.787	359.38
386.013	365.38
386.238	378.38
386.463	383.38
386.688	390.38
386.913	369.38
387.138	381.38
387.363	357.38
387.588	366.38
387.813	352.38
388.038	352.38
388.263	364.38
388.488	363.38
388.713	370.38
388.938	370.38
389.163	359.38
389.387	371.38
389.612	392.38
389.837	371.38
390.062	355.38
390.287	371.38
390.512	363.38
390.736	365.38
390.961	372.38
391.186	357.38
391.411	359.38
391.636	372.38
391.86	369.38
392.085	380.38
392.31	369.38
392.534	358.38
392.759	369.38
392.984	364.38
393.208	365.38
393.433	374.38
393.658	357.38
393.882	370.38
394.107	373.38
394.331	378.38
394.556	348.38
394.78	367.38
395.005	364.38
395.229	362.38
395.454	378.38
395.678	391.38
395.903	393.38
396.127	394.38
396.352	394.38
396.576	394.38
396.801	373.38
397.025	374.38
397.249	391.38
397.474	390.38
397.698	390.38
397.922	398.38
398.147	418.38
398.371	428.38
398.595	413.38
398.82	393.38
399.044	419.38
399.268	409.38
399.492	423.38
399.717	421.38
399.941	480.38
400.165	495.38
400.389	517.38
400.613	459.38
400.837	424.38
401.062	419.38
401.286	406.38
401.51	409.38
401.734	402.38
401.958	415.38
402.182	405.38
402.406	425.38
402.63	430.38
402.854	426.38
403.078	431.38
403.302	413.38
403.526	420.38
403.75	431.38
403.974	427.38
404.198	417.38
404.422	418.38
404.645	439.38
404.869	444.38
405.093	470.38
405.317	483.38
405.541	519.38
405.765	478.38
405.988	455.38
406.212	461.38
406.436	470.38
406.66	499.38
406.883	473.38
407.107	485.38
407.331	512.38
407.555	567.38
407.778	565.38
408.002	503.38
408.226	484.38
408.449	467.38
408.673	465.38
408.896	510.38
409.12	505.38
409.344	490.38
409.567	443.38
409.791	413.38
410.014	421.38
410.238	437.38
410.461	418.38
410.685	437.38
410.908	442.38
411.132	478.38
411.355	509.38
411.578	476.38
411.802	450.38
412.025	448.38
412.249	435.38
412.472	440.38
412.695	477.38
412.919	484.38
413.142	428.38
413.365	435.38
413.589	409.38
413.812	394.38
414.035	393.38
414.258	377.38
414.482	391.38
414.705	403.38
414.928	397.38
415.151	398.38
415.374	394.38
415.597	402.38
415.821	394.38
416.044	401.38
416.267	403.38
416.49	406.38
416.713	386.38
416.936	404.38
417.159	376.38
417.382	382.38
417.605	398.38
417.828	415.38
418.051	429.38
418.274	419.38
418.497	414.38
418.72	393.38
418.943	392.38
419.166	427.38
419.389	424.38
419.611	413.38
419.834	398.38
420.057	424.38
420.28	409.38
420.503	415.38
420.726	437.38
420.948	456.38
421.171	477.38
421.394	515.38
421.617	464.38
421.839	426.38
422.062	418.38
422.285	429.38
422.507	491.38
422.73	546.38
422.953	530.38
423.175	456.38
423.398	448.38
423.621	431.38
423.843	461.38
424.066	441.38
424.288	463.38
424.511	471.38
424.733	542.38
424.956	570.38
425.178	571.38
425.401	549.38
425.623	593.38
425.846	525.38
426.068	481.38
426.291	459.38
426.513	476.38
426.735	492.38
426.958	547.38
427.18	612.38
427.402	705.38
427.625	754.38
427.847	716.38
428.069	591.38
428.292	515.38
428.514	455.38
428.736	458.38
428.958	437.38
429.181	419.38
429.403	419.38
429.625	429.38
429.847	460.38
430.069	536.38
430.292	519.38
430.514	441.38
430.736	436.38
430.958	411.38
431.18	411.38
431.402	408.38
431.624	405.38
431.846	383.38
432.068	386.38
432.29	373.38
432.512	388.38
432.734	399.38
432.956	399.38
433.178	409.38
433.4	420.38
433.622	425.38
433.844	396.38
434.066	412.38
434.287	382.38
434.509	388.38
434.731	407.38
434.953	413.38
435.175	438.38
435.397	454.38
435.618	479.38
435.84	510.38
436.062	602.38
436.284	641.38
436.505	542.38
436.727	494.38
436.949	449.38
437.17	433.38
437.392	417.38
437.614	470.38
437.835	483.38
438.057	562.38
438.278	673.38
438.5	691.38
438.721	711.38
438.943	668.38
439.165	545.38
439.386	507.38
439.608	493.38
439.829	489.38
440.05	517.38
440.272	556.38
440.493	521.38
440.715	487.38
440.936	448.38
441.158	460.38
441.379	444.38
441.6	441.38
441.822	464.38
442.043	507.38
442.264	570.38
442.486	605.38
442.707	505.38
442.928	467.38
443.149	507.38
443.371	504.38
443.592	548.38
443.813	609.38
444.034	676.38
444.255	558.38
444.476	499.38
444.698	466.38
444.919	475.38
445.14	577.38
445.361	527.38
445.582	501.38
445.803	597.38
446.024	677.38
446.245	705.38
446.466	599.38
446.687	534.38
446.908	476.38
447.129	443.38
447.35	440.38
447.571	447.38
447.792	415.38
448.013	445.38
448.234	463.38
448.455	523.38
448.675	629.38
448.896	697.38
449.117	595.38
449.338	583.38
449.559	666.38
449.779	734.38
450	611.38
450.221	497.38
450.442	455.38
450.662	438.38
450.883	443.38
451.104	473.38
451.324	429.38
451.545	439.38
451.766	422.38
451.986	401.38
452.207	401.38
452.428	387.38
452.648	387.38
452.869	408.38
453.089	418.38
453.31	400.38
453.53	421.38
453.751	401.38
453.971	414.38
454.192	406.38
454.412	418.38
454.633	406.38
454.853	402.38
455.073	383.38
455.294	424.38
455.514	485.38
455.734	474.38
455.955	381.38
456.175	374.38
456.395	372.38
456.616	365.38
456.836	346.38
457.056	364.38
457.276	381.38
457.497	374.38
457.717	375.38
457.937	369.38
458.157	372.38
458.377	381.38
458.598	413.38
458.818	446.38
459.038	557.38
459.258	549.38
459.478	470.38
459.698	415.38
459.918	397.38
460.138	399.38
460.358	396.38
460.578	387.38
460.798	394.38
461.018	401.38
461.238	405.38
461.458	398.38
461.678	373.38
461.898	397.38
462.118	381.38
462.338	409.38
462.558	400.38
462.777	386.38
462.997	400.38
463.217	417.38
463.437	430.38
463.657	411.38
463.876	420.38
464.096	423.38
464.316	408.38
464.536	421.38
464.755	410.38
464.975	427.38
465.195	479.38
465.414	555.38
465.634	485.38
465.854	438.38
466.073	424.38
466.293	409.38
466.512	399.38
466.732	401.38
466.951	388.38
467.171	390.38
467.391	387.38
467.61	399.38
467.829	386.38
468.049	405.38
468.268	389.38
468.488	394.38
468.707	377.38
468.927	401.38
469.146	380.38
469.365	378.38
469.585	363.38
469.804	386.38
470.023	383.38
470.243	406.38
470.462	385.38
470.681	401.38
470.901	421.38
471.12	404.38
471.339	394.38
471.558	383.38
471.777	406.38
471.997	379.38
472.216	396.38
472.435	422.38
472.654	401.38
472.873	396.38
473.092	413.38
473.311	370.38
473.53	379.38
473.749	385.38
473.968	429.38
474.187	564.38
474.406	581.38
474.625	458.38
474.844	443.38
475.063	417.38
475.282	433.38
475.501	402.38
475.72	414.38
475.939	409.38
476.158	417.38
476.377	389.38
476.596	395.38
476.814	407.38
477.033	429.38
477.252	453.38
477.471	424.38
477.69	421.38
477.908	417.38
478.127	410.38
478.346	430.38
478.564	424.38
478.783	420.38
479.002	405.38
479.22	439.38
479.439	451.38
479.658	465.38
479.876	467.38
480.095	470.38
480.313	511.38
480.532	484.38
480.751	481.38
480.969	506.38
481.188	545.38
481.406	576.38
481.624	500.38
481.843	490.38
482.061	484.38
482.28	470.38
482.498	469.38
482.717	452.38
482.935	460.38
483.153	440.38
483.372	458.38
483.59	453.38
483.808	458.38
484.027	463.38
484.245	453.38
484.463	467.38
484.681	469.38
484.9	443.38
485.118	464.38
485.336	489.38
485.554	464.38
485.772	473.38
485.99	478.38
486.209	479.38
486.427	485.38
486.645	494.38
486.863	500.38
487.081	504.38
487.299	488.38
487.517	467.38
487.735	518.38
487.953	463.38
488.171	469.38
488.389	509.38
488.607	491.38
488.825	513.38
489.043	513.38
489.261	500.38
489.479	527.38
489.696	493.38
489.914	508.38
490.132	513.38
490.35	499.38
490.568	540.38
490.786	540.38
491.003	533.38
491.221	552.38
491.439	565.38
491.657	551.38
491.874	590.38
492.092	569.38
492.31	580.38
492.527	590.38
492.745	574.38
492.963	568.38
493.18	581.38
493.398	577.38
493.615	600.38
493.833	607.38
494.05	596.38
494.268	587.38
494.485	582.38
494.703	569.38
494.92	602.38
495.138	583.38
495.355	601.38
495.573	619.38
495.79	598.38
496.008	611.38
496.225	602.38
496.442	575.38
496.66	593.38
496.877	589.38
497.094	569.38
497.312	603.38
497.529	611.38
497.746	627.38
497.963	623.38
498.181	625.38
498.398	639.38
498.615	630.38
498.832	649.38
499.049	667.38
499.267	622.38
499.484	663.38
499.701	661.38
499.918	684.38
500.135	687.38
500.352	711.38
500.569	743.38
500.786	731.38
501.003	718.38
501.22	723.38
501.437	698.38
501.654	700.38
501.871	708.38
