Data from 1981.PennyLincolnUp.Lamp.En5.5.200Scan.071819.P1_HRD10591_16-41-45-959.txt Node
Date: Thu Jul 18 16:41:45 EDT 2019
User: cochatt
Spectrometer: HR+D1059
Trigger mode: 1
Integration Time (sec): 1.000000E-1
Scans to average: 1
Electric dark correction enabled: true
Nonlinearity correction enabled: false
Boxcar width: 0
XAxis mode: Wavelengths
Number of Pixels in Spectrum: 2048
>>>>>Begin Spectral Data<<<<<
223.165	-23.44
223.4	-23.44
223.635	-23.44
223.869	-19.44
224.104	-14.44
224.338	-20.44
224.573	-7.44
224.808	-24.44
225.042	-12.44
225.277	9.56
225.511	-0.44
225.746	-1.44
225.98	7.56
226.215	18.56
226.449	20.56
226.683	12.56
226.918	16.56
227.152	38.56
227.387	39.56
227.621	46.56
227.856	46.56
228.09	44.56
228.324	62.56
228.559	43.56
228.793	62.56
229.027	90.56
229.262	110.56
229.496	110.56
229.73	145.56
229.964	155.56
230.199	129.56
230.433	136.56
230.667	108.56
230.901	129.56
231.136	109.56
231.37	122.56
231.604	106.56
231.838	111.56
232.072	117.56
232.306	126.56
232.541	111.56
232.775	124.56
233.009	115.56
233.243	111.56
233.477	121.56
233.711	119.56
233.945	116.56
234.179	103.56
234.413	105.56
234.647	118.56
234.881	117.56
235.115	116.56
235.349	116.56
235.583	124.56
235.817	121.56
236.051	124.56
236.285	134.56
236.519	129.56
236.753	131.56
236.987	143.56
237.221	187.56
237.455	232.56
237.689	201.56
237.922	150.56
238.156	135.56
238.39	129.56
238.624	125.56
238.858	127.56
239.091	133.56
239.325	126.56
239.559	122.56
239.793	127.56
240.027	125.56
240.26	132.56
240.494	163.56
240.728	163.56
240.961	156.56
241.195	155.56
241.429	131.56
241.662	136.56
241.896	142.56
242.13	137.56
242.363	139.56
242.597	143.56
242.83	131.56
243.064	135.56
243.298	137.56
243.531	139.56
243.765	147.56
243.998	156.56
244.232	142.56
244.465	139.56
244.699	136.56
244.932	143.56
245.166	171.56
245.399	141.56
245.633	134.56
245.866	143.56
246.099	148.56
246.333	147.56
246.566	151.56
246.8	148.56
247.033	155.56
247.266	157.56
247.5	179.56
247.733	167.56
247.966	174.56
248.2	183.56
248.433	183.56
248.666	175.56
248.899	187.56
249.133	210.56
249.366	225.56
249.599	200.56
249.832	199.56
250.066	187.56
250.299	173.56
250.532	188.56
250.765	215.56
250.998	230.56
251.231	233.56
251.465	226.56
251.698	227.56
251.931	223.56
252.164	226.56
252.397	214.56
252.63	219.56
252.863	219.56
253.096	227.56
253.329	237.56
253.562	231.56
253.795	222.56
254.028	239.56
254.261	252.56
254.494	247.56
254.727	261.56
254.96	291.56
255.193	291.56
255.426	260.56
255.659	255.56
255.892	250.56
256.124	243.56
256.357	256.56
256.59	229.56
256.823	220.56
257.056	228.56
257.289	224.56
257.521	225.56
257.754	224.56
257.987	207.56
258.22	225.56
258.452	222.56
258.685	209.56
258.918	230.56
259.151	233.56
259.383	232.56
259.616	232.56
259.849	236.56
260.081	229.56
260.314	266.56
260.547	264.56
260.779	243.56
261.012	247.56
261.244	230.56
261.477	223.56
261.71	229.56
261.942	240.56
262.175	251.56
262.407	243.56
262.64	221.56
262.872	233.56
263.105	232.56
263.337	235.56
263.57	215.56
263.802	235.56
264.035	224.56
264.267	216.56
264.499	228.56
264.732	228.56
264.964	228.56
265.197	220.56
265.429	219.56
265.661	215.56
265.894	207.56
266.126	219.56
266.358	207.56
266.591	220.56
266.823	228.56
267.055	245.56
267.287	229.56
267.52	227.56
267.752	238.56
267.984	224.56
268.216	238.56
268.448	244.56
268.681	244.56
268.913	267.56
269.145	261.56
269.377	301.56
269.609	284.56
269.841	282.56
270.073	307.56
270.306	299.56
270.538	337.56
270.77	319.56
271.002	331.56
271.234	303.56
271.466	316.56
271.698	322.56
271.93	325.56
272.162	325.56
272.394	333.56
272.626	320.56
272.858	313.56
273.09	296.56
273.322	309.56
273.553	281.56
273.785	279.56
274.017	269.56
274.249	269.56
274.481	292.56
274.713	276.56
274.945	287.56
275.176	287.56
275.408	264.56
275.64	277.56
275.872	272.56
276.104	289.56
276.335	270.56
276.567	273.56
276.799	300.56
277.031	328.56
277.262	328.56
277.494	332.56
277.726	329.56
277.957	305.56
278.189	296.56
278.421	297.56
278.652	280.56
278.884	279.56
279.115	278.56
279.347	278.56
279.579	281.56
279.81	284.56
280.042	278.56
280.273	280.56
280.505	282.56
280.736	269.56
280.968	269.56
281.199	261.56
281.431	286.56
281.662	273.56
281.894	283.56
282.125	287.56
282.356	297.56
282.588	318.56
282.819	301.56
283.051	291.56
283.282	272.56
283.513	297.56
283.745	253.56
283.976	291.56
284.207	282.56
284.439	286.56
284.67	284.56
284.901	272.56
285.132	279.56
285.364	291.56
285.595	278.56
285.826	294.56
286.057	277.56
286.288	282.56
286.52	285.56
286.751	289.56
286.982	296.56
287.213	279.56
287.444	321.56
287.675	291.56
287.906	295.56
288.138	310.56
288.369	315.56
288.6	304.56
288.831	292.56
289.062	293.56
289.293	298.56
289.524	313.56
289.755	295.56
289.986	286.56
290.217	290.56
290.448	290.56
290.679	290.56
290.91	275.56
291.141	293.56
291.371	292.56
291.602	290.56
291.833	294.56
292.064	290.56
292.295	308.56
292.526	303.56
292.757	285.56
292.987	291.56
293.218	287.56
293.449	279.56
293.68	294.56
293.91	296.56
294.141	290.56
294.372	313.56
294.603	302.56
294.833	283.56
295.064	295.56
295.295	316.56
295.525	311.56
295.756	296.56
295.987	325.56
296.217	325.56
296.448	351.56
296.679	323.56
296.909	308.56
297.14	293.56
297.37	292.56
297.601	295.56
297.831	296.56
298.062	293.56
298.292	297.56
298.523	322.56
298.753	292.56
298.984	301.56
299.214	317.56
299.445	323.56
299.675	311.56
299.905	320.56
300.136	307.56
300.366	321.56
300.597	311.56
300.827	321.56
301.057	314.56
301.288	337.56
301.518	312.56
301.748	332.56
301.979	328.56
302.209	343.56
302.439	334.56
302.669	330.56
302.9	310.56
303.13	332.56
303.36	313.56
303.59	318.56
303.82	342.56
304.051	362.56
304.281	314.56
304.511	314.56
304.741	301.56
304.971	328.56
305.201	320.56
305.431	334.56
305.661	329.56
305.891	331.56
306.121	329.56
306.352	320.56
306.582	336.56
306.812	341.56
307.042	355.56
307.272	345.56
307.502	326.56
307.731	353.56
307.961	337.56
308.191	326.56
308.421	363.56
308.651	343.56
308.881	357.56
309.111	341.56
309.341	348.56
309.571	367.56
309.8	380.56
310.03	363.56
310.26	391.56
310.49	379.56
310.72	383.56
310.949	419.56
311.179	400.56
311.409	385.56
311.639	387.56
311.868	386.56
312.098	391.56
312.328	399.56
312.557	415.56
312.787	429.56
313.017	446.56
313.246	408.56
313.476	395.56
313.706	379.56
313.935	397.56
314.165	405.56
314.394	407.56
314.624	405.56
314.853	412.56
315.083	386.56
315.312	376.56
315.542	363.56
315.771	373.56
316.001	378.56
316.23	397.56
316.46	368.56
316.689	387.56
316.919	399.56
317.148	394.56
317.377	415.56
317.607	393.56
317.836	401.56
318.065	388.56
318.295	381.56
318.524	383.56
318.753	380.56
318.983	372.56
319.212	390.56
319.441	393.56
319.67	399.56
319.9	391.56
320.129	395.56
320.358	386.56
320.587	396.56
320.816	418.56
321.046	427.56
321.275	435.56
321.504	429.56
321.733	413.56
321.962	432.56
322.191	441.56
322.42	449.56
322.649	470.56
322.878	478.56
323.108	510.56
323.337	536.56
323.566	556.56
323.795	598.56
324.024	635.56
324.253	789.56
324.482	1135.56
324.71	1759.56
324.939	2401.56
325.168	2065.56
325.397	1053.56
325.626	708.56
325.855	621.56
326.084	565.56
326.313	539.56
326.542	549.56
326.77	591.56
326.999	735.56
327.228	1015.56
327.457	1477.56
327.686	1783.56
327.914	1175.56
328.143	789.56
328.372	708.56
328.6	630.56
328.829	602.56
329.058	636.56
329.287	636.56
329.515	569.56
329.744	575.56
329.972	554.56
330.201	575.56
330.43	587.56
330.658	621.56
330.887	663.56
331.115	655.56
331.344	543.56
331.572	505.56
331.801	491.56
332.03	497.56
332.258	487.56
332.486	477.56
332.715	463.56
332.943	445.56
333.172	441.56
333.4	471.56
333.629	449.56
333.857	484.56
334.085	471.56
334.314	512.56
334.542	527.56
334.771	527.56
334.999	488.56
335.227	457.56
335.455	440.56
335.684	437.56
335.912	449.56
336.14	453.56
336.369	439.56
336.597	454.56
336.825	454.56
337.053	429.56
337.281	423.56
337.51	428.56
337.738	429.56
337.966	432.56
338.194	461.56
338.422	426.56
338.65	427.56
338.878	448.56
339.106	449.56
339.334	411.56
339.562	415.56
339.79	426.56
340.018	417.56
340.246	423.56
340.474	425.56
340.702	431.56
340.93	421.56
341.158	409.56
341.386	428.56
341.614	424.56
341.842	423.56
342.07	396.56
342.298	436.56
342.526	425.56
342.754	404.56
342.981	415.56
343.209	386.56
343.437	409.56
343.665	392.56
343.893	418.56
344.12	435.56
344.348	416.56
344.576	451.56
344.804	425.56
345.031	427.56
345.259	425.56
345.487	441.56
345.714	442.56
345.942	423.56
346.17	417.56
346.397	412.56
346.625	409.56
346.853	419.56
347.08	415.56
347.308	408.56
347.535	415.56
347.763	426.56
347.99	442.56
348.218	423.56
348.445	424.56
348.673	420.56
348.9	420.56
349.128	397.56
349.355	393.56
349.583	402.56
349.81	410.56
350.037	413.56
350.265	385.56
350.492	413.56
350.72	404.56
350.947	387.56
351.174	415.56
351.402	407.56
351.629	434.56
351.856	421.56
352.083	422.56
352.311	424.56
352.538	437.56
352.765	426.56
352.992	405.56
353.22	412.56
353.447	389.56
353.674	397.56
353.901	374.56
354.128	375.56
354.355	384.56
354.583	379.56
354.81	373.56
355.037	376.56
355.264	380.56
355.491	364.56
355.718	364.56
355.945	353.56
356.172	373.56
356.399	359.56
356.626	360.56
356.853	372.56
357.08	377.56
357.307	392.56
357.534	383.56
357.761	371.56
357.988	352.56
358.215	385.56
358.441	371.56
358.668	376.56
358.895	373.56
359.122	373.56
359.349	384.56
359.576	408.56
359.802	423.56
360.029	449.56
360.256	446.56
360.483	423.56
360.709	419.56
360.936	410.56
361.163	408.56
361.39	409.56
361.616	398.56
361.843	397.56
362.07	397.56
362.296	405.56
362.523	411.56
362.749	409.56
362.976	386.56
363.203	406.56
363.429	382.56
363.656	413.56
363.882	386.56
364.109	364.56
364.335	377.56
364.562	373.56
364.788	351.56
365.015	373.56
365.241	389.56
365.468	387.56
365.694	374.56
365.92	393.56
366.147	384.56
366.373	372.56
366.599	368.56
366.826	371.56
367.052	367.56
367.278	382.56
367.505	375.56
367.731	374.56
367.957	368.56
368.184	373.56
368.41	381.56
368.636	393.56
368.862	373.56
369.089	388.56
369.315	381.56
369.541	356.56
369.767	377.56
369.993	368.56
370.219	345.56
370.445	366.56
370.672	372.56
370.898	349.56
371.124	337.56
371.35	375.56
371.576	370.56
371.802	376.56
372.028	358.56
372.254	360.56
372.48	346.56
372.706	363.56
372.932	349.56
373.158	362.56
373.384	360.56
373.61	360.56
373.835	365.56
374.061	378.56
374.287	351.56
374.513	361.56
374.739	357.56
374.965	375.56
375.191	348.56
375.416	354.56
375.642	373.56
375.868	365.56
376.094	343.56
376.319	375.56
376.545	367.56
376.771	364.56
376.997	373.56
377.222	364.56
377.448	348.56
377.674	354.56
377.899	333.56
378.125	341.56
378.35	356.56
378.576	339.56
378.802	356.56
379.027	350.56
379.253	358.56
379.478	353.56
379.704	347.56
379.929	329.56
380.155	366.56
380.38	360.56
380.606	366.56
380.831	359.56
381.057	372.56
381.282	341.56
381.507	347.56
381.733	357.56
381.958	348.56
382.184	367.56
382.409	344.56
382.634	349.56
382.86	348.56
383.085	359.56
383.31	377.56
383.535	343.56
383.761	358.56
383.986	345.56
384.211	367.56
384.436	352.56
384.662	373.56
384.887	377.56
385.112	356.56
385.337	372.56
385.562	366.56
385.787	397.56
386.013	370.56
386.238	380.56
386.463	367.56
386.688	359.56
386.913	389.56
387.138	362.56
387.363	384.56
387.588	385.56
387.813	362.56
388.038	353.56
388.263	373.56
388.488	383.56
388.713	355.56
388.938	377.56
389.163	381.56
389.387	362.56
389.612	377.56
389.837	352.56
390.062	355.56
390.287	372.56
390.512	371.56
390.736	368.56
390.961	357.56
391.186	358.56
391.411	356.56
391.636	382.56
391.86	373.56
392.085	379.56
392.31	380.56
392.534	365.56
392.759	363.56
392.984	376.56
393.208	368.56
393.433	371.56
393.658	371.56
393.882	358.56
394.107	348.56
394.331	373.56
394.556	362.56
394.78	363.56
395.005	371.56
395.229	356.56
395.454	376.56
395.678	363.56
395.903	395.56
396.127	389.56
396.352	402.56
396.576	375.56
396.801	369.56
397.025	385.56
397.249	377.56
397.474	378.56
397.698	411.56
397.922	396.56
398.147	418.56
398.371	415.56
398.595	397.56
398.82	404.56
399.044	405.56
399.268	396.56
399.492	416.56
399.717	463.56
399.941	461.56
400.165	496.56
400.389	508.56
400.613	463.56
400.837	426.56
401.062	410.56
401.286	428.56
401.51	396.56
401.734	389.56
401.958	420.56
402.182	399.56
402.406	431.56
402.63	403.56
402.854	402.56
403.078	406.56
403.302	416.56
403.526	432.56
403.75	437.56
403.974	429.56
404.198	436.56
404.422	447.56
404.645	417.56
404.869	431.56
405.093	452.56
405.317	492.56
405.541	510.56
405.765	483.56
405.988	440.56
406.212	467.56
406.436	480.56
406.66	481.56
406.883	465.56
407.107	477.56
407.331	506.56
407.555	576.56
407.778	585.56
408.002	518.56
408.226	495.56
408.449	469.56
408.673	475.56
408.896	506.56
409.12	527.56
409.344	481.56
409.567	459.56
409.791	441.56
410.014	413.56
410.238	420.56
410.461	436.56
410.685	433.56
410.908	455.56
411.132	468.56
411.355	501.56
411.578	485.56
411.802	429.56
412.025	413.56
412.249	432.56
412.472	421.56
412.695	483.56
412.919	475.56
413.142	443.56
413.365	429.56
413.589	413.56
413.812	415.56
414.035	397.56
414.258	405.56
414.482	396.56
414.705	406.56
414.928	412.56
415.151	399.56
415.374	395.56
415.597	399.56
415.821	396.56
416.044	386.56
416.267	404.56
416.49	400.56
416.713	393.56
416.936	411.56
417.159	395.56
417.382	384.56
417.605	387.56
417.828	415.56
418.051	414.56
418.274	410.56
418.497	407.56
418.72	399.56
418.943	392.56
419.166	407.56
419.389	431.56
419.611	418.56
419.834	423.56
420.057	414.56
420.28	426.56
420.503	428.56
420.726	417.56
420.948	446.56
421.171	466.56
421.394	503.56
421.617	446.56
421.839	433.56
422.062	442.56
422.285	415.56
422.507	483.56
422.73	551.56
422.953	537.56
423.175	464.56
423.398	483.56
423.621	439.56
423.843	456.56
424.066	476.56
424.288	463.56
424.511	481.56
424.733	535.56
424.956	607.56
425.178	579.56
425.401	571.56
425.623	568.56
425.846	487.56
426.068	478.56
426.291	459.56
426.513	454.56
426.735	470.56
426.958	537.56
427.18	592.56
427.402	677.56
427.625	771.56
427.847	684.56
428.069	585.56
428.292	504.56
428.514	503.56
428.736	464.56
428.958	425.56
429.181	435.56
429.403	432.56
429.625	447.56
429.847	486.56
430.069	539.56
430.292	535.56
430.514	472.56
430.736	445.56
430.958	428.56
431.18	409.56
431.402	409.56
431.624	383.56
431.846	401.56
432.068	377.56
432.29	403.56
432.512	427.56
432.734	421.56
432.956	393.56
433.178	418.56
433.4	409.56
433.622	408.56
433.844	415.56
434.066	407.56
434.287	393.56
434.509	409.56
434.731	396.56
434.953	417.56
435.175	428.56
435.397	459.56
435.618	465.56
435.84	532.56
436.062	595.56
436.284	637.56
436.505	545.56
436.727	475.56
436.949	449.56
437.17	432.56
437.392	438.56
437.614	434.56
437.835	477.56
438.057	579.56
438.278	679.56
438.5	663.56
438.721	715.56
438.943	696.56
439.165	580.56
439.386	501.56
439.608	472.56
439.829	489.56
440.05	520.56
440.272	573.56
440.493	522.56
440.715	461.56
440.936	448.56
441.158	425.56
441.379	436.56
441.6	422.56
441.822	473.56
442.043	522.56
442.264	585.56
442.486	595.56
442.707	523.56
442.928	480.56
443.149	507.56
443.371	504.56
443.592	530.56
443.813	619.56
444.034	669.56
444.255	555.56
444.476	485.56
444.698	461.56
444.919	460.56
445.14	590.56
445.361	525.56
445.582	510.56
445.803	582.56
446.024	645.56
446.245	686.56
446.466	616.56
446.687	523.56
446.908	487.56
447.129	451.56
447.35	437.56
447.571	451.56
447.792	409.56
448.013	441.56
448.234	440.56
448.455	497.56
448.675	602.56
448.896	675.56
449.117	620.56
449.338	571.56
449.559	666.56
449.779	694.56
450	594.56
450.221	481.56
450.442	464.56
450.662	436.56
450.883	441.56
451.104	441.56
451.324	435.56
451.545	423.56
451.766	395.56
451.986	379.56
452.207	406.56
452.428	384.56
452.648	396.56
452.869	386.56
453.089	406.56
453.31	414.56
453.53	392.56
453.751	390.56
453.971	382.56
454.192	429.56
454.412	426.56
454.633	413.56
454.853	397.56
455.073	364.56
455.294	421.56
455.514	471.56
455.734	462.56
455.955	393.56
456.175	389.56
456.395	348.56
456.616	361.56
456.836	366.56
457.056	347.56
457.276	342.56
457.497	363.56
457.717	365.56
457.937	372.56
458.157	382.56
458.377	393.56
458.598	399.56
458.818	461.56
459.038	567.56
459.258	553.56
459.478	465.56
459.698	423.56
459.918	396.56
460.138	394.56
460.358	402.56
460.578	399.56
460.798	379.56
461.018	404.56
461.238	391.56
461.458	380.56
461.678	386.56
461.898	425.56
462.118	377.56
462.338	389.56
462.558	398.56
462.777	392.56
462.997	402.56
463.217	424.56
463.437	427.56
463.657	402.56
463.876	395.56
464.096	411.56
464.316	407.56
464.536	424.56
464.755	420.56
464.975	420.56
465.195	461.56
465.414	546.56
465.634	474.56
465.854	425.56
466.073	408.56
466.293	406.56
466.512	398.56
466.732	363.56
466.951	393.56
467.171	397.56
467.391	384.56
467.61	416.56
467.829	400.56
468.049	404.56
468.268	392.56
468.488	389.56
468.707	384.56
468.927	371.56
469.146	383.56
469.365	379.56
469.585	370.56
469.804	383.56
470.023	391.56
470.243	400.56
470.462	409.56
470.681	426.56
470.901	422.56
471.12	387.56
471.339	407.56
471.558	415.56
471.777	399.56
471.997	391.56
472.216	395.56
472.435	423.56
472.654	420.56
472.873	381.56
473.092	394.56
473.311	406.56
473.53	389.56
473.749	399.56
473.968	441.56
474.187	535.56
474.406	571.56
474.625	466.56
474.844	409.56
475.063	412.56
475.282	384.56
475.501	377.56
475.72	395.56
475.939	396.56
476.158	427.56
476.377	408.56
476.596	409.56
476.814	424.56
477.033	440.56
477.252	408.56
477.471	427.56
477.69	423.56
477.908	420.56
478.127	417.56
478.346	436.56
478.564	419.56
478.783	429.56
479.002	432.56
479.22	441.56
479.439	452.56
479.658	478.56
479.876	456.56
480.095	470.56
480.313	524.56
480.532	482.56
480.751	481.56
480.969	480.56
481.188	537.56
481.406	547.56
481.624	517.56
481.843	480.56
482.061	483.56
482.28	475.56
482.498	457.56
482.717	464.56
482.935	480.56
483.153	452.56
483.372	491.56
483.59	495.56
483.808	462.56
484.027	459.56
484.245	451.56
484.463	450.56
484.681	465.56
484.9	467.56
485.118	477.56
485.336	447.56
485.554	485.56
485.772	481.56
485.99	465.56
486.209	485.56
486.427	470.56
486.645	497.56
486.863	504.56
487.081	508.56
487.299	478.56
487.517	479.56
487.735	492.56
487.953	490.56
488.171	495.56
488.389	481.56
488.607	505.56
488.825	509.56
489.043	514.56
489.261	485.56
489.479	522.56
489.696	515.56
489.914	507.56
490.132	513.56
490.35	515.56
490.568	513.56
490.786	539.56
491.003	543.56
491.221	520.56
491.439	547.56
491.657	556.56
491.874	573.56
492.092	548.56
492.31	564.56
492.527	602.56
492.745	587.56
492.963	552.56
493.18	561.56
493.398	594.56
493.615	599.56
493.833	580.56
494.05	569.56
494.268	584.56
494.485	565.56
494.703	609.56
494.92	583.56
495.138	596.56
495.355	586.56
495.573	621.56
495.79	584.56
496.008	591.56
496.225	584.56
496.442	592.56
496.66	580.56
496.877	607.56
497.094	591.56
497.312	581.56
497.529	598.56
497.746	602.56
497.963	618.56
498.181	637.56
498.398	635.56
498.615	656.56
498.832	637.56
499.049	647.56
499.267	627.56
499.484	683.56
499.701	696.56
499.918	686.56
500.135	703.56
500.352	704.56
500.569	708.56
500.786	715.56
501.003	731.56
501.22	694.56
501.437	713.56
501.654	702.56
501.871	730.56
