Data from 1981.PennyLincolnUp.Lamp.En5.5.200Scan.071819.P1_HRD10591_16-41-35-960.txt Node
Date: Thu Jul 18 16:41:35 EDT 2019
User: cochatt
Spectrometer: HR+D1059
Trigger mode: 1
Integration Time (sec): 1.000000E-1
Scans to average: 1
Electric dark correction enabled: true
Nonlinearity correction enabled: false
Boxcar width: 0
XAxis mode: Wavelengths
Number of Pixels in Spectrum: 2048
>>>>>Begin Spectral Data<<<<<
223.165	-15.75
223.4	-15.75
223.635	-15.75
223.869	-6.75
224.104	-20.75
224.338	-13.75
224.573	-5.75
224.808	-6.75
225.042	-15.75
225.277	-3.75
225.511	-4.75
225.746	-4.75
225.98	9.25
226.215	25.25
226.449	10.25
226.683	23.25
226.918	10.25
227.152	20.25
227.387	42.25
227.621	33.25
227.856	45.25
228.09	38.25
228.324	45.25
228.559	63.25
228.793	66.25
229.027	91.25
229.262	118.25
229.496	108.25
229.73	138.25
229.964	154.25
230.199	128.25
230.433	122.25
230.667	116.25
230.901	99.25
231.136	114.25
231.37	109.25
231.604	93.25
231.838	101.25
232.072	101.25
232.306	98.25
232.541	125.25
232.775	116.25
233.009	102.25
233.243	109.25
233.477	113.25
233.711	121.25
233.945	128.25
234.179	125.25
234.413	125.25
234.647	121.25
234.881	97.25
235.115	108.25
235.349	106.25
235.583	115.25
235.817	110.25
236.051	122.25
236.285	120.25
236.519	123.25
236.753	131.25
236.987	146.25
237.221	180.25
237.455	235.25
237.689	179.25
237.922	140.25
238.156	146.25
238.39	134.25
238.624	125.25
238.858	125.25
239.091	135.25
239.325	125.25
239.559	134.25
239.793	128.25
240.027	121.25
240.26	138.25
240.494	145.25
240.728	149.25
240.961	139.25
241.195	152.25
241.429	151.25
241.662	128.25
241.896	134.25
242.13	131.25
242.363	136.25
242.597	141.25
242.83	140.25
243.064	145.25
243.298	139.25
243.531	149.25
243.765	149.25
243.998	141.25
244.232	141.25
244.465	154.25
244.699	140.25
244.932	142.25
245.166	139.25
245.399	151.25
245.633	143.25
245.866	151.25
246.099	149.25
246.333	145.25
246.566	140.25
246.8	140.25
247.033	149.25
247.266	162.25
247.5	178.25
247.733	172.25
247.966	188.25
248.2	179.25
248.433	166.25
248.666	173.25
248.899	205.25
249.133	196.25
249.366	204.25
249.599	204.25
249.832	197.25
250.066	184.25
250.299	193.25
250.532	192.25
250.765	190.25
250.998	193.25
251.231	222.25
251.465	226.25
251.698	205.25
251.931	223.25
252.164	210.25
252.397	203.25
252.63	212.25
252.863	225.25
253.096	219.25
253.329	220.25
253.562	235.25
253.795	226.25
254.028	212.25
254.261	243.25
254.494	227.25
254.727	271.25
254.96	312.25
255.193	277.25
255.426	264.25
255.659	232.25
255.892	232.25
256.124	236.25
256.357	227.25
256.59	225.25
256.823	222.25
257.056	228.25
257.289	216.25
257.521	228.25
257.754	224.25
257.987	214.25
258.22	219.25
258.452	211.25
258.685	221.25
258.918	219.25
259.151	232.25
259.383	230.25
259.616	235.25
259.849	218.25
260.081	243.25
260.314	277.25
260.547	272.25
260.779	252.25
261.012	240.25
261.244	243.25
261.477	238.25
261.71	229.25
261.942	224.25
262.175	242.25
262.407	224.25
262.64	217.25
262.872	211.25
263.105	233.25
263.337	202.25
263.57	207.25
263.802	224.25
264.035	224.25
264.267	225.25
264.499	227.25
264.732	210.25
264.964	224.25
265.197	220.25
265.429	196.25
265.661	224.25
265.894	212.25
266.126	222.25
266.358	214.25
266.591	215.25
266.823	210.25
267.055	240.25
267.287	227.25
267.52	230.25
267.752	240.25
267.984	242.25
268.216	221.25
268.448	222.25
268.681	257.25
268.913	263.25
269.145	275.25
269.377	273.25
269.609	277.25
269.841	267.25
270.073	292.25
270.306	316.25
270.538	328.25
270.77	332.25
271.002	330.25
271.234	316.25
271.466	318.25
271.698	322.25
271.93	325.25
272.162	334.25
272.394	316.25
272.626	333.25
272.858	293.25
273.09	276.25
273.322	285.25
273.553	272.25
273.785	284.25
274.017	283.25
274.249	270.25
274.481	290.25
274.713	276.25
274.945	286.25
275.176	277.25
275.408	283.25
275.64	256.25
275.872	259.25
276.104	264.25
276.335	284.25
276.567	280.25
276.799	299.25
277.031	300.25
277.262	321.25
277.494	327.25
277.726	312.25
277.957	300.25
278.189	298.25
278.421	285.25
278.652	273.25
278.884	273.25
279.115	269.25
279.347	274.25
279.579	265.25
279.81	264.25
280.042	276.25
280.273	277.25
280.505	279.25
280.736	268.25
280.968	265.25
281.199	260.25
281.431	276.25
281.662	262.25
281.894	262.25
282.125	297.25
282.356	291.25
282.588	309.25
282.819	317.25
283.051	286.25
283.282	266.25
283.513	274.25
283.745	277.25
283.976	273.25
284.207	277.25
284.439	273.25
284.67	273.25
284.901	277.25
285.132	253.25
285.364	280.25
285.595	268.25
285.826	284.25
286.057	291.25
286.288	292.25
286.52	274.25
286.751	277.25
286.982	287.25
287.213	300.25
287.444	280.25
287.675	288.25
287.906	282.25
288.138	310.25
288.369	284.25
288.6	290.25
288.831	301.25
289.062	296.25
289.293	282.25
289.524	293.25
289.755	268.25
289.986	282.25
290.217	285.25
290.448	278.25
290.679	257.25
290.91	286.25
291.141	285.25
291.371	283.25
291.602	277.25
291.833	284.25
292.064	283.25
292.295	277.25
292.526	275.25
292.757	284.25
292.987	291.25
293.218	290.25
293.449	288.25
293.68	281.25
293.91	277.25
294.141	301.25
294.372	282.25
294.603	281.25
294.833	269.25
295.064	295.25
295.295	291.25
295.525	284.25
295.756	316.25
295.987	306.25
296.217	318.25
296.448	307.25
296.679	309.25
296.909	300.25
297.14	302.25
297.37	297.25
297.601	282.25
297.831	286.25
298.062	286.25
298.292	292.25
298.523	307.25
298.753	308.25
298.984	316.25
299.214	301.25
299.445	294.25
299.675	325.25
299.905	309.25
300.136	327.25
300.366	312.25
300.597	297.25
300.827	327.25
301.057	313.25
301.288	329.25
301.518	322.25
301.748	325.25
301.979	308.25
302.209	320.25
302.439	306.25
302.669	326.25
302.9	320.25
303.13	311.25
303.36	335.25
303.59	328.25
303.82	338.25
304.051	367.25
304.281	331.25
304.511	322.25
304.741	314.25
304.971	330.25
305.201	288.25
305.431	315.25
305.661	297.25
305.891	308.25
306.121	318.25
306.352	322.25
306.582	332.25
306.812	328.25
307.042	316.25
307.272	328.25
307.502	328.25
307.731	347.25
307.961	332.25
308.191	330.25
308.421	325.25
308.651	335.25
308.881	355.25
309.111	343.25
309.341	337.25
309.571	334.25
309.8	361.25
310.03	374.25
310.26	379.25
310.49	384.25
310.72	386.25
310.949	384.25
311.179	415.25
311.409	370.25
311.639	375.25
311.868	393.25
312.098	375.25
312.328	389.25
312.557	390.25
312.787	414.25
313.017	417.25
313.246	388.25
313.476	371.25
313.706	382.25
313.935	400.25
314.165	394.25
314.394	398.25
314.624	407.25
314.853	406.25
315.083	386.25
315.312	393.25
315.542	368.25
315.771	379.25
316.001	347.25
316.23	376.25
316.46	361.25
316.689	376.25
316.919	356.25
317.148	387.25
317.377	396.25
317.607	389.25
317.836	391.25
318.065	387.25
318.295	394.25
318.524	377.25
318.753	381.25
318.983	389.25
319.212	378.25
319.441	379.25
319.67	390.25
319.9	398.25
320.129	365.25
320.358	380.25
320.587	388.25
320.816	386.25
321.046	406.25
321.275	406.25
321.504	388.25
321.733	406.25
321.962	408.25
322.191	432.25
322.42	445.25
322.649	468.25
322.878	480.25
323.108	480.25
323.337	516.25
323.566	544.25
323.795	571.25
324.024	635.25
324.253	811.25
324.482	1127.25
324.71	1749.25
324.939	2372.25
325.168	2035.25
325.397	1106.25
325.626	716.25
325.855	576.25
326.084	549.25
326.313	541.25
326.542	546.25
326.77	605.25
326.999	706.25
327.228	1019.25
327.457	1500.25
327.686	1782.25
327.914	1196.25
328.143	794.25
328.372	664.25
328.6	652.25
328.829	594.25
329.058	608.25
329.287	614.25
329.515	569.25
329.744	541.25
329.972	529.25
330.201	546.25
330.43	577.25
330.658	630.25
330.887	636.25
331.115	610.25
331.344	532.25
331.572	529.25
331.801	487.25
332.03	485.25
332.258	475.25
332.486	459.25
332.715	453.25
332.943	440.25
333.172	428.25
333.4	443.25
333.629	449.25
333.857	457.25
334.085	452.25
334.314	463.25
334.542	493.25
334.771	518.25
334.999	486.25
335.227	442.25
335.455	454.25
335.684	434.25
335.912	440.25
336.14	427.25
336.369	413.25
336.597	432.25
336.825	438.25
337.053	416.25
337.281	422.25
337.51	435.25
337.738	425.25
337.966	434.25
338.194	434.25
338.422	406.25
338.65	419.25
338.878	406.25
339.106	417.25
339.334	415.25
339.562	421.25
339.79	405.25
340.018	406.25
340.246	389.25
340.474	420.25
340.702	403.25
340.93	413.25
341.158	383.25
341.386	427.25
341.614	428.25
341.842	432.25
342.07	414.25
342.298	405.25
342.526	389.25
342.754	384.25
342.981	404.25
343.209	396.25
343.437	408.25
343.665	402.25
343.893	423.25
344.12	427.25
344.348	382.25
344.576	408.25
344.804	415.25
345.031	441.25
345.259	444.25
345.487	423.25
345.714	404.25
345.942	409.25
346.17	382.25
346.397	400.25
346.625	391.25
346.853	404.25
347.08	402.25
347.308	398.25
347.535	409.25
347.763	426.25
347.99	421.25
348.218	419.25
348.445	420.25
348.673	413.25
348.9	419.25
349.128	405.25
349.355	383.25
349.583	387.25
349.81	385.25
350.037	371.25
350.265	374.25
350.492	386.25
350.72	396.25
350.947	412.25
351.174	423.25
351.402	423.25
351.629	416.25
351.856	408.25
352.083	421.25
352.311	405.25
352.538	420.25
352.765	435.25
352.992	406.25
353.22	407.25
353.447	396.25
353.674	390.25
353.901	389.25
354.128	369.25
354.355	359.25
354.583	368.25
354.81	365.25
355.037	358.25
355.264	352.25
355.491	344.25
355.718	356.25
355.945	350.25
356.172	347.25
356.399	359.25
356.626	338.25
356.853	371.25
357.08	360.25
357.307	352.25
357.534	350.25
357.761	367.25
357.988	368.25
358.215	350.25
358.441	345.25
358.668	369.25
358.895	378.25
359.122	367.25
359.349	388.25
359.576	398.25
359.802	417.25
360.029	448.25
360.256	469.25
360.483	388.25
360.709	404.25
360.936	398.25
361.163	397.25
361.39	398.25
361.616	403.25
361.843	374.25
362.07	376.25
362.296	399.25
362.523	388.25
362.749	356.25
362.976	384.25
363.203	337.25
363.429	363.25
363.656	386.25
363.882	356.25
364.109	382.25
364.335	382.25
364.562	358.25
364.788	360.25
365.015	374.25
365.241	366.25
365.468	353.25
365.694	364.25
365.92	380.25
366.147	361.25
366.373	363.25
366.599	365.25
366.826	378.25
367.052	350.25
367.278	339.25
367.505	358.25
367.731	358.25
367.957	365.25
368.184	365.25
368.41	379.25
368.636	356.25
368.862	372.25
369.089	362.25
369.315	364.25
369.541	363.25
369.767	362.25
369.993	353.25
370.219	359.25
370.445	345.25
370.672	359.25
370.898	348.25
371.124	357.25
371.35	353.25
371.576	354.25
371.802	345.25
372.028	327.25
372.254	322.25
372.48	365.25
372.706	340.25
372.932	385.25
373.158	353.25
373.384	340.25
373.61	372.25
373.835	358.25
374.061	346.25
374.287	344.25
374.513	329.25
374.739	355.25
374.965	382.25
375.191	369.25
375.416	349.25
375.642	360.25
375.868	363.25
376.094	357.25
376.319	357.25
376.545	328.25
376.771	331.25
376.997	356.25
377.222	355.25
377.448	354.25
377.674	338.25
377.899	341.25
378.125	333.25
378.35	327.25
378.576	344.25
378.802	356.25
379.027	342.25
379.253	356.25
379.478	357.25
379.704	324.25
379.929	348.25
380.155	335.25
380.38	348.25
380.606	360.25
380.831	358.25
381.057	331.25
381.282	349.25
381.507	354.25
381.733	366.25
381.958	334.25
382.184	333.25
382.409	348.25
382.634	358.25
382.86	354.25
383.085	335.25
383.31	362.25
383.535	369.25
383.761	310.25
383.986	328.25
384.211	373.25
384.436	346.25
384.662	327.25
384.887	360.25
385.112	356.25
385.337	366.25
385.562	357.25
385.787	368.25
386.013	356.25
386.238	359.25
386.463	367.25
386.688	367.25
386.913	369.25
387.138	376.25
387.363	372.25
387.588	335.25
387.813	357.25
388.038	362.25
388.263	360.25
388.488	366.25
388.713	364.25
388.938	374.25
389.163	365.25
389.387	338.25
389.612	357.25
389.837	341.25
390.062	364.25
390.287	357.25
390.512	353.25
390.736	364.25
390.961	363.25
391.186	353.25
391.411	351.25
391.636	344.25
391.86	358.25
392.085	370.25
392.31	364.25
392.534	339.25
392.759	362.25
392.984	370.25
393.208	355.25
393.433	353.25
393.658	338.25
393.882	355.25
394.107	372.25
394.331	372.25
394.556	361.25
394.78	348.25
395.005	340.25
395.229	361.25
395.454	365.25
395.678	392.25
395.903	374.25
396.127	387.25
396.352	383.25
396.576	396.25
396.801	381.25
397.025	375.25
397.249	363.25
397.474	371.25
397.698	380.25
397.922	381.25
398.147	417.25
398.371	409.25
398.595	391.25
398.82	371.25
399.044	391.25
399.268	420.25
399.492	419.25
399.717	440.25
399.941	472.25
400.165	461.25
400.389	502.25
400.613	449.25
400.837	416.25
401.062	407.25
401.286	410.25
401.51	421.25
401.734	403.25
401.958	413.25
402.182	404.25
402.406	424.25
402.63	415.25
402.854	410.25
403.078	426.25
403.302	412.25
403.526	420.25
403.75	425.25
403.974	404.25
404.198	396.25
404.422	412.25
404.645	429.25
404.869	435.25
405.093	445.25
405.317	477.25
405.541	505.25
405.765	465.25
405.988	446.25
406.212	420.25
406.436	469.25
406.66	483.25
406.883	464.25
407.107	478.25
407.331	504.25
407.555	552.25
407.778	557.25
408.002	494.25
408.226	481.25
408.449	469.25
408.673	473.25
408.896	493.25
409.12	509.25
409.344	499.25
409.567	450.25
409.791	422.25
410.014	446.25
410.238	406.25
410.461	419.25
410.685	402.25
410.908	438.25
411.132	468.25
411.355	493.25
411.578	468.25
411.802	437.25
412.025	421.25
412.249	405.25
412.472	428.25
412.695	468.25
412.919	479.25
413.142	427.25
413.365	417.25
413.589	412.25
413.812	394.25
414.035	388.25
414.258	368.25
414.482	370.25
414.705	393.25
414.928	399.25
415.151	397.25
415.374	382.25
415.597	378.25
415.821	377.25
416.044	395.25
416.267	379.25
416.49	394.25
416.713	361.25
416.936	365.25
417.159	406.25
417.382	405.25
417.605	404.25
417.828	416.25
418.051	404.25
418.274	412.25
418.497	409.25
418.72	397.25
418.943	388.25
419.166	394.25
419.389	403.25
419.611	427.25
419.834	397.25
420.057	411.25
420.28	405.25
420.503	414.25
420.726	399.25
420.948	434.25
421.171	459.25
421.394	510.25
421.617	437.25
421.839	406.25
422.062	410.25
422.285	418.25
422.507	469.25
422.73	538.25
422.953	518.25
423.175	435.25
423.398	445.25
423.621	434.25
423.843	469.25
424.066	449.25
424.288	439.25
424.511	453.25
424.733	512.25
424.956	601.25
425.178	560.25
425.401	563.25
425.623	554.25
425.846	474.25
426.068	457.25
426.291	462.25
426.513	475.25
426.735	464.25
426.958	493.25
427.18	588.25
427.402	674.25
427.625	758.25
427.847	694.25
428.069	579.25
428.292	508.25
428.514	462.25
428.736	434.25
428.958	455.25
429.181	442.25
429.403	414.25
429.625	422.25
429.847	453.25
430.069	528.25
430.292	527.25
430.514	453.25
430.736	424.25
430.958	429.25
431.18	398.25
431.402	412.25
431.624	385.25
431.846	394.25
432.068	393.25
432.29	381.25
432.512	412.25
432.734	410.25
432.956	399.25
433.178	397.25
433.4	408.25
433.622	399.25
433.844	377.25
434.066	392.25
434.287	404.25
434.509	406.25
434.731	394.25
434.953	404.25
435.175	406.25
435.397	466.25
435.618	467.25
435.84	521.25
436.062	581.25
436.284	635.25
436.505	524.25
436.727	473.25
436.949	443.25
437.17	423.25
437.392	430.25
437.614	441.25
437.835	478.25
438.057	563.25
438.278	667.25
438.5	646.25
438.721	717.25
438.943	668.25
439.165	564.25
439.386	489.25
439.608	487.25
439.829	472.25
440.05	501.25
440.272	553.25
440.493	516.25
440.715	446.25
440.936	430.25
441.158	444.25
441.379	432.25
441.6	438.25
441.822	465.25
442.043	506.25
442.264	556.25
442.486	590.25
442.707	514.25
442.928	464.25
443.149	496.25
443.371	510.25
443.592	531.25
443.813	618.25
444.034	658.25
444.255	543.25
444.476	493.25
444.698	473.25
444.919	436.25
445.14	587.25
445.361	516.25
445.582	480.25
445.803	574.25
446.024	642.25
446.245	650.25
446.466	614.25
446.687	509.25
446.908	442.25
447.129	451.25
447.35	440.25
447.571	432.25
447.792	426.25
448.013	440.25
448.234	448.25
448.455	482.25
448.675	628.25
448.896	678.25
449.117	617.25
449.338	554.25
449.559	639.25
449.779	739.25
450	575.25
450.221	481.25
450.442	446.25
450.662	431.25
450.883	449.25
451.104	444.25
451.324	429.25
451.545	411.25
451.766	394.25
451.986	379.25
452.207	390.25
452.428	387.25
452.648	375.25
452.869	387.25
453.089	374.25
453.31	380.25
453.53	372.25
453.751	377.25
453.971	374.25
454.192	424.25
454.412	392.25
454.633	395.25
454.853	377.25
455.073	352.25
455.294	415.25
455.514	458.25
455.734	438.25
455.955	397.25
456.175	370.25
456.395	353.25
456.616	363.25
456.836	364.25
457.056	361.25
457.276	355.25
457.497	338.25
457.717	365.25
457.937	361.25
458.157	360.25
458.377	384.25
458.598	394.25
458.818	462.25
459.038	539.25
459.258	524.25
459.478	432.25
459.698	411.25
459.918	390.25
460.138	389.25
460.358	403.25
460.578	377.25
460.798	391.25
461.018	407.25
461.238	392.25
461.458	384.25
461.678	380.25
461.898	396.25
462.118	402.25
462.338	390.25
462.558	394.25
462.777	404.25
462.997	413.25
463.217	410.25
463.437	393.25
463.657	400.25
463.876	395.25
464.096	411.25
464.316	399.25
464.536	405.25
464.755	422.25
464.975	416.25
465.195	470.25
465.414	551.25
465.634	454.25
465.854	436.25
466.073	422.25
466.293	388.25
466.512	379.25
466.732	376.25
466.951	377.25
467.171	377.25
467.391	377.25
467.61	402.25
467.829	398.25
468.049	388.25
468.268	380.25
468.488	402.25
468.707	370.25
468.927	353.25
469.146	361.25
469.365	361.25
469.585	344.25
469.804	378.25
470.023	399.25
470.243	392.25
470.462	391.25
470.681	411.25
470.901	405.25
471.12	381.25
471.339	375.25
471.558	398.25
471.777	394.25
471.997	400.25
472.216	379.25
472.435	423.25
472.654	398.25
472.873	374.25
473.092	378.25
473.311	380.25
473.53	391.25
473.749	368.25
473.968	440.25
474.187	534.25
474.406	567.25
474.625	458.25
474.844	418.25
475.063	401.25
475.282	382.25
475.501	402.25
475.72	400.25
475.939	399.25
476.158	407.25
476.377	416.25
476.596	385.25
476.814	423.25
477.033	424.25
477.252	414.25
477.471	404.25
477.69	395.25
477.908	395.25
478.127	411.25
478.346	426.25
478.564	411.25
478.783	432.25
479.002	442.25
479.22	405.25
479.439	433.25
479.658	477.25
479.876	466.25
480.095	475.25
480.313	483.25
480.532	477.25
480.751	492.25
480.969	488.25
481.188	522.25
481.406	544.25
481.624	524.25
481.843	484.25
482.061	478.25
482.28	462.25
482.498	436.25
482.717	452.25
482.935	470.25
483.153	468.25
483.372	464.25
483.59	444.25
483.808	455.25
484.027	473.25
484.245	469.25
484.463	437.25
484.681	478.25
484.9	456.25
485.118	481.25
485.336	456.25
485.554	458.25
485.772	453.25
485.99	481.25
486.209	460.25
486.427	450.25
486.645	472.25
486.863	473.25
487.081	492.25
487.299	474.25
487.517	495.25
487.735	477.25
487.953	484.25
488.171	476.25
488.389	470.25
488.607	486.25
488.825	480.25
489.043	490.25
489.261	487.25
489.479	496.25
489.696	487.25
489.914	487.25
490.132	500.25
490.35	493.25
490.568	514.25
490.786	520.25
491.003	516.25
491.221	544.25
491.439	536.25
491.657	546.25
491.874	541.25
492.092	546.25
492.31	554.25
492.527	553.25
492.745	569.25
492.963	569.25
493.18	555.25
493.398	576.25
493.615	585.25
493.833	573.25
494.05	583.25
494.268	573.25
494.485	563.25
494.703	597.25
494.92	588.25
495.138	556.25
495.355	588.25
495.573	578.25
495.79	562.25
496.008	594.25
496.225	568.25
496.442	583.25
496.66	581.25
496.877	579.25
497.094	576.25
497.312	584.25
497.529	584.25
497.746	604.25
497.963	598.25
498.181	616.25
498.398	617.25
498.615	641.25
498.832	624.25
499.049	626.25
499.267	660.25
499.484	655.25
499.701	667.25
499.918	666.25
500.135	665.25
500.352	701.25
500.569	706.25
500.786	704.25
501.003	721.25
501.22	702.25
501.437	698.25
501.654	693.25
501.871	698.25
