Data from 1981.PennyLincolnUp.Lamp.En5.5.200Scan.071819.P1_HRD10591_16-42-09-959.txt Node
Date: Thu Jul 18 16:42:09 EDT 2019
User: cochatt
Spectrometer: HR+D1059
Trigger mode: 1
Integration Time (sec): 1.000000E-1
Scans to average: 1
Electric dark correction enabled: true
Nonlinearity correction enabled: false
Boxcar width: 0
XAxis mode: Wavelengths
Number of Pixels in Spectrum: 2048
>>>>>Begin Spectral Data<<<<<
223.165	-11.31
223.4	-11.31
223.635	-11.31
223.869	-10.31
224.104	-14.31
224.338	-14.31
224.573	-0.31
224.808	-13.31
225.042	-19.31
225.277	-7.31
225.511	-1.31
225.746	15.69
225.98	3.69
226.215	9.69
226.449	1.69
226.683	10.69
226.918	13.69
227.152	36.69
227.387	17.69
227.621	38.69
227.856	46.69
228.09	38.69
228.324	46.69
228.559	38.69
228.793	68.69
229.027	100.69
229.262	115.69
229.496	109.69
229.73	136.69
229.964	169.69
230.199	132.69
230.433	106.69
230.667	97.69
230.901	108.69
231.136	108.69
231.37	107.69
231.604	119.69
231.838	104.69
232.072	101.69
232.306	111.69
232.541	120.69
232.775	122.69
233.009	118.69
233.243	118.69
233.477	122.69
233.711	101.69
233.945	122.69
234.179	107.69
234.413	106.69
234.647	110.69
234.881	112.69
235.115	97.69
235.349	124.69
235.583	128.69
235.817	133.69
236.051	122.69
236.285	118.69
236.519	118.69
236.753	132.69
236.987	142.69
237.221	187.69
237.455	268.69
237.689	186.69
237.922	148.69
238.156	132.69
238.39	130.69
238.624	120.69
238.858	107.69
239.091	125.69
239.325	131.69
239.559	142.69
239.793	134.69
240.027	139.69
240.26	129.69
240.494	162.69
240.728	140.69
240.961	152.69
241.195	149.69
241.429	139.69
241.662	135.69
241.896	133.69
242.13	118.69
242.363	138.69
242.597	114.69
242.83	133.69
243.064	133.69
243.298	121.69
243.531	126.69
243.765	118.69
243.998	150.69
244.232	153.69
244.465	141.69
244.699	149.69
244.932	137.69
245.166	150.69
245.399	138.69
245.633	146.69
245.866	143.69
246.099	138.69
246.333	142.69
246.566	149.69
246.8	162.69
247.033	151.69
247.266	176.69
247.5	164.69
247.733	165.69
247.966	159.69
248.2	158.69
248.433	168.69
248.666	189.69
248.899	184.69
249.133	208.69
249.366	216.69
249.599	198.69
249.832	180.69
250.066	189.69
250.299	185.69
250.532	182.69
250.765	206.69
250.998	206.69
251.231	242.69
251.465	226.69
251.698	210.69
251.931	214.69
252.164	188.69
252.397	223.69
252.63	221.69
252.863	215.69
253.096	213.69
253.329	257.69
253.562	226.69
253.795	222.69
254.028	212.69
254.261	231.69
254.494	245.69
254.727	283.69
254.96	290.69
255.193	282.69
255.426	250.69
255.659	254.69
255.892	244.69
256.124	236.69
256.357	249.69
256.59	223.69
256.823	220.69
257.056	215.69
257.289	226.69
257.521	207.69
257.754	220.69
257.987	212.69
258.22	211.69
258.452	220.69
258.685	210.69
258.918	213.69
259.151	203.69
259.383	206.69
259.616	229.69
259.849	229.69
260.081	232.69
260.314	252.69
260.547	263.69
260.779	266.69
261.012	249.69
261.244	232.69
261.477	267.69
261.71	245.69
261.942	246.69
262.175	233.69
262.407	240.69
262.64	212.69
262.872	217.69
263.105	220.69
263.337	229.69
263.57	232.69
263.802	214.69
264.035	214.69
264.267	206.69
264.499	211.69
264.732	220.69
264.964	210.69
265.197	212.69
265.429	211.69
265.661	215.69
265.894	206.69
266.126	232.69
266.358	210.69
266.591	225.69
266.823	206.69
267.055	226.69
267.287	243.69
267.52	235.69
267.752	217.69
267.984	242.69
268.216	246.69
268.448	246.69
268.681	236.69
268.913	235.69
269.145	258.69
269.377	274.69
269.609	277.69
269.841	286.69
270.073	294.69
270.306	308.69
270.538	336.69
270.77	337.69
271.002	333.69
271.234	301.69
271.466	317.69
271.698	316.69
271.93	342.69
272.162	336.69
272.394	327.69
272.626	336.69
272.858	314.69
273.09	283.69
273.322	294.69
273.553	289.69
273.785	277.69
274.017	269.69
274.249	285.69
274.481	274.69
274.713	266.69
274.945	274.69
275.176	278.69
275.408	269.69
275.64	287.69
275.872	282.69
276.104	285.69
276.335	268.69
276.567	278.69
276.799	299.69
277.031	338.69
277.262	332.69
277.494	328.69
277.726	315.69
277.957	293.69
278.189	283.69
278.421	291.69
278.652	285.69
278.884	278.69
279.115	287.69
279.347	283.69
279.579	277.69
279.81	277.69
280.042	273.69
280.273	264.69
280.505	275.69
280.736	278.69
280.968	271.69
281.199	272.69
281.431	280.69
281.662	280.69
281.894	275.69
282.125	269.69
282.356	289.69
282.588	302.69
282.819	305.69
283.051	295.69
283.282	255.69
283.513	284.69
283.745	276.69
283.976	266.69
284.207	278.69
284.439	294.69
284.67	268.69
284.901	279.69
285.132	250.69
285.364	264.69
285.595	285.69
285.826	278.69
286.057	262.69
286.288	284.69
286.52	293.69
286.751	271.69
286.982	278.69
287.213	271.69
287.444	273.69
287.675	286.69
287.906	280.69
288.138	308.69
288.369	284.69
288.6	304.69
288.831	298.69
289.062	306.69
289.293	270.69
289.524	277.69
289.755	270.69
289.986	284.69
290.217	266.69
290.448	283.69
290.679	289.69
290.91	283.69
291.141	266.69
291.371	265.69
291.602	292.69
291.833	280.69
292.064	276.69
292.295	285.69
292.526	267.69
292.757	292.69
292.987	295.69
293.218	297.69
293.449	287.69
293.68	300.69
293.91	288.69
294.141	278.69
294.372	280.69
294.603	273.69
294.833	282.69
295.064	297.69
295.295	276.69
295.525	292.69
295.756	298.69
295.987	292.69
296.217	310.69
296.448	329.69
296.679	300.69
296.909	294.69
297.14	289.69
297.37	285.69
297.601	294.69
297.831	299.69
298.062	320.69
298.292	308.69
298.523	301.69
298.753	296.69
298.984	277.69
299.214	289.69
299.445	296.69
299.675	299.69
299.905	305.69
300.136	314.69
300.366	308.69
300.597	292.69
300.827	304.69
301.057	305.69
301.288	316.69
301.518	328.69
301.748	309.69
301.979	325.69
302.209	315.69
302.439	315.69
302.669	330.69
302.9	317.69
303.13	328.69
303.36	320.69
303.59	317.69
303.82	332.69
304.051	331.69
304.281	331.69
304.511	309.69
304.741	310.69
304.971	322.69
305.201	333.69
305.431	300.69
305.661	337.69
305.891	315.69
306.121	328.69
306.352	340.69
306.582	336.69
306.812	317.69
307.042	327.69
307.272	345.69
307.502	322.69
307.731	316.69
307.961	321.69
308.191	331.69
308.421	336.69
308.651	337.69
308.881	323.69
309.111	341.69
309.341	348.69
309.571	340.69
309.8	360.69
310.03	367.69
310.26	366.69
310.49	380.69
310.72	386.69
310.949	420.69
311.179	417.69
311.409	401.69
311.639	366.69
311.868	392.69
312.098	394.69
312.328	398.69
312.557	413.69
312.787	429.69
313.017	411.69
313.246	396.69
313.476	379.69
313.706	401.69
313.935	394.69
314.165	409.69
314.394	409.69
314.624	398.69
314.853	395.69
315.083	381.69
315.312	378.69
315.542	385.69
315.771	377.69
316.001	384.69
316.23	372.69
316.46	369.69
316.689	386.69
316.919	399.69
317.148	394.69
317.377	403.69
317.607	386.69
317.836	392.69
318.065	374.69
318.295	381.69
318.524	373.69
318.753	371.69
318.983	370.69
319.212	380.69
319.441	407.69
319.67	412.69
319.9	396.69
320.129	374.69
320.358	390.69
320.587	385.69
320.816	417.69
321.046	385.69
321.275	396.69
321.504	391.69
321.733	396.69
321.962	448.69
322.191	440.69
322.42	436.69
322.649	459.69
322.878	468.69
323.108	508.69
323.337	529.69
323.566	542.69
323.795	598.69
324.024	651.69
324.253	798.69
324.482	1168.69
324.71	1778.69
324.939	2446.69
325.168	2023.69
325.397	1076.69
325.626	728.69
325.855	608.69
326.084	544.69
326.313	549.69
326.542	536.69
326.77	620.69
326.999	748.69
327.228	1049.69
327.457	1500.69
327.686	1780.69
327.914	1186.69
328.143	810.69
328.372	672.69
328.6	641.69
328.829	618.69
329.058	645.69
329.287	640.69
329.515	580.69
329.744	539.69
329.972	518.69
330.201	536.69
330.43	606.69
330.658	617.69
330.887	648.69
331.115	646.69
331.344	526.69
331.572	522.69
331.801	497.69
332.03	507.69
332.258	473.69
332.486	466.69
332.715	442.69
332.943	422.69
333.172	442.69
333.4	442.69
333.629	453.69
333.857	458.69
334.085	481.69
334.314	501.69
334.542	530.69
334.771	524.69
334.999	501.69
335.227	453.69
335.455	459.69
335.684	438.69
335.912	420.69
336.14	408.69
336.369	440.69
336.597	427.69
336.825	434.69
337.053	414.69
337.281	415.69
337.51	420.69
337.738	436.69
337.966	436.69
338.194	430.69
338.422	425.69
338.65	423.69
338.878	445.69
339.106	414.69
339.334	390.69
339.562	416.69
339.79	405.69
340.018	412.69
340.246	424.69
340.474	429.69
340.702	406.69
340.93	397.69
341.158	418.69
341.386	394.69
341.614	422.69
341.842	412.69
342.07	388.69
342.298	413.69
342.526	412.69
342.754	392.69
342.981	391.69
343.209	401.69
343.437	395.69
343.665	410.69
343.893	412.69
344.12	401.69
344.348	417.69
344.576	412.69
344.804	419.69
345.031	441.69
345.259	448.69
345.487	441.69
345.714	414.69
345.942	408.69
346.17	401.69
346.397	409.69
346.625	385.69
346.853	401.69
347.08	410.69
347.308	417.69
347.535	421.69
347.763	421.69
347.99	407.69
348.218	426.69
348.445	434.69
348.673	398.69
348.9	412.69
349.128	389.69
349.355	389.69
349.583	389.69
349.81	384.69
350.037	384.69
350.265	388.69
350.492	400.69
350.72	370.69
350.947	400.69
351.174	419.69
351.402	421.69
351.629	413.69
351.856	407.69
352.083	424.69
352.311	422.69
352.538	423.69
352.765	418.69
352.992	402.69
353.22	402.69
353.447	394.69
353.674	392.69
353.901	361.69
354.128	350.69
354.355	375.69
354.583	370.69
354.81	373.69
355.037	362.69
355.264	363.69
355.491	342.69
355.718	374.69
355.945	361.69
356.172	347.69
356.399	347.69
356.626	375.69
356.853	369.69
357.08	337.69
357.307	378.69
357.534	355.69
357.761	342.69
357.988	356.69
358.215	362.69
358.441	356.69
358.668	361.69
358.895	378.69
359.122	390.69
359.349	384.69
359.576	402.69
359.802	411.69
360.029	416.69
360.256	434.69
360.483	440.69
360.709	397.69
360.936	406.69
361.163	404.69
361.39	397.69
361.616	392.69
361.843	374.69
362.07	379.69
362.296	390.69
362.523	376.69
362.749	379.69
362.976	366.69
363.203	398.69
363.429	373.69
363.656	382.69
363.882	362.69
364.109	364.69
364.335	356.69
364.562	390.69
364.788	371.69
365.015	355.69
365.241	364.69
365.468	368.69
365.694	374.69
365.92	382.69
366.147	381.69
366.373	360.69
366.599	376.69
366.826	354.69
367.052	364.69
367.278	377.69
367.505	372.69
367.731	378.69
367.957	365.69
368.184	356.69
368.41	364.69
368.636	358.69
368.862	380.69
369.089	363.69
369.315	357.69
369.541	376.69
369.767	357.69
369.993	347.69
370.219	356.69
370.445	344.69
370.672	350.69
370.898	374.69
371.124	357.69
371.35	358.69
371.576	348.69
371.802	345.69
372.028	346.69
372.254	352.69
372.48	362.69
372.706	356.69
372.932	364.69
373.158	323.69
373.384	330.69
373.61	363.69
373.835	354.69
374.061	377.69
374.287	364.69
374.513	389.69
374.739	359.69
374.965	357.69
375.191	345.69
375.416	344.69
375.642	332.69
375.868	337.69
376.094	358.69
376.319	361.69
376.545	364.69
376.771	339.69
376.997	346.69
377.222	342.69
377.448	346.69
377.674	336.69
377.899	353.69
378.125	346.69
378.35	337.69
378.576	356.69
378.802	343.69
379.027	340.69
379.253	330.69
379.478	325.69
379.704	345.69
379.929	365.69
380.155	350.69
380.38	334.69
380.606	348.69
380.831	344.69
381.057	366.69
381.282	342.69
381.507	346.69
381.733	364.69
381.958	348.69
382.184	355.69
382.409	343.69
382.634	349.69
382.86	354.69
383.085	356.69
383.31	347.69
383.535	358.69
383.761	354.69
383.986	354.69
384.211	353.69
384.436	356.69
384.662	341.69
384.887	343.69
385.112	340.69
385.337	350.69
385.562	342.69
385.787	369.69
386.013	391.69
386.238	385.69
386.463	361.69
386.688	375.69
386.913	368.69
387.138	354.69
387.363	370.69
387.588	366.69
387.813	361.69
388.038	360.69
388.263	371.69
388.488	376.69
388.713	375.69
388.938	357.69
389.163	372.69
389.387	362.69
389.612	368.69
389.837	379.69
390.062	365.69
390.287	384.69
390.512	354.69
390.736	355.69
390.961	380.69
391.186	384.69
391.411	376.69
391.636	367.69
391.86	363.69
392.085	362.69
392.31	381.69
392.534	370.69
392.759	386.69
392.984	376.69
393.208	360.69
393.433	357.69
393.658	360.69
393.882	355.69
394.107	361.69
394.331	355.69
394.556	360.69
394.78	363.69
395.005	354.69
395.229	357.69
395.454	359.69
395.678	370.69
395.903	390.69
396.127	384.69
396.352	409.69
396.576	381.69
396.801	375.69
397.025	372.69
397.249	360.69
397.474	372.69
397.698	376.69
397.922	380.69
398.147	412.69
398.371	401.69
398.595	382.69
398.82	400.69
399.044	404.69
399.268	406.69
399.492	412.69
399.717	445.69
399.941	466.69
400.165	484.69
400.389	486.69
400.613	462.69
400.837	439.69
401.062	422.69
401.286	405.69
401.51	404.69
401.734	418.69
401.958	423.69
402.182	428.69
402.406	400.69
402.63	416.69
402.854	426.69
403.078	416.69
403.302	418.69
403.526	432.69
403.75	417.69
403.974	426.69
404.198	397.69
404.422	441.69
404.645	412.69
404.869	423.69
405.093	464.69
405.317	489.69
405.541	505.69
405.765	482.69
405.988	447.69
406.212	441.69
406.436	460.69
406.66	492.69
406.883	455.69
407.107	488.69
407.331	521.69
407.555	574.69
407.778	557.69
408.002	521.69
408.226	477.69
408.449	482.69
408.673	482.69
408.896	482.69
409.12	544.69
409.344	475.69
409.567	446.69
409.791	427.69
410.014	412.69
410.238	411.69
410.461	427.69
410.685	417.69
410.908	424.69
411.132	441.69
411.355	474.69
411.578	487.69
411.802	416.69
412.025	401.69
412.249	427.69
412.472	464.69
412.695	478.69
412.919	459.69
413.142	410.69
413.365	404.69
413.589	409.69
413.812	390.69
414.035	381.69
414.258	406.69
414.482	379.69
414.705	384.69
414.928	375.69
415.151	384.69
415.374	388.69
415.597	390.69
415.821	392.69
416.044	380.69
416.267	398.69
416.49	389.69
416.713	397.69
416.936	388.69
417.159	393.69
417.382	409.69
417.605	380.69
417.828	422.69
418.051	413.69
418.274	384.69
418.497	384.69
418.72	398.69
418.943	414.69
419.166	396.69
419.389	415.69
419.611	380.69
419.834	418.69
420.057	439.69
420.28	427.69
420.503	426.69
420.726	430.69
420.948	453.69
421.171	458.69
421.394	493.69
421.617	452.69
421.839	427.69
422.062	420.69
422.285	424.69
422.507	464.69
422.73	567.69
422.953	540.69
423.175	462.69
423.398	458.69
423.621	452.69
423.843	449.69
424.066	445.69
424.288	462.69
424.511	473.69
424.733	496.69
424.956	566.69
425.178	564.69
425.401	565.69
425.623	587.69
425.846	518.69
426.068	450.69
426.291	469.69
426.513	477.69
426.735	457.69
426.958	508.69
427.18	566.69
427.402	710.69
427.625	781.69
427.847	688.69
428.069	576.69
428.292	509.69
428.514	465.69
428.736	447.69
428.958	422.69
429.181	424.69
429.403	424.69
429.625	447.69
429.847	478.69
430.069	534.69
430.292	506.69
430.514	447.69
430.736	449.69
430.958	417.69
431.18	397.69
431.402	399.69
431.624	394.69
431.846	402.69
432.068	394.69
432.29	402.69
432.512	388.69
432.734	403.69
432.956	394.69
433.178	422.69
433.4	418.69
433.622	397.69
433.844	396.69
434.066	387.69
434.287	393.69
434.509	392.69
434.731	403.69
434.953	398.69
435.175	413.69
435.397	471.69
435.618	470.69
435.84	504.69
436.062	590.69
436.284	639.69
436.505	552.69
436.727	472.69
436.949	430.69
437.17	425.69
437.392	433.69
437.614	456.69
437.835	489.69
438.057	576.69
438.278	646.69
438.5	631.69
438.721	691.69
438.943	653.69
439.165	544.69
439.386	490.69
439.608	493.69
439.829	471.69
440.05	511.69
440.272	545.69
440.493	503.69
440.715	466.69
440.936	447.69
441.158	424.69
441.379	428.69
441.6	450.69
441.822	464.69
442.043	500.69
442.264	574.69
442.486	595.69
442.707	512.69
442.928	502.69
443.149	477.69
443.371	523.69
443.592	547.69
443.813	621.69
444.034	670.69
444.255	566.69
444.476	493.69
444.698	466.69
444.919	466.69
445.14	598.69
445.361	542.69
445.582	527.69
445.803	588.69
446.024	683.69
446.245	650.69
446.466	622.69
446.687	525.69
446.908	473.69
447.129	445.69
447.35	444.69
447.571	418.69
447.792	436.69
448.013	454.69
448.234	456.69
448.455	487.69
448.675	611.69
448.896	704.69
449.117	596.69
449.338	599.69
449.559	637.69
449.779	720.69
450	595.69
450.221	502.69
450.442	470.69
450.662	421.69
450.883	440.69
451.104	454.69
451.324	436.69
451.545	405.69
451.766	393.69
451.986	397.69
452.207	384.69
452.428	392.69
452.648	383.69
452.869	384.69
453.089	393.69
453.31	407.69
453.53	388.69
453.751	378.69
453.971	399.69
454.192	395.69
454.412	402.69
454.633	389.69
454.853	376.69
455.073	368.69
455.294	408.69
455.514	488.69
455.734	436.69
455.955	385.69
456.175	365.69
456.395	350.69
456.616	361.69
456.836	363.69
457.056	361.69
457.276	344.69
457.497	341.69
457.717	366.69
457.937	368.69
458.157	368.69
458.377	365.69
458.598	380.69
458.818	451.69
459.038	523.69
459.258	539.69
459.478	448.69
459.698	415.69
459.918	391.69
460.138	393.69
460.358	383.69
460.578	377.69
460.798	386.69
461.018	407.69
461.238	378.69
461.458	388.69
461.678	383.69
461.898	373.69
462.118	375.69
462.338	392.69
462.558	390.69
462.777	392.69
462.997	406.69
463.217	393.69
463.437	412.69
463.657	376.69
463.876	394.69
464.096	403.69
464.316	401.69
464.536	418.69
464.755	402.69
464.975	438.69
465.195	461.69
465.414	564.69
465.634	490.69
465.854	435.69
466.073	416.69
466.293	394.69
466.512	395.69
466.732	383.69
466.951	396.69
467.171	381.69
467.391	384.69
467.61	384.69
467.829	396.69
468.049	397.69
468.268	390.69
468.488	357.69
468.707	368.69
468.927	360.69
469.146	350.69
469.365	371.69
469.585	372.69
469.804	383.69
470.023	400.69
470.243	389.69
470.462	407.69
470.681	429.69
470.901	404.69
471.12	380.69
471.339	393.69
471.558	387.69
471.777	405.69
471.997	390.69
472.216	403.69
472.435	434.69
472.654	399.69
472.873	387.69
473.092	408.69
473.311	398.69
473.53	392.69
473.749	398.69
473.968	443.69
474.187	561.69
474.406	568.69
474.625	448.69
474.844	406.69
475.063	400.69
475.282	355.69
475.501	382.69
475.72	388.69
475.939	403.69
476.158	404.69
476.377	393.69
476.596	397.69
476.814	401.69
477.033	408.69
477.252	414.69
477.471	413.69
477.69	421.69
477.908	418.69
478.127	406.69
478.346	436.69
478.564	420.69
478.783	414.69
479.002	430.69
479.22	430.69
479.439	457.69
479.658	480.69
479.876	460.69
480.095	478.69
480.313	486.69
480.532	487.69
480.751	466.69
480.969	469.69
481.188	549.69
481.406	558.69
481.624	508.69
481.843	464.69
482.061	460.69
482.28	454.69
482.498	483.69
482.717	464.69
482.935	476.69
483.153	454.69
483.372	454.69
483.59	457.69
483.808	447.69
484.027	434.69
484.245	455.69
484.463	448.69
484.681	460.69
484.9	462.69
485.118	454.69
485.336	484.69
485.554	463.69
485.772	464.69
485.99	472.69
486.209	478.69
486.427	470.69
486.645	465.69
486.863	492.69
487.081	493.69
487.299	496.69
487.517	480.69
487.735	464.69
487.953	495.69
488.171	494.69
488.389	477.69
488.607	496.69
488.825	497.69
489.043	498.69
489.261	494.69
489.479	508.69
489.696	501.69
489.914	479.69
490.132	490.69
490.35	509.69
490.568	510.69
490.786	523.69
491.003	534.69
491.221	556.69
491.439	571.69
491.657	577.69
491.874	563.69
492.092	554.69
492.31	562.69
492.527	568.69
492.745	545.69
492.963	566.69
493.18	596.69
493.398	570.69
493.615	568.69
493.833	588.69
494.05	568.69
494.268	550.69
494.485	580.69
494.703	569.69
494.92	591.69
495.138	597.69
495.355	598.69
495.573	591.69
495.79	595.69
496.008	599.69
496.225	571.69
496.442	568.69
496.66	582.69
496.877	582.69
497.094	582.69
497.312	585.69
497.529	606.69
497.746	606.69
497.963	596.69
498.181	626.69
498.398	618.69
498.615	608.69
498.832	649.69
499.049	625.69
499.267	641.69
499.484	650.69
499.701	663.69
499.918	662.69
500.135	664.69
500.352	720.69
500.569	699.69
500.786	700.69
501.003	713.69
501.22	716.69
501.437	692.69
501.654	709.69
501.871	717.69
