Data from 1981.PennyLincolnUp.Lamp.En5.5.200Scan.071819.P1_HRD10591_16-42-23-960.txt Node
Date: Thu Jul 18 16:42:23 EDT 2019
User: cochatt
Spectrometer: HR+D1059
Trigger mode: 1
Integration Time (sec): 1.000000E-1
Scans to average: 1
Electric dark correction enabled: true
Nonlinearity correction enabled: false
Boxcar width: 0
XAxis mode: Wavelengths
Number of Pixels in Spectrum: 2048
>>>>>Begin Spectral Data<<<<<
223.165	-7.38
223.4	-7.38
223.635	-7.38
223.869	-18.38
224.104	-6.38
224.338	-18.38
224.573	-17.38
224.808	-13.38
225.042	-6.38
225.277	-3.38
225.511	6.62
225.746	-1.38
225.98	-0.38
226.215	16.62
226.449	3.62
226.683	20.62
226.918	22.62
227.152	22.62
227.387	31.62
227.621	42.62
227.856	54.62
228.09	50.62
228.324	45.62
228.559	59.62
228.793	74.62
229.027	115.62
229.262	119.62
229.496	106.62
229.73	132.62
229.964	162.62
230.199	148.62
230.433	121.62
230.667	124.62
230.901	119.62
231.136	108.62
231.37	118.62
231.604	120.62
231.838	112.62
232.072	122.62
232.306	112.62
232.541	120.62
232.775	125.62
233.009	103.62
233.243	105.62
233.477	108.62
233.711	121.62
233.945	105.62
234.179	110.62
234.413	116.62
234.647	130.62
234.881	122.62
235.115	124.62
235.349	135.62
235.583	121.62
235.817	119.62
236.051	118.62
236.285	125.62
236.519	142.62
236.753	133.62
236.987	136.62
237.221	182.62
237.455	228.62
237.689	196.62
237.922	144.62
238.156	134.62
238.39	142.62
238.624	130.62
238.858	139.62
239.091	133.62
239.325	126.62
239.559	128.62
239.793	123.62
240.027	122.62
240.26	140.62
240.494	164.62
240.728	154.62
240.961	138.62
241.195	149.62
241.429	158.62
241.662	141.62
241.896	162.62
242.13	127.62
242.363	142.62
242.597	129.62
242.83	128.62
243.064	157.62
243.298	143.62
243.531	142.62
243.765	148.62
243.998	125.62
244.232	148.62
244.465	148.62
244.699	141.62
244.932	150.62
245.166	144.62
245.399	151.62
245.633	139.62
245.866	159.62
246.099	150.62
246.333	155.62
246.566	151.62
246.8	151.62
247.033	159.62
247.266	149.62
247.5	159.62
247.733	183.62
247.966	172.62
248.2	176.62
248.433	175.62
248.666	197.62
248.899	205.62
249.133	213.62
249.366	236.62
249.599	208.62
249.832	191.62
250.066	175.62
250.299	197.62
250.532	191.62
250.765	201.62
250.998	218.62
251.231	252.62
251.465	225.62
251.698	212.62
251.931	203.62
252.164	203.62
252.397	194.62
252.63	217.62
252.863	225.62
253.096	230.62
253.329	248.62
253.562	256.62
253.795	226.62
254.028	234.62
254.261	234.62
254.494	242.62
254.727	261.62
254.96	294.62
255.193	275.62
255.426	266.62
255.659	264.62
255.892	244.62
256.124	260.62
256.357	260.62
256.59	251.62
256.823	239.62
257.056	216.62
257.289	237.62
257.521	232.62
257.754	227.62
257.987	226.62
258.22	241.62
258.452	217.62
258.685	229.62
258.918	219.62
259.151	233.62
259.383	234.62
259.616	255.62
259.849	233.62
260.081	261.62
260.314	266.62
260.547	277.62
260.779	266.62
261.012	254.62
261.244	235.62
261.477	250.62
261.71	231.62
261.942	249.62
262.175	256.62
262.407	245.62
262.64	222.62
262.872	230.62
263.105	215.62
263.337	219.62
263.57	229.62
263.802	210.62
264.035	226.62
264.267	235.62
264.499	237.62
264.732	230.62
264.964	232.62
265.197	229.62
265.429	207.62
265.661	200.62
265.894	225.62
266.126	214.62
266.358	220.62
266.591	229.62
266.823	221.62
267.055	254.62
267.287	238.62
267.52	226.62
267.752	229.62
267.984	222.62
268.216	236.62
268.448	259.62
268.681	247.62
268.913	255.62
269.145	276.62
269.377	296.62
269.609	309.62
269.841	277.62
270.073	288.62
270.306	307.62
270.538	330.62
270.77	352.62
271.002	328.62
271.234	317.62
271.466	336.62
271.698	328.62
271.93	338.62
272.162	333.62
272.394	332.62
272.626	335.62
272.858	295.62
273.09	313.62
273.322	285.62
273.553	279.62
273.785	289.62
274.017	291.62
274.249	260.62
274.481	275.62
274.713	275.62
274.945	279.62
275.176	280.62
275.408	277.62
275.64	280.62
275.872	276.62
276.104	270.62
276.335	296.62
276.567	296.62
276.799	300.62
277.031	312.62
277.262	335.62
277.494	342.62
277.726	323.62
277.957	318.62
278.189	266.62
278.421	281.62
278.652	291.62
278.884	290.62
279.115	278.62
279.347	268.62
279.579	279.62
279.81	271.62
280.042	256.62
280.273	278.62
280.505	276.62
280.736	280.62
280.968	289.62
281.199	262.62
281.431	270.62
281.662	287.62
281.894	280.62
282.125	291.62
282.356	314.62
282.588	326.62
282.819	302.62
283.051	287.62
283.282	294.62
283.513	282.62
283.745	264.62
283.976	276.62
284.207	317.62
284.439	284.62
284.67	276.62
284.901	295.62
285.132	277.62
285.364	270.62
285.595	283.62
285.826	273.62
286.057	295.62
286.288	280.62
286.52	260.62
286.751	295.62
286.982	298.62
287.213	284.62
287.444	310.62
287.675	295.62
287.906	279.62
288.138	320.62
288.369	297.62
288.6	303.62
288.831	307.62
289.062	307.62
289.293	287.62
289.524	293.62
289.755	287.62
289.986	311.62
290.217	302.62
290.448	291.62
290.679	297.62
290.91	286.62
291.141	292.62
291.371	309.62
291.602	310.62
291.833	295.62
292.064	285.62
292.295	300.62
292.526	298.62
292.757	291.62
292.987	290.62
293.218	265.62
293.449	304.62
293.68	294.62
293.91	301.62
294.141	292.62
294.372	292.62
294.603	283.62
294.833	307.62
295.064	286.62
295.295	295.62
295.525	302.62
295.756	310.62
295.987	304.62
296.217	338.62
296.448	350.62
296.679	303.62
296.909	282.62
297.14	298.62
297.37	306.62
297.601	316.62
297.831	309.62
298.062	296.62
298.292	299.62
298.523	315.62
298.753	303.62
298.984	306.62
299.214	301.62
299.445	320.62
299.675	301.62
299.905	311.62
300.136	323.62
300.366	299.62
300.597	327.62
300.827	317.62
301.057	320.62
301.288	320.62
301.518	335.62
301.748	326.62
301.979	325.62
302.209	340.62
302.439	327.62
302.669	324.62
302.9	337.62
303.13	336.62
303.36	326.62
303.59	339.62
303.82	347.62
304.051	357.62
304.281	331.62
304.511	313.62
304.741	330.62
304.971	329.62
305.201	323.62
305.431	333.62
305.661	310.62
305.891	323.62
306.121	341.62
306.352	337.62
306.582	333.62
306.812	349.62
307.042	334.62
307.272	342.62
307.502	342.62
307.731	324.62
307.961	326.62
308.191	325.62
308.421	315.62
308.651	327.62
308.881	345.62
309.111	328.62
309.341	345.62
309.571	360.62
309.8	365.62
310.03	358.62
310.26	390.62
310.49	398.62
310.72	398.62
310.949	419.62
311.179	415.62
311.409	389.62
311.639	365.62
311.868	382.62
312.098	392.62
312.328	407.62
312.557	408.62
312.787	443.62
313.017	437.62
313.246	402.62
313.476	386.62
313.706	390.62
313.935	394.62
314.165	397.62
314.394	400.62
314.624	428.62
314.853	401.62
315.083	398.62
315.312	380.62
315.542	372.62
315.771	385.62
316.001	372.62
316.23	381.62
316.46	374.62
316.689	403.62
316.919	386.62
317.148	389.62
317.377	404.62
317.607	378.62
317.836	384.62
318.065	388.62
318.295	387.62
318.524	373.62
318.753	374.62
318.983	388.62
319.212	389.62
319.441	410.62
319.67	398.62
319.9	396.62
320.129	408.62
320.358	374.62
320.587	386.62
320.816	413.62
321.046	412.62
321.275	408.62
321.504	410.62
321.733	424.62
321.962	439.62
322.191	452.62
322.42	467.62
322.649	473.62
322.878	485.62
323.108	487.62
323.337	534.62
323.566	578.62
323.795	574.62
324.024	653.62
324.253	810.62
324.482	1167.62
324.71	1781.62
324.939	2395.62
325.168	2052.62
325.397	1068.62
325.626	730.62
325.855	602.62
326.084	569.62
326.313	539.62
326.542	547.62
326.77	618.62
326.999	730.62
327.228	1016.62
327.457	1514.62
327.686	1780.62
327.914	1206.62
328.143	799.62
328.372	676.62
328.6	674.62
328.829	624.62
329.058	628.62
329.287	636.62
329.515	563.62
329.744	538.62
329.972	504.62
330.201	564.62
330.43	613.62
330.658	631.62
330.887	646.62
331.115	639.62
331.344	545.62
331.572	519.62
331.801	512.62
332.03	489.62
332.258	502.62
332.486	447.62
332.715	441.62
332.943	448.62
333.172	448.62
333.4	448.62
333.629	469.62
333.857	477.62
334.085	497.62
334.314	489.62
334.542	518.62
334.771	557.62
334.999	518.62
335.227	472.62
335.455	458.62
335.684	429.62
335.912	445.62
336.14	434.62
336.369	460.62
336.597	431.62
336.825	434.62
337.053	444.62
337.281	418.62
337.51	427.62
337.738	452.62
337.966	439.62
338.194	437.62
338.422	438.62
338.65	452.62
338.878	428.62
339.106	432.62
339.334	432.62
339.562	401.62
339.79	405.62
340.018	420.62
340.246	436.62
340.474	424.62
340.702	403.62
340.93	414.62
341.158	418.62
341.386	421.62
341.614	410.62
341.842	434.62
342.07	402.62
342.298	407.62
342.526	392.62
342.754	394.62
342.981	415.62
343.209	376.62
343.437	411.62
343.665	410.62
343.893	415.62
344.12	400.62
344.348	414.62
344.576	420.62
344.804	413.62
345.031	418.62
345.259	440.62
345.487	436.62
345.714	420.62
345.942	416.62
346.17	400.62
346.397	406.62
346.625	418.62
346.853	387.62
347.08	422.62
347.308	398.62
347.535	420.62
347.763	421.62
347.99	412.62
348.218	415.62
348.445	407.62
348.673	426.62
348.9	408.62
349.128	380.62
349.355	383.62
349.583	380.62
349.81	392.62
350.037	399.62
350.265	382.62
350.492	378.62
350.72	423.62
350.947	405.62
351.174	406.62
351.402	420.62
351.629	399.62
351.856	419.62
352.083	401.62
352.311	418.62
352.538	440.62
352.765	423.62
352.992	415.62
353.22	397.62
353.447	413.62
353.674	393.62
353.901	380.62
354.128	395.62
354.355	351.62
354.583	356.62
354.81	375.62
355.037	372.62
355.264	367.62
355.491	376.62
355.718	372.62
355.945	368.62
356.172	366.62
356.399	388.62
356.626	369.62
356.853	374.62
357.08	388.62
357.307	353.62
357.534	373.62
357.761	370.62
357.988	373.62
358.215	360.62
358.441	378.62
358.668	384.62
358.895	382.62
359.122	372.62
359.349	397.62
359.576	413.62
359.802	426.62
360.029	464.62
360.256	475.62
360.483	455.62
360.709	389.62
360.936	421.62
361.163	407.62
361.39	397.62
361.616	406.62
361.843	393.62
362.07	405.62
362.296	416.62
362.523	394.62
362.749	382.62
362.976	380.62
363.203	398.62
363.429	370.62
363.656	379.62
363.882	372.62
364.109	373.62
364.335	370.62
364.562	379.62
364.788	372.62
365.015	371.62
365.241	360.62
365.468	372.62
365.694	375.62
365.92	372.62
366.147	362.62
366.373	358.62
366.599	384.62
366.826	372.62
367.052	361.62
367.278	370.62
367.505	365.62
367.731	356.62
367.957	365.62
368.184	374.62
368.41	377.62
368.636	379.62
368.862	383.62
369.089	374.62
369.315	382.62
369.541	362.62
369.767	360.62
369.993	360.62
370.219	373.62
370.445	347.62
370.672	367.62
370.898	340.62
371.124	351.62
371.35	356.62
371.576	336.62
371.802	351.62
372.028	356.62
372.254	354.62
372.48	339.62
372.706	341.62
372.932	352.62
373.158	356.62
373.384	370.62
373.61	364.62
373.835	377.62
374.061	340.62
374.287	361.62
374.513	352.62
374.739	342.62
374.965	363.62
375.191	372.62
375.416	372.62
375.642	335.62
375.868	377.62
376.094	348.62
376.319	350.62
376.545	357.62
376.771	336.62
376.997	346.62
377.222	344.62
377.448	345.62
377.674	356.62
377.899	327.62
378.125	341.62
378.35	337.62
378.576	345.62
378.802	362.62
379.027	355.62
379.253	357.62
379.478	342.62
379.704	342.62
379.929	349.62
380.155	352.62
380.38	348.62
380.606	360.62
380.831	350.62
381.057	348.62
381.282	372.62
381.507	334.62
381.733	359.62
381.958	340.62
382.184	343.62
382.409	352.62
382.634	379.62
382.86	356.62
383.085	372.62
383.31	365.62
383.535	340.62
383.761	357.62
383.986	357.62
384.211	356.62
384.436	372.62
384.662	370.62
384.887	361.62
385.112	370.62
385.337	356.62
385.562	366.62
385.787	354.62
386.013	365.62
386.238	365.62
386.463	382.62
386.688	374.62
386.913	356.62
387.138	346.62
387.363	350.62
387.588	371.62
387.813	358.62
388.038	352.62
388.263	383.62
388.488	367.62
388.713	357.62
388.938	381.62
389.163	376.62
389.387	366.62
389.612	370.62
389.837	370.62
390.062	375.62
390.287	362.62
390.512	343.62
390.736	350.62
390.961	363.62
391.186	359.62
391.411	361.62
391.636	384.62
391.86	378.62
392.085	362.62
392.31	352.62
392.534	346.62
392.759	359.62
392.984	363.62
393.208	367.62
393.433	366.62
393.658	349.62
393.882	349.62
394.107	359.62
394.331	362.62
394.556	346.62
394.78	351.62
395.005	367.62
395.229	370.62
395.454	370.62
395.678	372.62
395.903	370.62
396.127	412.62
396.352	421.62
396.576	390.62
396.801	380.62
397.025	367.62
397.249	374.62
397.474	386.62
397.698	384.62
397.922	399.62
398.147	399.62
398.371	418.62
398.595	418.62
398.82	401.62
399.044	405.62
399.268	406.62
399.492	439.62
399.717	432.62
399.941	460.62
400.165	494.62
400.389	493.62
400.613	470.62
400.837	418.62
401.062	422.62
401.286	407.62
401.51	411.62
401.734	404.62
401.958	406.62
402.182	405.62
402.406	441.62
402.63	434.62
402.854	408.62
403.078	415.62
403.302	391.62
403.526	423.62
403.75	439.62
403.974	406.62
404.198	418.62
404.422	435.62
404.645	427.62
404.869	420.62
405.093	457.62
405.317	485.62
405.541	505.62
405.765	479.62
405.988	447.62
406.212	437.62
406.436	474.62
406.66	478.62
406.883	479.62
407.107	491.62
407.331	511.62
407.555	566.62
407.778	549.62
408.002	502.62
408.226	492.62
408.449	485.62
408.673	458.62
408.896	480.62
409.12	538.62
409.344	491.62
409.567	483.62
409.791	430.62
410.014	411.62
410.238	420.62
410.461	424.62
410.685	443.62
410.908	426.62
411.132	484.62
411.355	518.62
411.578	479.62
411.802	427.62
412.025	424.62
412.249	431.62
412.472	434.62
412.695	467.62
412.919	470.62
413.142	406.62
413.365	401.62
413.589	407.62
413.812	423.62
414.035	403.62
414.258	415.62
414.482	374.62
414.705	386.62
414.928	380.62
415.151	399.62
415.374	390.62
415.597	387.62
415.821	401.62
416.044	411.62
416.267	423.62
416.49	381.62
416.713	390.62
416.936	389.62
417.159	392.62
417.382	398.62
417.605	392.62
417.828	415.62
418.051	414.62
418.274	411.62
418.497	416.62
418.72	412.62
418.943	370.62
419.166	409.62
419.389	415.62
419.611	422.62
419.834	415.62
420.057	434.62
420.28	429.62
420.503	416.62
420.726	416.62
420.948	428.62
421.171	467.62
421.394	526.62
421.617	441.62
421.839	401.62
422.062	420.62
422.285	443.62
422.507	482.62
422.73	543.62
422.953	550.62
423.175	478.62
423.398	437.62
423.621	442.62
423.843	468.62
424.066	458.62
424.288	463.62
424.511	463.62
424.733	515.62
424.956	593.62
425.178	582.62
425.401	571.62
425.623	607.62
425.846	512.62
426.068	471.62
426.291	465.62
426.513	478.62
426.735	463.62
426.958	500.62
427.18	606.62
427.402	707.62
427.625	765.62
427.847	678.62
428.069	602.62
428.292	510.62
428.514	463.62
428.736	452.62
428.958	436.62
429.181	442.62
429.403	427.62
429.625	424.62
429.847	455.62
430.069	538.62
430.292	521.62
430.514	439.62
430.736	446.62
430.958	420.62
431.18	414.62
431.402	414.62
431.624	403.62
431.846	399.62
432.068	384.62
432.29	393.62
432.512	402.62
432.734	419.62
432.956	403.62
433.178	442.62
433.4	423.62
433.622	410.62
433.844	410.62
434.066	383.62
434.287	384.62
434.509	426.62
434.731	410.62
434.953	429.62
435.175	409.62
435.397	454.62
435.618	465.62
435.84	502.62
436.062	582.62
436.284	628.62
436.505	544.62
436.727	482.62
436.949	454.62
437.17	426.62
437.392	430.62
437.614	447.62
437.835	484.62
438.057	604.62
438.278	657.62
438.5	662.62
438.721	718.62
438.943	688.62
439.165	545.62
439.386	494.62
439.608	474.62
439.829	466.62
440.05	521.62
440.272	551.62
440.493	505.62
440.715	470.62
440.936	440.62
441.158	434.62
441.379	423.62
441.6	432.62
441.822	468.62
442.043	490.62
442.264	607.62
442.486	623.62
442.707	503.62
442.928	486.62
443.149	506.62
443.371	520.62
443.592	551.62
443.813	612.62
444.034	660.62
444.255	565.62
444.476	482.62
444.698	475.62
444.919	485.62
445.14	546.62
445.361	528.62
445.582	502.62
445.803	570.62
446.024	663.62
446.245	675.62
446.466	616.62
446.687	518.62
446.908	462.62
447.129	475.62
447.35	428.62
447.571	419.62
447.792	438.62
448.013	420.62
448.234	445.62
448.455	512.62
448.675	594.62
448.896	668.62
449.117	604.62
449.338	588.62
449.559	653.62
449.779	740.62
450	574.62
450.221	493.62
450.442	456.62
450.662	435.62
450.883	426.62
451.104	448.62
451.324	429.62
451.545	437.62
451.766	402.62
451.986	380.62
452.207	373.62
452.428	376.62
452.648	381.62
452.869	395.62
453.089	403.62
453.31	397.62
453.53	393.62
453.751	392.62
453.971	397.62
454.192	412.62
454.412	405.62
454.633	390.62
454.853	388.62
455.073	391.62
455.294	414.62
455.514	475.62
455.734	461.62
455.955	389.62
456.175	370.62
456.395	347.62
456.616	374.62
456.836	366.62
457.056	354.62
457.276	358.62
457.497	380.62
457.717	351.62
457.937	358.62
458.157	375.62
458.377	368.62
458.598	382.62
458.818	453.62
459.038	528.62
459.258	549.62
459.478	475.62
459.698	414.62
459.918	402.62
460.138	397.62
460.358	410.62
460.578	382.62
460.798	375.62
461.018	383.62
461.238	400.62
461.458	410.62
461.678	371.62
461.898	389.62
462.118	382.62
462.338	389.62
462.558	380.62
462.777	391.62
462.997	421.62
463.217	400.62
463.437	417.62
463.657	422.62
463.876	434.62
464.096	398.62
464.316	401.62
464.536	408.62
464.755	422.62
464.975	435.62
465.195	471.62
465.414	525.62
465.634	468.62
465.854	438.62
466.073	431.62
466.293	427.62
466.512	388.62
466.732	400.62
466.951	397.62
467.171	395.62
467.391	398.62
467.61	404.62
467.829	407.62
468.049	408.62
468.268	401.62
468.488	383.62
468.707	370.62
468.927	376.62
469.146	363.62
469.365	378.62
469.585	368.62
469.804	392.62
470.023	398.62
470.243	396.62
470.462	393.62
470.681	404.62
470.901	416.62
471.12	408.62
471.339	378.62
471.558	394.62
471.777	403.62
471.997	399.62
472.216	399.62
472.435	430.62
472.654	427.62
472.873	398.62
473.092	395.62
473.311	375.62
473.53	400.62
473.749	424.62
473.968	451.62
474.187	546.62
474.406	564.62
474.625	475.62
474.844	422.62
475.063	407.62
475.282	405.62
475.501	415.62
475.72	428.62
475.939	390.62
476.158	407.62
476.377	408.62
476.596	406.62
476.814	406.62
477.033	452.62
477.252	412.62
477.471	404.62
477.69	409.62
477.908	418.62
478.127	433.62
478.346	408.62
478.564	429.62
478.783	406.62
479.002	442.62
479.22	445.62
479.439	486.62
479.658	485.62
479.876	475.62
480.095	482.62
480.313	474.62
480.532	488.62
480.751	474.62
480.969	469.62
481.188	515.62
481.406	564.62
481.624	493.62
481.843	489.62
482.061	480.62
482.28	491.62
482.498	469.62
482.717	441.62
482.935	447.62
483.153	474.62
483.372	457.62
483.59	472.62
483.808	458.62
484.027	468.62
484.245	468.62
484.463	473.62
484.681	473.62
484.9	460.62
485.118	479.62
485.336	483.62
485.554	479.62
485.772	487.62
485.99	476.62
486.209	468.62
486.427	470.62
486.645	479.62
486.863	520.62
487.081	488.62
487.299	483.62
487.517	499.62
487.735	486.62
487.953	495.62
488.171	504.62
488.389	518.62
488.607	493.62
488.825	493.62
489.043	485.62
489.261	481.62
489.479	518.62
489.696	506.62
489.914	508.62
490.132	514.62
490.35	524.62
490.568	509.62
490.786	530.62
491.003	515.62
491.221	551.62
491.439	566.62
491.657	548.62
491.874	580.62
492.092	578.62
492.31	544.62
492.527	559.62
492.745	566.62
492.963	576.62
493.18	586.62
493.398	576.62
493.615	567.62
493.833	572.62
494.05	559.62
494.268	584.62
494.485	580.62
494.703	582.62
494.92	573.62
495.138	596.62
495.355	571.62
495.573	605.62
495.79	604.62
496.008	583.62
496.225	583.62
496.442	592.62
496.66	595.62
496.877	593.62
497.094	599.62
497.312	600.62
497.529	596.62
497.746	600.62
497.963	635.62
498.181	628.62
498.398	640.62
498.615	652.62
498.832	652.62
499.049	635.62
499.267	642.62
499.484	658.62
499.701	674.62
499.918	664.62
500.135	694.62
500.352	690.62
500.569	701.62
500.786	717.62
501.003	727.62
501.22	696.62
501.437	707.62
501.654	701.62
501.871	724.62
