Data from 1981.PennyLincolnUp.Lamp.En5.5.200Scan.071819.P1_HRD10591_16-40-57-959.txt Node
Date: Thu Jul 18 16:40:57 EDT 2019
User: cochatt
Spectrometer: HR+D1059
Trigger mode: 1
Integration Time (sec): 1.000000E-1
Scans to average: 1
Electric dark correction enabled: true
Nonlinearity correction enabled: false
Boxcar width: 0
XAxis mode: Wavelengths
Number of Pixels in Spectrum: 2048
>>>>>Begin Spectral Data<<<<<
223.165	-26.94
223.4	-26.94
223.635	-26.94
223.869	-11.94
224.104	-25.94
224.338	-21.94
224.573	-11.94
224.808	-11.94
225.042	7.06
225.277	4.06
225.511	7.06
225.746	1.06
225.98	6.06
226.215	21.06
226.449	19.06
226.683	19.06
226.918	2.06
227.152	24.06
227.387	36.06
227.621	52.06
227.856	47.06
228.09	51.06
228.324	43.06
228.559	49.06
228.793	68.06
229.027	93.06
229.262	113.06
229.496	117.06
229.73	119.06
229.964	130.06
230.199	116.06
230.433	120.06
230.667	121.06
230.901	104.06
231.136	119.06
231.37	102.06
231.604	107.06
231.838	117.06
232.072	109.06
232.306	107.06
232.541	121.06
232.775	115.06
233.009	115.06
233.243	106.06
233.477	113.06
233.711	110.06
233.945	117.06
234.179	122.06
234.413	119.06
234.647	123.06
234.881	101.06
235.115	113.06
235.349	99.06
235.583	105.06
235.817	133.06
236.051	119.06
236.285	119.06
236.519	126.06
236.753	132.06
236.987	146.06
237.221	182.06
237.455	236.06
237.689	169.06
237.922	143.06
238.156	146.06
238.39	117.06
238.624	116.06
238.858	123.06
239.091	129.06
239.325	129.06
239.559	127.06
239.793	132.06
240.027	125.06
240.26	131.06
240.494	148.06
240.728	149.06
240.961	146.06
241.195	144.06
241.429	132.06
241.662	114.06
241.896	112.06
242.13	121.06
242.363	121.06
242.597	139.06
242.83	140.06
243.064	115.06
243.298	134.06
243.531	135.06
243.765	130.06
243.998	124.06
244.232	134.06
244.465	138.06
244.699	161.06
244.932	150.06
245.166	149.06
245.399	144.06
245.633	144.06
245.866	132.06
246.099	143.06
246.333	133.06
246.566	144.06
246.8	151.06
247.033	151.06
247.266	150.06
247.5	160.06
247.733	138.06
247.966	173.06
248.2	143.06
248.433	168.06
248.666	168.06
248.899	183.06
249.133	189.06
249.366	202.06
249.599	185.06
249.832	181.06
250.066	173.06
250.299	173.06
250.532	184.06
250.765	187.06
250.998	197.06
251.231	224.06
251.465	199.06
251.698	207.06
251.931	207.06
252.164	202.06
252.397	194.06
252.63	220.06
252.863	193.06
253.096	205.06
253.329	228.06
253.562	222.06
253.795	228.06
254.028	227.06
254.261	212.06
254.494	231.06
254.727	238.06
254.96	271.06
255.193	279.06
255.426	249.06
255.659	243.06
255.892	239.06
256.124	237.06
256.357	215.06
256.59	215.06
256.823	213.06
257.056	224.06
257.289	206.06
257.521	205.06
257.754	224.06
257.987	211.06
258.22	207.06
258.452	205.06
258.685	201.06
258.918	200.06
259.151	196.06
259.383	221.06
259.616	234.06
259.849	213.06
260.081	222.06
260.314	236.06
260.547	240.06
260.779	239.06
261.012	238.06
261.244	214.06
261.477	210.06
261.71	203.06
261.942	227.06
262.175	236.06
262.407	235.06
262.64	210.06
262.872	207.06
263.105	204.06
263.337	208.06
263.57	197.06
263.802	215.06
264.035	200.06
264.267	217.06
264.499	196.06
264.732	204.06
264.964	202.06
265.197	213.06
265.429	223.06
265.661	194.06
265.894	216.06
266.126	211.06
266.358	206.06
266.591	209.06
266.823	205.06
267.055	206.06
267.287	231.06
267.52	206.06
267.752	233.06
267.984	227.06
268.216	223.06
268.448	231.06
268.681	222.06
268.913	232.06
269.145	251.06
269.377	263.06
269.609	243.06
269.841	270.06
270.073	284.06
270.306	281.06
270.538	295.06
270.77	313.06
271.002	287.06
271.234	295.06
271.466	299.06
271.698	315.06
271.93	314.06
272.162	294.06
272.394	313.06
272.626	309.06
272.858	288.06
273.09	299.06
273.322	258.06
273.553	271.06
273.785	261.06
274.017	270.06
274.249	261.06
274.481	265.06
274.713	263.06
274.945	270.06
275.176	265.06
275.408	233.06
275.64	243.06
275.872	253.06
276.104	268.06
276.335	261.06
276.567	258.06
276.799	298.06
277.031	286.06
277.262	282.06
277.494	295.06
277.726	297.06
277.957	279.06
278.189	285.06
278.421	277.06
278.652	276.06
278.884	276.06
279.115	245.06
279.347	248.06
279.579	260.06
279.81	259.06
280.042	262.06
280.273	238.06
280.505	270.06
280.736	250.06
280.968	241.06
281.199	255.06
281.431	256.06
281.662	254.06
281.894	253.06
282.125	249.06
282.356	296.06
282.588	280.06
282.819	294.06
283.051	259.06
283.282	254.06
283.513	259.06
283.745	263.06
283.976	276.06
284.207	273.06
284.439	265.06
284.67	283.06
284.901	255.06
285.132	246.06
285.364	252.06
285.595	262.06
285.826	271.06
286.057	277.06
286.288	262.06
286.52	275.06
286.751	250.06
286.982	251.06
287.213	256.06
287.444	257.06
287.675	292.06
287.906	297.06
288.138	293.06
288.369	283.06
288.6	293.06
288.831	262.06
289.062	266.06
289.293	281.06
289.524	269.06
289.755	284.06
289.986	264.06
290.217	264.06
290.448	260.06
290.679	266.06
290.91	262.06
291.141	282.06
291.371	259.06
291.602	267.06
291.833	272.06
292.064	279.06
292.295	269.06
292.526	287.06
292.757	272.06
292.987	271.06
293.218	261.06
293.449	266.06
293.68	278.06
293.91	261.06
294.141	259.06
294.372	270.06
294.603	267.06
294.833	274.06
295.064	284.06
295.295	286.06
295.525	263.06
295.756	286.06
295.987	291.06
296.217	280.06
296.448	317.06
296.679	285.06
296.909	294.06
297.14	272.06
297.37	278.06
297.601	283.06
297.831	288.06
298.062	279.06
298.292	277.06
298.523	270.06
298.753	300.06
298.984	263.06
299.214	281.06
299.445	286.06
299.675	289.06
299.905	297.06
300.136	279.06
300.366	283.06
300.597	286.06
300.827	292.06
301.057	281.06
301.288	315.06
301.518	284.06
301.748	274.06
301.979	289.06
302.209	301.06
302.439	320.06
302.669	305.06
302.9	316.06
303.13	305.06
303.36	297.06
303.59	305.06
303.82	308.06
304.051	298.06
304.281	289.06
304.511	296.06
304.741	299.06
304.971	320.06
305.201	291.06
305.431	311.06
305.661	302.06
305.891	310.06
306.121	329.06
306.352	323.06
306.582	318.06
306.812	297.06
307.042	321.06
307.272	323.06
307.502	306.06
307.731	309.06
307.961	311.06
308.191	311.06
308.421	311.06
308.651	311.06
308.881	316.06
309.111	317.06
309.341	319.06
309.571	316.06
309.8	355.06
310.03	344.06
310.26	358.06
310.49	337.06
310.72	359.06
310.949	380.06
311.179	369.06
311.409	350.06
311.639	353.06
311.868	362.06
312.098	353.06
312.328	375.06
312.557	388.06
312.787	402.06
313.017	381.06
313.246	358.06
313.476	364.06
313.706	349.06
313.935	342.06
314.165	371.06
314.394	377.06
314.624	362.06
314.853	352.06
315.083	370.06
315.312	375.06
315.542	350.06
315.771	365.06
316.001	352.06
316.23	324.06
316.46	343.06
316.689	356.06
316.919	372.06
317.148	365.06
317.377	353.06
317.607	363.06
317.836	373.06
318.065	362.06
318.295	359.06
318.524	358.06
318.753	344.06
318.983	349.06
319.212	360.06
319.441	367.06
319.67	380.06
319.9	375.06
320.129	370.06
320.358	376.06
320.587	370.06
320.816	373.06
321.046	382.06
321.275	387.06
321.504	390.06
321.733	384.06
321.962	393.06
322.191	399.06
322.42	409.06
322.649	426.06
322.878	419.06
323.108	442.06
323.337	462.06
323.566	481.06
323.795	525.06
324.024	602.06
324.253	701.06
324.482	1035.06
324.71	1559.06
324.939	2117.06
325.168	1807.06
325.397	983.06
325.626	649.06
325.855	552.06
326.084	492.06
326.313	485.06
326.542	486.06
326.77	547.06
326.999	653.06
327.228	896.06
327.457	1321.06
327.686	1545.06
327.914	1048.06
328.143	692.06
328.372	607.06
328.6	571.06
328.829	555.06
329.058	577.06
329.287	548.06
329.515	526.06
329.744	495.06
329.972	488.06
330.201	504.06
330.43	534.06
330.658	558.06
330.887	598.06
331.115	585.06
331.344	485.06
331.572	450.06
331.801	437.06
332.03	454.06
332.258	436.06
332.486	405.06
332.715	424.06
332.943	410.06
333.172	414.06
333.4	425.06
333.629	417.06
333.857	442.06
334.085	430.06
334.314	450.06
334.542	469.06
334.771	468.06
334.999	423.06
335.227	398.06
335.455	403.06
335.684	379.06
335.912	408.06
336.14	389.06
336.369	394.06
336.597	398.06
336.825	391.06
337.053	407.06
337.281	385.06
337.51	392.06
337.738	398.06
337.966	391.06
338.194	394.06
338.422	389.06
338.65	410.06
338.878	397.06
339.106	401.06
339.334	395.06
339.562	363.06
339.79	385.06
340.018	391.06
340.246	389.06
340.474	402.06
340.702	398.06
340.93	385.06
341.158	387.06
341.386	390.06
341.614	384.06
341.842	380.06
342.07	385.06
342.298	378.06
342.526	372.06
342.754	387.06
342.981	357.06
343.209	379.06
343.437	361.06
343.665	375.06
343.893	377.06
344.12	391.06
344.348	395.06
344.576	381.06
344.804	389.06
345.031	386.06
345.259	386.06
345.487	402.06
345.714	394.06
345.942	384.06
346.17	381.06
346.397	382.06
346.625	378.06
346.853	378.06
347.08	384.06
347.308	382.06
347.535	378.06
347.763	396.06
347.99	405.06
348.218	396.06
348.445	373.06
348.673	398.06
348.9	373.06
349.128	379.06
349.355	350.06
349.583	365.06
349.81	363.06
350.037	365.06
350.265	370.06
350.492	385.06
350.72	373.06
350.947	387.06
351.174	381.06
351.402	380.06
351.629	380.06
351.856	379.06
352.083	380.06
352.311	396.06
352.538	379.06
352.765	410.06
352.992	369.06
353.22	369.06
353.447	378.06
353.674	369.06
353.901	364.06
354.128	348.06
354.355	347.06
354.583	335.06
354.81	342.06
355.037	347.06
355.264	352.06
355.491	341.06
355.718	361.06
355.945	349.06
356.172	316.06
356.399	346.06
356.626	349.06
356.853	340.06
357.08	326.06
357.307	333.06
357.534	337.06
357.761	357.06
357.988	336.06
358.215	340.06
358.441	345.06
358.668	352.06
358.895	354.06
359.122	349.06
359.349	353.06
359.576	360.06
359.802	393.06
360.029	413.06
360.256	432.06
360.483	399.06
360.709	370.06
360.936	363.06
361.163	363.06
361.39	376.06
361.616	364.06
361.843	375.06
362.07	355.06
362.296	379.06
362.523	388.06
362.749	363.06
362.976	346.06
363.203	368.06
363.429	353.06
363.656	344.06
363.882	352.06
364.109	353.06
364.335	346.06
364.562	349.06
364.788	348.06
365.015	350.06
365.241	360.06
365.468	371.06
365.694	327.06
365.92	362.06
366.147	352.06
366.373	353.06
366.599	361.06
366.826	339.06
367.052	338.06
367.278	335.06
367.505	339.06
367.731	340.06
367.957	354.06
368.184	334.06
368.41	346.06
368.636	342.06
368.862	357.06
369.089	355.06
369.315	341.06
369.541	339.06
369.767	346.06
369.993	340.06
370.219	349.06
370.445	345.06
370.672	357.06
370.898	325.06
371.124	329.06
371.35	350.06
371.576	335.06
371.802	342.06
372.028	350.06
372.254	333.06
372.48	315.06
372.706	342.06
372.932	333.06
373.158	315.06
373.384	325.06
373.61	343.06
373.835	353.06
374.061	338.06
374.287	355.06
374.513	334.06
374.739	336.06
374.965	350.06
375.191	343.06
375.416	355.06
375.642	325.06
375.868	330.06
376.094	330.06
376.319	326.06
376.545	349.06
376.771	326.06
376.997	336.06
377.222	329.06
377.448	334.06
377.674	349.06
377.899	344.06
378.125	311.06
378.35	314.06
378.576	317.06
378.802	324.06
379.027	319.06
379.253	313.06
379.478	331.06
379.704	349.06
379.929	330.06
380.155	342.06
380.38	313.06
380.606	338.06
380.831	346.06
381.057	330.06
381.282	321.06
381.507	335.06
381.733	327.06
381.958	328.06
382.184	346.06
382.409	325.06
382.634	325.06
382.86	323.06
383.085	332.06
383.31	330.06
383.535	346.06
383.761	319.06
383.986	333.06
384.211	340.06
384.436	343.06
384.662	342.06
384.887	353.06
385.112	346.06
385.337	347.06
385.562	355.06
385.787	341.06
386.013	381.06
386.238	387.06
386.463	379.06
386.688	354.06
386.913	358.06
387.138	335.06
387.363	333.06
387.588	329.06
387.813	346.06
388.038	355.06
388.263	342.06
388.488	337.06
388.713	359.06
388.938	355.06
389.163	360.06
389.387	359.06
389.612	350.06
389.837	345.06
390.062	349.06
390.287	347.06
390.512	329.06
390.736	345.06
390.961	351.06
391.186	353.06
391.411	365.06
391.636	354.06
391.86	351.06
392.085	358.06
392.31	349.06
392.534	361.06
392.759	346.06
392.984	346.06
393.208	355.06
393.433	370.06
393.658	361.06
393.882	335.06
394.107	347.06
394.331	335.06
394.556	343.06
394.78	348.06
395.005	354.06
395.229	355.06
395.454	351.06
395.678	350.06
395.903	362.06
396.127	392.06
396.352	381.06
396.576	378.06
396.801	350.06
397.025	369.06
397.249	368.06
397.474	370.06
397.698	364.06
397.922	360.06
398.147	386.06
398.371	385.06
398.595	372.06
398.82	371.06
399.044	375.06
399.268	376.06
399.492	404.06
399.717	412.06
399.941	442.06
400.165	462.06
400.389	470.06
400.613	441.06
400.837	407.06
401.062	386.06
401.286	391.06
401.51	390.06
401.734	375.06
401.958	389.06
402.182	378.06
402.406	396.06
402.63	395.06
402.854	388.06
403.078	407.06
403.302	391.06
403.526	388.06
403.75	389.06
403.974	389.06
404.198	406.06
404.422	403.06
404.645	400.06
404.869	386.06
405.093	419.06
405.317	437.06
405.541	483.06
405.765	436.06
405.988	413.06
406.212	430.06
406.436	460.06
406.66	460.06
406.883	443.06
407.107	455.06
407.331	501.06
407.555	511.06
407.778	540.06
408.002	478.06
408.226	457.06
408.449	440.06
408.673	434.06
408.896	477.06
409.12	493.06
409.344	447.06
409.567	425.06
409.791	423.06
410.014	399.06
410.238	389.06
410.461	383.06
410.685	391.06
410.908	409.06
411.132	458.06
411.355	461.06
411.578	456.06
411.802	418.06
412.025	395.06
412.249	388.06
412.472	421.06
412.695	429.06
412.919	427.06
413.142	401.06
413.365	382.06
413.589	388.06
413.812	381.06
414.035	391.06
414.258	378.06
414.482	363.06
414.705	369.06
414.928	383.06
415.151	366.06
415.374	362.06
415.597	380.06
415.821	387.06
416.044	366.06
416.267	383.06
416.49	392.06
416.713	355.06
416.936	379.06
417.159	390.06
417.382	373.06
417.605	383.06
417.828	381.06
418.051	384.06
418.274	395.06
418.497	385.06
418.72	356.06
418.943	360.06
419.166	394.06
419.389	387.06
419.611	381.06
419.834	390.06
420.057	422.06
420.28	394.06
420.503	402.06
420.726	401.06
420.948	422.06
421.171	426.06
421.394	471.06
421.617	425.06
421.839	392.06
422.062	388.06
422.285	413.06
422.507	453.06
422.73	493.06
422.953	479.06
423.175	457.06
423.398	415.06
423.621	391.06
423.843	421.06
424.066	445.06
424.288	437.06
424.511	465.06
424.733	493.06
424.956	543.06
425.178	542.06
425.401	544.06
425.623	543.06
425.846	475.06
426.068	438.06
426.291	426.06
426.513	446.06
426.735	437.06
426.958	479.06
427.18	524.06
427.402	631.06
427.625	705.06
427.847	634.06
428.069	543.06
428.292	497.06
428.514	441.06
428.736	426.06
428.958	409.06
429.181	417.06
429.403	403.06
429.625	431.06
429.847	439.06
430.069	493.06
430.292	500.06
430.514	413.06
430.736	396.06
430.958	402.06
431.18	388.06
431.402	375.06
431.624	392.06
431.846	373.06
432.068	362.06
432.29	379.06
432.512	381.06
432.734	379.06
432.956	379.06
433.178	379.06
433.4	394.06
433.622	376.06
433.844	382.06
434.066	360.06
434.287	365.06
434.509	367.06
434.731	378.06
434.953	384.06
435.175	405.06
435.397	425.06
435.618	434.06
435.84	473.06
436.062	548.06
436.284	595.06
436.505	510.06
436.727	449.06
436.949	427.06
437.17	410.06
437.392	411.06
437.614	418.06
437.835	454.06
438.057	546.06
438.278	593.06
438.5	631.06
438.721	633.06
438.943	654.06
439.165	503.06
439.386	453.06
439.608	465.06
439.829	440.06
440.05	478.06
440.272	510.06
440.493	473.06
440.715	437.06
440.936	404.06
441.158	400.06
441.379	411.06
441.6	402.06
441.822	431.06
442.043	488.06
442.264	543.06
442.486	563.06
442.707	479.06
442.928	439.06
443.149	457.06
443.371	484.06
443.592	520.06
443.813	567.06
444.034	625.06
444.255	521.06
444.476	455.06
444.698	434.06
444.919	436.06
445.14	507.06
445.361	492.06
445.582	484.06
445.803	527.06
446.024	599.06
446.245	615.06
446.466	572.06
446.687	481.06
446.908	457.06
447.129	418.06
447.35	412.06
447.571	406.06
447.792	400.06
448.013	409.06
448.234	446.06
448.455	469.06
448.675	565.06
448.896	643.06
449.117	552.06
449.338	523.06
449.559	614.06
449.779	682.06
450	543.06
450.221	449.06
450.442	394.06
450.662	404.06
450.883	412.06
451.104	446.06
451.324	434.06
451.545	397.06
451.766	384.06
451.986	364.06
452.207	362.06
452.428	351.06
452.648	358.06
452.869	365.06
453.089	357.06
453.31	397.06
453.53	364.06
453.751	351.06
453.971	361.06
454.192	392.06
454.412	378.06
454.633	354.06
454.853	345.06
455.073	348.06
455.294	372.06
455.514	426.06
455.734	425.06
455.955	374.06
456.175	359.06
456.395	346.06
456.616	330.06
456.836	334.06
457.056	307.06
457.276	341.06
457.497	350.06
457.717	321.06
457.937	350.06
458.157	356.06
458.377	342.06
458.598	366.06
458.818	435.06
459.038	473.06
459.258	497.06
459.478	427.06
459.698	398.06
459.918	380.06
460.138	365.06
460.358	349.06
460.578	365.06
460.798	378.06
461.018	365.06
461.238	377.06
461.458	383.06
461.678	379.06
461.898	376.06
462.118	387.06
462.338	376.06
462.558	381.06
462.777	382.06
462.997	383.06
463.217	369.06
463.437	396.06
463.657	382.06
463.876	387.06
464.096	362.06
464.316	385.06
464.536	399.06
464.755	385.06
464.975	402.06
465.195	468.06
465.414	495.06
465.634	441.06
465.854	412.06
466.073	374.06
466.293	371.06
466.512	372.06
466.732	334.06
466.951	365.06
467.171	363.06
467.391	364.06
467.61	389.06
467.829	371.06
468.049	363.06
468.268	359.06
468.488	358.06
468.707	337.06
468.927	361.06
469.146	346.06
469.365	358.06
469.585	346.06
469.804	346.06
470.023	355.06
470.243	372.06
470.462	375.06
470.681	396.06
470.901	413.06
471.12	386.06
471.339	385.06
471.558	386.06
471.777	361.06
471.997	379.06
472.216	369.06
472.435	415.06
472.654	371.06
472.873	349.06
473.092	385.06
473.311	373.06
473.53	385.06
473.749	385.06
473.968	421.06
474.187	482.06
474.406	509.06
474.625	419.06
474.844	389.06
475.063	386.06
475.282	366.06
475.501	375.06
475.72	386.06
475.939	376.06
476.158	378.06
476.377	376.06
476.596	395.06
476.814	381.06
477.033	391.06
477.252	402.06
477.471	387.06
477.69	391.06
477.908	413.06
478.127	400.06
478.346	392.06
478.564	406.06
478.783	392.06
479.002	419.06
479.22	420.06
479.439	441.06
479.658	450.06
479.876	455.06
480.095	431.06
480.313	463.06
480.532	459.06
480.751	435.06
480.969	461.06
481.188	477.06
481.406	497.06
481.624	461.06
481.843	447.06
482.061	433.06
482.28	433.06
482.498	436.06
482.717	418.06
482.935	423.06
483.153	435.06
483.372	439.06
483.59	441.06
483.808	443.06
484.027	445.06
484.245	415.06
484.463	418.06
484.681	432.06
484.9	435.06
485.118	428.06
485.336	453.06
485.554	456.06
485.772	450.06
485.99	430.06
486.209	446.06
486.427	475.06
486.645	455.06
486.863	477.06
487.081	488.06
487.299	459.06
487.517	448.06
487.735	449.06
487.953	454.06
488.171	470.06
488.389	459.06
488.607	467.06
488.825	465.06
489.043	446.06
489.261	468.06
489.479	449.06
489.696	466.06
489.914	466.06
490.132	478.06
490.35	491.06
490.568	466.06
490.786	474.06
491.003	482.06
491.221	508.06
491.439	508.06
491.657	519.06
491.874	525.06
492.092	499.06
492.31	527.06
492.527	522.06
492.745	513.06
492.963	530.06
493.18	519.06
493.398	555.06
493.615	527.06
493.833	541.06
494.05	534.06
494.268	516.06
494.485	540.06
494.703	530.06
494.92	530.06
495.138	542.06
495.355	552.06
495.573	540.06
495.79	529.06
496.008	557.06
496.225	538.06
496.442	558.06
496.66	525.06
496.877	547.06
497.094	548.06
497.312	546.06
497.529	541.06
497.746	546.06
497.963	574.06
498.181	581.06
498.398	587.06
498.615	597.06
498.832	586.06
499.049	597.06
499.267	616.06
499.484	610.06
499.701	617.06
499.918	647.06
500.135	652.06
500.352	660.06
500.569	663.06
500.786	685.06
501.003	669.06
501.22	686.06
501.437	683.06
501.654	649.06
501.871	686.06
502.088	638.06
