Data from 1981.PennyLincolnUp.Lamp.En5.5.200Scan.071819.P1_HRD10591_16-41-29-958.txt Node
Date: Thu Jul 18 16:41:29 EDT 2019
User: cochatt
Spectrometer: HR+D1059
Trigger mode: 1
Integration Time (sec): 1.000000E-1
Scans to average: 1
Electric dark correction enabled: true
Nonlinearity correction enabled: false
Boxcar width: 0
XAxis mode: Wavelengths
Number of Pixels in Spectrum: 2048
>>>>>Begin Spectral Data<<<<<
223.165	-2.06
223.4	-2.06
223.635	-2.06
223.869	-13.06
224.104	-9.06
224.338	-13.06
224.573	-10.06
224.808	-22.06
225.042	-0.06
225.277	-21.06
225.511	-15.06
225.746	-4.06
225.98	1.94
226.215	17.94
226.449	4.94
226.683	21.94
226.918	29.94
227.152	32.94
227.387	24.94
227.621	33.94
227.856	32.94
228.09	33.94
228.324	31.94
228.559	35.94
228.793	63.94
229.027	103.94
229.262	90.94
229.496	111.94
229.73	126.94
229.964	145.94
230.199	121.94
230.433	107.94
230.667	115.94
230.901	111.94
231.136	114.94
231.37	99.94
231.604	109.94
231.838	103.94
232.072	111.94
232.306	123.94
232.541	113.94
232.775	112.94
233.009	103.94
233.243	103.94
233.477	94.94
233.711	104.94
233.945	112.94
234.179	104.94
234.413	112.94
234.647	124.94
234.881	107.94
235.115	123.94
235.349	129.94
235.583	127.94
235.817	119.94
236.051	122.94
236.285	132.94
236.519	115.94
236.753	132.94
236.987	158.94
237.221	191.94
237.455	226.94
237.689	171.94
237.922	132.94
238.156	135.94
238.39	107.94
238.624	124.94
238.858	123.94
239.091	131.94
239.325	122.94
239.559	144.94
239.793	131.94
240.027	125.94
240.26	147.94
240.494	149.94
240.728	160.94
240.961	141.94
241.195	136.94
241.429	141.94
241.662	137.94
241.896	137.94
242.13	152.94
242.363	133.94
242.597	142.94
242.83	143.94
243.064	131.94
243.298	142.94
243.531	123.94
243.765	136.94
243.998	141.94
244.232	129.94
244.465	131.94
244.699	133.94
244.932	163.94
245.166	136.94
245.399	152.94
245.633	149.94
245.866	139.94
246.099	124.94
246.333	146.94
246.566	154.94
246.8	165.94
247.033	161.94
247.266	151.94
247.5	155.94
247.733	156.94
247.966	185.94
248.2	185.94
248.433	160.94
248.666	169.94
248.899	184.94
249.133	209.94
249.366	215.94
249.599	206.94
249.832	172.94
250.066	185.94
250.299	164.94
250.532	202.94
250.765	185.94
250.998	217.94
251.231	226.94
251.465	225.94
251.698	200.94
251.931	194.94
252.164	204.94
252.397	202.94
252.63	213.94
252.863	205.94
253.096	213.94
253.329	237.94
253.562	231.94
253.795	220.94
254.028	226.94
254.261	218.94
254.494	220.94
254.727	261.94
254.96	274.94
255.193	272.94
255.426	262.94
255.659	258.94
255.892	241.94
256.124	239.94
256.357	239.94
256.59	246.94
256.823	225.94
257.056	209.94
257.289	221.94
257.521	217.94
257.754	228.94
257.987	220.94
258.22	212.94
258.452	213.94
258.685	214.94
258.918	215.94
259.151	225.94
259.383	216.94
259.616	225.94
259.849	235.94
260.081	223.94
260.314	250.94
260.547	263.94
260.779	246.94
261.012	245.94
261.244	225.94
261.477	251.94
261.71	229.94
261.942	253.94
262.175	239.94
262.407	260.94
262.64	215.94
262.872	217.94
263.105	217.94
263.337	219.94
263.57	233.94
263.802	226.94
264.035	217.94
264.267	212.94
264.499	217.94
264.732	218.94
264.964	209.94
265.197	213.94
265.429	196.94
265.661	210.94
265.894	205.94
266.126	229.94
266.358	220.94
266.591	213.94
266.823	225.94
267.055	214.94
267.287	211.94
267.52	215.94
267.752	219.94
267.984	241.94
268.216	241.94
268.448	247.94
268.681	255.94
268.913	243.94
269.145	262.94
269.377	273.94
269.609	277.94
269.841	276.94
270.073	281.94
270.306	309.94
270.538	312.94
270.77	324.94
271.002	305.94
271.234	304.94
271.466	319.94
271.698	307.94
271.93	310.94
272.162	336.94
272.394	309.94
272.626	315.94
272.858	295.94
273.09	283.94
273.322	282.94
273.553	271.94
273.785	280.94
274.017	277.94
274.249	279.94
274.481	282.94
274.713	281.94
274.945	275.94
275.176	264.94
275.408	283.94
275.64	280.94
275.872	285.94
276.104	276.94
276.335	273.94
276.567	287.94
276.799	282.94
277.031	304.94
277.262	314.94
277.494	307.94
277.726	309.94
277.957	286.94
278.189	293.94
278.421	266.94
278.652	273.94
278.884	284.94
279.115	260.94
279.347	273.94
279.579	266.94
279.81	270.94
280.042	247.94
280.273	260.94
280.505	286.94
280.736	267.94
280.968	271.94
281.199	274.94
281.431	256.94
281.662	263.94
281.894	267.94
282.125	282.94
282.356	281.94
282.588	307.94
282.819	317.94
283.051	273.94
283.282	272.94
283.513	274.94
283.745	277.94
283.976	284.94
284.207	259.94
284.439	268.94
284.67	277.94
284.901	276.94
285.132	278.94
285.364	265.94
285.595	279.94
285.826	252.94
286.057	272.94
286.288	247.94
286.52	269.94
286.751	265.94
286.982	267.94
287.213	274.94
287.444	274.94
287.675	291.94
287.906	303.94
288.138	309.94
288.369	309.94
288.6	290.94
288.831	309.94
289.062	296.94
289.293	289.94
289.524	283.94
289.755	259.94
289.986	286.94
290.217	274.94
290.448	281.94
290.679	300.94
290.91	292.94
291.141	270.94
291.371	297.94
291.602	291.94
291.833	268.94
292.064	282.94
292.295	260.94
292.526	285.94
292.757	277.94
292.987	275.94
293.218	275.94
293.449	291.94
293.68	296.94
293.91	301.94
294.141	285.94
294.372	273.94
294.603	285.94
294.833	287.94
295.064	265.94
295.295	281.94
295.525	285.94
295.756	308.94
295.987	313.94
296.217	312.94
296.448	332.94
296.679	321.94
296.909	299.94
297.14	275.94
297.37	285.94
297.601	282.94
297.831	281.94
298.062	274.94
298.292	288.94
298.523	301.94
298.753	310.94
298.984	285.94
299.214	308.94
299.445	289.94
299.675	280.94
299.905	296.94
300.136	295.94
300.366	318.94
300.597	298.94
300.827	301.94
301.057	304.94
301.288	323.94
301.518	326.94
301.748	331.94
301.979	311.94
302.209	327.94
302.439	317.94
302.669	297.94
302.9	300.94
303.13	298.94
303.36	312.94
303.59	311.94
303.82	325.94
304.051	323.94
304.281	327.94
304.511	303.94
304.741	308.94
304.971	320.94
305.201	323.94
305.431	324.94
305.661	318.94
305.891	326.94
306.121	325.94
306.352	340.94
306.582	329.94
306.812	327.94
307.042	337.94
307.272	329.94
307.502	305.94
307.731	321.94
307.961	323.94
308.191	324.94
308.421	345.94
308.651	322.94
308.881	314.94
309.111	333.94
309.341	320.94
309.571	333.94
309.8	349.94
310.03	354.94
310.26	375.94
310.49	384.94
310.72	396.94
310.949	398.94
311.179	389.94
311.409	393.94
311.639	395.94
311.868	390.94
312.098	371.94
312.328	400.94
312.557	398.94
312.787	416.94
313.017	409.94
313.246	392.94
313.476	366.94
313.706	353.94
313.935	380.94
314.165	400.94
314.394	417.94
314.624	415.94
314.853	373.94
315.083	369.94
315.312	370.94
315.542	380.94
315.771	357.94
316.001	352.94
316.23	379.94
316.46	369.94
316.689	389.94
316.919	370.94
317.148	388.94
317.377	408.94
317.607	395.94
317.836	367.94
318.065	376.94
318.295	377.94
318.524	361.94
318.753	341.94
318.983	359.94
319.212	383.94
319.441	389.94
319.67	380.94
319.9	386.94
320.129	362.94
320.358	380.94
320.587	407.94
320.816	403.94
321.046	407.94
321.275	402.94
321.504	392.94
321.733	393.94
321.962	412.94
322.191	416.94
322.42	428.94
322.649	468.94
322.878	478.94
323.108	479.94
323.337	484.94
323.566	525.94
323.795	566.94
324.024	630.94
324.253	780.94
324.482	1131.94
324.71	1661.94
324.939	2325.94
325.168	1990.94
325.397	1049.94
325.626	721.94
325.855	595.94
326.084	545.94
326.313	502.94
326.542	543.94
326.77	585.94
326.999	728.94
327.228	1009.94
327.457	1433.94
327.686	1696.94
327.914	1149.94
328.143	795.94
328.372	667.94
328.6	633.94
328.829	603.94
329.058	619.94
329.287	587.94
329.515	565.94
329.744	533.94
329.972	518.94
330.201	547.94
330.43	556.94
330.658	602.94
330.887	641.94
331.115	615.94
331.344	531.94
331.572	504.94
331.801	506.94
332.03	483.94
332.258	455.94
332.486	458.94
332.715	443.94
332.943	448.94
333.172	441.94
333.4	436.94
333.629	460.94
333.857	445.94
334.085	466.94
334.314	469.94
334.542	489.94
334.771	501.94
334.999	460.94
335.227	449.94
335.455	448.94
335.684	438.94
335.912	424.94
336.14	418.94
336.369	427.94
336.597	426.94
336.825	422.94
337.053	419.94
337.281	432.94
337.51	415.94
337.738	413.94
337.966	398.94
338.194	435.94
338.422	402.94
338.65	416.94
338.878	414.94
339.106	416.94
339.334	434.94
339.562	414.94
339.79	401.94
340.018	411.94
340.246	395.94
340.474	424.94
340.702	427.94
340.93	391.94
341.158	405.94
341.386	411.94
341.614	407.94
341.842	403.94
342.07	411.94
342.298	411.94
342.526	379.94
342.754	395.94
342.981	395.94
343.209	408.94
343.437	409.94
343.665	383.94
343.893	402.94
344.12	411.94
344.348	411.94
344.576	407.94
344.804	436.94
345.031	409.94
345.259	420.94
345.487	436.94
345.714	402.94
345.942	383.94
346.17	401.94
346.397	389.94
346.625	397.94
346.853	389.94
347.08	416.94
347.308	385.94
347.535	385.94
347.763	401.94
347.99	431.94
348.218	411.94
348.445	401.94
348.673	403.94
348.9	414.94
349.128	380.94
349.355	374.94
349.583	371.94
349.81	381.94
350.037	377.94
350.265	365.94
350.492	375.94
350.72	381.94
350.947	400.94
351.174	391.94
351.402	418.94
351.629	399.94
351.856	421.94
352.083	412.94
352.311	405.94
352.538	415.94
352.765	405.94
352.992	409.94
353.22	405.94
353.447	384.94
353.674	385.94
353.901	363.94
354.128	381.94
354.355	369.94
354.583	374.94
354.81	353.94
355.037	363.94
355.264	358.94
355.491	343.94
355.718	331.94
355.945	369.94
356.172	365.94
356.399	352.94
356.626	356.94
356.853	352.94
357.08	359.94
357.307	348.94
357.534	350.94
357.761	335.94
357.988	359.94
358.215	350.94
358.441	369.94
358.668	378.94
358.895	357.94
359.122	371.94
359.349	372.94
359.576	388.94
359.802	413.94
360.029	410.94
360.256	443.94
360.483	419.94
360.709	388.94
360.936	372.94
361.163	382.94
361.39	371.94
361.616	382.94
361.843	381.94
362.07	386.94
362.296	382.94
362.523	386.94
362.749	380.94
362.976	344.94
363.203	371.94
363.429	359.94
363.656	365.94
363.882	351.94
364.109	357.94
364.335	374.94
364.562	364.94
364.788	385.94
365.015	391.94
365.241	366.94
365.468	373.94
365.694	363.94
365.92	371.94
366.147	369.94
366.373	358.94
366.599	371.94
366.826	353.94
367.052	357.94
367.278	356.94
367.505	354.94
367.731	367.94
367.957	373.94
368.184	347.94
368.41	365.94
368.636	370.94
368.862	384.94
369.089	377.94
369.315	351.94
369.541	352.94
369.767	358.94
369.993	375.94
370.219	354.94
370.445	369.94
370.672	347.94
370.898	359.94
371.124	368.94
371.35	347.94
371.576	348.94
371.802	337.94
372.028	347.94
372.254	330.94
372.48	359.94
372.706	343.94
372.932	345.94
373.158	346.94
373.384	349.94
373.61	335.94
373.835	361.94
374.061	356.94
374.287	351.94
374.513	353.94
374.739	349.94
374.965	360.94
375.191	356.94
375.416	337.94
375.642	331.94
375.868	357.94
376.094	344.94
376.319	342.94
376.545	352.94
376.771	353.94
376.997	348.94
377.222	319.94
377.448	325.94
377.674	339.94
377.899	330.94
378.125	347.94
378.35	353.94
378.576	354.94
378.802	349.94
379.027	336.94
379.253	326.94
379.478	332.94
379.704	332.94
379.929	348.94
380.155	348.94
380.38	340.94
380.606	353.94
380.831	348.94
381.057	377.94
381.282	346.94
381.507	345.94
381.733	346.94
381.958	335.94
382.184	338.94
382.409	346.94
382.634	359.94
382.86	335.94
383.085	354.94
383.31	361.94
383.535	348.94
383.761	348.94
383.986	345.94
384.211	362.94
384.436	342.94
384.662	341.94
384.887	333.94
385.112	347.94
385.337	341.94
385.562	363.94
385.787	349.94
386.013	378.94
386.238	367.94
386.463	363.94
386.688	373.94
386.913	360.94
387.138	360.94
387.363	361.94
387.588	352.94
387.813	355.94
388.038	363.94
388.263	364.94
388.488	365.94
388.713	355.94
388.938	343.94
389.163	359.94
389.387	362.94
389.612	351.94
389.837	353.94
390.062	360.94
390.287	362.94
390.512	370.94
390.736	361.94
390.961	367.94
391.186	355.94
391.411	362.94
391.636	353.94
391.86	377.94
392.085	358.94
392.31	364.94
392.534	384.94
392.759	334.94
392.984	354.94
393.208	352.94
393.433	355.94
393.658	351.94
393.882	341.94
394.107	352.94
394.331	359.94
394.556	359.94
394.78	378.94
395.005	351.94
395.229	348.94
395.454	375.94
395.678	382.94
395.903	375.94
396.127	404.94
396.352	407.94
396.576	372.94
396.801	355.94
397.025	347.94
397.249	351.94
397.474	354.94
397.698	384.94
397.922	381.94
398.147	370.94
398.371	408.94
398.595	391.94
398.82	384.94
399.044	382.94
399.268	391.94
399.492	419.94
399.717	433.94
399.941	452.94
400.165	482.94
400.389	509.94
400.613	452.94
400.837	406.94
401.062	406.94
401.286	404.94
401.51	406.94
401.734	393.94
401.958	386.94
402.182	411.94
402.406	409.94
402.63	405.94
402.854	434.94
403.078	401.94
403.302	403.94
403.526	400.94
403.75	437.94
403.974	415.94
404.198	421.94
404.422	446.94
404.645	402.94
404.869	414.94
405.093	448.94
405.317	474.94
405.541	485.94
405.765	450.94
405.988	440.94
406.212	425.94
406.436	440.94
406.66	463.94
406.883	452.94
407.107	466.94
407.331	459.94
407.555	565.94
407.778	535.94
408.002	484.94
408.226	456.94
408.449	454.94
408.673	443.94
408.896	491.94
409.12	498.94
409.344	474.94
409.567	464.94
409.791	423.94
410.014	420.94
410.238	398.94
410.461	411.94
410.685	409.94
410.908	430.94
411.132	453.94
411.355	472.94
411.578	470.94
411.802	425.94
412.025	422.94
412.249	420.94
412.472	421.94
412.695	475.94
412.919	443.94
413.142	419.94
413.365	415.94
413.589	409.94
413.812	369.94
414.035	391.94
414.258	376.94
414.482	394.94
414.705	370.94
414.928	395.94
415.151	381.94
415.374	386.94
415.597	367.94
415.821	373.94
416.044	384.94
416.267	365.94
416.49	377.94
416.713	383.94
416.936	380.94
417.159	385.94
417.382	385.94
417.605	402.94
417.828	385.94
418.051	418.94
418.274	395.94
418.497	403.94
418.72	390.94
418.943	391.94
419.166	393.94
419.389	410.94
419.611	428.94
419.834	408.94
420.057	410.94
420.28	417.94
420.503	411.94
420.726	393.94
420.948	427.94
421.171	467.94
421.394	494.94
421.617	441.94
421.839	421.94
422.062	421.94
422.285	420.94
422.507	456.94
422.73	521.94
422.953	511.94
423.175	453.94
423.398	453.94
423.621	440.94
423.843	445.94
424.066	456.94
424.288	440.94
424.511	472.94
424.733	507.94
424.956	577.94
425.178	574.94
425.401	565.94
425.623	593.94
425.846	484.94
426.068	460.94
426.291	457.94
426.513	468.94
426.735	477.94
426.958	510.94
427.18	567.94
427.402	679.94
427.625	752.94
427.847	675.94
428.069	608.94
428.292	524.94
428.514	463.94
428.736	449.94
428.958	444.94
429.181	441.94
429.403	413.94
429.625	448.94
429.847	460.94
430.069	498.94
430.292	511.94
430.514	442.94
430.736	411.94
430.958	407.94
431.18	392.94
431.402	394.94
431.624	385.94
431.846	372.94
432.068	395.94
432.29	383.94
432.512	413.94
432.734	375.94
432.956	387.94
433.178	396.94
433.4	396.94
433.622	403.94
433.844	389.94
434.066	385.94
434.287	388.94
434.509	383.94
434.731	387.94
434.953	406.94
435.175	433.94
435.397	441.94
435.618	452.94
435.84	477.94
436.062	564.94
436.284	614.94
436.505	491.94
436.727	469.94
436.949	425.94
437.17	425.94
437.392	416.94
437.614	436.94
437.835	482.94
438.057	559.94
438.278	663.94
438.5	656.94
438.721	673.94
438.943	682.94
439.165	539.94
439.386	477.94
439.608	486.94
439.829	458.94
440.05	523.94
440.272	549.94
440.493	517.94
440.715	452.94
440.936	424.94
441.158	419.94
441.379	401.94
441.6	423.94
441.822	423.94
442.043	486.94
442.264	572.94
442.486	616.94
442.707	498.94
442.928	456.94
443.149	468.94
443.371	476.94
443.592	541.94
443.813	607.94
444.034	657.94
444.255	557.94
444.476	465.94
444.698	444.94
444.919	447.94
445.14	589.94
445.361	539.94
445.582	507.94
445.803	557.94
446.024	633.94
446.245	673.94
446.466	596.94
446.687	489.94
446.908	479.94
447.129	457.94
447.35	432.94
447.571	429.94
447.792	431.94
448.013	417.94
448.234	447.94
448.455	492.94
448.675	618.94
448.896	671.94
449.117	593.94
449.338	566.94
449.559	659.94
449.779	701.94
450	595.94
450.221	472.94
450.442	424.94
450.662	401.94
450.883	423.94
451.104	467.94
451.324	439.94
451.545	406.94
451.766	400.94
451.986	380.94
452.207	373.94
452.428	383.94
452.648	370.94
452.869	378.94
453.089	389.94
453.31	393.94
453.53	395.94
453.751	378.94
453.971	393.94
454.192	415.94
454.412	386.94
454.633	371.94
454.853	397.94
455.073	373.94
455.294	391.94
455.514	453.94
455.734	431.94
455.955	392.94
456.175	355.94
456.395	354.94
456.616	362.94
456.836	336.94
457.056	356.94
457.276	333.94
457.497	354.94
457.717	364.94
457.937	372.94
458.157	372.94
458.377	364.94
458.598	382.94
458.818	452.94
459.038	519.94
459.258	513.94
459.478	431.94
459.698	379.94
459.918	391.94
460.138	367.94
460.358	386.94
460.578	374.94
460.798	369.94
461.018	379.94
461.238	384.94
461.458	394.94
461.678	400.94
461.898	384.94
462.118	392.94
462.338	380.94
462.558	413.94
462.777	383.94
462.997	388.94
463.217	389.94
463.437	407.94
463.657	389.94
463.876	405.94
464.096	424.94
464.316	423.94
464.536	393.94
464.755	409.94
464.975	418.94
465.195	474.94
465.414	517.94
465.634	455.94
465.854	427.94
466.073	409.94
466.293	381.94
466.512	397.94
466.732	377.94
466.951	369.94
467.171	363.94
467.391	369.94
467.61	397.94
467.829	392.94
468.049	392.94
468.268	378.94
468.488	379.94
468.707	382.94
468.927	372.94
469.146	352.94
469.365	357.94
469.585	364.94
469.804	368.94
470.023	393.94
470.243	372.94
470.462	399.94
470.681	397.94
470.901	400.94
471.12	372.94
471.339	369.94
471.558	386.94
471.777	380.94
471.997	367.94
472.216	387.94
472.435	415.94
472.654	402.94
472.873	400.94
473.092	409.94
473.311	373.94
473.53	389.94
473.749	406.94
473.968	446.94
474.187	544.94
474.406	553.94
474.625	455.94
474.844	407.94
475.063	404.94
475.282	379.94
475.501	379.94
475.72	419.94
475.939	381.94
476.158	413.94
476.377	408.94
476.596	400.94
476.814	410.94
477.033	410.94
477.252	435.94
477.471	412.94
477.69	395.94
477.908	403.94
478.127	430.94
478.346	409.94
478.564	402.94
478.783	420.94
479.002	424.94
479.22	432.94
479.439	441.94
479.658	444.94
479.876	466.94
480.095	458.94
480.313	501.94
480.532	492.94
480.751	459.94
480.969	488.94
481.188	506.94
481.406	547.94
481.624	499.94
481.843	461.94
482.061	465.94
482.28	440.94
482.498	454.94
482.717	457.94
482.935	441.94
483.153	448.94
483.372	441.94
483.59	471.94
483.808	444.94
484.027	463.94
484.245	440.94
484.463	444.94
484.681	443.94
484.9	459.94
485.118	448.94
485.336	447.94
485.554	448.94
485.772	471.94
485.99	457.94
486.209	459.94
486.427	464.94
486.645	475.94
486.863	473.94
487.081	499.94
487.299	481.94
487.517	499.94
487.735	467.94
487.953	472.94
488.171	490.94
488.389	493.94
488.607	484.94
488.825	482.94
489.043	468.94
489.261	488.94
489.479	491.94
489.696	496.94
489.914	476.94
490.132	488.94
490.35	497.94
490.568	520.94
490.786	536.94
491.003	504.94
491.221	530.94
491.439	543.94
491.657	545.94
491.874	537.94
492.092	567.94
492.31	565.94
492.527	557.94
492.745	542.94
492.963	569.94
493.18	539.94
493.398	578.94
493.615	568.94
493.833	556.94
494.05	583.94
494.268	579.94
494.485	554.94
494.703	560.94
494.92	571.94
495.138	561.94
495.355	582.94
495.573	578.94
495.79	569.94
496.008	575.94
496.225	574.94
496.442	569.94
496.66	582.94
496.877	560.94
497.094	576.94
497.312	576.94
497.529	610.94
497.746	579.94
497.963	589.94
498.181	609.94
498.398	592.94
498.615	610.94
498.832	645.94
499.049	651.94
499.267	645.94
499.484	635.94
499.701	679.94
499.918	653.94
500.135	649.94
500.352	710.94
500.569	699.94
500.786	722.94
501.003	733.94
501.22	703.94
501.437	725.94
501.654	701.94
501.871	700.94
