Data from 1981.PennyLincolnUp.Lamp.En5.5.200Scan.071819.P1_HRD10591_16-41-26-959.txt Node
Date: Thu Jul 18 16:41:26 EDT 2019
User: cochatt
Spectrometer: HR+D1059
Trigger mode: 1
Integration Time (sec): 1.000000E-1
Scans to average: 1
Electric dark correction enabled: true
Nonlinearity correction enabled: false
Boxcar width: 0
XAxis mode: Wavelengths
Number of Pixels in Spectrum: 2048
>>>>>Begin Spectral Data<<<<<
223.165	-21.25
223.4	-21.25
223.635	-21.25
223.869	-19.25
224.104	-15.25
224.338	-20.25
224.573	-6.25
224.808	-19.25
225.042	-12.25
225.277	-7.25
225.511	-13.25
225.746	18.75
225.98	-0.25
226.215	4.75
226.449	25.75
226.683	27.75
226.918	30.75
227.152	26.75
227.387	32.75
227.621	39.75
227.856	51.75
228.09	45.75
228.324	46.75
228.559	60.75
228.793	80.75
229.027	104.75
229.262	107.75
229.496	100.75
229.73	130.75
229.964	154.75
230.199	121.75
230.433	117.75
230.667	110.75
230.901	119.75
231.136	110.75
231.37	104.75
231.604	103.75
231.838	123.75
232.072	113.75
232.306	90.75
232.541	105.75
232.775	117.75
233.009	108.75
233.243	113.75
233.477	110.75
233.711	100.75
233.945	121.75
234.179	99.75
234.413	107.75
234.647	113.75
234.881	123.75
235.115	117.75
235.349	123.75
235.583	115.75
235.817	131.75
236.051	136.75
236.285	120.75
236.519	116.75
236.753	113.75
236.987	159.75
237.221	172.75
237.455	219.75
237.689	185.75
237.922	142.75
238.156	131.75
238.39	139.75
238.624	131.75
238.858	122.75
239.091	128.75
239.325	121.75
239.559	119.75
239.793	125.75
240.027	129.75
240.26	148.75
240.494	152.75
240.728	153.75
240.961	163.75
241.195	126.75
241.429	137.75
241.662	142.75
241.896	143.75
242.13	147.75
242.363	133.75
242.597	126.75
242.83	137.75
243.064	131.75
243.298	147.75
243.531	118.75
243.765	135.75
243.998	129.75
244.232	139.75
244.465	136.75
244.699	140.75
244.932	143.75
245.166	129.75
245.399	141.75
245.633	133.75
245.866	132.75
246.099	134.75
246.333	135.75
246.566	149.75
246.8	139.75
247.033	131.75
247.266	154.75
247.5	163.75
247.733	162.75
247.966	181.75
248.2	180.75
248.433	180.75
248.666	173.75
248.899	183.75
249.133	208.75
249.366	196.75
249.599	207.75
249.832	191.75
250.066	179.75
250.299	173.75
250.532	193.75
250.765	200.75
250.998	223.75
251.231	218.75
251.465	206.75
251.698	190.75
251.931	198.75
252.164	200.75
252.397	186.75
252.63	194.75
252.863	206.75
253.096	210.75
253.329	242.75
253.562	238.75
253.795	228.75
254.028	220.75
254.261	234.75
254.494	244.75
254.727	262.75
254.96	287.75
255.193	260.75
255.426	246.75
255.659	231.75
255.892	232.75
256.124	234.75
256.357	235.75
256.59	218.75
256.823	242.75
257.056	222.75
257.289	220.75
257.521	225.75
257.754	212.75
257.987	215.75
258.22	223.75
258.452	207.75
258.685	222.75
258.918	233.75
259.151	224.75
259.383	214.75
259.616	220.75
259.849	235.75
260.081	247.75
260.314	273.75
260.547	249.75
260.779	245.75
261.012	238.75
261.244	247.75
261.477	227.75
261.71	248.75
261.942	223.75
262.175	245.75
262.407	222.75
262.64	218.75
262.872	222.75
263.105	194.75
263.337	214.75
263.57	194.75
263.802	195.75
264.035	211.75
264.267	205.75
264.499	203.75
264.732	217.75
264.964	206.75
265.197	220.75
265.429	215.75
265.661	211.75
265.894	216.75
266.126	204.75
266.358	219.75
266.591	221.75
266.823	212.75
267.055	220.75
267.287	229.75
267.52	214.75
267.752	243.75
267.984	224.75
268.216	234.75
268.448	229.75
268.681	234.75
268.913	243.75
269.145	250.75
269.377	253.75
269.609	266.75
269.841	274.75
270.073	277.75
270.306	300.75
270.538	322.75
270.77	299.75
271.002	300.75
271.234	283.75
271.466	311.75
271.698	307.75
271.93	320.75
272.162	317.75
272.394	323.75
272.626	297.75
272.858	306.75
273.09	285.75
273.322	278.75
273.553	271.75
273.785	286.75
274.017	279.75
274.249	266.75
274.481	282.75
274.713	266.75
274.945	290.75
275.176	268.75
275.408	267.75
275.64	254.75
275.872	250.75
276.104	276.75
276.335	245.75
276.567	245.75
276.799	274.75
277.031	310.75
277.262	312.75
277.494	329.75
277.726	301.75
277.957	280.75
278.189	274.75
278.421	268.75
278.652	265.75
278.884	272.75
279.115	270.75
279.347	263.75
279.579	265.75
279.81	263.75
280.042	266.75
280.273	282.75
280.505	270.75
280.736	263.75
280.968	256.75
281.199	258.75
281.431	256.75
281.662	267.75
281.894	262.75
282.125	271.75
282.356	262.75
282.588	286.75
282.819	309.75
283.051	264.75
283.282	261.75
283.513	281.75
283.745	273.75
283.976	272.75
284.207	270.75
284.439	268.75
284.67	268.75
284.901	270.75
285.132	265.75
285.364	269.75
285.595	268.75
285.826	251.75
286.057	272.75
286.288	288.75
286.52	253.75
286.751	261.75
286.982	274.75
287.213	277.75
287.444	269.75
287.675	272.75
287.906	283.75
288.138	298.75
288.369	294.75
288.6	282.75
288.831	291.75
289.062	292.75
289.293	275.75
289.524	279.75
289.755	274.75
289.986	284.75
290.217	287.75
290.448	275.75
290.679	283.75
290.91	265.75
291.141	287.75
291.371	287.75
291.602	273.75
291.833	285.75
292.064	291.75
292.295	275.75
292.526	269.75
292.757	276.75
292.987	280.75
293.218	259.75
293.449	267.75
293.68	284.75
293.91	279.75
294.141	292.75
294.372	282.75
294.603	276.75
294.833	286.75
295.064	282.75
295.295	284.75
295.525	299.75
295.756	290.75
295.987	295.75
296.217	320.75
296.448	325.75
296.679	284.75
296.909	292.75
297.14	299.75
297.37	273.75
297.601	277.75
297.831	295.75
298.062	290.75
298.292	282.75
298.523	297.75
298.753	283.75
298.984	302.75
299.214	278.75
299.445	306.75
299.675	281.75
299.905	309.75
300.136	303.75
300.366	309.75
300.597	315.75
300.827	302.75
301.057	302.75
301.288	303.75
301.518	322.75
301.748	305.75
301.979	320.75
302.209	326.75
302.439	300.75
302.669	296.75
302.9	316.75
303.13	298.75
303.36	314.75
303.59	298.75
303.82	345.75
304.051	313.75
304.281	314.75
304.511	323.75
304.741	313.75
304.971	317.75
305.201	309.75
305.431	307.75
305.661	318.75
305.891	296.75
306.121	299.75
306.352	316.75
306.582	317.75
306.812	330.75
307.042	319.75
307.272	330.75
307.502	310.75
307.731	323.75
307.961	329.75
308.191	316.75
308.421	316.75
308.651	337.75
308.881	334.75
309.111	330.75
309.341	320.75
309.571	353.75
309.8	361.75
310.03	372.75
310.26	345.75
310.49	373.75
310.72	375.75
310.949	381.75
311.179	400.75
311.409	374.75
311.639	369.75
311.868	355.75
312.098	351.75
312.328	379.75
312.557	374.75
312.787	399.75
313.017	397.75
313.246	393.75
313.476	365.75
313.706	379.75
313.935	381.75
314.165	378.75
314.394	382.75
314.624	392.75
314.853	382.75
315.083	376.75
315.312	360.75
315.542	361.75
315.771	354.75
316.001	359.75
316.23	359.75
316.46	366.75
316.689	375.75
316.919	363.75
317.148	372.75
317.377	382.75
317.607	377.75
317.836	375.75
318.065	376.75
318.295	377.75
318.524	371.75
318.753	358.75
318.983	356.75
319.212	381.75
319.441	359.75
319.67	369.75
319.9	385.75
320.129	357.75
320.358	379.75
320.587	366.75
320.816	401.75
321.046	403.75
321.275	384.75
321.504	391.75
321.733	399.75
321.962	418.75
322.191	424.75
322.42	445.75
322.649	440.75
322.878	466.75
323.108	453.75
323.337	507.75
323.566	518.75
323.795	533.75
324.024	592.75
324.253	723.75
324.482	1090.75
324.71	1621.75
324.939	2161.75
325.168	1867.75
325.397	1031.75
325.626	683.75
325.855	571.75
326.084	505.75
326.313	533.75
326.542	517.75
326.77	558.75
326.999	710.75
327.228	941.75
327.457	1401.75
327.686	1616.75
327.914	1076.75
328.143	738.75
328.372	627.75
328.6	597.75
328.829	558.75
329.058	588.75
329.287	589.75
329.515	574.75
329.744	529.75
329.972	514.75
330.201	517.75
330.43	536.75
330.658	596.75
330.887	600.75
331.115	571.75
331.344	502.75
331.572	466.75
331.801	491.75
332.03	469.75
332.258	453.75
332.486	436.75
332.715	423.75
332.943	407.75
333.172	403.75
333.4	434.75
333.629	423.75
333.857	457.75
334.085	463.75
334.314	464.75
334.542	481.75
334.771	477.75
334.999	443.75
335.227	428.75
335.455	447.75
335.684	419.75
335.912	412.75
336.14	401.75
336.369	420.75
336.597	406.75
336.825	439.75
337.053	418.75
337.281	408.75
337.51	404.75
337.738	404.75
337.966	404.75
338.194	430.75
338.422	407.75
338.65	412.75
338.878	401.75
339.106	417.75
339.334	395.75
339.562	408.75
339.79	407.75
340.018	409.75
340.246	403.75
340.474	408.75
340.702	417.75
340.93	410.75
341.158	377.75
341.386	415.75
341.614	424.75
341.842	399.75
342.07	403.75
342.298	401.75
342.526	386.75
342.754	384.75
342.981	381.75
343.209	383.75
343.437	385.75
343.665	379.75
343.893	400.75
344.12	399.75
344.348	398.75
344.576	391.75
344.804	406.75
345.031	415.75
345.259	406.75
345.487	429.75
345.714	410.75
345.942	385.75
346.17	401.75
346.397	399.75
346.625	397.75
346.853	413.75
347.08	400.75
347.308	401.75
347.535	394.75
347.763	403.75
347.99	399.75
348.218	385.75
348.445	402.75
348.673	390.75
348.9	389.75
349.128	387.75
349.355	378.75
349.583	387.75
349.81	378.75
350.037	373.75
350.265	389.75
350.492	371.75
350.72	366.75
350.947	383.75
351.174	384.75
351.402	406.75
351.629	389.75
351.856	377.75
352.083	395.75
352.311	390.75
352.538	401.75
352.765	409.75
352.992	389.75
353.22	401.75
353.447	354.75
353.674	365.75
353.901	372.75
354.128	374.75
354.355	369.75
354.583	357.75
354.81	349.75
355.037	364.75
355.264	351.75
355.491	344.75
355.718	345.75
355.945	361.75
356.172	344.75
356.399	344.75
356.626	350.75
356.853	322.75
357.08	358.75
357.307	359.75
357.534	359.75
357.761	347.75
357.988	344.75
358.215	349.75
358.441	357.75
358.668	331.75
358.895	355.75
359.122	373.75
359.349	363.75
359.576	369.75
359.802	415.75
360.029	438.75
360.256	435.75
360.483	388.75
360.709	374.75
360.936	367.75
361.163	389.75
361.39	382.75
361.616	391.75
361.843	391.75
362.07	377.75
362.296	398.75
362.523	364.75
362.749	377.75
362.976	374.75
363.203	373.75
363.429	369.75
363.656	361.75
363.882	353.75
364.109	357.75
364.335	360.75
364.562	396.75
364.788	364.75
365.015	351.75
365.241	364.75
365.468	380.75
365.694	350.75
365.92	374.75
366.147	353.75
366.373	337.75
366.599	342.75
366.826	343.75
367.052	332.75
367.278	377.75
367.505	340.75
367.731	353.75
367.957	347.75
368.184	351.75
368.41	364.75
368.636	358.75
368.862	378.75
369.089	355.75
369.315	354.75
369.541	347.75
369.767	316.75
369.993	332.75
370.219	350.75
370.445	373.75
370.672	351.75
370.898	343.75
371.124	338.75
371.35	345.75
371.576	361.75
371.802	343.75
372.028	343.75
372.254	357.75
372.48	329.75
372.706	329.75
372.932	364.75
373.158	351.75
373.384	357.75
373.61	348.75
373.835	335.75
374.061	342.75
374.287	343.75
374.513	349.75
374.739	355.75
374.965	352.75
375.191	341.75
375.416	350.75
375.642	341.75
375.868	345.75
376.094	345.75
376.319	338.75
376.545	340.75
376.771	323.75
376.997	331.75
377.222	340.75
377.448	357.75
377.674	353.75
377.899	349.75
378.125	338.75
378.35	342.75
378.576	325.75
378.802	333.75
379.027	329.75
379.253	317.75
379.478	329.75
379.704	329.75
379.929	362.75
380.155	341.75
380.38	345.75
380.606	334.75
380.831	329.75
381.057	322.75
381.282	350.75
381.507	338.75
381.733	339.75
381.958	340.75
382.184	326.75
382.409	341.75
382.634	329.75
382.86	336.75
383.085	338.75
383.31	350.75
383.535	350.75
383.761	345.75
383.986	321.75
384.211	342.75
384.436	345.75
384.662	350.75
384.887	366.75
385.112	366.75
385.337	361.75
385.562	353.75
385.787	346.75
386.013	359.75
386.238	364.75
386.463	354.75
386.688	359.75
386.913	358.75
387.138	358.75
387.363	357.75
387.588	370.75
387.813	350.75
388.038	381.75
388.263	352.75
388.488	357.75
388.713	357.75
388.938	359.75
389.163	353.75
389.387	362.75
389.612	345.75
389.837	345.75
390.062	360.75
390.287	342.75
390.512	349.75
390.736	347.75
390.961	345.75
391.186	361.75
391.411	355.75
391.636	343.75
391.86	353.75
392.085	352.75
392.31	370.75
392.534	358.75
392.759	346.75
392.984	365.75
393.208	374.75
393.433	367.75
393.658	345.75
393.882	337.75
394.107	349.75
394.331	349.75
394.556	350.75
394.78	355.75
395.005	346.75
395.229	353.75
395.454	370.75
395.678	369.75
395.903	380.75
396.127	381.75
396.352	388.75
396.576	369.75
396.801	341.75
397.025	365.75
397.249	376.75
397.474	392.75
397.698	375.75
397.922	374.75
398.147	391.75
398.371	405.75
398.595	392.75
398.82	380.75
399.044	402.75
399.268	414.75
399.492	408.75
399.717	444.75
399.941	472.75
400.165	470.75
400.389	499.75
400.613	443.75
400.837	421.75
401.062	417.75
401.286	389.75
401.51	407.75
401.734	394.75
401.958	389.75
402.182	396.75
402.406	408.75
402.63	409.75
402.854	408.75
403.078	413.75
403.302	405.75
403.526	406.75
403.75	402.75
403.974	418.75
404.198	405.75
404.422	404.75
404.645	425.75
404.869	409.75
405.093	428.75
405.317	455.75
405.541	475.75
405.765	441.75
405.988	434.75
406.212	444.75
406.436	458.75
406.66	457.75
406.883	434.75
407.107	460.75
407.331	487.75
407.555	531.75
407.778	533.75
408.002	491.75
408.226	463.75
408.449	435.75
408.673	450.75
408.896	479.75
409.12	521.75
409.344	489.75
409.567	435.75
409.791	434.75
410.014	406.75
410.238	395.75
410.461	392.75
410.685	399.75
410.908	436.75
411.132	466.75
411.355	471.75
411.578	447.75
411.802	423.75
412.025	411.75
412.249	422.75
412.472	436.75
412.695	433.75
412.919	438.75
413.142	421.75
413.365	410.75
413.589	391.75
413.812	394.75
414.035	389.75
414.258	389.75
414.482	386.75
414.705	384.75
414.928	380.75
415.151	365.75
415.374	391.75
415.597	372.75
415.821	381.75
416.044	403.75
416.267	382.75
416.49	397.75
416.713	380.75
416.936	372.75
417.159	377.75
417.382	393.75
417.605	402.75
417.828	393.75
418.051	387.75
418.274	399.75
418.497	398.75
418.72	373.75
418.943	359.75
419.166	387.75
419.389	405.75
419.611	421.75
419.834	398.75
420.057	410.75
420.28	418.75
420.503	395.75
420.726	392.75
420.948	417.75
421.171	441.75
421.394	469.75
421.617	427.75
421.839	421.75
422.062	405.75
422.285	407.75
422.507	460.75
422.73	528.75
422.953	523.75
423.175	435.75
423.398	439.75
423.621	435.75
423.843	445.75
424.066	458.75
424.288	437.75
424.511	435.75
424.733	516.75
424.956	555.75
425.178	542.75
425.401	547.75
425.623	569.75
425.846	466.75
426.068	449.75
426.291	457.75
426.513	444.75
426.735	444.75
426.958	499.75
427.18	567.75
427.402	665.75
427.625	711.75
427.847	645.75
428.069	573.75
428.292	503.75
428.514	455.75
428.736	427.75
428.958	433.75
429.181	392.75
429.403	406.75
429.625	426.75
429.847	447.75
430.069	523.75
430.292	516.75
430.514	437.75
430.736	415.75
430.958	407.75
431.18	404.75
431.402	375.75
431.624	376.75
431.846	377.75
432.068	386.75
432.29	386.75
432.512	370.75
432.734	387.75
432.956	380.75
433.178	393.75
433.4	402.75
433.622	379.75
433.844	366.75
434.066	382.75
434.287	391.75
434.509	387.75
434.731	398.75
434.953	416.75
435.175	377.75
435.397	407.75
435.618	451.75
435.84	493.75
436.062	565.75
436.284	609.75
436.505	518.75
436.727	458.75
436.949	437.75
437.17	434.75
437.392	441.75
437.614	420.75
437.835	467.75
438.057	554.75
438.278	604.75
438.5	611.75
438.721	657.75
438.943	643.75
439.165	527.75
439.386	466.75
439.608	458.75
439.829	440.75
440.05	479.75
440.272	523.75
440.493	505.75
440.715	445.75
440.936	434.75
441.158	439.75
441.379	413.75
441.6	439.75
441.822	447.75
442.043	479.75
442.264	541.75
442.486	562.75
442.707	504.75
442.928	452.75
443.149	452.75
443.371	476.75
443.592	528.75
443.813	602.75
444.034	625.75
444.255	527.75
444.476	481.75
444.698	445.75
444.919	436.75
445.14	578.75
445.361	493.75
445.582	512.75
445.803	540.75
446.024	605.75
446.245	663.75
446.466	572.75
446.687	503.75
446.908	460.75
447.129	420.75
447.35	412.75
447.571	426.75
447.792	401.75
448.013	417.75
448.234	440.75
448.455	505.75
448.675	577.75
448.896	651.75
449.117	552.75
449.338	558.75
449.559	616.75
449.779	700.75
450	553.75
450.221	483.75
450.442	439.75
450.662	427.75
450.883	419.75
451.104	430.75
451.324	421.75
451.545	386.75
451.766	397.75
451.986	369.75
452.207	383.75
452.428	382.75
452.648	374.75
452.869	389.75
453.089	371.75
453.31	402.75
453.53	373.75
453.751	380.75
453.971	382.75
454.192	372.75
454.412	383.75
454.633	372.75
454.853	359.75
455.073	395.75
455.294	393.75
455.514	438.75
455.734	449.75
455.955	365.75
456.175	337.75
456.395	353.75
456.616	339.75
456.836	344.75
457.056	357.75
457.276	341.75
457.497	345.75
457.717	355.75
457.937	346.75
458.157	343.75
458.377	370.75
458.598	373.75
458.818	433.75
459.038	503.75
459.258	515.75
459.478	442.75
459.698	385.75
459.918	386.75
460.138	376.75
460.358	385.75
460.578	386.75
460.798	381.75
461.018	373.75
461.238	375.75
461.458	386.75
461.678	379.75
461.898	389.75
462.118	393.75
462.338	385.75
462.558	388.75
462.777	389.75
462.997	403.75
463.217	387.75
463.437	381.75
463.657	415.75
463.876	381.75
464.096	405.75
464.316	395.75
464.536	410.75
464.755	403.75
464.975	414.75
465.195	451.75
465.414	545.75
465.634	433.75
465.854	405.75
466.073	393.75
466.293	388.75
466.512	373.75
466.732	363.75
466.951	405.75
467.171	348.75
467.391	379.75
467.61	382.75
467.829	409.75
468.049	386.75
468.268	367.75
468.488	357.75
468.707	353.75
468.927	353.75
469.146	370.75
469.365	351.75
469.585	379.75
469.804	385.75
470.023	387.75
470.243	381.75
470.462	377.75
470.681	400.75
470.901	399.75
471.12	384.75
471.339	385.75
471.558	376.75
471.777	376.75
471.997	363.75
472.216	393.75
472.435	417.75
472.654	385.75
472.873	382.75
473.092	368.75
473.311	379.75
473.53	378.75
473.749	398.75
473.968	448.75
474.187	518.75
474.406	521.75
474.625	448.75
474.844	407.75
475.063	387.75
475.282	383.75
475.501	387.75
475.72	386.75
475.939	376.75
476.158	381.75
476.377	394.75
476.596	387.75
476.814	392.75
477.033	419.75
477.252	396.75
477.471	405.75
477.69	403.75
477.908	389.75
478.127	397.75
478.346	403.75
478.564	414.75
478.783	400.75
479.002	412.75
479.22	436.75
479.439	446.75
479.658	461.75
479.876	439.75
480.095	433.75
480.313	490.75
480.532	467.75
480.751	460.75
480.969	461.75
481.188	510.75
481.406	527.75
481.624	479.75
481.843	471.75
482.061	441.75
482.28	425.75
482.498	434.75
482.717	446.75
482.935	452.75
483.153	432.75
483.372	427.75
483.59	435.75
483.808	452.75
484.027	443.75
484.245	478.75
484.463	453.75
484.681	456.75
484.9	441.75
485.118	439.75
485.336	441.75
485.554	449.75
485.772	457.75
485.99	464.75
486.209	452.75
486.427	467.75
486.645	489.75
486.863	482.75
487.081	485.75
487.299	491.75
487.517	470.75
487.735	478.75
487.953	468.75
488.171	482.75
488.389	470.75
488.607	472.75
488.825	485.75
489.043	485.75
489.261	474.75
489.479	473.75
489.696	484.75
489.914	465.75
490.132	481.75
490.35	482.75
490.568	502.75
490.786	526.75
491.003	501.75
491.221	516.75
491.439	514.75
491.657	554.75
491.874	526.75
492.092	518.75
492.31	547.75
492.527	539.75
492.745	568.75
492.963	558.75
493.18	563.75
493.398	563.75
493.615	557.75
493.833	564.75
494.05	573.75
494.268	542.75
494.485	550.75
494.703	568.75
494.92	561.75
495.138	559.75
495.355	528.75
495.573	566.75
495.79	585.75
496.008	567.75
496.225	553.75
496.442	575.75
496.66	562.75
496.877	562.75
497.094	548.75
497.312	592.75
497.529	568.75
497.746	563.75
497.963	583.75
498.181	614.75
498.398	607.75
498.615	606.75
498.832	619.75
499.049	648.75
499.267	621.75
499.484	639.75
499.701	643.75
499.918	645.75
500.135	699.75
500.352	685.75
500.569	677.75
500.786	700.75
501.003	697.75
501.22	654.75
501.437	665.75
501.654	679.75
501.871	662.75
