Data from 1981.PennyLincolnUp.Lamp.En5.5.200Scan.071819.P1_HRD10591_16-41-48-959.txt Node
Date: Thu Jul 18 16:41:48 EDT 2019
User: cochatt
Spectrometer: HR+D1059
Trigger mode: 1
Integration Time (sec): 1.000000E-1
Scans to average: 1
Electric dark correction enabled: true
Nonlinearity correction enabled: false
Boxcar width: 0
XAxis mode: Wavelengths
Number of Pixels in Spectrum: 2048
>>>>>Begin Spectral Data<<<<<
223.165	-14.31
223.4	-14.31
223.635	-14.31
223.869	1.69
224.104	-15.31
224.338	-24.31
224.573	6.69
224.808	-5.31
225.042	-8.31
225.277	-5.31
225.511	-10.31
225.746	9.69
225.98	-5.31
226.215	-2.31
226.449	6.69
226.683	17.69
226.918	22.69
227.152	25.69
227.387	20.69
227.621	45.69
227.856	51.69
228.09	33.69
228.324	49.69
228.559	61.69
228.793	73.69
229.027	97.69
229.262	116.69
229.496	111.69
229.73	131.69
229.964	152.69
230.199	137.69
230.433	101.69
230.667	107.69
230.901	106.69
231.136	92.69
231.37	122.69
231.604	108.69
231.838	97.69
232.072	122.69
232.306	111.69
232.541	116.69
232.775	96.69
233.009	106.69
233.243	113.69
233.477	92.69
233.711	107.69
233.945	109.69
234.179	126.69
234.413	110.69
234.647	118.69
234.881	109.69
235.115	121.69
235.349	125.69
235.583	115.69
235.817	122.69
236.051	114.69
236.285	119.69
236.519	126.69
236.753	133.69
236.987	136.69
237.221	205.69
237.455	219.69
237.689	195.69
237.922	136.69
238.156	120.69
238.39	141.69
238.624	134.69
238.858	128.69
239.091	128.69
239.325	113.69
239.559	128.69
239.793	133.69
240.027	129.69
240.26	152.69
240.494	157.69
240.728	149.69
240.961	137.69
241.195	144.69
241.429	143.69
241.662	129.69
241.896	132.69
242.13	125.69
242.363	125.69
242.597	128.69
242.83	140.69
243.064	147.69
243.298	137.69
243.531	138.69
243.765	141.69
243.998	149.69
244.232	112.69
244.465	141.69
244.699	147.69
244.932	136.69
245.166	141.69
245.399	146.69
245.633	152.69
245.866	140.69
246.099	148.69
246.333	140.69
246.566	144.69
246.8	137.69
247.033	161.69
247.266	152.69
247.5	167.69
247.733	183.69
247.966	182.69
248.2	184.69
248.433	181.69
248.666	186.69
248.899	191.69
249.133	207.69
249.366	218.69
249.599	202.69
249.832	197.69
250.066	182.69
250.299	207.69
250.532	207.69
250.765	209.69
250.998	246.69
251.231	234.69
251.465	216.69
251.698	201.69
251.931	210.69
252.164	196.69
252.397	214.69
252.63	194.69
252.863	205.69
253.096	235.69
253.329	225.69
253.562	208.69
253.795	245.69
254.028	233.69
254.261	227.69
254.494	222.69
254.727	273.69
254.96	299.69
255.193	275.69
255.426	268.69
255.659	248.69
255.892	232.69
256.124	229.69
256.357	243.69
256.59	234.69
256.823	226.69
257.056	213.69
257.289	229.69
257.521	218.69
257.754	220.69
257.987	197.69
258.22	211.69
258.452	219.69
258.685	236.69
258.918	220.69
259.151	215.69
259.383	236.69
259.616	226.69
259.849	234.69
260.081	256.69
260.314	273.69
260.547	246.69
260.779	241.69
261.012	249.69
261.244	246.69
261.477	253.69
261.71	247.69
261.942	236.69
262.175	237.69
262.407	215.69
262.64	220.69
262.872	214.69
263.105	213.69
263.337	203.69
263.57	219.69
263.802	221.69
264.035	209.69
264.267	201.69
264.499	212.69
264.732	207.69
264.964	205.69
265.197	214.69
265.429	218.69
265.661	213.69
265.894	218.69
266.126	220.69
266.358	214.69
266.591	220.69
266.823	224.69
267.055	212.69
267.287	233.69
267.52	228.69
267.752	239.69
267.984	231.69
268.216	231.69
268.448	227.69
268.681	245.69
268.913	256.69
269.145	256.69
269.377	268.69
269.609	288.69
269.841	288.69
270.073	262.69
270.306	311.69
270.538	340.69
270.77	329.69
271.002	320.69
271.234	307.69
271.466	320.69
271.698	323.69
271.93	336.69
272.162	334.69
272.394	319.69
272.626	326.69
272.858	308.69
273.09	299.69
273.322	271.69
273.553	282.69
273.785	283.69
274.017	276.69
274.249	270.69
274.481	265.69
274.713	264.69
274.945	272.69
275.176	269.69
275.408	275.69
275.64	257.69
275.872	275.69
276.104	269.69
276.335	267.69
276.567	270.69
276.799	282.69
277.031	321.69
277.262	315.69
277.494	327.69
277.726	321.69
277.957	308.69
278.189	285.69
278.421	292.69
278.652	281.69
278.884	285.69
279.115	275.69
279.347	281.69
279.579	268.69
279.81	282.69
280.042	259.69
280.273	265.69
280.505	281.69
280.736	282.69
280.968	268.69
281.199	276.69
281.431	282.69
281.662	262.69
281.894	263.69
282.125	288.69
282.356	311.69
282.588	312.69
282.819	300.69
283.051	306.69
283.282	269.69
283.513	269.69
283.745	276.69
283.976	286.69
284.207	288.69
284.439	293.69
284.67	270.69
284.901	282.69
285.132	275.69
285.364	279.69
285.595	284.69
285.826	278.69
286.057	298.69
286.288	285.69
286.52	283.69
286.751	277.69
286.982	279.69
287.213	275.69
287.444	283.69
287.675	274.69
287.906	291.69
288.138	308.69
288.369	303.69
288.6	295.69
288.831	295.69
289.062	298.69
289.293	296.69
289.524	313.69
289.755	288.69
289.986	291.69
290.217	285.69
290.448	289.69
290.679	285.69
290.91	289.69
291.141	295.69
291.371	304.69
291.602	287.69
291.833	273.69
292.064	281.69
292.295	295.69
292.526	297.69
292.757	297.69
292.987	287.69
293.218	306.69
293.449	293.69
293.68	297.69
293.91	265.69
294.141	296.69
294.372	283.69
294.603	296.69
294.833	296.69
295.064	291.69
295.295	292.69
295.525	292.69
295.756	299.69
295.987	300.69
296.217	331.69
296.448	332.69
296.679	311.69
296.909	279.69
297.14	285.69
297.37	288.69
297.601	307.69
297.831	300.69
298.062	299.69
298.292	285.69
298.523	316.69
298.753	290.69
298.984	290.69
299.214	301.69
299.445	300.69
299.675	311.69
299.905	306.69
300.136	299.69
300.366	332.69
300.597	308.69
300.827	314.69
301.057	336.69
301.288	325.69
301.518	311.69
301.748	313.69
301.979	330.69
302.209	315.69
302.439	324.69
302.669	315.69
302.9	336.69
303.13	305.69
303.36	333.69
303.59	329.69
303.82	348.69
304.051	335.69
304.281	322.69
304.511	329.69
304.741	319.69
304.971	331.69
305.201	323.69
305.431	316.69
305.661	335.69
305.891	333.69
306.121	318.69
306.352	329.69
306.582	336.69
306.812	325.69
307.042	320.69
307.272	322.69
307.502	330.69
307.731	331.69
307.961	332.69
308.191	336.69
308.421	321.69
308.651	350.69
308.881	333.69
309.111	338.69
309.341	335.69
309.571	354.69
309.8	365.69
310.03	389.69
310.26	378.69
310.49	383.69
310.72	392.69
310.949	401.69
311.179	405.69
311.409	380.69
311.639	394.69
311.868	383.69
312.098	387.69
312.328	384.69
312.557	391.69
312.787	416.69
313.017	430.69
313.246	392.69
313.476	359.69
313.706	375.69
313.935	368.69
314.165	398.69
314.394	390.69
314.624	402.69
314.853	411.69
315.083	389.69
315.312	377.69
315.542	384.69
315.771	373.69
316.001	367.69
316.23	369.69
316.46	375.69
316.689	377.69
316.919	386.69
317.148	379.69
317.377	381.69
317.607	386.69
317.836	380.69
318.065	371.69
318.295	394.69
318.524	389.69
318.753	375.69
318.983	385.69
319.212	370.69
319.441	401.69
319.67	398.69
319.9	377.69
320.129	392.69
320.358	370.69
320.587	381.69
320.816	395.69
321.046	395.69
321.275	418.69
321.504	392.69
321.733	433.69
321.962	424.69
322.191	452.69
322.42	446.69
322.649	465.69
322.878	458.69
323.108	470.69
323.337	519.69
323.566	567.69
323.795	597.69
324.024	638.69
324.253	823.69
324.482	1131.69
324.71	1725.69
324.939	2383.69
325.168	1998.69
325.397	1042.69
325.626	712.69
325.855	610.69
326.084	564.69
326.313	553.69
326.542	549.69
326.77	615.69
326.999	728.69
327.228	998.69
327.457	1511.69
327.686	1799.69
327.914	1196.69
328.143	800.69
328.372	690.69
328.6	650.69
328.829	600.69
329.058	623.69
329.287	610.69
329.515	593.69
329.744	540.69
329.972	536.69
330.201	541.69
330.43	579.69
330.658	605.69
330.887	648.69
331.115	636.69
331.344	533.69
331.572	491.69
331.801	500.69
332.03	495.69
332.258	469.69
332.486	458.69
332.715	465.69
332.943	479.69
333.172	454.69
333.4	452.69
333.629	446.69
333.857	473.69
334.085	476.69
334.314	495.69
334.542	530.69
334.771	519.69
334.999	475.69
335.227	460.69
335.455	444.69
335.684	442.69
335.912	446.69
336.14	439.69
336.369	444.69
336.597	446.69
336.825	442.69
337.053	437.69
337.281	423.69
337.51	417.69
337.738	413.69
337.966	426.69
338.194	440.69
338.422	413.69
338.65	411.69
338.878	425.69
339.106	419.69
339.334	413.69
339.562	416.69
339.79	424.69
340.018	408.69
340.246	412.69
340.474	403.69
340.702	416.69
340.93	421.69
341.158	402.69
341.386	423.69
341.614	416.69
341.842	419.69
342.07	412.69
342.298	405.69
342.526	396.69
342.754	412.69
342.981	415.69
343.209	397.69
343.437	411.69
343.665	406.69
343.893	411.69
344.12	398.69
344.348	420.69
344.576	406.69
344.804	421.69
345.031	426.69
345.259	433.69
345.487	441.69
345.714	401.69
345.942	384.69
346.17	422.69
346.397	398.69
346.625	419.69
346.853	412.69
347.08	392.69
347.308	410.69
347.535	413.69
347.763	416.69
347.99	432.69
348.218	433.69
348.445	413.69
348.673	439.69
348.9	396.69
349.128	398.69
349.355	379.69
349.583	377.69
349.81	368.69
350.037	372.69
350.265	391.69
350.492	377.69
350.72	380.69
350.947	388.69
351.174	407.69
351.402	395.69
351.629	408.69
351.856	407.69
352.083	418.69
352.311	403.69
352.538	442.69
352.765	431.69
352.992	391.69
353.22	401.69
353.447	418.69
353.674	400.69
353.901	383.69
354.128	374.69
354.355	379.69
354.583	377.69
354.81	372.69
355.037	375.69
355.264	351.69
355.491	360.69
355.718	353.69
355.945	350.69
356.172	356.69
356.399	374.69
356.626	359.69
356.853	363.69
357.08	380.69
357.307	364.69
357.534	375.69
357.761	353.69
357.988	367.69
358.215	374.69
358.441	372.69
358.668	368.69
358.895	368.69
359.122	373.69
359.349	405.69
359.576	401.69
359.802	403.69
360.029	440.69
360.256	453.69
360.483	408.69
360.709	406.69
360.936	396.69
361.163	371.69
361.39	382.69
361.616	392.69
361.843	396.69
362.07	383.69
362.296	389.69
362.523	381.69
362.749	405.69
362.976	390.69
363.203	385.69
363.429	364.69
363.656	380.69
363.882	375.69
364.109	381.69
364.335	380.69
364.562	370.69
364.788	376.69
365.015	356.69
365.241	371.69
365.468	372.69
365.694	388.69
365.92	363.69
366.147	375.69
366.373	351.69
366.599	365.69
366.826	352.69
367.052	351.69
367.278	384.69
367.505	384.69
367.731	381.69
367.957	357.69
368.184	372.69
368.41	383.69
368.636	396.69
368.862	402.69
369.089	376.69
369.315	368.69
369.541	359.69
369.767	358.69
369.993	356.69
370.219	362.69
370.445	354.69
370.672	358.69
370.898	349.69
371.124	367.69
371.35	344.69
371.576	353.69
371.802	357.69
372.028	332.69
372.254	365.69
372.48	351.69
372.706	347.69
372.932	362.69
373.158	364.69
373.384	354.69
373.61	365.69
373.835	352.69
374.061	357.69
374.287	365.69
374.513	369.69
374.739	349.69
374.965	363.69
375.191	363.69
375.416	373.69
375.642	359.69
375.868	362.69
376.094	341.69
376.319	343.69
376.545	351.69
376.771	351.69
376.997	344.69
377.222	343.69
377.448	353.69
377.674	360.69
377.899	362.69
378.125	367.69
378.35	358.69
378.576	339.69
378.802	356.69
379.027	352.69
379.253	359.69
379.478	356.69
379.704	349.69
379.929	356.69
380.155	358.69
380.38	354.69
380.606	353.69
380.831	360.69
381.057	357.69
381.282	354.69
381.507	352.69
381.733	364.69
381.958	353.69
382.184	359.69
382.409	346.69
382.634	360.69
382.86	353.69
383.085	374.69
383.31	363.69
383.535	354.69
383.761	370.69
383.986	367.69
384.211	354.69
384.436	373.69
384.662	353.69
384.887	355.69
385.112	353.69
385.337	364.69
385.562	360.69
385.787	355.69
386.013	373.69
386.238	379.69
386.463	370.69
386.688	372.69
386.913	344.69
387.138	377.69
387.363	351.69
387.588	372.69
387.813	369.69
388.038	375.69
388.263	370.69
388.488	354.69
388.713	375.69
388.938	371.69
389.163	376.69
389.387	379.69
389.612	356.69
389.837	358.69
390.062	346.69
390.287	368.69
390.512	374.69
390.736	364.69
390.961	369.69
391.186	363.69
391.411	360.69
391.636	355.69
391.86	372.69
392.085	357.69
392.31	355.69
392.534	391.69
392.759	361.69
392.984	359.69
393.208	380.69
393.433	357.69
393.658	375.69
393.882	355.69
394.107	349.69
394.331	368.69
394.556	371.69
394.78	363.69
395.005	383.69
395.229	373.69
395.454	359.69
395.678	377.69
395.903	389.69
396.127	393.69
396.352	398.69
396.576	369.69
396.801	383.69
397.025	385.69
397.249	387.69
397.474	397.69
397.698	377.69
397.922	377.69
398.147	403.69
398.371	395.69
398.595	404.69
398.82	396.69
399.044	409.69
399.268	428.69
399.492	435.69
399.717	449.69
399.941	460.69
400.165	515.69
400.389	481.69
400.613	477.69
400.837	431.69
401.062	418.69
401.286	409.69
401.51	405.69
401.734	401.69
401.958	424.69
402.182	405.69
402.406	435.69
402.63	432.69
402.854	408.69
403.078	424.69
403.302	404.69
403.526	426.69
403.75	407.69
403.974	429.69
404.198	407.69
404.422	418.69
404.645	430.69
404.869	434.69
405.093	433.69
405.317	473.69
405.541	518.69
405.765	490.69
405.988	456.69
406.212	459.69
406.436	482.69
406.66	488.69
406.883	469.69
407.107	499.69
407.331	511.69
407.555	576.69
407.778	596.69
408.002	511.69
408.226	492.69
408.449	488.69
408.673	477.69
408.896	477.69
409.12	528.69
409.344	506.69
409.567	449.69
409.791	435.69
410.014	451.69
410.238	438.69
410.461	426.69
410.685	428.69
410.908	437.69
411.132	455.69
411.355	514.69
411.578	479.69
411.802	435.69
412.025	412.69
412.249	442.69
412.472	441.69
412.695	483.69
412.919	474.69
413.142	436.69
413.365	415.69
413.589	415.69
413.812	413.69
414.035	389.69
414.258	393.69
414.482	393.69
414.705	395.69
414.928	389.69
415.151	403.69
415.374	402.69
415.597	383.69
415.821	375.69
416.044	387.69
416.267	395.69
416.49	379.69
416.713	387.69
416.936	403.69
417.159	397.69
417.382	395.69
417.605	403.69
417.828	402.69
418.051	408.69
418.274	390.69
418.497	413.69
418.72	393.69
418.943	405.69
419.166	419.69
419.389	404.69
419.611	426.69
419.834	414.69
420.057	415.69
420.28	405.69
420.503	427.69
420.726	411.69
420.948	451.69
421.171	472.69
421.394	505.69
421.617	431.69
421.839	407.69
422.062	430.69
422.285	433.69
422.507	488.69
422.73	562.69
422.953	539.69
423.175	465.69
423.398	441.69
423.621	417.69
423.843	463.69
424.066	449.69
424.288	461.69
424.511	468.69
424.733	514.69
424.956	593.69
425.178	573.69
425.401	584.69
425.623	595.69
425.846	490.69
426.068	461.69
426.291	457.69
426.513	468.69
426.735	496.69
426.958	524.69
427.18	579.69
427.402	714.69
427.625	759.69
427.847	667.69
428.069	585.69
428.292	509.69
428.514	454.69
428.736	442.69
428.958	450.69
429.181	444.69
429.403	450.69
429.625	448.69
429.847	481.69
430.069	523.69
430.292	520.69
430.514	442.69
430.736	430.69
430.958	413.69
431.18	412.69
431.402	404.69
431.624	404.69
431.846	389.69
432.068	384.69
432.29	401.69
432.512	385.69
432.734	395.69
432.956	405.69
433.178	410.69
433.4	410.69
433.622	400.69
433.844	389.69
434.066	392.69
434.287	392.69
434.509	395.69
434.731	412.69
434.953	393.69
435.175	430.69
435.397	465.69
435.618	471.69
435.84	511.69
436.062	618.69
436.284	631.69
436.505	539.69
436.727	479.69
436.949	437.69
437.17	424.69
437.392	419.69
437.614	447.69
437.835	496.69
438.057	587.69
438.278	665.69
438.5	645.69
438.721	717.69
438.943	692.69
439.165	539.69
439.386	509.69
439.608	497.69
439.829	476.69
440.05	501.69
440.272	564.69
440.493	521.69
440.715	449.69
440.936	460.69
441.158	432.69
441.379	439.69
441.6	450.69
441.822	480.69
442.043	512.69
442.264	594.69
442.486	605.69
442.707	520.69
442.928	474.69
443.149	495.69
443.371	503.69
443.592	551.69
443.813	636.69
444.034	662.69
444.255	545.69
444.476	476.69
444.698	465.69
444.919	451.69
445.14	578.69
445.361	509.69
445.582	511.69
445.803	569.69
446.024	671.69
446.245	689.69
446.466	586.69
446.687	513.69
446.908	471.69
447.129	433.69
447.35	446.69
447.571	422.69
447.792	426.69
448.013	452.69
448.234	461.69
448.455	532.69
448.675	601.69
448.896	678.69
449.117	562.69
449.338	541.69
449.559	656.69
449.779	729.69
450	586.69
450.221	495.69
450.442	446.69
450.662	452.69
450.883	445.69
451.104	453.69
451.324	436.69
451.545	402.69
451.766	408.69
451.986	396.69
452.207	382.69
452.428	389.69
452.648	381.69
452.869	391.69
453.089	407.69
453.31	396.69
453.53	387.69
453.751	375.69
453.971	392.69
454.192	410.69
454.412	419.69
454.633	391.69
454.853	385.69
455.073	400.69
455.294	408.69
455.514	484.69
455.734	451.69
455.955	391.69
456.175	372.69
456.395	362.69
456.616	346.69
456.836	344.69
457.056	338.69
457.276	362.69
457.497	368.69
457.717	358.69
457.937	375.69
458.157	371.69
458.377	361.69
458.598	392.69
458.818	466.69
459.038	531.69
459.258	561.69
459.478	486.69
459.698	403.69
459.918	403.69
460.138	385.69
460.358	395.69
460.578	389.69
460.798	397.69
461.018	397.69
461.238	382.69
461.458	382.69
461.678	376.69
461.898	385.69
462.118	406.69
462.338	385.69
462.558	390.69
462.777	393.69
462.997	397.69
463.217	404.69
463.437	423.69
463.657	422.69
463.876	391.69
464.096	414.69
464.316	403.69
464.536	409.69
464.755	415.69
464.975	428.69
465.195	455.69
465.414	520.69
465.634	471.69
465.854	437.69
466.073	411.69
466.293	391.69
466.512	388.69
466.732	378.69
466.951	402.69
467.171	377.69
467.391	375.69
467.61	367.69
467.829	402.69
468.049	383.69
468.268	380.69
468.488	375.69
468.707	373.69
468.927	409.69
469.146	354.69
469.365	363.69
469.585	376.69
469.804	385.69
470.023	393.69
470.243	389.69
470.462	391.69
470.681	391.69
470.901	406.69
471.12	398.69
471.339	381.69
471.558	370.69
471.777	396.69
471.997	389.69
472.216	405.69
472.435	432.69
472.654	415.69
472.873	403.69
473.092	382.69
473.311	396.69
473.53	399.69
473.749	408.69
473.968	428.69
474.187	541.69
474.406	573.69
474.625	465.69
474.844	416.69
475.063	411.69
475.282	385.69
475.501	408.69
475.72	384.69
475.939	403.69
476.158	399.69
476.377	388.69
476.596	403.69
476.814	407.69
477.033	419.69
477.252	413.69
477.471	416.69
477.69	407.69
477.908	439.69
478.127	422.69
478.346	428.69
478.564	426.69
478.783	428.69
479.002	430.69
479.22	458.69
479.439	432.69
479.658	451.69
479.876	481.69
480.095	470.69
480.313	479.69
480.532	487.69
480.751	480.69
480.969	498.69
481.188	536.69
481.406	554.69
481.624	524.69
481.843	457.69
482.061	473.69
482.28	471.69
482.498	475.69
482.717	456.69
482.935	459.69
483.153	469.69
483.372	460.69
483.59	443.69
483.808	457.69
484.027	462.69
484.245	460.69
484.463	441.69
484.681	462.69
484.9	476.69
485.118	447.69
485.336	462.69
485.554	476.69
485.772	466.69
485.99	473.69
486.209	471.69
486.427	483.69
486.645	495.69
486.863	506.69
487.081	491.69
487.299	500.69
487.517	489.69
487.735	499.69
487.953	509.69
488.171	492.69
488.389	491.69
488.607	481.69
488.825	491.69
489.043	492.69
489.261	488.69
489.479	492.69
489.696	521.69
489.914	491.69
490.132	506.69
490.35	502.69
490.568	518.69
490.786	538.69
491.003	544.69
491.221	545.69
491.439	569.69
491.657	554.69
491.874	553.69
492.092	568.69
492.31	572.69
492.527	568.69
492.745	568.69
492.963	587.69
493.18	588.69
493.398	584.69
493.615	593.69
493.833	584.69
494.05	592.69
494.268	577.69
494.485	585.69
494.703	578.69
494.92	597.69
495.138	580.69
495.355	570.69
495.573	578.69
495.79	589.69
496.008	600.69
496.225	579.69
496.442	609.69
496.66	574.69
496.877	573.69
497.094	567.69
497.312	564.69
497.529	595.69
497.746	609.69
497.963	604.69
498.181	645.69
498.398	616.69
498.615	631.69
498.832	652.69
499.049	641.69
499.267	639.69
499.484	680.69
499.701	673.69
499.918	669.69
500.135	711.69
500.352	724.69
500.569	719.69
500.786	739.69
501.003	724.69
501.22	727.69
501.437	721.69
501.654	702.69
501.871	711.69
502.088	675.69
