Data from 1981.PennyLincolnUp.Lamp.En5.5.200Scan.071819.P1_HRD10591_16-43-31-959.txt Node
Date: Thu Jul 18 16:43:31 EDT 2019
User: cochatt
Spectrometer: HR+D1059
Trigger mode: 1
Integration Time (sec): 1.000000E-1
Scans to average: 1
Electric dark correction enabled: true
Nonlinearity correction enabled: false
Boxcar width: 0
XAxis mode: Wavelengths
Number of Pixels in Spectrum: 2048
>>>>>Begin Spectral Data<<<<<
223.165	-14.56
223.4	-14.56
223.635	-14.56
223.869	-12.56
224.104	-14.56
224.338	-21.56
224.573	-0.56
224.808	-9.56
225.042	-10.56
225.277	-0.56
225.511	-11.56
225.746	-1.56
225.98	3.44
226.215	4.44
226.449	14.44
226.683	24.44
226.918	22.44
227.152	28.44
227.387	37.44
227.621	43.44
227.856	33.44
228.09	45.44
228.324	51.44
228.559	64.44
228.793	74.44
229.027	90.44
229.262	106.44
229.496	127.44
229.73	130.44
229.964	152.44
230.199	133.44
230.433	134.44
230.667	111.44
230.901	106.44
231.136	104.44
231.37	108.44
231.604	119.44
231.838	111.44
232.072	132.44
232.306	104.44
232.541	105.44
232.775	109.44
233.009	93.44
233.243	127.44
233.477	119.44
233.711	113.44
233.945	121.44
234.179	116.44
234.413	98.44
234.647	96.44
234.881	117.44
235.115	113.44
235.349	125.44
235.583	124.44
235.817	99.44
236.051	129.44
236.285	123.44
236.519	109.44
236.753	120.44
236.987	139.44
237.221	193.44
237.455	238.44
237.689	197.44
237.922	154.44
238.156	128.44
238.39	131.44
238.624	125.44
238.858	145.44
239.091	118.44
239.325	109.44
239.559	127.44
239.793	128.44
240.027	134.44
240.26	144.44
240.494	151.44
240.728	168.44
240.961	155.44
241.195	158.44
241.429	149.44
241.662	141.44
241.896	149.44
242.13	132.44
242.363	132.44
242.597	125.44
242.83	128.44
243.064	118.44
243.298	137.44
243.531	134.44
243.765	138.44
243.998	131.44
244.232	149.44
244.465	139.44
244.699	123.44
244.932	142.44
245.166	136.44
245.399	139.44
245.633	144.44
245.866	140.44
246.099	148.44
246.333	146.44
246.566	132.44
246.8	147.44
247.033	145.44
247.266	143.44
247.5	166.44
247.733	174.44
247.966	170.44
248.2	175.44
248.433	167.44
248.666	165.44
248.899	189.44
249.133	210.44
249.366	219.44
249.599	198.44
249.832	180.44
250.066	169.44
250.299	185.44
250.532	212.44
250.765	192.44
250.998	217.44
251.231	237.44
251.465	209.44
251.698	196.44
251.931	203.44
252.164	207.44
252.397	208.44
252.63	221.44
252.863	219.44
253.096	240.44
253.329	241.44
253.562	228.44
253.795	237.44
254.028	240.44
254.261	231.44
254.494	229.44
254.727	274.44
254.96	304.44
255.193	289.44
255.426	255.44
255.659	246.44
255.892	233.44
256.124	242.44
256.357	259.44
256.59	225.44
256.823	230.44
257.056	222.44
257.289	226.44
257.521	218.44
257.754	222.44
257.987	207.44
258.22	226.44
258.452	215.44
258.685	223.44
258.918	209.44
259.151	232.44
259.383	232.44
259.616	222.44
259.849	229.44
260.081	239.44
260.314	276.44
260.547	265.44
260.779	242.44
261.012	261.44
261.244	254.44
261.477	239.44
261.71	242.44
261.942	234.44
262.175	243.44
262.407	247.44
262.64	212.44
262.872	212.44
263.105	211.44
263.337	228.44
263.57	216.44
263.802	214.44
264.035	215.44
264.267	216.44
264.499	209.44
264.732	220.44
264.964	215.44
265.197	210.44
265.429	210.44
265.661	223.44
265.894	215.44
266.126	244.44
266.358	220.44
266.591	237.44
266.823	223.44
267.055	237.44
267.287	222.44
267.52	225.44
267.752	220.44
267.984	238.44
268.216	250.44
268.448	257.44
268.681	240.44
268.913	254.44
269.145	281.44
269.377	283.44
269.609	280.44
269.841	253.44
270.073	305.44
270.306	312.44
270.538	335.44
270.77	322.44
271.002	337.44
271.234	316.44
271.466	320.44
271.698	327.44
271.93	325.44
272.162	349.44
272.394	335.44
272.626	321.44
272.858	292.44
273.09	299.44
273.322	304.44
273.553	285.44
273.785	303.44
274.017	280.44
274.249	278.44
274.481	304.44
274.713	273.44
274.945	290.44
275.176	285.44
275.408	285.44
275.64	290.44
275.872	293.44
276.104	266.44
276.335	277.44
276.567	271.44
276.799	298.44
277.031	327.44
277.262	350.44
277.494	330.44
277.726	291.44
277.957	304.44
278.189	301.44
278.421	296.44
278.652	283.44
278.884	296.44
279.115	282.44
279.347	280.44
279.579	281.44
279.81	266.44
280.042	250.44
280.273	269.44
280.505	277.44
280.736	293.44
280.968	254.44
281.199	275.44
281.431	271.44
281.662	259.44
281.894	267.44
282.125	271.44
282.356	303.44
282.588	322.44
282.819	318.44
283.051	292.44
283.282	270.44
283.513	277.44
283.745	275.44
283.976	294.44
284.207	285.44
284.439	289.44
284.67	299.44
284.901	285.44
285.132	275.44
285.364	275.44
285.595	286.44
285.826	275.44
286.057	291.44
286.288	274.44
286.52	273.44
286.751	283.44
286.982	277.44
287.213	264.44
287.444	288.44
287.675	285.44
287.906	280.44
288.138	296.44
288.369	321.44
288.6	300.44
288.831	306.44
289.062	293.44
289.293	293.44
289.524	294.44
289.755	299.44
289.986	305.44
290.217	290.44
290.448	295.44
290.679	297.44
290.91	317.44
291.141	309.44
291.371	302.44
291.602	280.44
291.833	301.44
292.064	290.44
292.295	286.44
292.526	293.44
292.757	298.44
292.987	283.44
293.218	286.44
293.449	281.44
293.68	297.44
293.91	293.44
294.141	296.44
294.372	284.44
294.603	280.44
294.833	295.44
295.064	291.44
295.295	306.44
295.525	279.44
295.756	297.44
295.987	316.44
296.217	349.44
296.448	323.44
296.679	336.44
296.909	287.44
297.14	297.44
297.37	308.44
297.601	316.44
297.831	305.44
298.062	298.44
298.292	293.44
298.523	306.44
298.753	299.44
298.984	318.44
299.214	298.44
299.445	325.44
299.675	301.44
299.905	317.44
300.136	307.44
300.366	297.44
300.597	307.44
300.827	313.44
301.057	329.44
301.288	322.44
301.518	320.44
301.748	327.44
301.979	330.44
302.209	315.44
302.439	338.44
302.669	325.44
302.9	329.44
303.13	310.44
303.36	346.44
303.59	333.44
303.82	352.44
304.051	338.44
304.281	341.44
304.511	333.44
304.741	334.44
304.971	328.44
305.201	326.44
305.431	351.44
305.661	323.44
305.891	318.44
306.121	337.44
306.352	347.44
306.582	339.44
306.812	346.44
307.042	341.44
307.272	354.44
307.502	332.44
307.731	363.44
307.961	354.44
308.191	328.44
308.421	349.44
308.651	351.44
308.881	351.44
309.111	351.44
309.341	339.44
309.571	374.44
309.8	373.44
310.03	371.44
310.26	417.44
310.49	395.44
310.72	383.44
310.949	417.44
311.179	424.44
311.409	404.44
311.639	390.44
311.868	399.44
312.098	392.44
312.328	394.44
312.557	416.44
312.787	405.44
313.017	425.44
313.246	403.44
313.476	389.44
313.706	395.44
313.935	396.44
314.165	411.44
314.394	416.44
314.624	429.44
314.853	401.44
315.083	405.44
315.312	389.44
315.542	381.44
315.771	379.44
316.001	381.44
316.23	381.44
316.46	391.44
316.689	390.44
316.919	401.44
317.148	386.44
317.377	409.44
317.607	403.44
317.836	401.44
318.065	375.44
318.295	383.44
318.524	382.44
318.753	365.44
318.983	382.44
319.212	392.44
319.441	393.44
319.67	402.44
319.9	389.44
320.129	387.44
320.358	393.44
320.587	399.44
320.816	403.44
321.046	414.44
321.275	438.44
321.504	397.44
321.733	408.44
321.962	417.44
322.191	437.44
322.42	456.44
322.649	473.44
322.878	493.44
323.108	495.44
323.337	531.44
323.566	557.44
323.795	603.44
324.024	671.44
324.253	841.44
324.482	1215.44
324.71	1854.44
324.939	2575.44
325.168	2164.44
325.397	1128.44
325.626	759.44
325.855	615.44
326.084	558.44
326.313	568.44
326.542	563.44
326.77	619.44
326.999	771.44
327.228	1077.44
327.457	1652.44
327.686	1904.44
327.914	1275.44
328.143	852.44
328.372	705.44
328.6	657.44
328.829	642.44
329.058	658.44
329.287	652.44
329.515	590.44
329.744	559.44
329.972	544.44
330.201	590.44
330.43	629.44
330.658	678.44
330.887	680.44
331.115	642.44
331.344	575.44
331.572	545.44
331.801	511.44
332.03	528.44
332.258	491.44
332.486	461.44
332.715	453.44
332.943	445.44
333.172	466.44
333.4	466.44
333.629	477.44
333.857	467.44
334.085	490.44
334.314	507.44
334.542	546.44
334.771	550.44
334.999	504.44
335.227	457.44
335.455	471.44
335.684	443.44
335.912	463.44
336.14	447.44
336.369	453.44
336.597	451.44
336.825	446.44
337.053	457.44
337.281	447.44
337.51	445.44
337.738	449.44
337.966	439.44
338.194	446.44
338.422	432.44
338.65	446.44
338.878	418.44
339.106	416.44
339.334	425.44
339.562	425.44
339.79	428.44
340.018	423.44
340.246	414.44
340.474	423.44
340.702	440.44
340.93	433.44
341.158	432.44
341.386	429.44
341.614	433.44
341.842	430.44
342.07	421.44
342.298	419.44
342.526	409.44
342.754	410.44
342.981	393.44
343.209	404.44
343.437	416.44
343.665	382.44
343.893	410.44
344.12	422.44
344.348	430.44
344.576	426.44
344.804	435.44
345.031	427.44
345.259	455.44
345.487	440.44
345.714	411.44
345.942	413.44
346.17	415.44
346.397	417.44
346.625	409.44
346.853	390.44
347.08	398.44
347.308	418.44
347.535	421.44
347.763	423.44
347.99	409.44
348.218	430.44
348.445	456.44
348.673	459.44
348.9	413.44
349.128	407.44
349.355	398.44
349.583	398.44
349.81	387.44
350.037	397.44
350.265	396.44
350.492	392.44
350.72	397.44
350.947	402.44
351.174	401.44
351.402	422.44
351.629	414.44
351.856	424.44
352.083	420.44
352.311	424.44
352.538	449.44
352.765	421.44
352.992	419.44
353.22	427.44
353.447	423.44
353.674	399.44
353.901	387.44
354.128	374.44
354.355	373.44
354.583	375.44
354.81	376.44
355.037	374.44
355.264	381.44
355.491	371.44
355.718	371.44
355.945	367.44
356.172	355.44
356.399	370.44
356.626	358.44
356.853	349.44
357.08	361.44
357.307	381.44
357.534	375.44
357.761	370.44
357.988	354.44
358.215	366.44
358.441	362.44
358.668	373.44
358.895	373.44
359.122	382.44
359.349	387.44
359.576	397.44
359.802	443.44
360.029	458.44
360.256	460.44
360.483	431.44
360.709	420.44
360.936	419.44
361.163	394.44
361.39	411.44
361.616	411.44
361.843	400.44
362.07	399.44
362.296	415.44
362.523	383.44
362.749	392.44
362.976	401.44
363.203	390.44
363.429	402.44
363.656	369.44
363.882	383.44
364.109	369.44
364.335	379.44
364.562	383.44
364.788	367.44
365.015	370.44
365.241	387.44
365.468	366.44
365.694	378.44
365.92	374.44
366.147	346.44
366.373	385.44
366.599	394.44
366.826	380.44
367.052	373.44
367.278	351.44
367.505	371.44
367.731	357.44
367.957	359.44
368.184	370.44
368.41	381.44
368.636	385.44
368.862	400.44
369.089	390.44
369.315	351.44
369.541	366.44
369.767	374.44
369.993	349.44
370.219	349.44
370.445	350.44
370.672	358.44
370.898	368.44
371.124	355.44
371.35	355.44
371.576	355.44
371.802	360.44
372.028	344.44
372.254	350.44
372.48	349.44
372.706	344.44
372.932	357.44
373.158	339.44
373.384	357.44
373.61	369.44
373.835	353.44
374.061	376.44
374.287	356.44
374.513	361.44
374.739	369.44
374.965	343.44
375.191	367.44
375.416	349.44
375.642	349.44
375.868	371.44
376.094	355.44
376.319	323.44
376.545	354.44
376.771	339.44
376.997	357.44
377.222	365.44
377.448	327.44
377.674	357.44
377.899	339.44
378.125	338.44
378.35	355.44
378.576	359.44
378.802	353.44
379.027	325.44
379.253	344.44
379.478	347.44
379.704	345.44
379.929	362.44
380.155	359.44
380.38	344.44
380.606	360.44
380.831	354.44
381.057	365.44
381.282	351.44
381.507	359.44
381.733	361.44
381.958	345.44
382.184	354.44
382.409	360.44
382.634	346.44
382.86	361.44
383.085	340.44
383.31	335.44
383.535	350.44
383.761	356.44
383.986	353.44
384.211	362.44
384.436	367.44
384.662	355.44
384.887	376.44
385.112	365.44
385.337	357.44
385.562	361.44
385.787	354.44
386.013	376.44
386.238	373.44
386.463	376.44
386.688	384.44
386.913	370.44
387.138	358.44
387.363	354.44
387.588	367.44
387.813	369.44
388.038	377.44
388.263	363.44
388.488	350.44
388.713	367.44
388.938	371.44
389.163	379.44
389.387	367.44
389.612	361.44
389.837	359.44
390.062	378.44
390.287	340.44
390.512	356.44
390.736	376.44
390.961	363.44
391.186	349.44
391.411	358.44
391.636	347.44
391.86	363.44
392.085	352.44
392.31	359.44
392.534	354.44
392.759	377.44
392.984	384.44
393.208	353.44
393.433	353.44
393.658	365.44
393.882	348.44
394.107	378.44
394.331	377.44
394.556	349.44
394.78	370.44
395.005	350.44
395.229	351.44
395.454	365.44
395.678	381.44
395.903	372.44
396.127	397.44
396.352	394.44
396.576	379.44
396.801	373.44
397.025	360.44
397.249	375.44
397.474	376.44
397.698	379.44
397.922	402.44
398.147	403.44
398.371	407.44
398.595	404.44
398.82	400.44
399.044	407.44
399.268	419.44
399.492	425.44
399.717	454.44
399.941	460.44
400.165	493.44
400.389	490.44
400.613	435.44
400.837	429.44
401.062	422.44
401.286	402.44
401.51	395.44
401.734	394.44
401.958	416.44
402.182	404.44
402.406	431.44
402.63	429.44
402.854	433.44
403.078	411.44
403.302	421.44
403.526	432.44
403.75	407.44
403.974	404.44
404.198	417.44
404.422	417.44
404.645	413.44
404.869	436.44
405.093	457.44
405.317	494.44
405.541	509.44
405.765	465.44
405.988	459.44
406.212	469.44
406.436	466.44
406.66	503.44
406.883	491.44
407.107	479.44
407.331	489.44
407.555	553.44
407.778	573.44
408.002	536.44
408.226	474.44
408.449	454.44
408.673	461.44
408.896	482.44
409.12	528.44
409.344	490.44
409.567	440.44
409.791	431.44
410.014	429.44
410.238	413.44
410.461	433.44
410.685	429.44
410.908	443.44
411.132	469.44
411.355	507.44
411.578	483.44
411.802	456.44
412.025	427.44
412.249	441.44
412.472	448.44
412.695	470.44
412.919	479.44
413.142	441.44
413.365	409.44
413.589	396.44
413.812	400.44
414.035	393.44
414.258	380.44
414.482	395.44
414.705	390.44
414.928	397.44
415.151	387.44
415.374	391.44
415.597	396.44
415.821	389.44
416.044	389.44
416.267	414.44
416.49	383.44
416.713	388.44
416.936	393.44
417.159	394.44
417.382	415.44
417.605	399.44
417.828	416.44
418.051	454.44
418.274	403.44
418.497	414.44
418.72	384.44
418.943	390.44
419.166	401.44
419.389	420.44
419.611	414.44
419.834	409.44
420.057	423.44
420.28	422.44
420.503	410.44
420.726	416.44
420.948	448.44
421.171	461.44
421.394	482.44
421.617	442.44
421.839	415.44
422.062	429.44
422.285	439.44
422.507	489.44
422.73	540.44
422.953	519.44
423.175	448.44
423.398	441.44
423.621	439.44
423.843	462.44
424.066	469.44
424.288	449.44
424.511	497.44
424.733	521.44
424.956	595.44
425.178	571.44
425.401	566.44
425.623	599.44
425.846	498.44
426.068	458.44
426.291	474.44
426.513	465.44
426.735	464.44
426.958	506.44
427.18	578.44
427.402	689.44
427.625	773.44
427.847	690.44
428.069	596.44
428.292	496.44
428.514	480.44
428.736	448.44
428.958	409.44
429.181	436.44
429.403	412.44
429.625	466.44
429.847	479.44
430.069	536.44
430.292	509.44
430.514	434.44
430.736	427.44
430.958	415.44
431.18	415.44
431.402	378.44
431.624	394.44
431.846	406.44
432.068	393.44
432.29	375.44
432.512	418.44
432.734	414.44
432.956	409.44
433.178	412.44
433.4	407.44
433.622	423.44
433.844	384.44
434.066	393.44
434.287	401.44
434.509	394.44
434.731	374.44
434.953	408.44
435.175	426.44
435.397	464.44
435.618	468.44
435.84	520.44
436.062	598.44
436.284	653.44
436.505	571.44
436.727	490.44
436.949	458.44
437.17	442.44
437.392	443.44
437.614	441.44
437.835	484.44
438.057	544.44
438.278	646.44
438.5	669.44
438.721	714.44
438.943	692.44
439.165	550.44
439.386	502.44
439.608	484.44
439.829	503.44
440.05	516.44
440.272	561.44
440.493	522.44
440.715	445.44
440.936	457.44
441.158	435.44
441.379	417.44
441.6	428.44
441.822	459.44
442.043	505.44
442.264	575.44
442.486	619.44
442.707	520.44
442.928	463.44
443.149	472.44
443.371	489.44
443.592	547.44
443.813	614.44
444.034	676.44
444.255	554.44
444.476	503.44
444.698	453.44
444.919	468.44
445.14	548.44
445.361	486.44
445.582	513.44
445.803	609.44
446.024	671.44
446.245	695.44
446.466	618.44
446.687	519.44
446.908	471.44
447.129	443.44
447.35	432.44
447.571	431.44
447.792	447.44
448.013	439.44
448.234	447.44
448.455	533.44
448.675	616.44
448.896	672.44
449.117	599.44
449.338	561.44
449.559	643.44
449.779	717.44
450	611.44
450.221	534.44
450.442	446.44
450.662	460.44
450.883	440.44
451.104	468.44
451.324	445.44
451.545	418.44
451.766	405.44
451.986	400.44
452.207	389.44
452.428	396.44
452.648	383.44
452.869	376.44
453.089	413.44
453.31	421.44
453.53	408.44
453.751	373.44
453.971	382.44
454.192	409.44
454.412	400.44
454.633	400.44
454.853	395.44
455.073	394.44
455.294	420.44
455.514	480.44
455.734	451.44
455.955	401.44
456.175	377.44
456.395	361.44
456.616	338.44
456.836	365.44
457.056	357.44
457.276	357.44
457.497	355.44
457.717	359.44
457.937	381.44
458.157	352.44
458.377	373.44
458.598	403.44
458.818	454.44
459.038	533.44
459.258	561.44
459.478	469.44
459.698	415.44
459.918	382.44
460.138	387.44
460.358	387.44
460.578	381.44
460.798	389.44
461.018	378.44
461.238	378.44
461.458	400.44
461.678	379.44
461.898	397.44
462.118	381.44
462.338	381.44
462.558	401.44
462.777	391.44
462.997	399.44
463.217	391.44
463.437	389.44
463.657	404.44
463.876	419.44
464.096	402.44
464.316	400.44
464.536	401.44
464.755	407.44
464.975	417.44
465.195	496.44
465.414	557.44
465.634	485.44
465.854	419.44
466.073	396.44
466.293	404.44
466.512	398.44
466.732	383.44
466.951	387.44
467.171	396.44
467.391	388.44
467.61	408.44
467.829	440.44
468.049	421.44
468.268	389.44
468.488	376.44
468.707	381.44
468.927	363.44
469.146	382.44
469.365	381.44
469.585	366.44
469.804	373.44
470.023	384.44
470.243	384.44
470.462	421.44
470.681	402.44
470.901	408.44
471.12	393.44
471.339	421.44
471.558	378.44
471.777	397.44
471.997	381.44
472.216	401.44
472.435	430.44
472.654	411.44
472.873	392.44
473.092	392.44
473.311	376.44
473.53	406.44
473.749	395.44
473.968	457.44
474.187	559.44
474.406	569.44
474.625	466.44
474.844	431.44
475.063	402.44
475.282	403.44
475.501	407.44
475.72	384.44
475.939	413.44
476.158	394.44
476.377	407.44
476.596	416.44
476.814	415.44
477.033	411.44
477.252	431.44
477.471	415.44
477.69	411.44
477.908	394.44
478.127	404.44
478.346	432.44
478.564	433.44
478.783	435.44
479.002	454.44
479.22	438.44
479.439	454.44
479.658	456.44
479.876	469.44
480.095	461.44
480.313	522.44
480.532	482.44
480.751	463.44
480.969	478.44
481.188	556.44
481.406	584.44
481.624	517.44
481.843	477.44
482.061	476.44
482.28	468.44
482.498	464.44
482.717	470.44
482.935	470.44
483.153	443.44
483.372	471.44
483.59	455.44
483.808	467.44
484.027	465.44
484.245	455.44
484.463	483.44
484.681	451.44
484.9	474.44
485.118	477.44
485.336	453.44
485.554	450.44
485.772	466.44
485.99	479.44
486.209	471.44
486.427	476.44
486.645	487.44
486.863	510.44
487.081	483.44
487.299	492.44
487.517	495.44
487.735	506.44
487.953	493.44
488.171	499.44
488.389	489.44
488.607	491.44
488.825	478.44
489.043	499.44
489.261	502.44
489.479	483.44
489.696	491.44
489.914	511.44
490.132	503.44
490.35	507.44
490.568	513.44
490.786	533.44
491.003	529.44
491.221	545.44
491.439	537.44
491.657	551.44
491.874	555.44
492.092	561.44
492.31	557.44
492.527	574.44
492.745	576.44
492.963	564.44
493.18	580.44
493.398	589.44
493.615	572.44
493.833	591.44
494.05	578.44
494.268	564.44
494.485	593.44
494.703	600.44
494.92	583.44
495.138	602.44
495.355	592.44
495.573	617.44
495.79	594.44
496.008	598.44
496.225	578.44
496.442	568.44
496.66	595.44
496.877	595.44
497.094	571.44
497.312	586.44
497.529	594.44
497.746	604.44
497.963	639.44
498.181	635.44
498.398	639.44
498.615	620.44
498.832	631.44
499.049	647.44
499.267	638.44
499.484	667.44
499.701	664.44
499.918	675.44
500.135	696.44
500.352	710.44
500.569	720.44
500.786	699.44
501.003	727.44
501.22	703.44
501.437	675.44
501.654	701.44
501.871	690.44
