Data from 1981.PennyLincolnUp.Lamp.En5.5.200Scan.071819.P1_HRD10591_16-43-28-960.txt Node
Date: Thu Jul 18 16:43:28 EDT 2019
User: cochatt
Spectrometer: HR+D1059
Trigger mode: 1
Integration Time (sec): 1.000000E-1
Scans to average: 1
Electric dark correction enabled: true
Nonlinearity correction enabled: false
Boxcar width: 0
XAxis mode: Wavelengths
Number of Pixels in Spectrum: 2048
>>>>>Begin Spectral Data<<<<<
223.165	-8.81
223.4	-8.81
223.635	-8.81
223.869	-28.81
224.104	-21.81
224.338	-19.81
224.573	-15.81
224.808	-16.81
225.042	-5.81
225.277	-1.81
225.511	1.19
225.746	4.19
225.98	-4.81
226.215	19.19
226.449	19.19
226.683	21.19
226.918	29.19
227.152	30.19
227.387	34.19
227.621	45.19
227.856	50.19
228.09	55.19
228.324	47.19
228.559	66.19
228.793	76.19
229.027	104.19
229.262	122.19
229.496	120.19
229.73	123.19
229.964	161.19
230.199	140.19
230.433	113.19
230.667	136.19
230.901	118.19
231.136	104.19
231.37	114.19
231.604	116.19
231.838	116.19
232.072	117.19
232.306	118.19
232.541	105.19
232.775	117.19
233.009	118.19
233.243	95.19
233.477	118.19
233.711	105.19
233.945	116.19
234.179	130.19
234.413	115.19
234.647	110.19
234.881	118.19
235.115	128.19
235.349	142.19
235.583	134.19
235.817	116.19
236.051	118.19
236.285	140.19
236.519	128.19
236.753	134.19
236.987	157.19
237.221	190.19
237.455	253.19
237.689	202.19
237.922	161.19
238.156	137.19
238.39	125.19
238.624	124.19
238.858	121.19
239.091	132.19
239.325	144.19
239.559	130.19
239.793	132.19
240.027	138.19
240.26	155.19
240.494	157.19
240.728	160.19
240.961	155.19
241.195	149.19
241.429	151.19
241.662	147.19
241.896	135.19
242.13	124.19
242.363	139.19
242.597	139.19
242.83	134.19
243.064	137.19
243.298	142.19
243.531	123.19
243.765	145.19
243.998	157.19
244.232	153.19
244.465	140.19
244.699	146.19
244.932	159.19
245.166	143.19
245.399	152.19
245.633	168.19
245.866	150.19
246.099	162.19
246.333	158.19
246.566	145.19
246.8	160.19
247.033	171.19
247.266	172.19
247.5	159.19
247.733	170.19
247.966	178.19
248.2	194.19
248.433	173.19
248.666	192.19
248.899	210.19
249.133	214.19
249.366	207.19
249.599	213.19
249.832	205.19
250.066	185.19
250.299	198.19
250.532	209.19
250.765	216.19
250.998	254.19
251.231	252.19
251.465	233.19
251.698	219.19
251.931	216.19
252.164	213.19
252.397	223.19
252.63	201.19
252.863	216.19
253.096	244.19
253.329	260.19
253.562	236.19
253.795	214.19
254.028	229.19
254.261	232.19
254.494	250.19
254.727	285.19
254.96	314.19
255.193	298.19
255.426	270.19
255.659	248.19
255.892	272.19
256.124	248.19
256.357	254.19
256.59	245.19
256.823	238.19
257.056	235.19
257.289	230.19
257.521	240.19
257.754	226.19
257.987	218.19
258.22	232.19
258.452	227.19
258.685	229.19
258.918	226.19
259.151	239.19
259.383	214.19
259.616	256.19
259.849	245.19
260.081	253.19
260.314	291.19
260.547	278.19
260.779	273.19
261.012	243.19
261.244	238.19
261.477	258.19
261.71	245.19
261.942	239.19
262.175	268.19
262.407	257.19
262.64	240.19
262.872	229.19
263.105	244.19
263.337	204.19
263.57	238.19
263.802	234.19
264.035	228.19
264.267	246.19
264.499	222.19
264.732	231.19
264.964	231.19
265.197	209.19
265.429	228.19
265.661	238.19
265.894	229.19
266.126	224.19
266.358	222.19
266.591	238.19
266.823	222.19
267.055	256.19
267.287	241.19
267.52	244.19
267.752	239.19
267.984	243.19
268.216	242.19
268.448	256.19
268.681	245.19
268.913	269.19
269.145	285.19
269.377	285.19
269.609	295.19
269.841	300.19
270.073	281.19
270.306	312.19
270.538	334.19
270.77	338.19
271.002	356.19
271.234	316.19
271.466	346.19
271.698	344.19
271.93	350.19
272.162	342.19
272.394	368.19
272.626	329.19
272.858	309.19
273.09	315.19
273.322	300.19
273.553	290.19
273.785	295.19
274.017	277.19
274.249	287.19
274.481	291.19
274.713	272.19
274.945	310.19
275.176	294.19
275.408	300.19
275.64	295.19
275.872	294.19
276.104	282.19
276.335	299.19
276.567	294.19
276.799	317.19
277.031	328.19
277.262	356.19
277.494	310.19
277.726	328.19
277.957	304.19
278.189	285.19
278.421	292.19
278.652	309.19
278.884	304.19
279.115	287.19
279.347	287.19
279.579	269.19
279.81	267.19
280.042	277.19
280.273	284.19
280.505	271.19
280.736	280.19
280.968	280.19
281.199	289.19
281.431	285.19
281.662	283.19
281.894	284.19
282.125	294.19
282.356	303.19
282.588	335.19
282.819	329.19
283.051	319.19
283.282	282.19
283.513	294.19
283.745	283.19
283.976	271.19
284.207	294.19
284.439	272.19
284.67	282.19
284.901	315.19
285.132	288.19
285.364	284.19
285.595	294.19
285.826	292.19
286.057	298.19
286.288	300.19
286.52	292.19
286.751	280.19
286.982	298.19
287.213	277.19
287.444	314.19
287.675	297.19
287.906	297.19
288.138	297.19
288.369	318.19
288.6	308.19
288.831	337.19
289.062	299.19
289.293	298.19
289.524	290.19
289.755	282.19
289.986	306.19
290.217	310.19
290.448	302.19
290.679	297.19
290.91	303.19
291.141	296.19
291.371	300.19
291.602	305.19
291.833	279.19
292.064	281.19
292.295	323.19
292.526	293.19
292.757	282.19
292.987	309.19
293.218	294.19
293.449	295.19
293.68	297.19
293.91	304.19
294.141	294.19
294.372	281.19
294.603	300.19
294.833	317.19
295.064	284.19
295.295	294.19
295.525	299.19
295.756	312.19
295.987	312.19
296.217	322.19
296.448	338.19
296.679	326.19
296.909	310.19
297.14	299.19
297.37	292.19
297.601	288.19
297.831	312.19
298.062	306.19
298.292	310.19
298.523	312.19
298.753	304.19
298.984	308.19
299.214	316.19
299.445	337.19
299.675	310.19
299.905	326.19
300.136	320.19
300.366	333.19
300.597	318.19
300.827	317.19
301.057	349.19
301.288	338.19
301.518	324.19
301.748	302.19
301.979	332.19
302.209	325.19
302.439	335.19
302.669	317.19
302.9	324.19
303.13	317.19
303.36	318.19
303.59	351.19
303.82	343.19
304.051	334.19
304.281	347.19
304.511	331.19
304.741	313.19
304.971	345.19
305.201	328.19
305.431	331.19
305.661	346.19
305.891	329.19
306.121	347.19
306.352	315.19
306.582	348.19
306.812	320.19
307.042	331.19
307.272	337.19
307.502	333.19
307.731	331.19
307.961	340.19
308.191	340.19
308.421	330.19
308.651	325.19
308.881	337.19
309.111	342.19
309.341	348.19
309.571	369.19
309.8	346.19
310.03	385.19
310.26	408.19
310.49	403.19
310.72	412.19
310.949	424.19
311.179	433.19
311.409	401.19
311.639	404.19
311.868	405.19
312.098	424.19
312.328	412.19
312.557	416.19
312.787	416.19
313.017	437.19
313.246	402.19
313.476	393.19
313.706	400.19
313.935	403.19
314.165	413.19
314.394	421.19
314.624	411.19
314.853	400.19
315.083	386.19
315.312	398.19
315.542	384.19
315.771	378.19
316.001	384.19
316.23	388.19
316.46	384.19
316.689	392.19
316.919	396.19
317.148	418.19
317.377	422.19
317.607	389.19
317.836	402.19
318.065	388.19
318.295	390.19
318.524	378.19
318.753	394.19
318.983	407.19
319.212	415.19
319.441	403.19
319.67	422.19
319.9	409.19
320.129	402.19
320.358	391.19
320.587	414.19
320.816	419.19
321.046	439.19
321.275	406.19
321.504	408.19
321.733	431.19
321.962	455.19
322.191	460.19
322.42	470.19
322.649	483.19
322.878	511.19
323.108	514.19
323.337	534.19
323.566	576.19
323.795	612.19
324.024	678.19
324.253	862.19
324.482	1247.19
324.71	1894.19
324.939	2584.19
325.168	2208.19
325.397	1154.19
325.626	787.19
325.855	656.19
326.084	605.19
326.313	564.19
326.542	594.19
326.77	659.19
326.999	754.19
327.228	1106.19
327.457	1624.19
327.686	1930.19
327.914	1257.19
328.143	804.19
328.372	727.19
328.6	675.19
328.829	646.19
329.058	668.19
329.287	648.19
329.515	624.19
329.744	592.19
329.972	577.19
330.201	577.19
330.43	635.19
330.658	665.19
330.887	669.19
331.115	659.19
331.344	566.19
331.572	539.19
331.801	524.19
332.03	539.19
332.258	489.19
332.486	484.19
332.715	466.19
332.943	461.19
333.172	469.19
333.4	460.19
333.629	482.19
333.857	486.19
334.085	497.19
334.314	502.19
334.542	538.19
334.771	572.19
334.999	526.19
335.227	473.19
335.455	469.19
335.684	456.19
335.912	440.19
336.14	439.19
336.369	448.19
336.597	466.19
336.825	459.19
337.053	440.19
337.281	445.19
337.51	450.19
337.738	444.19
337.966	444.19
338.194	442.19
338.422	458.19
338.65	445.19
338.878	429.19
339.106	436.19
339.334	433.19
339.562	452.19
339.79	440.19
340.018	421.19
340.246	429.19
340.474	454.19
340.702	430.19
340.93	417.19
341.158	414.19
341.386	432.19
341.614	433.19
341.842	428.19
342.07	427.19
342.298	438.19
342.526	422.19
342.754	417.19
342.981	420.19
343.209	407.19
343.437	417.19
343.665	416.19
343.893	408.19
344.12	409.19
344.348	425.19
344.576	431.19
344.804	442.19
345.031	429.19
345.259	463.19
345.487	434.19
345.714	434.19
345.942	411.19
346.17	401.19
346.397	448.19
346.625	405.19
346.853	402.19
347.08	428.19
347.308	431.19
347.535	421.19
347.763	443.19
347.99	436.19
348.218	427.19
348.445	442.19
348.673	439.19
348.9	426.19
349.128	430.19
349.355	418.19
349.583	387.19
349.81	399.19
350.037	388.19
350.265	390.19
350.492	391.19
350.72	424.19
350.947	428.19
351.174	412.19
351.402	437.19
351.629	414.19
351.856	427.19
352.083	432.19
352.311	440.19
352.538	445.19
352.765	458.19
352.992	423.19
353.22	439.19
353.447	419.19
353.674	416.19
353.901	411.19
354.128	394.19
354.355	376.19
354.583	376.19
354.81	383.19
355.037	388.19
355.264	381.19
355.491	378.19
355.718	359.19
355.945	363.19
356.172	383.19
356.399	372.19
356.626	378.19
356.853	370.19
357.08	361.19
357.307	374.19
357.534	366.19
357.761	364.19
357.988	362.19
358.215	380.19
358.441	389.19
358.668	384.19
358.895	375.19
359.122	382.19
359.349	386.19
359.576	406.19
359.802	441.19
360.029	474.19
360.256	473.19
360.483	455.19
360.709	420.19
360.936	418.19
361.163	402.19
361.39	401.19
361.616	388.19
361.843	387.19
362.07	398.19
362.296	395.19
362.523	407.19
362.749	406.19
362.976	391.19
363.203	389.19
363.429	391.19
363.656	397.19
363.882	394.19
364.109	357.19
364.335	363.19
364.562	380.19
364.788	366.19
365.015	378.19
365.241	384.19
365.468	391.19
365.694	381.19
365.92	388.19
366.147	400.19
366.373	392.19
366.599	361.19
366.826	386.19
367.052	368.19
367.278	377.19
367.505	374.19
367.731	378.19
367.957	373.19
368.184	371.19
368.41	384.19
368.636	406.19
368.862	398.19
369.089	378.19
369.315	364.19
369.541	372.19
369.767	377.19
369.993	374.19
370.219	373.19
370.445	380.19
370.672	380.19
370.898	364.19
371.124	374.19
371.35	360.19
371.576	360.19
371.802	366.19
372.028	351.19
372.254	353.19
372.48	344.19
372.706	360.19
372.932	375.19
373.158	344.19
373.384	348.19
373.61	351.19
373.835	364.19
374.061	363.19
374.287	365.19
374.513	360.19
374.739	357.19
374.965	376.19
375.191	356.19
375.416	351.19
375.642	361.19
375.868	360.19
376.094	356.19
376.319	348.19
376.545	362.19
376.771	363.19
376.997	361.19
377.222	344.19
377.448	366.19
377.674	374.19
377.899	346.19
378.125	348.19
378.35	334.19
378.576	359.19
378.802	336.19
379.027	359.19
379.253	356.19
379.478	354.19
379.704	366.19
379.929	362.19
380.155	350.19
380.38	342.19
380.606	358.19
380.831	344.19
381.057	371.19
381.282	361.19
381.507	380.19
381.733	376.19
381.958	367.19
382.184	365.19
382.409	358.19
382.634	345.19
382.86	361.19
383.085	361.19
383.31	364.19
383.535	347.19
383.761	372.19
383.986	357.19
384.211	367.19
384.436	352.19
384.662	373.19
384.887	375.19
385.112	377.19
385.337	395.19
385.562	374.19
385.787	388.19
386.013	378.19
386.238	373.19
386.463	387.19
386.688	389.19
386.913	346.19
387.138	359.19
387.363	368.19
387.588	347.19
387.813	365.19
388.038	365.19
388.263	353.19
388.488	375.19
388.713	376.19
388.938	356.19
389.163	349.19
389.387	362.19
389.612	358.19
389.837	383.19
390.062	358.19
390.287	386.19
390.512	381.19
390.736	376.19
390.961	356.19
391.186	360.19
391.411	366.19
391.636	376.19
391.86	388.19
392.085	381.19
392.31	365.19
392.534	375.19
392.759	372.19
392.984	364.19
393.208	372.19
393.433	359.19
393.658	379.19
393.882	348.19
394.107	366.19
394.331	386.19
394.556	356.19
394.78	369.19
395.005	361.19
395.229	369.19
395.454	365.19
395.678	389.19
395.903	398.19
396.127	390.19
396.352	399.19
396.576	396.19
396.801	384.19
397.025	372.19
397.249	377.19
397.474	363.19
397.698	378.19
397.922	404.19
398.147	405.19
398.371	410.19
398.595	408.19
398.82	400.19
399.044	394.19
399.268	402.19
399.492	428.19
399.717	456.19
399.941	460.19
400.165	484.19
400.389	495.19
400.613	459.19
400.837	450.19
401.062	429.19
401.286	408.19
401.51	424.19
401.734	415.19
401.958	422.19
402.182	382.19
402.406	406.19
402.63	435.19
402.854	404.19
403.078	401.19
403.302	422.19
403.526	406.19
403.75	428.19
403.974	422.19
404.198	401.19
404.422	432.19
404.645	441.19
404.869	440.19
405.093	462.19
405.317	491.19
405.541	546.19
405.765	479.19
405.988	466.19
406.212	474.19
406.436	480.19
406.66	469.19
406.883	464.19
407.107	485.19
407.331	545.19
407.555	585.19
407.778	572.19
408.002	523.19
408.226	480.19
408.449	458.19
408.673	482.19
408.896	487.19
409.12	533.19
409.344	488.19
409.567	444.19
409.791	450.19
410.014	436.19
410.238	428.19
410.461	425.19
410.685	438.19
410.908	425.19
411.132	487.19
411.355	492.19
411.578	491.19
411.802	436.19
412.025	441.19
412.249	445.19
412.472	462.19
412.695	480.19
412.919	472.19
413.142	459.19
413.365	418.19
413.589	407.19
413.812	408.19
414.035	410.19
414.258	402.19
414.482	398.19
414.705	403.19
414.928	390.19
415.151	392.19
415.374	404.19
415.597	390.19
415.821	400.19
416.044	413.19
416.267	422.19
416.49	413.19
416.713	395.19
416.936	397.19
417.159	400.19
417.382	405.19
417.605	414.19
417.828	434.19
418.051	413.19
418.274	437.19
418.497	404.19
418.72	409.19
418.943	403.19
419.166	412.19
419.389	429.19
419.611	398.19
419.834	445.19
420.057	413.19
420.28	426.19
420.503	424.19
420.726	412.19
420.948	458.19
421.171	461.19
421.394	493.19
421.617	443.19
421.839	436.19
422.062	417.19
422.285	454.19
422.507	504.19
422.73	560.19
422.953	523.19
423.175	454.19
423.398	440.19
423.621	450.19
423.843	480.19
424.066	465.19
424.288	484.19
424.511	493.19
424.733	550.19
424.956	607.19
425.178	570.19
425.401	571.19
425.623	622.19
425.846	525.19
426.068	489.19
426.291	470.19
426.513	458.19
426.735	465.19
426.958	551.19
427.18	613.19
427.402	690.19
427.625	790.19
427.847	688.19
428.069	617.19
428.292	556.19
428.514	488.19
428.736	467.19
428.958	456.19
429.181	434.19
429.403	442.19
429.625	446.19
429.847	500.19
430.069	533.19
430.292	531.19
430.514	459.19
430.736	448.19
430.958	433.19
431.18	420.19
431.402	409.19
431.624	422.19
431.846	417.19
432.068	400.19
432.29	398.19
432.512	412.19
432.734	418.19
432.956	397.19
433.178	396.19
433.4	426.19
433.622	425.19
433.844	405.19
434.066	416.19
434.287	391.19
434.509	395.19
434.731	407.19
434.953	409.19
435.175	427.19
435.397	490.19
435.618	486.19
435.84	516.19
436.062	589.19
436.284	666.19
436.505	564.19
436.727	506.19
436.949	473.19
437.17	450.19
437.392	441.19
437.614	442.19
437.835	486.19
438.057	589.19
438.278	697.19
438.5	646.19
438.721	707.19
438.943	678.19
439.165	548.19
439.386	505.19
439.608	504.19
439.829	492.19
440.05	530.19
440.272	577.19
440.493	537.19
440.715	488.19
440.936	445.19
441.158	455.19
441.379	446.19
441.6	458.19
441.822	468.19
442.043	516.19
442.264	566.19
442.486	633.19
442.707	516.19
442.928	494.19
443.149	486.19
443.371	532.19
443.592	575.19
443.813	646.19
444.034	680.19
444.255	569.19
444.476	495.19
444.698	474.19
444.919	460.19
445.14	572.19
445.361	530.19
445.582	545.19
445.803	603.19
446.024	698.19
446.245	692.19
446.466	634.19
446.687	516.19
446.908	479.19
447.129	481.19
447.35	458.19
447.571	443.19
447.792	444.19
448.013	446.19
448.234	470.19
448.455	537.19
448.675	636.19
448.896	704.19
449.117	617.19
449.338	602.19
449.559	682.19
449.779	736.19
450	604.19
450.221	488.19
450.442	465.19
450.662	450.19
450.883	449.19
451.104	452.19
451.324	462.19
451.545	428.19
451.766	441.19
451.986	379.19
452.207	383.19
452.428	392.19
452.648	396.19
452.869	428.19
453.089	419.19
453.31	424.19
453.53	418.19
453.751	402.19
453.971	382.19
454.192	426.19
454.412	401.19
454.633	406.19
454.853	394.19
455.073	406.19
455.294	406.19
455.514	505.19
455.734	469.19
455.955	409.19
456.175	367.19
456.395	368.19
456.616	374.19
456.836	361.19
457.056	359.19
457.276	358.19
457.497	363.19
457.717	379.19
457.937	380.19
458.157	375.19
458.377	380.19
458.598	389.19
458.818	454.19
459.038	552.19
459.258	586.19
459.478	481.19
459.698	424.19
459.918	380.19
460.138	384.19
460.358	404.19
460.578	416.19
460.798	410.19
461.018	400.19
461.238	389.19
461.458	378.19
461.678	382.19
461.898	397.19
462.118	397.19
462.338	399.19
462.558	393.19
462.777	406.19
462.997	402.19
463.217	398.19
463.437	416.19
463.657	400.19
463.876	412.19
464.096	410.19
464.316	408.19
464.536	429.19
464.755	412.19
464.975	429.19
465.195	493.19
465.414	546.19
465.634	479.19
465.854	442.19
466.073	426.19
466.293	397.19
466.512	385.19
466.732	380.19
466.951	376.19
467.171	393.19
467.391	421.19
467.61	383.19
467.829	411.19
468.049	404.19
468.268	417.19
468.488	383.19
468.707	384.19
468.927	375.19
469.146	375.19
469.365	388.19
469.585	379.19
469.804	372.19
470.023	418.19
470.243	401.19
470.462	398.19
470.681	424.19
470.901	426.19
471.12	395.19
471.339	396.19
471.558	391.19
471.777	413.19
471.997	406.19
472.216	398.19
472.435	438.19
472.654	436.19
472.873	397.19
473.092	410.19
473.311	392.19
473.53	412.19
473.749	437.19
473.968	463.19
474.187	571.19
474.406	613.19
474.625	456.19
474.844	443.19
475.063	422.19
475.282	398.19
475.501	399.19
475.72	419.19
475.939	416.19
476.158	396.19
476.377	412.19
476.596	397.19
476.814	416.19
477.033	418.19
477.252	426.19
477.471	428.19
477.69	422.19
477.908	433.19
478.127	433.19
478.346	437.19
478.564	428.19
478.783	425.19
479.002	462.19
479.22	444.19
479.439	458.19
479.658	485.19
479.876	478.19
480.095	495.19
480.313	508.19
480.532	491.19
480.751	484.19
480.969	513.19
481.188	558.19
481.406	583.19
481.624	532.19
481.843	484.19
482.061	498.19
482.28	472.19
482.498	473.19
482.717	470.19
482.935	468.19
483.153	452.19
483.372	478.19
483.59	482.19
483.808	477.19
484.027	470.19
484.245	490.19
484.463	465.19
484.681	479.19
484.9	466.19
485.118	470.19
485.336	476.19
485.554	473.19
485.772	476.19
485.99	473.19
486.209	478.19
486.427	484.19
486.645	514.19
486.863	492.19
487.081	516.19
487.299	529.19
487.517	503.19
487.735	479.19
487.953	517.19
488.171	514.19
488.389	505.19
488.607	508.19
488.825	496.19
489.043	514.19
489.261	488.19
489.479	502.19
489.696	505.19
489.914	523.19
490.132	536.19
490.35	532.19
490.568	525.19
490.786	536.19
491.003	562.19
491.221	556.19
491.439	586.19
491.657	580.19
491.874	566.19
492.092	585.19
492.31	586.19
492.527	569.19
492.745	595.19
492.963	583.19
493.18	616.19
493.398	590.19
493.615	578.19
493.833	597.19
494.05	606.19
494.268	619.19
494.485	612.19
494.703	614.19
494.92	589.19
495.138	590.19
495.355	622.19
495.573	613.19
495.79	599.19
496.008	595.19
496.225	603.19
496.442	593.19
496.66	615.19
496.877	600.19
497.094	604.19
497.312	616.19
497.529	610.19
497.746	623.19
497.963	628.19
498.181	640.19
498.398	650.19
498.615	638.19
498.832	645.19
499.049	646.19
499.267	651.19
499.484	657.19
499.701	673.19
499.918	661.19
500.135	685.19
500.352	702.19
500.569	737.19
500.786	737.19
501.003	733.19
501.22	712.19
501.437	700.19
501.654	726.19
501.871	721.19
