Data from 1981.PennyLincolnUp.Lamp.En5.5.200Scan.071819.P1_HRD10591_16-42-12-959.txt Node
Date: Thu Jul 18 16:42:12 EDT 2019
User: cochatt
Spectrometer: HR+D1059
Trigger mode: 1
Integration Time (sec): 1.000000E-1
Scans to average: 1
Electric dark correction enabled: true
Nonlinearity correction enabled: false
Boxcar width: 0
XAxis mode: Wavelengths
Number of Pixels in Spectrum: 2048
>>>>>Begin Spectral Data<<<<<
223.165	-12.12
223.4	-12.12
223.635	-12.12
223.869	-13.12
224.104	-14.12
224.338	-11.12
224.573	-12.12
224.808	-17.12
225.042	-7.12
225.277	0.88
225.511	-0.12
225.746	2.88
225.98	-7.12
226.215	16.88
226.449	-0.12
226.683	20.88
226.918	26.88
227.152	25.88
227.387	38.88
227.621	35.88
227.856	29.88
228.09	41.88
228.324	50.88
228.559	53.88
228.793	71.88
229.027	94.88
229.262	114.88
229.496	122.88
229.73	128.88
229.964	154.88
230.199	132.88
230.433	117.88
230.667	104.88
230.901	124.88
231.136	98.88
231.37	109.88
231.604	118.88
231.838	108.88
232.072	103.88
232.306	119.88
232.541	116.88
232.775	120.88
233.009	110.88
233.243	109.88
233.477	104.88
233.711	116.88
233.945	124.88
234.179	123.88
234.413	117.88
234.647	114.88
234.881	104.88
235.115	104.88
235.349	104.88
235.583	108.88
235.817	115.88
236.051	132.88
236.285	127.88
236.519	126.88
236.753	128.88
236.987	141.88
237.221	170.88
237.455	230.88
237.689	200.88
237.922	132.88
238.156	125.88
238.39	133.88
238.624	142.88
238.858	115.88
239.091	119.88
239.325	117.88
239.559	126.88
239.793	122.88
240.027	129.88
240.26	137.88
240.494	164.88
240.728	156.88
240.961	146.88
241.195	130.88
241.429	131.88
241.662	133.88
241.896	144.88
242.13	122.88
242.363	123.88
242.597	124.88
242.83	148.88
243.064	131.88
243.298	144.88
243.531	146.88
243.765	127.88
243.998	141.88
244.232	156.88
244.465	142.88
244.699	123.88
244.932	133.88
245.166	144.88
245.399	151.88
245.633	152.88
245.866	139.88
246.099	144.88
246.333	141.88
246.566	160.88
246.8	148.88
247.033	144.88
247.266	139.88
247.5	152.88
247.733	164.88
247.966	164.88
248.2	189.88
248.433	166.88
248.666	167.88
248.899	199.88
249.133	196.88
249.366	215.88
249.599	212.88
249.832	200.88
250.066	191.88
250.299	194.88
250.532	189.88
250.765	204.88
250.998	226.88
251.231	221.88
251.465	211.88
251.698	227.88
251.931	206.88
252.164	193.88
252.397	192.88
252.63	198.88
252.863	201.88
253.096	212.88
253.329	220.88
253.562	222.88
253.795	219.88
254.028	228.88
254.261	238.88
254.494	233.88
254.727	270.88
254.96	285.88
255.193	281.88
255.426	256.88
255.659	236.88
255.892	245.88
256.124	230.88
256.357	226.88
256.59	241.88
256.823	240.88
257.056	226.88
257.289	224.88
257.521	210.88
257.754	203.88
257.987	217.88
258.22	225.88
258.452	210.88
258.685	197.88
258.918	208.88
259.151	207.88
259.383	225.88
259.616	231.88
259.849	235.88
260.081	238.88
260.314	258.88
260.547	254.88
260.779	269.88
261.012	234.88
261.244	221.88
261.477	233.88
261.71	225.88
261.942	220.88
262.175	222.88
262.407	231.88
262.64	219.88
262.872	228.88
263.105	228.88
263.337	205.88
263.57	223.88
263.802	222.88
264.035	205.88
264.267	214.88
264.499	212.88
264.732	228.88
264.964	221.88
265.197	198.88
265.429	205.88
265.661	230.88
265.894	202.88
266.126	204.88
266.358	224.88
266.591	228.88
266.823	226.88
267.055	229.88
267.287	222.88
267.52	214.88
267.752	220.88
267.984	231.88
268.216	219.88
268.448	234.88
268.681	248.88
268.913	230.88
269.145	251.88
269.377	286.88
269.609	282.88
269.841	282.88
270.073	270.88
270.306	291.88
270.538	322.88
270.77	326.88
271.002	304.88
271.234	296.88
271.466	291.88
271.698	308.88
271.93	340.88
272.162	333.88
272.394	331.88
272.626	321.88
272.858	294.88
273.09	289.88
273.322	269.88
273.553	279.88
273.785	256.88
274.017	271.88
274.249	280.88
274.481	283.88
274.713	264.88
274.945	275.88
275.176	263.88
275.408	270.88
275.64	271.88
275.872	258.88
276.104	274.88
276.335	277.88
276.567	282.88
276.799	276.88
277.031	307.88
277.262	332.88
277.494	323.88
277.726	307.88
277.957	297.88
278.189	300.88
278.421	289.88
278.652	252.88
278.884	287.88
279.115	276.88
279.347	271.88
279.579	276.88
279.81	270.88
280.042	282.88
280.273	278.88
280.505	277.88
280.736	253.88
280.968	269.88
281.199	253.88
281.431	264.88
281.662	243.88
281.894	281.88
282.125	282.88
282.356	279.88
282.588	302.88
282.819	306.88
283.051	286.88
283.282	264.88
283.513	300.88
283.745	280.88
283.976	274.88
284.207	287.88
284.439	276.88
284.67	289.88
284.901	292.88
285.132	271.88
285.364	262.88
285.595	280.88
285.826	262.88
286.057	258.88
286.288	263.88
286.52	264.88
286.751	275.88
286.982	270.88
287.213	279.88
287.444	276.88
287.675	292.88
287.906	296.88
288.138	281.88
288.369	313.88
288.6	290.88
288.831	292.88
289.062	284.88
289.293	266.88
289.524	273.88
289.755	285.88
289.986	271.88
290.217	281.88
290.448	278.88
290.679	279.88
290.91	288.88
291.141	274.88
291.371	285.88
291.602	273.88
291.833	278.88
292.064	294.88
292.295	280.88
292.526	271.88
292.757	269.88
292.987	280.88
293.218	280.88
293.449	284.88
293.68	260.88
293.91	282.88
294.141	279.88
294.372	280.88
294.603	274.88
294.833	271.88
295.064	267.88
295.295	296.88
295.525	294.88
295.756	307.88
295.987	289.88
296.217	306.88
296.448	318.88
296.679	308.88
296.909	281.88
297.14	282.88
297.37	284.88
297.601	301.88
297.831	295.88
298.062	291.88
298.292	300.88
298.523	290.88
298.753	267.88
298.984	282.88
299.214	296.88
299.445	297.88
299.675	307.88
299.905	293.88
300.136	314.88
300.366	286.88
300.597	314.88
300.827	322.88
301.057	327.88
301.288	308.88
301.518	312.88
301.748	308.88
301.979	315.88
302.209	310.88
302.439	312.88
302.669	312.88
302.9	312.88
303.13	317.88
303.36	312.88
303.59	328.88
303.82	330.88
304.051	314.88
304.281	307.88
304.511	314.88
304.741	304.88
304.971	330.88
305.201	311.88
305.431	317.88
305.661	330.88
305.891	337.88
306.121	337.88
306.352	318.88
306.582	310.88
306.812	326.88
307.042	337.88
307.272	333.88
307.502	319.88
307.731	314.88
307.961	347.88
308.191	340.88
308.421	333.88
308.651	318.88
308.881	337.88
309.111	333.88
309.341	333.88
309.571	346.88
309.8	351.88
310.03	372.88
310.26	367.88
310.49	379.88
310.72	393.88
310.949	378.88
311.179	400.88
311.409	386.88
311.639	388.88
311.868	375.88
312.098	393.88
312.328	392.88
312.557	413.88
312.787	390.88
313.017	395.88
313.246	399.88
313.476	377.88
313.706	370.88
313.935	383.88
314.165	389.88
314.394	381.88
314.624	412.88
314.853	417.88
315.083	372.88
315.312	382.88
315.542	376.88
315.771	372.88
316.001	380.88
316.23	358.88
316.46	368.88
316.689	371.88
316.919	365.88
317.148	366.88
317.377	389.88
317.607	388.88
317.836	386.88
318.065	388.88
318.295	361.88
318.524	372.88
318.753	370.88
318.983	374.88
319.212	387.88
319.441	389.88
319.67	375.88
319.9	380.88
320.129	373.88
320.358	358.88
320.587	377.88
320.816	381.88
321.046	409.88
321.275	398.88
321.504	404.88
321.733	409.88
321.962	394.88
322.191	423.88
322.42	432.88
322.649	456.88
322.878	459.88
323.108	471.88
323.337	501.88
323.566	516.88
323.795	569.88
324.024	621.88
324.253	783.88
324.482	1123.88
324.71	1718.88
324.939	2296.88
325.168	1993.88
325.397	1060.88
325.626	723.88
325.855	568.88
326.084	537.88
326.313	541.88
326.542	553.88
326.77	597.88
326.999	723.88
327.228	1004.88
327.457	1446.88
327.686	1735.88
327.914	1170.88
328.143	760.88
328.372	677.88
328.6	636.88
328.829	589.88
329.058	581.88
329.287	626.88
329.515	582.88
329.744	521.88
329.972	511.88
330.201	539.88
330.43	578.88
330.658	596.88
330.887	620.88
331.115	618.88
331.344	503.88
331.572	490.88
331.801	475.88
332.03	514.88
332.258	469.88
332.486	451.88
332.715	437.88
332.943	450.88
333.172	458.88
333.4	439.88
333.629	443.88
333.857	455.88
334.085	449.88
334.314	477.88
334.542	509.88
334.771	510.88
334.999	485.88
335.227	450.88
335.455	428.88
335.684	456.88
335.912	425.88
336.14	421.88
336.369	435.88
336.597	428.88
336.825	418.88
337.053	432.88
337.281	423.88
337.51	426.88
337.738	425.88
337.966	417.88
338.194	411.88
338.422	435.88
338.65	422.88
338.878	418.88
339.106	388.88
339.334	417.88
339.562	425.88
339.79	417.88
340.018	416.88
340.246	402.88
340.474	410.88
340.702	411.88
340.93	391.88
341.158	398.88
341.386	410.88
341.614	402.88
341.842	412.88
342.07	409.88
342.298	419.88
342.526	409.88
342.754	384.88
342.981	378.88
343.209	392.88
343.437	376.88
343.665	413.88
343.893	400.88
344.12	402.88
344.348	403.88
344.576	411.88
344.804	406.88
345.031	416.88
345.259	413.88
345.487	429.88
345.714	401.88
345.942	412.88
346.17	407.88
346.397	413.88
346.625	398.88
346.853	414.88
347.08	399.88
347.308	406.88
347.535	388.88
347.763	419.88
347.99	386.88
348.218	415.88
348.445	394.88
348.673	402.88
348.9	425.88
349.128	414.88
349.355	397.88
349.583	377.88
349.81	388.88
350.037	374.88
350.265	365.88
350.492	388.88
350.72	388.88
350.947	374.88
351.174	397.88
351.402	406.88
351.629	416.88
351.856	403.88
352.083	404.88
352.311	419.88
352.538	396.88
352.765	425.88
352.992	412.88
353.22	414.88
353.447	377.88
353.674	393.88
353.901	365.88
354.128	395.88
354.355	364.88
354.583	372.88
354.81	371.88
355.037	355.88
355.264	350.88
355.491	343.88
355.718	356.88
355.945	370.88
356.172	358.88
356.399	360.88
356.626	363.88
356.853	348.88
357.08	358.88
357.307	356.88
357.534	353.88
357.761	364.88
357.988	376.88
358.215	349.88
358.441	361.88
358.668	345.88
358.895	357.88
359.122	353.88
359.349	379.88
359.576	394.88
359.802	414.88
360.029	449.88
360.256	440.88
360.483	424.88
360.709	394.88
360.936	390.88
361.163	395.88
361.39	377.88
361.616	384.88
361.843	370.88
362.07	402.88
362.296	403.88
362.523	386.88
362.749	375.88
362.976	353.88
363.203	357.88
363.429	384.88
363.656	378.88
363.882	354.88
364.109	369.88
364.335	378.88
364.562	372.88
364.788	355.88
365.015	347.88
365.241	356.88
365.468	365.88
365.694	375.88
365.92	364.88
366.147	362.88
366.373	370.88
366.599	372.88
366.826	373.88
367.052	373.88
367.278	351.88
367.505	366.88
367.731	363.88
367.957	374.88
368.184	356.88
368.41	349.88
368.636	363.88
368.862	377.88
369.089	374.88
369.315	349.88
369.541	345.88
369.767	354.88
369.993	353.88
370.219	334.88
370.445	328.88
370.672	349.88
370.898	344.88
371.124	340.88
371.35	324.88
371.576	344.88
371.802	360.88
372.028	345.88
372.254	345.88
372.48	338.88
372.706	353.88
372.932	333.88
373.158	351.88
373.384	347.88
373.61	339.88
373.835	344.88
374.061	343.88
374.287	345.88
374.513	352.88
374.739	341.88
374.965	357.88
375.191	350.88
375.416	343.88
375.642	348.88
375.868	336.88
376.094	351.88
376.319	330.88
376.545	345.88
376.771	341.88
376.997	338.88
377.222	334.88
377.448	340.88
377.674	352.88
377.899	348.88
378.125	332.88
378.35	332.88
378.576	334.88
378.802	326.88
379.027	328.88
379.253	343.88
379.478	353.88
379.704	338.88
379.929	339.88
380.155	340.88
380.38	354.88
380.606	353.88
380.831	337.88
381.057	341.88
381.282	344.88
381.507	348.88
381.733	354.88
381.958	334.88
382.184	333.88
382.409	329.88
382.634	349.88
382.86	354.88
383.085	343.88
383.31	360.88
383.535	339.88
383.761	345.88
383.986	355.88
384.211	354.88
384.436	346.88
384.662	362.88
384.887	342.88
385.112	349.88
385.337	351.88
385.562	368.88
385.787	365.88
386.013	352.88
386.238	359.88
386.463	359.88
386.688	368.88
386.913	339.88
387.138	344.88
387.363	363.88
387.588	357.88
387.813	365.88
388.038	336.88
388.263	355.88
388.488	353.88
388.713	345.88
388.938	350.88
389.163	362.88
389.387	365.88
389.612	352.88
389.837	361.88
390.062	326.88
390.287	358.88
390.512	361.88
390.736	364.88
390.961	339.88
391.186	342.88
391.411	349.88
391.636	364.88
391.86	373.88
392.085	376.88
392.31	359.88
392.534	369.88
392.759	360.88
392.984	352.88
393.208	347.88
393.433	359.88
393.658	328.88
393.882	344.88
394.107	348.88
394.331	352.88
394.556	369.88
394.78	361.88
395.005	359.88
395.229	362.88
395.454	347.88
395.678	362.88
395.903	383.88
396.127	394.88
396.352	403.88
396.576	360.88
396.801	365.88
397.025	359.88
397.249	368.88
397.474	355.88
397.698	374.88
397.922	390.88
398.147	385.88
398.371	418.88
398.595	388.88
398.82	395.88
399.044	401.88
399.268	386.88
399.492	404.88
399.717	443.88
399.941	457.88
400.165	487.88
400.389	476.88
400.613	436.88
400.837	409.88
401.062	427.88
401.286	382.88
401.51	398.88
401.734	414.88
401.958	367.88
402.182	408.88
402.406	401.88
402.63	427.88
402.854	414.88
403.078	395.88
403.302	417.88
403.526	411.88
403.75	394.88
403.974	404.88
404.198	403.88
404.422	411.88
404.645	428.88
404.869	433.88
405.093	450.88
405.317	487.88
405.541	496.88
405.765	466.88
405.988	450.88
406.212	455.88
406.436	457.88
406.66	481.88
406.883	461.88
407.107	459.88
407.331	484.88
407.555	540.88
407.778	533.88
408.002	485.88
408.226	439.88
408.449	452.88
408.673	451.88
408.896	466.88
409.12	498.88
409.344	473.88
409.567	423.88
409.791	426.88
410.014	419.88
410.238	406.88
410.461	413.88
410.685	436.88
410.908	429.88
411.132	479.88
411.355	488.88
411.578	482.88
411.802	447.88
412.025	410.88
412.249	417.88
412.472	449.88
412.695	476.88
412.919	461.88
413.142	428.88
413.365	397.88
413.589	391.88
413.812	390.88
414.035	403.88
414.258	402.88
414.482	398.88
414.705	387.88
414.928	380.88
415.151	380.88
415.374	408.88
415.597	382.88
415.821	384.88
416.044	369.88
416.267	384.88
416.49	376.88
416.713	386.88
416.936	383.88
417.159	382.88
417.382	404.88
417.605	405.88
417.828	416.88
418.051	427.88
418.274	407.88
418.497	377.88
418.72	385.88
418.943	371.88
419.166	389.88
419.389	411.88
419.611	413.88
419.834	405.88
420.057	411.88
420.28	404.88
420.503	411.88
420.726	398.88
420.948	403.88
421.171	449.88
421.394	503.88
421.617	450.88
421.839	408.88
422.062	416.88
422.285	437.88
422.507	484.88
422.73	542.88
422.953	497.88
423.175	452.88
423.398	414.88
423.621	406.88
423.843	448.88
424.066	443.88
424.288	437.88
424.511	452.88
424.733	497.88
424.956	570.88
425.178	552.88
425.401	562.88
425.623	555.88
425.846	494.88
426.068	452.88
426.291	457.88
426.513	470.88
426.735	451.88
426.958	511.88
427.18	565.88
427.402	658.88
427.625	747.88
427.847	675.88
428.069	571.88
428.292	501.88
428.514	470.88
428.736	436.88
428.958	427.88
429.181	420.88
429.403	412.88
429.625	427.88
429.847	454.88
430.069	537.88
430.292	490.88
430.514	444.88
430.736	419.88
430.958	392.88
431.18	391.88
431.402	398.88
431.624	383.88
431.846	384.88
432.068	389.88
432.29	377.88
432.512	384.88
432.734	392.88
432.956	393.88
433.178	396.88
433.4	412.88
433.622	397.88
433.844	378.88
434.066	382.88
434.287	372.88
434.509	402.88
434.731	395.88
434.953	406.88
435.175	401.88
435.397	458.88
435.618	462.88
435.84	486.88
436.062	570.88
436.284	613.88
436.505	524.88
436.727	456.88
436.949	451.88
437.17	425.88
437.392	416.88
437.614	411.88
437.835	479.88
438.057	566.88
438.278	651.88
438.5	643.88
438.721	672.88
438.943	645.88
439.165	528.88
439.386	472.88
439.608	468.88
439.829	457.88
440.05	516.88
440.272	532.88
440.493	505.88
440.715	436.88
440.936	434.88
441.158	421.88
441.379	422.88
441.6	424.88
441.822	453.88
442.043	484.88
442.264	572.88
442.486	601.88
442.707	519.88
442.928	466.88
443.149	463.88
443.371	475.88
443.592	518.88
443.813	594.88
444.034	646.88
444.255	570.88
444.476	473.88
444.698	465.88
444.919	446.88
445.14	586.88
445.361	522.88
445.582	501.88
445.803	559.88
446.024	657.88
446.245	648.88
446.466	580.88
446.687	495.88
446.908	455.88
447.129	425.88
447.35	437.88
447.571	440.88
447.792	411.88
448.013	438.88
448.234	438.88
448.455	508.88
448.675	562.88
448.896	671.88
449.117	600.88
449.338	564.88
449.559	644.88
449.779	698.88
450	573.88
450.221	459.88
450.442	430.88
450.662	431.88
450.883	428.88
451.104	441.88
451.324	418.88
451.545	403.88
451.766	404.88
451.986	386.88
452.207	379.88
452.428	357.88
452.648	368.88
452.869	376.88
453.089	387.88
453.31	412.88
453.53	374.88
453.751	379.88
453.971	369.88
454.192	398.88
454.412	392.88
454.633	349.88
454.853	356.88
455.073	385.88
455.294	404.88
455.514	458.88
455.734	461.88
455.955	385.88
456.175	378.88
456.395	341.88
456.616	350.88
456.836	347.88
457.056	355.88
457.276	352.88
457.497	349.88
457.717	353.88
457.937	360.88
458.157	369.88
458.377	344.88
458.598	384.88
458.818	462.88
459.038	517.88
459.258	524.88
459.478	424.88
459.698	413.88
459.918	393.88
460.138	365.88
460.358	363.88
460.578	382.88
460.798	384.88
461.018	381.88
461.238	378.88
461.458	374.88
461.678	357.88
461.898	378.88
462.118	382.88
462.338	364.88
462.558	384.88
462.777	402.88
462.997	401.88
463.217	404.88
463.437	428.88
463.657	421.88
463.876	370.88
464.096	386.88
464.316	421.88
464.536	393.88
464.755	385.88
464.975	421.88
465.195	442.88
465.414	532.88
465.634	474.88
465.854	426.88
466.073	397.88
466.293	378.88
466.512	368.88
466.732	368.88
466.951	381.88
467.171	362.88
467.391	378.88
467.61	380.88
467.829	408.88
468.049	376.88
468.268	402.88
468.488	387.88
468.707	360.88
468.927	372.88
469.146	341.88
469.365	356.88
469.585	337.88
469.804	392.88
470.023	384.88
470.243	389.88
470.462	396.88
470.681	404.88
470.901	399.88
471.12	372.88
471.339	375.88
471.558	379.88
471.777	383.88
471.997	381.88
472.216	384.88
472.435	406.88
472.654	408.88
472.873	380.88
473.092	368.88
473.311	376.88
473.53	378.88
473.749	412.88
473.968	462.88
474.187	546.88
474.406	572.88
474.625	452.88
474.844	410.88
475.063	389.88
475.282	391.88
475.501	388.88
475.72	396.88
475.939	397.88
476.158	412.88
476.377	380.88
476.596	382.88
476.814	385.88
477.033	417.88
477.252	416.88
477.471	396.88
477.69	418.88
477.908	390.88
478.127	419.88
478.346	409.88
478.564	399.88
478.783	407.88
479.002	424.88
479.22	419.88
479.439	462.88
479.658	437.88
479.876	465.88
480.095	466.88
480.313	492.88
480.532	478.88
480.751	453.88
480.969	481.88
481.188	534.88
481.406	567.88
481.624	485.88
481.843	477.88
482.061	461.88
482.28	444.88
482.498	423.88
482.717	430.88
482.935	424.88
483.153	449.88
483.372	444.88
483.59	437.88
483.808	465.88
484.027	438.88
484.245	427.88
484.463	459.88
484.681	471.88
484.9	461.88
485.118	458.88
485.336	458.88
485.554	462.88
485.772	459.88
485.99	473.88
486.209	470.88
486.427	476.88
486.645	459.88
486.863	503.88
487.081	482.88
487.299	485.88
487.517	460.88
487.735	472.88
487.953	468.88
488.171	497.88
488.389	477.88
488.607	471.88
488.825	482.88
489.043	504.88
489.261	482.88
489.479	491.88
489.696	482.88
489.914	502.88
490.132	482.88
490.35	516.88
490.568	478.88
490.786	510.88
491.003	509.88
491.221	534.88
491.439	528.88
491.657	542.88
491.874	549.88
492.092	546.88
492.31	577.88
492.527	553.88
492.745	559.88
492.963	549.88
493.18	562.88
493.398	536.88
493.615	561.88
493.833	544.88
494.05	556.88
494.268	569.88
494.485	539.88
494.703	565.88
494.92	550.88
495.138	577.88
495.355	560.88
495.573	573.88
495.79	586.88
496.008	563.88
496.225	574.88
496.442	566.88
496.66	594.88
496.877	557.88
497.094	573.88
497.312	556.88
497.529	590.88
497.746	582.88
497.963	589.88
498.181	609.88
498.398	620.88
498.615	631.88
498.832	634.88
499.049	610.88
499.267	630.88
499.484	661.88
499.701	647.88
499.918	658.88
500.135	669.88
500.352	686.88
500.569	706.88
500.786	688.88
501.003	704.88
501.22	698.88
501.437	668.88
501.654	696.88
501.871	672.88
