Data from 1981.PennyLincolnUp.Lamp.En5.5.200Scan.071819.P1_HRD10591_16-41-46-959.txt Node
Date: Thu Jul 18 16:41:46 EDT 2019
User: cochatt
Spectrometer: HR+D1059
Trigger mode: 1
Integration Time (sec): 1.000000E-1
Scans to average: 1
Electric dark correction enabled: true
Nonlinearity correction enabled: false
Boxcar width: 0
XAxis mode: Wavelengths
Number of Pixels in Spectrum: 2048
>>>>>Begin Spectral Data<<<<<
223.165	-15.25
223.4	-15.25
223.635	-15.25
223.869	-27.25
224.104	-30.25
224.338	-20.25
224.573	-14.25
224.808	-5.25
225.042	-14.25
225.277	-11.25
225.511	-8.25
225.746	5.75
225.98	7.75
226.215	20.75
226.449	11.75
226.683	29.75
226.918	25.75
227.152	44.75
227.387	54.75
227.621	25.75
227.856	26.75
228.09	57.75
228.324	49.75
228.559	44.75
228.793	60.75
229.027	109.75
229.262	117.75
229.496	110.75
229.73	123.75
229.964	154.75
230.199	134.75
230.433	109.75
230.667	99.75
230.901	96.75
231.136	119.75
231.37	115.75
231.604	112.75
231.838	110.75
232.072	121.75
232.306	126.75
232.541	116.75
232.775	101.75
233.009	109.75
233.243	108.75
233.477	113.75
233.711	112.75
233.945	116.75
234.179	122.75
234.413	129.75
234.647	105.75
234.881	117.75
235.115	110.75
235.349	120.75
235.583	121.75
235.817	107.75
236.051	128.75
236.285	131.75
236.519	137.75
236.753	140.75
236.987	152.75
237.221	176.75
237.455	225.75
237.689	199.75
237.922	142.75
238.156	148.75
238.39	126.75
238.624	125.75
238.858	135.75
239.091	126.75
239.325	115.75
239.559	111.75
239.793	146.75
240.027	141.75
240.26	142.75
240.494	173.75
240.728	152.75
240.961	149.75
241.195	138.75
241.429	151.75
241.662	130.75
241.896	124.75
242.13	130.75
242.363	132.75
242.597	123.75
242.83	152.75
243.064	144.75
243.298	142.75
243.531	128.75
243.765	150.75
243.998	159.75
244.232	135.75
244.465	157.75
244.699	155.75
244.932	142.75
245.166	142.75
245.399	151.75
245.633	156.75
245.866	177.75
246.099	141.75
246.333	160.75
246.566	149.75
246.8	134.75
247.033	145.75
247.266	140.75
247.5	179.75
247.733	174.75
247.966	160.75
248.2	170.75
248.433	182.75
248.666	176.75
248.899	186.75
249.133	205.75
249.366	203.75
249.599	201.75
249.832	201.75
250.066	187.75
250.299	186.75
250.532	197.75
250.765	206.75
250.998	235.75
251.231	222.75
251.465	218.75
251.698	215.75
251.931	220.75
252.164	198.75
252.397	212.75
252.63	204.75
252.863	227.75
253.096	216.75
253.329	234.75
253.562	239.75
253.795	242.75
254.028	226.75
254.261	244.75
254.494	232.75
254.727	276.75
254.96	304.75
255.193	290.75
255.426	254.75
255.659	250.75
255.892	236.75
256.124	240.75
256.357	227.75
256.59	225.75
256.823	235.75
257.056	233.75
257.289	230.75
257.521	231.75
257.754	220.75
257.987	219.75
258.22	217.75
258.452	218.75
258.685	221.75
258.918	208.75
259.151	208.75
259.383	214.75
259.616	232.75
259.849	257.75
260.081	250.75
260.314	274.75
260.547	268.75
260.779	248.75
261.012	242.75
261.244	239.75
261.477	231.75
261.71	260.75
261.942	240.75
262.175	229.75
262.407	243.75
262.64	240.75
262.872	229.75
263.105	220.75
263.337	219.75
263.57	220.75
263.802	220.75
264.035	224.75
264.267	241.75
264.499	219.75
264.732	196.75
264.964	201.75
265.197	219.75
265.429	221.75
265.661	225.75
265.894	234.75
266.126	230.75
266.358	228.75
266.591	225.75
266.823	232.75
267.055	217.75
267.287	215.75
267.52	226.75
267.752	242.75
267.984	233.75
268.216	221.75
268.448	244.75
268.681	250.75
268.913	269.75
269.145	276.75
269.377	309.75
269.609	277.75
269.841	281.75
270.073	291.75
270.306	297.75
270.538	335.75
270.77	340.75
271.002	328.75
271.234	330.75
271.466	320.75
271.698	328.75
271.93	322.75
272.162	319.75
272.394	328.75
272.626	335.75
272.858	316.75
273.09	289.75
273.322	307.75
273.553	300.75
273.785	291.75
274.017	279.75
274.249	273.75
274.481	285.75
274.713	283.75
274.945	283.75
275.176	292.75
275.408	261.75
275.64	269.75
275.872	277.75
276.104	262.75
276.335	288.75
276.567	307.75
276.799	327.75
277.031	306.75
277.262	333.75
277.494	335.75
277.726	328.75
277.957	323.75
278.189	296.75
278.421	285.75
278.652	276.75
278.884	277.75
279.115	282.75
279.347	276.75
279.579	277.75
279.81	309.75
280.042	265.75
280.273	281.75
280.505	270.75
280.736	282.75
280.968	292.75
281.199	268.75
281.431	270.75
281.662	272.75
281.894	275.75
282.125	280.75
282.356	293.75
282.588	316.75
282.819	325.75
283.051	283.75
283.282	294.75
283.513	283.75
283.745	282.75
283.976	288.75
284.207	283.75
284.439	287.75
284.67	293.75
284.901	287.75
285.132	284.75
285.364	290.75
285.595	285.75
285.826	289.75
286.057	296.75
286.288	286.75
286.52	290.75
286.751	280.75
286.982	276.75
287.213	280.75
287.444	302.75
287.675	285.75
287.906	293.75
288.138	305.75
288.369	298.75
288.6	304.75
288.831	308.75
289.062	298.75
289.293	293.75
289.524	292.75
289.755	291.75
289.986	281.75
290.217	281.75
290.448	294.75
290.679	296.75
290.91	305.75
291.141	295.75
291.371	294.75
291.602	289.75
291.833	290.75
292.064	297.75
292.295	281.75
292.526	290.75
292.757	297.75
292.987	283.75
293.218	286.75
293.449	297.75
293.68	297.75
293.91	274.75
294.141	298.75
294.372	282.75
294.603	305.75
294.833	283.75
295.064	284.75
295.295	278.75
295.525	302.75
295.756	300.75
295.987	306.75
296.217	326.75
296.448	349.75
296.679	314.75
296.909	290.75
297.14	316.75
297.37	293.75
297.601	296.75
297.831	298.75
298.062	304.75
298.292	305.75
298.523	299.75
298.753	307.75
298.984	290.75
299.214	309.75
299.445	312.75
299.675	330.75
299.905	321.75
300.136	306.75
300.366	314.75
300.597	307.75
300.827	314.75
301.057	314.75
301.288	324.75
301.518	337.75
301.748	324.75
301.979	328.75
302.209	328.75
302.439	325.75
302.669	323.75
302.9	320.75
303.13	333.75
303.36	337.75
303.59	330.75
303.82	349.75
304.051	347.75
304.281	331.75
304.511	318.75
304.741	340.75
304.971	323.75
305.201	321.75
305.431	335.75
305.661	346.75
305.891	327.75
306.121	338.75
306.352	315.75
306.582	322.75
306.812	329.75
307.042	338.75
307.272	345.75
307.502	325.75
307.731	339.75
307.961	344.75
308.191	356.75
308.421	346.75
308.651	357.75
308.881	350.75
309.111	355.75
309.341	358.75
309.571	376.75
309.8	382.75
310.03	388.75
310.26	396.75
310.49	386.75
310.72	394.75
310.949	416.75
311.179	395.75
311.409	385.75
311.639	394.75
311.868	402.75
312.098	390.75
312.328	397.75
312.557	423.75
312.787	402.75
313.017	396.75
313.246	402.75
313.476	383.75
313.706	375.75
313.935	392.75
314.165	404.75
314.394	402.75
314.624	401.75
314.853	396.75
315.083	391.75
315.312	383.75
315.542	379.75
315.771	362.75
316.001	379.75
316.23	385.75
316.46	382.75
316.689	392.75
316.919	388.75
317.148	390.75
317.377	411.75
317.607	412.75
317.836	386.75
318.065	388.75
318.295	389.75
318.524	390.75
318.753	391.75
318.983	380.75
319.212	386.75
319.441	395.75
319.67	408.75
319.9	368.75
320.129	406.75
320.358	384.75
320.587	379.75
320.816	416.75
321.046	418.75
321.275	424.75
321.504	421.75
321.733	405.75
321.962	408.75
322.191	435.75
322.42	438.75
322.649	461.75
322.878	478.75
323.108	497.75
323.337	532.75
323.566	555.75
323.795	590.75
324.024	648.75
324.253	809.75
324.482	1174.75
324.71	1738.75
324.939	2405.75
325.168	2048.75
325.397	1079.75
325.626	749.75
325.855	589.75
326.084	580.75
326.313	534.75
326.542	562.75
326.77	618.75
326.999	762.75
327.228	1055.75
327.457	1544.75
327.686	1846.75
327.914	1216.75
328.143	826.75
328.372	683.75
328.6	650.75
328.829	637.75
329.058	620.75
329.287	636.75
329.515	597.75
329.744	555.75
329.972	538.75
330.201	566.75
330.43	601.75
330.658	625.75
330.887	637.75
331.115	637.75
331.344	553.75
331.572	510.75
331.801	514.75
332.03	494.75
332.258	475.75
332.486	468.75
332.715	450.75
332.943	462.75
333.172	466.75
333.4	444.75
333.629	441.75
333.857	477.75
334.085	489.75
334.314	501.75
334.542	542.75
334.771	536.75
334.999	499.75
335.227	466.75
335.455	427.75
335.684	442.75
335.912	422.75
336.14	417.75
336.369	442.75
336.597	436.75
336.825	452.75
337.053	445.75
337.281	433.75
337.51	448.75
337.738	450.75
337.966	425.75
338.194	451.75
338.422	447.75
338.65	425.75
338.878	412.75
339.106	410.75
339.334	425.75
339.562	418.75
339.79	416.75
340.018	422.75
340.246	424.75
340.474	433.75
340.702	420.75
340.93	404.75
341.158	438.75
341.386	408.75
341.614	432.75
341.842	408.75
342.07	420.75
342.298	397.75
342.526	400.75
342.754	426.75
342.981	399.75
343.209	392.75
343.437	407.75
343.665	405.75
343.893	420.75
344.12	423.75
344.348	413.75
344.576	433.75
344.804	449.75
345.031	434.75
345.259	438.75
345.487	428.75
345.714	435.75
345.942	418.75
346.17	408.75
346.397	420.75
346.625	399.75
346.853	398.75
347.08	414.75
347.308	432.75
347.535	434.75
347.763	437.75
347.99	398.75
348.218	429.75
348.445	420.75
348.673	416.75
348.9	407.75
349.128	398.75
349.355	375.75
349.583	372.75
349.81	376.75
350.037	408.75
350.265	384.75
350.492	399.75
350.72	419.75
350.947	384.75
351.174	426.75
351.402	414.75
351.629	392.75
351.856	410.75
352.083	426.75
352.311	435.75
352.538	436.75
352.765	422.75
352.992	414.75
353.22	403.75
353.447	402.75
353.674	384.75
353.901	383.75
354.128	387.75
354.355	384.75
354.583	364.75
354.81	361.75
355.037	371.75
355.264	373.75
355.491	387.75
355.718	371.75
355.945	363.75
356.172	372.75
356.399	355.75
356.626	358.75
356.853	368.75
357.08	376.75
357.307	362.75
357.534	368.75
357.761	369.75
357.988	374.75
358.215	365.75
358.441	355.75
358.668	389.75
358.895	398.75
359.122	386.75
359.349	403.75
359.576	425.75
359.802	422.75
360.029	457.75
360.256	476.75
360.483	434.75
360.709	398.75
360.936	404.75
361.163	395.75
361.39	410.75
361.616	414.75
361.843	418.75
362.07	405.75
362.296	393.75
362.523	402.75
362.749	405.75
362.976	391.75
363.203	386.75
363.429	377.75
363.656	406.75
363.882	370.75
364.109	368.75
364.335	389.75
364.562	375.75
364.788	360.75
365.015	384.75
365.241	371.75
365.468	363.75
365.694	376.75
365.92	383.75
366.147	374.75
366.373	373.75
366.599	369.75
366.826	366.75
367.052	362.75
367.278	384.75
367.505	368.75
367.731	369.75
367.957	391.75
368.184	369.75
368.41	375.75
368.636	381.75
368.862	388.75
369.089	382.75
369.315	385.75
369.541	352.75
369.767	357.75
369.993	356.75
370.219	356.75
370.445	375.75
370.672	361.75
370.898	373.75
371.124	357.75
371.35	373.75
371.576	349.75
371.802	368.75
372.028	360.75
372.254	351.75
372.48	350.75
372.706	352.75
372.932	370.75
373.158	348.75
373.384	369.75
373.61	382.75
373.835	365.75
374.061	380.75
374.287	346.75
374.513	374.75
374.739	358.75
374.965	373.75
375.191	359.75
375.416	351.75
375.642	369.75
375.868	353.75
376.094	354.75
376.319	356.75
376.545	355.75
376.771	345.75
376.997	343.75
377.222	370.75
377.448	363.75
377.674	370.75
377.899	338.75
378.125	363.75
378.35	347.75
378.576	345.75
378.802	368.75
379.027	360.75
379.253	347.75
379.478	354.75
379.704	337.75
379.929	358.75
380.155	344.75
380.38	343.75
380.606	353.75
380.831	332.75
381.057	357.75
381.282	351.75
381.507	343.75
381.733	372.75
381.958	356.75
382.184	349.75
382.409	372.75
382.634	373.75
382.86	363.75
383.085	354.75
383.31	347.75
383.535	354.75
383.761	354.75
383.986	370.75
384.211	362.75
384.436	373.75
384.662	357.75
384.887	360.75
385.112	362.75
385.337	361.75
385.562	349.75
385.787	357.75
386.013	369.75
386.238	378.75
386.463	365.75
386.688	360.75
386.913	363.75
387.138	372.75
387.363	386.75
387.588	370.75
387.813	381.75
388.038	380.75
388.263	369.75
388.488	372.75
388.713	363.75
388.938	346.75
389.163	368.75
389.387	360.75
389.612	363.75
389.837	364.75
390.062	357.75
390.287	359.75
390.512	378.75
390.736	378.75
390.961	377.75
391.186	348.75
391.411	368.75
391.636	364.75
391.86	358.75
392.085	358.75
392.31	371.75
392.534	345.75
392.759	367.75
392.984	368.75
393.208	390.75
393.433	360.75
393.658	355.75
393.882	357.75
394.107	378.75
394.331	365.75
394.556	378.75
394.78	374.75
395.005	384.75
395.229	365.75
395.454	368.75
395.678	364.75
395.903	394.75
396.127	409.75
396.352	420.75
396.576	392.75
396.801	368.75
397.025	390.75
397.249	388.75
397.474	377.75
397.698	392.75
397.922	409.75
398.147	405.75
398.371	416.75
398.595	412.75
398.82	405.75
399.044	412.75
399.268	412.75
399.492	431.75
399.717	433.75
399.941	485.75
400.165	501.75
400.389	504.75
400.613	465.75
400.837	446.75
401.062	444.75
401.286	415.75
401.51	418.75
401.734	402.75
401.958	429.75
402.182	422.75
402.406	430.75
402.63	429.75
402.854	446.75
403.078	418.75
403.302	438.75
403.526	430.75
403.75	437.75
403.974	416.75
404.198	414.75
404.422	453.75
404.645	419.75
404.869	412.75
405.093	457.75
405.317	484.75
405.541	521.75
405.765	480.75
405.988	454.75
406.212	461.75
406.436	480.75
406.66	477.75
406.883	476.75
407.107	493.75
407.331	522.75
407.555	549.75
407.778	580.75
408.002	530.75
408.226	484.75
408.449	485.75
408.673	476.75
408.896	494.75
409.12	539.75
409.344	514.75
409.567	449.75
409.791	438.75
410.014	436.75
410.238	425.75
410.461	432.75
410.685	436.75
410.908	460.75
411.132	472.75
411.355	509.75
411.578	465.75
411.802	439.75
412.025	416.75
412.249	424.75
412.472	453.75
412.695	487.75
412.919	481.75
413.142	436.75
413.365	426.75
413.589	415.75
413.812	380.75
414.035	410.75
414.258	397.75
414.482	405.75
414.705	384.75
414.928	388.75
415.151	405.75
415.374	386.75
415.597	410.75
415.821	399.75
416.044	395.75
416.267	392.75
416.49	419.75
416.713	390.75
416.936	409.75
417.159	409.75
417.382	412.75
417.605	387.75
417.828	412.75
418.051	437.75
418.274	394.75
418.497	425.75
418.72	386.75
418.943	409.75
419.166	401.75
419.389	419.75
419.611	420.75
419.834	433.75
420.057	423.75
420.28	458.75
420.503	423.75
420.726	438.75
420.948	455.75
421.171	469.75
421.394	509.75
421.617	463.75
421.839	424.75
422.062	434.75
422.285	431.75
422.507	484.75
422.73	556.75
422.953	539.75
423.175	446.75
423.398	445.75
423.621	456.75
423.843	455.75
424.066	462.75
424.288	453.75
424.511	459.75
424.733	530.75
424.956	604.75
425.178	588.75
425.401	577.75
425.623	596.75
425.846	499.75
426.068	484.75
426.291	457.75
426.513	476.75
426.735	506.75
426.958	520.75
427.18	581.75
427.402	706.75
427.625	778.75
427.847	705.75
428.069	585.75
428.292	508.75
428.514	488.75
428.736	460.75
428.958	446.75
429.181	448.75
429.403	434.75
429.625	434.75
429.847	481.75
430.069	529.75
430.292	536.75
430.514	457.75
430.736	418.75
430.958	424.75
431.18	425.75
431.402	411.75
431.624	414.75
431.846	393.75
432.068	384.75
432.29	411.75
432.512	411.75
432.734	413.75
432.956	418.75
433.178	411.75
433.4	421.75
433.622	384.75
433.844	407.75
434.066	406.75
434.287	404.75
434.509	400.75
434.731	401.75
434.953	422.75
435.175	430.75
435.397	455.75
435.618	487.75
435.84	531.75
436.062	604.75
436.284	655.75
436.505	539.75
436.727	484.75
436.949	470.75
437.17	453.75
437.392	426.75
437.614	468.75
437.835	468.75
438.057	585.75
438.278	693.75
438.5	645.75
438.721	717.75
438.943	698.75
439.165	546.75
439.386	501.75
439.608	494.75
439.829	497.75
440.05	518.75
440.272	559.75
440.493	536.75
440.715	467.75
440.936	443.75
441.158	440.75
441.379	436.75
441.6	452.75
441.822	456.75
442.043	505.75
442.264	588.75
442.486	609.75
442.707	539.75
442.928	473.75
443.149	499.75
443.371	534.75
443.592	564.75
443.813	625.75
444.034	677.75
444.255	552.75
444.476	487.75
444.698	474.75
444.919	465.75
445.14	606.75
445.361	527.75
445.582	514.75
445.803	588.75
446.024	664.75
446.245	668.75
446.466	612.75
446.687	511.75
446.908	470.75
447.129	447.75
447.35	421.75
447.571	436.75
447.792	450.75
448.013	448.75
448.234	476.75
448.455	507.75
448.675	604.75
448.896	706.75
449.117	605.75
449.338	593.75
449.559	642.75
449.779	743.75
450	581.75
450.221	494.75
450.442	451.75
450.662	439.75
450.883	445.75
451.104	450.75
451.324	468.75
451.545	442.75
451.766	403.75
451.986	404.75
452.207	394.75
452.428	400.75
452.648	389.75
452.869	406.75
453.089	416.75
453.31	428.75
453.53	388.75
453.751	397.75
453.971	396.75
454.192	416.75
454.412	419.75
454.633	385.75
454.853	402.75
455.073	392.75
455.294	400.75
455.514	481.75
455.734	496.75
455.955	390.75
456.175	371.75
456.395	357.75
456.616	363.75
456.836	350.75
457.056	348.75
457.276	349.75
457.497	346.75
457.717	342.75
457.937	360.75
458.157	370.75
458.377	384.75
458.598	400.75
458.818	444.75
459.038	542.75
459.258	546.75
459.478	451.75
459.698	412.75
459.918	392.75
460.138	409.75
460.358	408.75
460.578	403.75
460.798	408.75
461.018	392.75
461.238	384.75
461.458	379.75
461.678	394.75
461.898	395.75
462.118	375.75
462.338	404.75
462.558	384.75
462.777	395.75
462.997	409.75
463.217	424.75
463.437	427.75
463.657	422.75
463.876	425.75
464.096	404.75
464.316	414.75
464.536	437.75
464.755	418.75
464.975	420.75
465.195	490.75
465.414	556.75
465.634	502.75
465.854	436.75
466.073	424.75
466.293	386.75
466.512	387.75
466.732	396.75
466.951	407.75
467.171	390.75
467.391	371.75
467.61	378.75
467.829	410.75
468.049	411.75
468.268	380.75
468.488	385.75
468.707	380.75
468.927	379.75
469.146	372.75
469.365	367.75
469.585	386.75
469.804	377.75
470.023	397.75
470.243	411.75
470.462	414.75
470.681	422.75
470.901	418.75
471.12	385.75
471.339	371.75
471.558	389.75
471.777	407.75
471.997	398.75
472.216	398.75
472.435	416.75
472.654	403.75
472.873	407.75
473.092	398.75
473.311	374.75
473.53	391.75
473.749	402.75
473.968	452.75
474.187	552.75
474.406	583.75
474.625	471.75
474.844	413.75
475.063	399.75
475.282	416.75
475.501	421.75
475.72	409.75
475.939	409.75
476.158	425.75
476.377	406.75
476.596	406.75
476.814	415.75
477.033	410.75
477.252	438.75
477.471	424.75
477.69	407.75
477.908	434.75
478.127	437.75
478.346	415.75
478.564	422.75
478.783	421.75
479.002	459.75
479.22	438.75
479.439	461.75
479.658	488.75
479.876	500.75
480.095	483.75
480.313	522.75
480.532	460.75
480.751	474.75
480.969	470.75
481.188	537.75
481.406	566.75
481.624	484.75
481.843	500.75
482.061	469.75
482.28	459.75
482.498	471.75
482.717	443.75
482.935	499.75
483.153	488.75
483.372	466.75
483.59	468.75
483.808	466.75
484.027	439.75
484.245	458.75
484.463	469.75
484.681	486.75
484.9	475.75
485.118	496.75
485.336	481.75
485.554	481.75
485.772	459.75
485.99	474.75
486.209	483.75
486.427	467.75
486.645	521.75
486.863	509.75
487.081	517.75
487.299	489.75
487.517	501.75
487.735	487.75
487.953	491.75
488.171	496.75
488.389	496.75
488.607	514.75
488.825	485.75
489.043	514.75
489.261	486.75
489.479	509.75
489.696	496.75
489.914	495.75
490.132	532.75
490.35	520.75
490.568	521.75
490.786	506.75
491.003	529.75
491.221	553.75
491.439	548.75
491.657	568.75
491.874	579.75
492.092	551.75
492.31	558.75
492.527	572.75
492.745	568.75
492.963	578.75
493.18	562.75
493.398	592.75
493.615	579.75
493.833	577.75
494.05	565.75
494.268	576.75
494.485	582.75
494.703	604.75
494.92	597.75
495.138	592.75
495.355	596.75
495.573	582.75
495.79	598.75
496.008	605.75
496.225	594.75
496.442	619.75
496.66	618.75
496.877	587.75
497.094	578.75
497.312	600.75
497.529	618.75
497.746	618.75
497.963	605.75
498.181	636.75
498.398	653.75
498.615	631.75
498.832	644.75
499.049	666.75
499.267	644.75
499.484	653.75
499.701	671.75
499.918	719.75
500.135	696.75
500.352	722.75
500.569	729.75
500.786	717.75
501.003	734.75
501.22	725.75
501.437	707.75
501.654	716.75
501.871	712.75
