Data from 1981.PennyLincolnUp.Lamp.En5.5.200Scan.071819.P1_HRD10591_16-42-00-959.txt Node
Date: Thu Jul 18 16:42:00 EDT 2019
User: cochatt
Spectrometer: HR+D1059
Trigger mode: 1
Integration Time (sec): 1.000000E-1
Scans to average: 1
Electric dark correction enabled: true
Nonlinearity correction enabled: false
Boxcar width: 0
XAxis mode: Wavelengths
Number of Pixels in Spectrum: 2048
>>>>>Begin Spectral Data<<<<<
223.165	-16.19
223.4	-16.19
223.635	-16.19
223.869	-10.19
224.104	-14.19
224.338	-12.19
224.573	-22.19
224.808	-5.19
225.042	-20.19
225.277	-8.19
225.511	1.81
225.746	-3.19
225.98	4.81
226.215	4.81
226.449	31.81
226.683	19.81
226.918	27.81
227.152	20.81
227.387	30.81
227.621	39.81
227.856	47.81
228.09	59.81
228.324	46.81
228.559	58.81
228.793	66.81
229.027	103.81
229.262	99.81
229.496	97.81
229.73	149.81
229.964	168.81
230.199	130.81
230.433	117.81
230.667	120.81
230.901	112.81
231.136	106.81
231.37	109.81
231.604	103.81
231.838	105.81
232.072	99.81
232.306	116.81
232.541	121.81
232.775	96.81
233.009	128.81
233.243	113.81
233.477	111.81
233.711	117.81
233.945	109.81
234.179	109.81
234.413	114.81
234.647	116.81
234.881	129.81
235.115	121.81
235.349	108.81
235.583	122.81
235.817	116.81
236.051	124.81
236.285	120.81
236.519	118.81
236.753	134.81
236.987	141.81
237.221	192.81
237.455	237.81
237.689	198.81
237.922	161.81
238.156	123.81
238.39	119.81
238.624	120.81
238.858	116.81
239.091	117.81
239.325	130.81
239.559	122.81
239.793	115.81
240.027	131.81
240.26	148.81
240.494	138.81
240.728	144.81
240.961	154.81
241.195	137.81
241.429	128.81
241.662	128.81
241.896	129.81
242.13	144.81
242.363	129.81
242.597	132.81
242.83	142.81
243.064	131.81
243.298	124.81
243.531	134.81
243.765	144.81
243.998	136.81
244.232	136.81
244.465	145.81
244.699	144.81
244.932	145.81
245.166	154.81
245.399	154.81
245.633	149.81
245.866	146.81
246.099	142.81
246.333	152.81
246.566	145.81
246.8	154.81
247.033	148.81
247.266	147.81
247.5	164.81
247.733	165.81
247.966	162.81
248.2	158.81
248.433	188.81
248.666	167.81
248.899	194.81
249.133	197.81
249.366	215.81
249.599	210.81
249.832	184.81
250.066	187.81
250.299	189.81
250.532	207.81
250.765	197.81
250.998	212.81
251.231	219.81
251.465	212.81
251.698	225.81
251.931	208.81
252.164	198.81
252.397	214.81
252.63	209.81
252.863	195.81
253.096	227.81
253.329	244.81
253.562	232.81
253.795	240.81
254.028	242.81
254.261	219.81
254.494	227.81
254.727	266.81
254.96	286.81
255.193	285.81
255.426	252.81
255.659	245.81
255.892	237.81
256.124	261.81
256.357	236.81
256.59	228.81
256.823	216.81
257.056	215.81
257.289	211.81
257.521	207.81
257.754	220.81
257.987	235.81
258.22	201.81
258.452	217.81
258.685	217.81
258.918	227.81
259.151	226.81
259.383	223.81
259.616	215.81
259.849	222.81
260.081	242.81
260.314	246.81
260.547	261.81
260.779	237.81
261.012	242.81
261.244	234.81
261.477	221.81
261.71	230.81
261.942	229.81
262.175	227.81
262.407	225.81
262.64	232.81
262.872	215.81
263.105	227.81
263.337	213.81
263.57	206.81
263.802	217.81
264.035	210.81
264.267	211.81
264.499	219.81
264.732	221.81
264.964	212.81
265.197	216.81
265.429	219.81
265.661	232.81
265.894	213.81
266.126	222.81
266.358	222.81
266.591	220.81
266.823	221.81
267.055	240.81
267.287	216.81
267.52	229.81
267.752	243.81
267.984	216.81
268.216	228.81
268.448	233.81
268.681	246.81
268.913	248.81
269.145	286.81
269.377	285.81
269.609	277.81
269.841	271.81
270.073	281.81
270.306	289.81
270.538	326.81
270.77	331.81
271.002	341.81
271.234	301.81
271.466	286.81
271.698	332.81
271.93	329.81
272.162	333.81
272.394	331.81
272.626	324.81
272.858	298.81
273.09	292.81
273.322	286.81
273.553	275.81
273.785	270.81
274.017	280.81
274.249	273.81
274.481	277.81
274.713	275.81
274.945	262.81
275.176	259.81
275.408	261.81
275.64	281.81
275.872	264.81
276.104	248.81
276.335	286.81
276.567	268.81
276.799	289.81
277.031	308.81
277.262	332.81
277.494	321.81
277.726	330.81
277.957	316.81
278.189	278.81
278.421	284.81
278.652	278.81
278.884	272.81
279.115	271.81
279.347	269.81
279.579	274.81
279.81	269.81
280.042	266.81
280.273	274.81
280.505	274.81
280.736	267.81
280.968	261.81
281.199	278.81
281.431	273.81
281.662	273.81
281.894	270.81
282.125	264.81
282.356	268.81
282.588	308.81
282.819	324.81
283.051	280.81
283.282	273.81
283.513	279.81
283.745	307.81
283.976	267.81
284.207	278.81
284.439	284.81
284.67	264.81
284.901	276.81
285.132	273.81
285.364	270.81
285.595	263.81
285.826	281.81
286.057	265.81
286.288	278.81
286.52	286.81
286.751	271.81
286.982	282.81
287.213	275.81
287.444	270.81
287.675	290.81
287.906	286.81
288.138	287.81
288.369	308.81
288.6	290.81
288.831	284.81
289.062	296.81
289.293	286.81
289.524	291.81
289.755	274.81
289.986	294.81
290.217	281.81
290.448	292.81
290.679	281.81
290.91	288.81
291.141	286.81
291.371	281.81
291.602	264.81
291.833	279.81
292.064	266.81
292.295	281.81
292.526	271.81
292.757	278.81
292.987	282.81
293.218	274.81
293.449	271.81
293.68	281.81
293.91	302.81
294.141	283.81
294.372	279.81
294.603	288.81
294.833	293.81
295.064	292.81
295.295	301.81
295.525	277.81
295.756	312.81
295.987	297.81
296.217	306.81
296.448	338.81
296.679	308.81
296.909	284.81
297.14	284.81
297.37	298.81
297.601	301.81
297.831	294.81
298.062	288.81
298.292	312.81
298.523	288.81
298.753	298.81
298.984	281.81
299.214	310.81
299.445	306.81
299.675	297.81
299.905	299.81
300.136	320.81
300.366	298.81
300.597	308.81
300.827	308.81
301.057	306.81
301.288	330.81
301.518	307.81
301.748	305.81
301.979	320.81
302.209	302.81
302.439	332.81
302.669	306.81
302.9	320.81
303.13	320.81
303.36	329.81
303.59	315.81
303.82	300.81
304.051	335.81
304.281	315.81
304.511	308.81
304.741	301.81
304.971	315.81
305.201	311.81
305.431	307.81
305.661	322.81
305.891	326.81
306.121	330.81
306.352	325.81
306.582	334.81
306.812	333.81
307.042	330.81
307.272	317.81
307.502	333.81
307.731	325.81
307.961	321.81
308.191	335.81
308.421	330.81
308.651	314.81
308.881	368.81
309.111	358.81
309.341	331.81
309.571	360.81
309.8	373.81
310.03	374.81
310.26	379.81
310.49	376.81
310.72	384.81
310.949	381.81
311.179	397.81
311.409	380.81
311.639	376.81
311.868	398.81
312.098	386.81
312.328	378.81
312.557	417.81
312.787	388.81
313.017	410.81
313.246	387.81
313.476	359.81
313.706	380.81
313.935	379.81
314.165	415.81
314.394	404.81
314.624	402.81
314.853	370.81
315.083	374.81
315.312	371.81
315.542	360.81
315.771	357.81
316.001	354.81
316.23	374.81
316.46	368.81
316.689	394.81
316.919	385.81
317.148	399.81
317.377	416.81
317.607	375.81
317.836	385.81
318.065	377.81
318.295	365.81
318.524	373.81
318.753	359.81
318.983	358.81
319.212	374.81
319.441	388.81
319.67	390.81
319.9	372.81
320.129	373.81
320.358	389.81
320.587	384.81
320.816	401.81
321.046	416.81
321.275	401.81
321.504	406.81
321.733	393.81
321.962	424.81
322.191	427.81
322.42	445.81
322.649	464.81
322.878	470.81
323.108	482.81
323.337	500.81
323.566	554.81
323.795	578.81
324.024	654.81
324.253	802.81
324.482	1152.81
324.71	1746.81
324.939	2446.81
325.168	2022.81
325.397	1092.81
325.626	740.81
325.855	573.81
326.084	557.81
326.313	547.81
326.542	550.81
326.77	612.81
326.999	736.81
327.228	1008.81
327.457	1474.81
327.686	1732.81
327.914	1180.81
328.143	805.81
328.372	688.81
328.6	628.81
328.829	594.81
329.058	588.81
329.287	621.81
329.515	553.81
329.744	549.81
329.972	554.81
330.201	548.81
330.43	594.81
330.658	608.81
330.887	651.81
331.115	615.81
331.344	544.81
331.572	501.81
331.801	503.81
332.03	476.81
332.258	474.81
332.486	447.81
332.715	439.81
332.943	436.81
333.172	440.81
333.4	441.81
333.629	471.81
333.857	485.81
334.085	472.81
334.314	484.81
334.542	489.81
334.771	515.81
334.999	483.81
335.227	444.81
335.455	437.81
335.684	436.81
335.912	436.81
336.14	427.81
336.369	399.81
336.597	430.81
336.825	432.81
337.053	415.81
337.281	400.81
337.51	401.81
337.738	433.81
337.966	416.81
338.194	413.81
338.422	409.81
338.65	422.81
338.878	406.81
339.106	395.81
339.334	404.81
339.562	416.81
339.79	435.81
340.018	411.81
340.246	416.81
340.474	405.81
340.702	392.81
340.93	415.81
341.158	403.81
341.386	391.81
341.614	432.81
341.842	406.81
342.07	407.81
342.298	396.81
342.526	408.81
342.754	396.81
342.981	394.81
343.209	389.81
343.437	408.81
343.665	409.81
343.893	396.81
344.12	392.81
344.348	389.81
344.576	403.81
344.804	402.81
345.031	406.81
345.259	406.81
345.487	396.81
345.714	418.81
345.942	416.81
346.17	402.81
346.397	400.81
346.625	386.81
346.853	399.81
347.08	404.81
347.308	393.81
347.535	416.81
347.763	422.81
347.99	417.81
348.218	416.81
348.445	392.81
348.673	402.81
348.9	392.81
349.128	381.81
349.355	374.81
349.583	396.81
349.81	374.81
350.037	388.81
350.265	389.81
350.492	389.81
350.72	384.81
350.947	397.81
351.174	402.81
351.402	413.81
351.629	400.81
351.856	406.81
352.083	401.81
352.311	414.81
352.538	434.81
352.765	412.81
352.992	400.81
353.22	396.81
353.447	403.81
353.674	402.81
353.901	377.81
354.128	388.81
354.355	365.81
354.583	354.81
354.81	378.81
355.037	370.81
355.264	368.81
355.491	355.81
355.718	349.81
355.945	362.81
356.172	366.81
356.399	346.81
356.626	364.81
356.853	350.81
357.08	347.81
357.307	353.81
357.534	348.81
357.761	356.81
357.988	361.81
358.215	377.81
358.441	345.81
358.668	346.81
358.895	353.81
359.122	374.81
359.349	382.81
359.576	395.81
359.802	425.81
360.029	450.81
360.256	449.81
360.483	428.81
360.709	405.81
360.936	402.81
361.163	392.81
361.39	382.81
361.616	400.81
361.843	381.81
362.07	392.81
362.296	373.81
362.523	382.81
362.749	386.81
362.976	384.81
363.203	378.81
363.429	372.81
363.656	357.81
363.882	360.81
364.109	363.81
364.335	374.81
364.562	374.81
364.788	383.81
365.015	357.81
365.241	366.81
365.468	358.81
365.694	378.81
365.92	393.81
366.147	346.81
366.373	371.81
366.599	358.81
366.826	362.81
367.052	358.81
367.278	353.81
367.505	362.81
367.731	376.81
367.957	371.81
368.184	359.81
368.41	382.81
368.636	384.81
368.862	365.81
369.089	392.81
369.315	363.81
369.541	371.81
369.767	354.81
369.993	360.81
370.219	366.81
370.445	360.81
370.672	341.81
370.898	336.81
371.124	370.81
371.35	344.81
371.576	334.81
371.802	336.81
372.028	344.81
372.254	333.81
372.48	344.81
372.706	342.81
372.932	345.81
373.158	346.81
373.384	351.81
373.61	344.81
373.835	352.81
374.061	339.81
374.287	366.81
374.513	356.81
374.739	334.81
374.965	354.81
375.191	346.81
375.416	358.81
375.642	342.81
375.868	344.81
376.094	354.81
376.319	363.81
376.545	331.81
376.771	361.81
376.997	346.81
377.222	344.81
377.448	352.81
377.674	351.81
377.899	334.81
378.125	339.81
378.35	327.81
378.576	353.81
378.802	332.81
379.027	352.81
379.253	322.81
379.478	342.81
379.704	333.81
379.929	343.81
380.155	342.81
380.38	338.81
380.606	348.81
380.831	370.81
381.057	353.81
381.282	343.81
381.507	337.81
381.733	347.81
381.958	377.81
382.184	344.81
382.409	344.81
382.634	347.81
382.86	344.81
383.085	354.81
383.31	320.81
383.535	361.81
383.761	364.81
383.986	350.81
384.211	346.81
384.436	354.81
384.662	354.81
384.887	347.81
385.112	363.81
385.337	354.81
385.562	352.81
385.787	336.81
386.013	360.81
386.238	370.81
386.463	368.81
386.688	346.81
386.913	342.81
387.138	359.81
387.363	354.81
387.588	373.81
387.813	354.81
388.038	364.81
388.263	383.81
388.488	354.81
388.713	358.81
388.938	334.81
389.163	369.81
389.387	357.81
389.612	349.81
389.837	347.81
390.062	356.81
390.287	359.81
390.512	369.81
390.736	376.81
390.961	342.81
391.186	352.81
391.411	337.81
391.636	359.81
391.86	349.81
392.085	352.81
392.31	370.81
392.534	375.81
392.759	364.81
392.984	368.81
393.208	353.81
393.433	348.81
393.658	359.81
393.882	355.81
394.107	341.81
394.331	372.81
394.556	349.81
394.78	352.81
395.005	361.81
395.229	360.81
395.454	362.81
395.678	376.81
395.903	344.81
396.127	392.81
396.352	388.81
396.576	366.81
396.801	362.81
397.025	369.81
397.249	384.81
397.474	389.81
397.698	370.81
397.922	384.81
398.147	392.81
398.371	402.81
398.595	382.81
398.82	379.81
399.044	388.81
399.268	403.81
399.492	406.81
399.717	448.81
399.941	446.81
400.165	476.81
400.389	509.81
400.613	435.81
400.837	418.81
401.062	406.81
401.286	406.81
401.51	380.81
401.734	387.81
401.958	385.81
402.182	404.81
402.406	395.81
402.63	400.81
402.854	408.81
403.078	390.81
403.302	407.81
403.526	416.81
403.75	390.81
403.974	408.81
404.198	414.81
404.422	415.81
404.645	394.81
404.869	415.81
405.093	428.81
405.317	477.81
405.541	504.81
405.765	460.81
405.988	452.81
406.212	430.81
406.436	468.81
406.66	459.81
406.883	448.81
407.107	496.81
407.331	493.81
407.555	557.81
407.778	579.81
408.002	513.81
408.226	470.81
408.449	478.81
408.673	440.81
408.896	467.81
409.12	512.81
409.344	466.81
409.567	440.81
409.791	420.81
410.014	394.81
410.238	416.81
410.461	404.81
410.685	417.81
410.908	425.81
411.132	478.81
411.355	470.81
411.578	453.81
411.802	417.81
412.025	419.81
412.249	415.81
412.472	429.81
412.695	456.81
412.919	464.81
413.142	420.81
413.365	402.81
413.589	407.81
413.812	405.81
414.035	376.81
414.258	398.81
414.482	386.81
414.705	369.81
414.928	382.81
415.151	365.81
415.374	370.81
415.597	384.81
415.821	390.81
416.044	383.81
416.267	391.81
416.49	369.81
416.713	366.81
416.936	381.81
417.159	392.81
417.382	388.81
417.605	404.81
417.828	416.81
418.051	422.81
418.274	394.81
418.497	384.81
418.72	396.81
418.943	355.81
419.166	384.81
419.389	404.81
419.611	402.81
419.834	405.81
420.057	414.81
420.28	408.81
420.503	408.81
420.726	421.81
420.948	424.81
421.171	459.81
421.394	485.81
421.617	414.81
421.839	399.81
422.062	408.81
422.285	434.81
422.507	466.81
422.73	524.81
422.953	500.81
423.175	443.81
423.398	434.81
423.621	435.81
423.843	444.81
424.066	445.81
424.288	440.81
424.511	458.81
424.733	504.81
424.956	576.81
425.178	544.81
425.401	566.81
425.623	554.81
425.846	479.81
426.068	474.81
426.291	452.81
426.513	434.81
426.735	481.81
426.958	498.81
427.18	592.81
427.402	688.81
427.625	756.81
427.847	691.81
428.069	598.81
428.292	500.81
428.514	471.81
428.736	419.81
428.958	421.81
429.181	412.81
429.403	406.81
429.625	410.81
429.847	461.81
430.069	540.81
430.292	533.81
430.514	452.81
430.736	427.81
430.958	414.81
431.18	399.81
431.402	383.81
431.624	381.81
431.846	374.81
432.068	382.81
432.29	383.81
432.512	387.81
432.734	408.81
432.956	416.81
433.178	409.81
433.4	400.81
433.622	384.81
433.844	395.81
434.066	402.81
434.287	390.81
434.509	394.81
434.731	373.81
434.953	395.81
435.175	401.81
435.397	469.81
435.618	457.81
435.84	496.81
436.062	550.81
436.284	641.81
436.505	532.81
436.727	474.81
436.949	442.81
437.17	423.81
437.392	406.81
437.614	425.81
437.835	487.81
438.057	562.81
438.278	648.81
438.5	619.81
438.721	698.81
438.943	650.81
439.165	534.81
439.386	485.81
439.608	490.81
439.829	486.81
440.05	480.81
440.272	549.81
440.493	480.81
440.715	459.81
440.936	446.81
441.158	415.81
441.379	408.81
441.6	429.81
441.822	459.81
442.043	512.81
442.264	578.81
442.486	602.81
442.707	517.81
442.928	464.81
443.149	469.81
443.371	490.81
443.592	551.81
443.813	609.81
444.034	640.81
444.255	538.81
444.476	461.81
444.698	464.81
444.919	446.81
445.14	585.81
445.361	504.81
445.582	496.81
445.803	565.81
446.024	638.81
446.245	666.81
446.466	600.81
446.687	492.81
446.908	462.81
447.129	449.81
447.35	441.81
447.571	441.81
447.792	422.81
448.013	434.81
448.234	426.81
448.455	486.81
448.675	597.81
448.896	660.81
449.117	563.81
449.338	555.81
449.559	622.81
449.779	689.81
450	551.81
450.221	474.81
450.442	432.81
450.662	427.81
450.883	438.81
451.104	444.81
451.324	438.81
451.545	380.81
451.766	384.81
451.986	410.81
452.207	390.81
452.428	380.81
452.648	373.81
452.869	390.81
453.089	398.81
453.31	395.81
453.53	395.81
453.751	378.81
453.971	394.81
454.192	385.81
454.412	384.81
454.633	381.81
454.853	382.81
455.073	377.81
455.294	394.81
455.514	476.81
455.734	432.81
455.955	389.81
456.175	372.81
456.395	345.81
456.616	349.81
456.836	350.81
457.056	349.81
457.276	331.81
457.497	360.81
457.717	360.81
457.937	362.81
458.157	360.81
458.377	365.81
458.598	377.81
458.818	448.81
459.038	531.81
459.258	528.81
459.478	444.81
459.698	380.81
459.918	361.81
460.138	377.81
460.358	377.81
460.578	381.81
460.798	378.81
461.018	384.81
461.238	380.81
461.458	366.81
461.678	355.81
461.898	389.81
462.118	365.81
462.338	380.81
462.558	372.81
462.777	398.81
462.997	390.81
463.217	411.81
463.437	382.81
463.657	426.81
463.876	384.81
464.096	397.81
464.316	396.81
464.536	414.81
464.755	417.81
464.975	424.81
465.195	449.81
465.414	544.81
465.634	464.81
465.854	428.81
466.073	404.81
466.293	402.81
466.512	375.81
466.732	367.81
466.951	365.81
467.171	384.81
467.391	387.81
467.61	372.81
467.829	379.81
468.049	380.81
468.268	356.81
468.488	360.81
468.707	384.81
468.927	349.81
469.146	366.81
469.365	362.81
469.585	357.81
469.804	362.81
470.023	376.81
470.243	373.81
470.462	368.81
470.681	412.81
470.901	388.81
471.12	370.81
471.339	397.81
471.558	385.81
471.777	379.81
471.997	394.81
472.216	375.81
472.435	406.81
472.654	402.81
472.873	398.81
473.092	393.81
473.311	383.81
473.53	394.81
473.749	373.81
473.968	439.81
474.187	524.81
474.406	549.81
474.625	438.81
474.844	388.81
475.063	399.81
475.282	403.81
475.501	396.81
475.72	401.81
475.939	398.81
476.158	400.81
476.377	398.81
476.596	417.81
476.814	386.81
477.033	412.81
477.252	390.81
477.471	378.81
477.69	404.81
477.908	412.81
478.127	396.81
478.346	383.81
478.564	400.81
478.783	410.81
479.002	416.81
479.22	410.81
479.439	451.81
479.658	472.81
479.876	456.81
480.095	469.81
480.313	491.81
480.532	468.81
480.751	444.81
480.969	453.81
481.188	528.81
481.406	540.81
481.624	484.81
481.843	452.81
482.061	460.81
482.28	435.81
482.498	452.81
482.717	451.81
482.935	455.81
483.153	421.81
483.372	444.81
483.59	452.81
483.808	453.81
484.027	456.81
484.245	459.81
484.463	443.81
484.681	447.81
484.9	458.81
485.118	453.81
485.336	445.81
485.554	460.81
485.772	455.81
485.99	444.81
486.209	498.81
486.427	480.81
486.645	465.81
486.863	493.81
487.081	501.81
487.299	489.81
487.517	481.81
487.735	490.81
487.953	512.81
488.171	508.81
488.389	488.81
488.607	470.81
488.825	482.81
489.043	498.81
489.261	502.81
489.479	486.81
489.696	491.81
489.914	487.81
490.132	510.81
490.35	510.81
490.568	501.81
490.786	517.81
491.003	537.81
491.221	534.81
491.439	548.81
491.657	550.81
491.874	527.81
492.092	535.81
492.31	560.81
492.527	553.81
492.745	569.81
492.963	563.81
493.18	558.81
493.398	579.81
493.615	573.81
493.833	572.81
494.05	549.81
494.268	567.81
494.485	575.81
494.703	566.81
494.92	564.81
495.138	584.81
495.355	585.81
495.573	580.81
495.79	576.81
496.008	562.81
496.225	568.81
496.442	568.81
496.66	577.81
496.877	571.81
497.094	594.81
497.312	582.81
497.529	582.81
497.746	611.81
497.963	588.81
498.181	609.81
498.398	609.81
498.615	598.81
498.832	599.81
499.049	634.81
499.267	636.81
499.484	652.81
499.701	637.81
499.918	655.81
500.135	680.81
500.352	696.81
500.569	725.81
500.786	685.81
501.003	700.81
501.22	683.81
501.437	666.81
501.654	684.81
501.871	698.81
