Data from 1981.PennyLincolnUp.Lamp.En5.5.200Scan.071819.P1_HRD10591_16-42-03-959.txt Node
Date: Thu Jul 18 16:42:03 EDT 2019
User: cochatt
Spectrometer: HR+D1059
Trigger mode: 1
Integration Time (sec): 1.000000E-1
Scans to average: 1
Electric dark correction enabled: true
Nonlinearity correction enabled: false
Boxcar width: 0
XAxis mode: Wavelengths
Number of Pixels in Spectrum: 2048
>>>>>Begin Spectral Data<<<<<
223.165	-21.69
223.4	-21.69
223.635	-21.69
223.869	-12.69
224.104	-8.69
224.338	-18.69
224.573	-26.69
224.808	-18.69
225.042	5.31
225.277	2.31
225.511	-12.69
225.746	17.31
225.98	2.31
226.215	11.31
226.449	-2.69
226.683	13.31
226.918	32.31
227.152	38.31
227.387	31.31
227.621	21.31
227.856	37.31
228.09	49.31
228.324	52.31
228.559	54.31
228.793	59.31
229.027	90.31
229.262	123.31
229.496	116.31
229.73	141.31
229.964	148.31
230.199	133.31
230.433	116.31
230.667	104.31
230.901	109.31
231.136	114.31
231.37	120.31
231.604	108.31
231.838	117.31
232.072	113.31
232.306	115.31
232.541	105.31
232.775	111.31
233.009	100.31
233.243	116.31
233.477	123.31
233.711	114.31
233.945	100.31
234.179	129.31
234.413	127.31
234.647	125.31
234.881	107.31
235.115	118.31
235.349	129.31
235.583	122.31
235.817	123.31
236.051	118.31
236.285	132.31
236.519	126.31
236.753	158.31
236.987	146.31
237.221	181.31
237.455	224.31
237.689	182.31
237.922	144.31
238.156	142.31
238.39	141.31
238.624	111.31
238.858	125.31
239.091	119.31
239.325	111.31
239.559	128.31
239.793	133.31
240.027	141.31
240.26	138.31
240.494	151.31
240.728	145.31
240.961	138.31
241.195	136.31
241.429	135.31
241.662	125.31
241.896	133.31
242.13	115.31
242.363	131.31
242.597	138.31
242.83	149.31
243.064	133.31
243.298	131.31
243.531	131.31
243.765	152.31
243.998	143.31
244.232	141.31
244.465	144.31
244.699	152.31
244.932	162.31
245.166	137.31
245.399	153.31
245.633	166.31
245.866	142.31
246.099	143.31
246.333	133.31
246.566	153.31
246.8	152.31
247.033	158.31
247.266	161.31
247.5	168.31
247.733	181.31
247.966	186.31
248.2	180.31
248.433	169.31
248.666	165.31
248.899	201.31
249.133	195.31
249.366	217.31
249.599	212.31
249.832	194.31
250.066	178.31
250.299	194.31
250.532	196.31
250.765	211.31
250.998	221.31
251.231	243.31
251.465	231.31
251.698	227.31
251.931	206.31
252.164	197.31
252.397	200.31
252.63	210.31
252.863	200.31
253.096	241.31
253.329	243.31
253.562	233.31
253.795	224.31
254.028	215.31
254.261	222.31
254.494	227.31
254.727	268.31
254.96	289.31
255.193	302.31
255.426	261.31
255.659	225.31
255.892	242.31
256.124	245.31
256.357	236.31
256.59	254.31
256.823	221.31
257.056	232.31
257.289	225.31
257.521	233.31
257.754	221.31
257.987	215.31
258.22	211.31
258.452	211.31
258.685	199.31
258.918	218.31
259.151	210.31
259.383	234.31
259.616	210.31
259.849	247.31
260.081	269.31
260.314	282.31
260.547	272.31
260.779	265.31
261.012	249.31
261.244	221.31
261.477	235.31
261.71	248.31
261.942	247.31
262.175	256.31
262.407	228.31
262.64	217.31
262.872	229.31
263.105	211.31
263.337	215.31
263.57	211.31
263.802	236.31
264.035	219.31
264.267	222.31
264.499	223.31
264.732	225.31
264.964	204.31
265.197	220.31
265.429	236.31
265.661	216.31
265.894	225.31
266.126	233.31
266.358	226.31
266.591	232.31
266.823	235.31
267.055	234.31
267.287	232.31
267.52	219.31
267.752	226.31
267.984	225.31
268.216	235.31
268.448	238.31
268.681	251.31
268.913	262.31
269.145	277.31
269.377	300.31
269.609	278.31
269.841	279.31
270.073	286.31
270.306	310.31
270.538	342.31
270.77	335.31
271.002	321.31
271.234	309.31
271.466	317.31
271.698	307.31
271.93	340.31
272.162	341.31
272.394	330.31
272.626	325.31
272.858	309.31
273.09	294.31
273.322	289.31
273.553	273.31
273.785	281.31
274.017	278.31
274.249	277.31
274.481	275.31
274.713	276.31
274.945	277.31
275.176	296.31
275.408	286.31
275.64	263.31
275.872	269.31
276.104	260.31
276.335	268.31
276.567	289.31
276.799	290.31
277.031	323.31
277.262	334.31
277.494	346.31
277.726	321.31
277.957	303.31
278.189	289.31
278.421	287.31
278.652	283.31
278.884	278.31
279.115	263.31
279.347	275.31
279.579	259.31
279.81	272.31
280.042	277.31
280.273	263.31
280.505	265.31
280.736	261.31
280.968	267.31
281.199	271.31
281.431	266.31
281.662	262.31
281.894	273.31
282.125	277.31
282.356	297.31
282.588	302.31
282.819	317.31
283.051	289.31
283.282	287.31
283.513	269.31
283.745	275.31
283.976	275.31
284.207	288.31
284.439	293.31
284.67	274.31
284.901	283.31
285.132	295.31
285.364	291.31
285.595	291.31
285.826	286.31
286.057	269.31
286.288	275.31
286.52	260.31
286.751	275.31
286.982	275.31
287.213	285.31
287.444	296.31
287.675	281.31
287.906	294.31
288.138	311.31
288.369	298.31
288.6	299.31
288.831	311.31
289.062	315.31
289.293	312.31
289.524	279.31
289.755	277.31
289.986	298.31
290.217	285.31
290.448	291.31
290.679	266.31
290.91	295.31
291.141	288.31
291.371	282.31
291.602	305.31
291.833	274.31
292.064	279.31
292.295	285.31
292.526	297.31
292.757	286.31
292.987	301.31
293.218	282.31
293.449	303.31
293.68	274.31
293.91	285.31
294.141	281.31
294.372	272.31
294.603	300.31
294.833	286.31
295.064	297.31
295.295	278.31
295.525	300.31
295.756	324.31
295.987	319.31
296.217	331.31
296.448	346.31
296.679	311.31
296.909	309.31
297.14	291.31
297.37	310.31
297.601	297.31
297.831	305.31
298.062	289.31
298.292	295.31
298.523	309.31
298.753	312.31
298.984	301.31
299.214	315.31
299.445	291.31
299.675	296.31
299.905	302.31
300.136	309.31
300.366	319.31
300.597	318.31
300.827	306.31
301.057	321.31
301.288	342.31
301.518	334.31
301.748	313.31
301.979	309.31
302.209	340.31
302.439	338.31
302.669	328.31
302.9	313.31
303.13	356.31
303.36	318.31
303.59	330.31
303.82	315.31
304.051	341.31
304.281	330.31
304.511	355.31
304.741	338.31
304.971	333.31
305.201	320.31
305.431	315.31
305.661	317.31
305.891	307.31
306.121	313.31
306.352	350.31
306.582	342.31
306.812	322.31
307.042	348.31
307.272	330.31
307.502	327.31
307.731	322.31
307.961	337.31
308.191	307.31
308.421	333.31
308.651	335.31
308.881	329.31
309.111	341.31
309.341	352.31
309.571	364.31
309.8	359.31
310.03	380.31
310.26	377.31
310.49	381.31
310.72	409.31
310.949	415.31
311.179	395.31
311.409	391.31
311.639	377.31
311.868	377.31
312.098	403.31
312.328	385.31
312.557	407.31
312.787	435.31
313.017	415.31
313.246	384.31
313.476	396.31
313.706	407.31
313.935	382.31
314.165	434.31
314.394	406.31
314.624	420.31
314.853	397.31
315.083	388.31
315.312	397.31
315.542	374.31
315.771	384.31
316.001	374.31
316.23	389.31
316.46	389.31
316.689	392.31
316.919	381.31
317.148	393.31
317.377	393.31
317.607	392.31
317.836	391.31
318.065	400.31
318.295	355.31
318.524	371.31
318.753	368.31
318.983	392.31
319.212	378.31
319.441	386.31
319.67	391.31
319.9	393.31
320.129	379.31
320.358	395.31
320.587	402.31
320.816	396.31
321.046	395.31
321.275	404.31
321.504	401.31
321.733	413.31
321.962	417.31
322.191	435.31
322.42	439.31
322.649	466.31
322.878	478.31
323.108	480.31
323.337	510.31
323.566	563.31
323.795	571.31
324.024	649.31
324.253	796.31
324.482	1138.31
324.71	1780.31
324.939	2474.31
325.168	2033.31
325.397	1077.31
325.626	726.31
325.855	585.31
326.084	565.31
326.313	541.31
326.542	559.31
326.77	620.31
326.999	757.31
327.228	1014.31
327.457	1508.31
327.686	1768.31
327.914	1202.31
328.143	821.31
328.372	682.31
328.6	629.31
328.829	625.31
329.058	625.31
329.287	638.31
329.515	586.31
329.744	533.31
329.972	550.31
330.201	561.31
330.43	608.31
330.658	637.31
330.887	629.31
331.115	620.31
331.344	556.31
331.572	521.31
331.801	487.31
332.03	508.31
332.258	488.31
332.486	444.31
332.715	447.31
332.943	454.31
333.172	447.31
333.4	455.31
333.629	467.31
333.857	474.31
334.085	478.31
334.314	501.31
334.542	509.31
334.771	525.31
334.999	485.31
335.227	483.31
335.455	449.31
335.684	427.31
335.912	440.31
336.14	437.31
336.369	419.31
336.597	435.31
336.825	438.31
337.053	450.31
337.281	441.31
337.51	415.31
337.738	440.31
337.966	382.31
338.194	430.31
338.422	445.31
338.65	423.31
338.878	414.31
339.106	420.31
339.334	437.31
339.562	405.31
339.79	424.31
340.018	436.31
340.246	409.31
340.474	425.31
340.702	427.31
340.93	408.31
341.158	426.31
341.386	414.31
341.614	433.31
341.842	407.31
342.07	417.31
342.298	413.31
342.526	405.31
342.754	399.31
342.981	398.31
343.209	390.31
343.437	398.31
343.665	409.31
343.893	417.31
344.12	417.31
344.348	418.31
344.576	426.31
344.804	401.31
345.031	420.31
345.259	439.31
345.487	439.31
345.714	409.31
345.942	407.31
346.17	405.31
346.397	407.31
346.625	414.31
346.853	422.31
347.08	408.31
347.308	400.31
347.535	428.31
347.763	435.31
347.99	428.31
348.218	403.31
348.445	415.31
348.673	429.31
348.9	430.31
349.128	410.31
349.355	397.31
349.583	391.31
349.81	394.31
350.037	389.31
350.265	369.31
350.492	387.31
350.72	396.31
350.947	407.31
351.174	421.31
351.402	405.31
351.629	395.31
351.856	402.31
352.083	417.31
352.311	433.31
352.538	417.31
352.765	436.31
352.992	428.31
353.22	405.31
353.447	383.31
353.674	399.31
353.901	388.31
354.128	382.31
354.355	370.31
354.583	365.31
354.81	363.31
355.037	374.31
355.264	366.31
355.491	367.31
355.718	369.31
355.945	371.31
356.172	373.31
356.399	364.31
356.626	364.31
356.853	357.31
357.08	352.31
357.307	356.31
357.534	372.31
357.761	379.31
357.988	373.31
358.215	376.31
358.441	356.31
358.668	357.31
358.895	352.31
359.122	380.31
359.349	383.31
359.576	393.31
359.802	435.31
360.029	449.31
360.256	440.31
360.483	443.31
360.709	407.31
360.936	405.31
361.163	410.31
361.39	393.31
361.616	387.31
361.843	387.31
362.07	376.31
362.296	390.31
362.523	389.31
362.749	385.31
362.976	363.31
363.203	374.31
363.429	367.31
363.656	367.31
363.882	374.31
364.109	359.31
364.335	350.31
364.562	346.31
364.788	346.31
365.015	374.31
365.241	360.31
365.468	363.31
365.694	350.31
365.92	381.31
366.147	377.31
366.373	378.31
366.599	382.31
366.826	367.31
367.052	368.31
367.278	363.31
367.505	355.31
367.731	376.31
367.957	380.31
368.184	364.31
368.41	371.31
368.636	370.31
368.862	371.31
369.089	393.31
369.315	369.31
369.541	379.31
369.767	375.31
369.993	382.31
370.219	341.31
370.445	378.31
370.672	362.31
370.898	351.31
371.124	378.31
371.35	356.31
371.576	355.31
371.802	374.31
372.028	358.31
372.254	338.31
372.48	361.31
372.706	336.31
372.932	359.31
373.158	364.31
373.384	376.31
373.61	355.31
373.835	349.31
374.061	359.31
374.287	341.31
374.513	356.31
374.739	355.31
374.965	349.31
375.191	363.31
375.416	335.31
375.642	357.31
375.868	357.31
376.094	363.31
376.319	359.31
376.545	353.31
376.771	363.31
376.997	357.31
377.222	357.31
377.448	356.31
377.674	355.31
377.899	338.31
378.125	350.31
378.35	341.31
378.576	359.31
378.802	343.31
379.027	348.31
379.253	356.31
379.478	343.31
379.704	344.31
379.929	367.31
380.155	363.31
380.38	346.31
380.606	353.31
380.831	337.31
381.057	358.31
381.282	362.31
381.507	357.31
381.733	346.31
381.958	349.31
382.184	354.31
382.409	338.31
382.634	353.31
382.86	352.31
383.085	371.31
383.31	361.31
383.535	356.31
383.761	350.31
383.986	385.31
384.211	363.31
384.436	379.31
384.662	357.31
384.887	377.31
385.112	373.31
385.337	376.31
385.562	357.31
385.787	374.31
386.013	375.31
386.238	393.31
386.463	382.31
386.688	379.31
386.913	376.31
387.138	352.31
387.363	358.31
387.588	368.31
387.813	363.31
388.038	374.31
388.263	356.31
388.488	352.31
388.713	376.31
388.938	361.31
389.163	377.31
389.387	366.31
389.612	364.31
389.837	345.31
390.062	368.31
390.287	364.31
390.512	355.31
390.736	362.31
390.961	365.31
391.186	375.31
391.411	385.31
391.636	374.31
391.86	373.31
392.085	361.31
392.31	385.31
392.534	358.31
392.759	363.31
392.984	367.31
393.208	384.31
393.433	369.31
393.658	380.31
393.882	340.31
394.107	375.31
394.331	371.31
394.556	370.31
394.78	371.31
395.005	376.31
395.229	364.31
395.454	376.31
395.678	381.31
395.903	393.31
396.127	407.31
396.352	398.31
396.576	393.31
396.801	387.31
397.025	386.31
397.249	382.31
397.474	378.31
397.698	395.31
397.922	393.31
398.147	397.31
398.371	429.31
398.595	403.31
398.82	395.31
399.044	414.31
399.268	408.31
399.492	439.31
399.717	420.31
399.941	453.31
400.165	481.31
400.389	508.31
400.613	468.31
400.837	425.31
401.062	413.31
401.286	415.31
401.51	394.31
401.734	398.31
401.958	419.31
402.182	401.31
402.406	429.31
402.63	436.31
402.854	437.31
403.078	402.31
403.302	434.31
403.526	439.31
403.75	450.31
403.974	429.31
404.198	397.31
404.422	421.31
404.645	418.31
404.869	413.31
405.093	441.31
405.317	500.31
405.541	531.31
405.765	474.31
405.988	449.31
406.212	444.31
406.436	452.31
406.66	485.31
406.883	452.31
407.107	483.31
407.331	507.31
407.555	584.31
407.778	559.31
408.002	511.31
408.226	469.31
408.449	460.31
408.673	458.31
408.896	476.31
409.12	525.31
409.344	501.31
409.567	440.31
409.791	428.31
410.014	427.31
410.238	422.31
410.461	441.31
410.685	446.31
410.908	448.31
411.132	499.31
411.355	485.31
411.578	465.31
411.802	435.31
412.025	426.31
412.249	409.31
412.472	449.31
412.695	488.31
412.919	482.31
413.142	433.31
413.365	445.31
413.589	403.31
413.812	411.31
414.035	399.31
414.258	379.31
414.482	385.31
414.705	401.31
414.928	398.31
415.151	409.31
415.374	396.31
415.597	387.31
415.821	386.31
416.044	400.31
416.267	423.31
416.49	377.31
416.713	400.31
416.936	399.31
417.159	395.31
417.382	397.31
417.605	405.31
417.828	417.31
418.051	439.31
418.274	418.31
418.497	406.31
418.72	409.31
418.943	405.31
419.166	411.31
419.389	429.31
419.611	411.31
419.834	411.31
420.057	426.31
420.28	426.31
420.503	404.31
420.726	407.31
420.948	439.31
421.171	483.31
421.394	520.31
421.617	447.31
421.839	419.31
422.062	430.31
422.285	452.31
422.507	469.31
422.73	550.31
422.953	528.31
423.175	465.31
423.398	455.31
423.621	445.31
423.843	466.31
424.066	461.31
424.288	438.31
424.511	468.31
424.733	529.31
424.956	591.31
425.178	571.31
425.401	558.31
425.623	603.31
425.846	491.31
426.068	491.31
426.291	471.31
426.513	460.31
426.735	482.31
426.958	516.31
427.18	615.31
427.402	705.31
427.625	781.31
427.847	682.31
428.069	594.31
428.292	527.31
428.514	463.31
428.736	460.31
428.958	448.31
429.181	437.31
429.403	427.31
429.625	450.31
429.847	470.31
430.069	509.31
430.292	524.31
430.514	450.31
430.736	423.31
430.958	419.31
431.18	412.31
431.402	381.31
431.624	404.31
431.846	391.31
432.068	396.31
432.29	417.31
432.512	398.31
432.734	422.31
432.956	391.31
433.178	419.31
433.4	430.31
433.622	401.31
433.844	401.31
434.066	401.31
434.287	380.31
434.509	403.31
434.731	405.31
434.953	411.31
435.175	412.31
435.397	441.31
435.618	464.31
435.84	503.31
436.062	606.31
436.284	661.31
436.505	526.31
436.727	493.31
436.949	449.31
437.17	453.31
437.392	436.31
437.614	444.31
437.835	479.31
438.057	580.31
438.278	646.31
438.5	655.31
438.721	715.31
438.943	665.31
439.165	536.31
439.386	488.31
439.608	484.31
439.829	492.31
440.05	505.31
440.272	535.31
440.493	522.31
440.715	465.31
440.936	451.31
441.158	447.31
441.379	430.31
441.6	455.31
441.822	457.31
442.043	499.31
442.264	571.31
442.486	590.31
442.707	514.31
442.928	500.31
443.149	497.31
443.371	517.31
443.592	559.31
443.813	598.31
444.034	655.31
444.255	562.31
444.476	490.31
444.698	460.31
444.919	466.31
445.14	577.31
445.361	525.31
445.582	510.31
445.803	581.31
446.024	667.31
446.245	702.31
446.466	615.31
446.687	518.31
446.908	491.31
447.129	463.31
447.35	427.31
447.571	415.31
447.792	431.31
448.013	442.31
448.234	442.31
448.455	513.31
448.675	606.31
448.896	689.31
449.117	597.31
449.338	565.31
449.559	657.31
449.779	700.31
450	602.31
450.221	490.31
450.442	450.31
450.662	451.31
450.883	425.31
451.104	446.31
451.324	433.31
451.545	410.31
451.766	419.31
451.986	408.31
452.207	382.31
452.428	382.31
452.648	407.31
452.869	405.31
453.089	390.31
453.31	413.31
453.53	384.31
453.751	405.31
453.971	394.31
454.192	407.31
454.412	391.31
454.633	386.31
454.853	373.31
455.073	388.31
455.294	415.31
455.514	476.31
455.734	479.31
455.955	400.31
456.175	362.31
456.395	355.31
456.616	354.31
456.836	361.31
457.056	375.31
457.276	358.31
457.497	337.31
457.717	372.31
457.937	383.31
458.157	389.31
458.377	380.31
458.598	387.31
458.818	453.31
459.038	522.31
459.258	551.31
459.478	456.31
459.698	390.31
459.918	399.31
460.138	386.31
460.358	400.31
460.578	393.31
460.798	403.31
461.018	414.31
461.238	413.31
461.458	389.31
461.678	388.31
461.898	402.31
462.118	386.31
462.338	405.31
462.558	397.31
462.777	401.31
462.997	420.31
463.217	407.31
463.437	408.31
463.657	399.31
463.876	402.31
464.096	423.31
464.316	396.31
464.536	403.31
464.755	429.31
464.975	430.31
465.195	473.31
465.414	542.31
465.634	498.31
465.854	449.31
466.073	429.31
466.293	402.31
466.512	382.31
466.732	389.31
466.951	385.31
467.171	381.31
467.391	383.31
467.61	418.31
467.829	418.31
468.049	411.31
468.268	396.31
468.488	371.31
468.707	366.31
468.927	369.31
469.146	376.31
469.365	383.31
469.585	385.31
469.804	382.31
470.023	393.31
470.243	375.31
470.462	418.31
470.681	413.31
470.901	403.31
471.12	372.31
471.339	389.31
471.558	397.31
471.777	407.31
471.997	375.31
472.216	384.31
472.435	417.31
472.654	397.31
472.873	388.31
473.092	405.31
473.311	392.31
473.53	394.31
473.749	391.31
473.968	453.31
474.187	573.31
474.406	564.31
474.625	449.31
474.844	407.31
475.063	417.31
475.282	406.31
475.501	377.31
475.72	422.31
475.939	413.31
476.158	397.31
476.377	404.31
476.596	430.31
476.814	421.31
477.033	429.31
477.252	421.31
477.471	413.31
477.69	440.31
477.908	425.31
478.127	430.31
478.346	428.31
478.564	406.31
478.783	416.31
479.002	452.31
479.22	446.31
479.439	453.31
479.658	460.31
479.876	467.31
480.095	459.31
480.313	502.31
480.532	483.31
480.751	482.31
480.969	489.31
481.188	541.31
481.406	571.31
481.624	492.31
481.843	510.31
482.061	466.31
482.28	481.31
482.498	456.31
482.717	444.31
482.935	461.31
483.153	450.31
483.372	461.31
483.59	465.31
483.808	453.31
484.027	475.31
484.245	476.31
484.463	469.31
484.681	472.31
484.9	483.31
485.118	455.31
485.336	471.31
485.554	494.31
485.772	467.31
485.99	479.31
486.209	492.31
486.427	462.31
486.645	474.31
486.863	504.31
487.081	511.31
487.299	494.31
487.517	503.31
487.735	504.31
487.953	502.31
488.171	495.31
488.389	494.31
488.607	483.31
488.825	482.31
489.043	493.31
489.261	506.31
489.479	503.31
489.696	513.31
489.914	486.31
490.132	505.31
490.35	504.31
490.568	518.31
490.786	531.31
491.003	547.31
491.221	547.31
491.439	557.31
491.657	557.31
491.874	557.31
492.092	557.31
492.31	553.31
492.527	572.31
492.745	571.31
492.963	594.31
493.18	577.31
493.398	577.31
493.615	562.31
493.833	588.31
494.05	579.31
494.268	581.31
494.485	569.31
494.703	562.31
494.92	599.31
495.138	608.31
495.355	597.31
495.573	567.31
495.79	595.31
496.008	587.31
496.225	574.31
496.442	590.31
496.66	577.31
496.877	575.31
497.094	580.31
497.312	586.31
497.529	581.31
497.746	596.31
497.963	604.31
498.181	606.31
498.398	634.31
498.615	662.31
498.832	634.31
499.049	632.31
499.267	655.31
499.484	667.31
499.701	668.31
499.918	680.31
500.135	707.31
500.352	701.31
500.569	721.31
500.786	755.31
501.003	714.31
501.22	702.31
501.437	704.31
501.654	724.31
501.871	693.31
