Data from 1981.PennyLincolnUp.Lamp.En5.5.200Scan.071819.P1_HRD10591_16-40-47-960.txt Node
Date: Thu Jul 18 16:40:47 EDT 2019
User: cochatt
Spectrometer: HR+D1059
Trigger mode: 1
Integration Time (sec): 1.000000E-1
Scans to average: 1
Electric dark correction enabled: true
Nonlinearity correction enabled: false
Boxcar width: 0
XAxis mode: Wavelengths
Number of Pixels in Spectrum: 2048
>>>>>Begin Spectral Data<<<<<
223.165	-21.75
223.4	-21.75
223.635	-21.75
223.869	-22.75
224.104	-33.75
224.338	-19.75
224.573	-25.75
224.808	-4.75
225.042	0.25
225.277	-6.75
225.511	-4.75
225.746	5.25
225.98	1.25
226.215	8.25
226.449	31.25
226.683	15.25
226.918	35.25
227.152	43.25
227.387	39.25
227.621	46.25
227.856	54.25
228.09	48.25
228.324	49.25
228.559	44.25
228.793	70.25
229.027	90.25
229.262	94.25
229.496	115.25
229.73	137.25
229.964	142.25
230.199	128.25
230.433	100.25
230.667	117.25
230.901	105.25
231.136	105.25
231.37	119.25
231.604	114.25
231.838	104.25
232.072	97.25
232.306	120.25
232.541	109.25
232.775	111.25
233.009	108.25
233.243	116.25
233.477	110.25
233.711	125.25
233.945	102.25
234.179	106.25
234.413	113.25
234.647	107.25
234.881	116.25
235.115	114.25
235.349	116.25
235.583	124.25
235.817	124.25
236.051	113.25
236.285	122.25
236.519	117.25
236.753	119.25
236.987	142.25
237.221	160.25
237.455	192.25
237.689	173.25
237.922	130.25
238.156	115.25
238.39	125.25
238.624	114.25
238.858	116.25
239.091	107.25
239.325	112.25
239.559	108.25
239.793	122.25
240.027	130.25
240.26	141.25
240.494	150.25
240.728	135.25
240.961	138.25
241.195	135.25
241.429	131.25
241.662	123.25
241.896	114.25
242.13	116.25
242.363	134.25
242.597	133.25
242.83	142.25
243.064	141.25
243.298	133.25
243.531	122.25
243.765	124.25
243.998	148.25
244.232	137.25
244.465	128.25
244.699	135.25
244.932	140.25
245.166	135.25
245.399	153.25
245.633	142.25
245.866	147.25
246.099	137.25
246.333	155.25
246.566	139.25
246.8	130.25
247.033	142.25
247.266	141.25
247.5	157.25
247.733	168.25
247.966	157.25
248.2	160.25
248.433	152.25
248.666	159.25
248.899	173.25
249.133	210.25
249.366	192.25
249.599	186.25
249.832	183.25
250.066	173.25
250.299	177.25
250.532	186.25
250.765	193.25
250.998	213.25
251.231	213.25
251.465	187.25
251.698	190.25
251.931	192.25
252.164	193.25
252.397	182.25
252.63	190.25
252.863	206.25
253.096	214.25
253.329	210.25
253.562	215.25
253.795	210.25
254.028	201.25
254.261	194.25
254.494	228.25
254.727	222.25
254.96	262.25
255.193	260.25
255.426	248.25
255.659	230.25
255.892	224.25
256.124	217.25
256.357	219.25
256.59	225.25
256.823	206.25
257.056	201.25
257.289	192.25
257.521	195.25
257.754	214.25
257.987	214.25
258.22	217.25
258.452	217.25
258.685	196.25
258.918	201.25
259.151	206.25
259.383	203.25
259.616	219.25
259.849	218.25
260.081	224.25
260.314	257.25
260.547	246.25
260.779	235.25
261.012	223.25
261.244	211.25
261.477	222.25
261.71	209.25
261.942	215.25
262.175	218.25
262.407	232.25
262.64	203.25
262.872	216.25
263.105	199.25
263.337	191.25
263.57	198.25
263.802	200.25
264.035	203.25
264.267	197.25
264.499	189.25
264.732	205.25
264.964	195.25
265.197	211.25
265.429	202.25
265.661	214.25
265.894	206.25
266.126	196.25
266.358	198.25
266.591	200.25
266.823	214.25
267.055	212.25
267.287	208.25
267.52	204.25
267.752	214.25
267.984	213.25
268.216	211.25
268.448	231.25
268.681	221.25
268.913	227.25
269.145	229.25
269.377	234.25
269.609	254.25
269.841	246.25
270.073	261.25
270.306	281.25
270.538	293.25
270.77	288.25
271.002	272.25
271.234	274.25
271.466	270.25
271.698	288.25
271.93	296.25
272.162	291.25
272.394	311.25
272.626	279.25
272.858	270.25
273.09	273.25
273.322	250.25
273.553	264.25
273.785	260.25
274.017	241.25
274.249	244.25
274.481	232.25
274.713	235.25
274.945	244.25
275.176	254.25
275.408	241.25
275.64	241.25
275.872	250.25
276.104	256.25
276.335	251.25
276.567	260.25
276.799	269.25
277.031	283.25
277.262	285.25
277.494	287.25
277.726	294.25
277.957	284.25
278.189	259.25
278.421	277.25
278.652	262.25
278.884	266.25
279.115	249.25
279.347	245.25
279.579	261.25
279.81	258.25
280.042	260.25
280.273	248.25
280.505	246.25
280.736	253.25
280.968	245.25
281.199	255.25
281.431	250.25
281.662	248.25
281.894	243.25
282.125	261.25
282.356	259.25
282.588	265.25
282.819	270.25
283.051	246.25
283.282	256.25
283.513	258.25
283.745	267.25
283.976	232.25
284.207	258.25
284.439	258.25
284.67	260.25
284.901	270.25
285.132	264.25
285.364	256.25
285.595	257.25
285.826	256.25
286.057	258.25
286.288	262.25
286.52	269.25
286.751	247.25
286.982	250.25
287.213	245.25
287.444	265.25
287.675	271.25
287.906	262.25
288.138	276.25
288.369	272.25
288.6	282.25
288.831	277.25
289.062	285.25
289.293	255.25
289.524	262.25
289.755	249.25
289.986	242.25
290.217	265.25
290.448	280.25
290.679	267.25
290.91	264.25
291.141	259.25
291.371	261.25
291.602	270.25
291.833	254.25
292.064	274.25
292.295	248.25
292.526	279.25
292.757	275.25
292.987	273.25
293.218	270.25
293.449	277.25
293.68	261.25
293.91	286.25
294.141	280.25
294.372	259.25
294.603	267.25
294.833	244.25
295.064	241.25
295.295	265.25
295.525	270.25
295.756	284.25
295.987	271.25
296.217	315.25
296.448	309.25
296.679	266.25
296.909	277.25
297.14	266.25
297.37	273.25
297.601	282.25
297.831	280.25
298.062	285.25
298.292	273.25
298.523	288.25
298.753	304.25
298.984	285.25
299.214	297.25
299.445	300.25
299.675	273.25
299.905	301.25
300.136	289.25
300.366	279.25
300.597	296.25
300.827	296.25
301.057	290.25
301.288	290.25
301.518	307.25
301.748	288.25
301.979	301.25
302.209	293.25
302.439	308.25
302.669	295.25
302.9	306.25
303.13	295.25
303.36	302.25
303.59	300.25
303.82	299.25
304.051	316.25
304.281	306.25
304.511	302.25
304.741	297.25
304.971	290.25
305.201	292.25
305.431	293.25
305.661	295.25
305.891	294.25
306.121	310.25
306.352	291.25
306.582	316.25
306.812	293.25
307.042	301.25
307.272	296.25
307.502	299.25
307.731	303.25
307.961	308.25
308.191	306.25
308.421	305.25
308.651	320.25
308.881	298.25
309.111	312.25
309.341	310.25
309.571	301.25
309.8	335.25
310.03	334.25
310.26	339.25
310.49	323.25
310.72	349.25
310.949	355.25
311.179	361.25
311.409	346.25
311.639	338.25
311.868	341.25
312.098	340.25
312.328	357.25
312.557	368.25
312.787	368.25
313.017	370.25
313.246	358.25
313.476	345.25
313.706	332.25
313.935	360.25
314.165	366.25
314.394	360.25
314.624	374.25
314.853	368.25
315.083	368.25
315.312	357.25
315.542	330.25
315.771	337.25
316.001	340.25
316.23	355.25
316.46	334.25
316.689	344.25
316.919	351.25
317.148	352.25
317.377	378.25
317.607	374.25
317.836	362.25
318.065	353.25
318.295	326.25
318.524	333.25
318.753	332.25
318.983	362.25
319.212	362.25
319.441	356.25
319.67	368.25
319.9	352.25
320.129	356.25
320.358	355.25
320.587	347.25
320.816	366.25
321.046	376.25
321.275	370.25
321.504	374.25
321.733	378.25
321.962	383.25
322.191	393.25
322.42	394.25
322.649	410.25
322.878	394.25
323.108	435.25
323.337	442.25
323.566	472.25
323.795	480.25
324.024	518.25
324.253	647.25
324.482	934.25
324.71	1406.25
324.939	1947.25
325.168	1635.25
325.397	889.25
325.626	610.25
325.855	518.25
326.084	477.25
326.313	474.25
326.542	474.25
326.77	522.25
326.999	626.25
327.228	810.25
327.457	1233.25
327.686	1366.25
327.914	950.25
328.143	656.25
328.372	569.25
328.6	532.25
328.829	505.25
329.058	520.25
329.287	521.25
329.515	497.25
329.744	464.25
329.972	445.25
330.201	472.25
330.43	491.25
330.658	510.25
330.887	540.25
331.115	540.25
331.344	441.25
331.572	440.25
331.801	453.25
332.03	417.25
332.258	404.25
332.486	399.25
332.715	410.25
332.943	379.25
333.172	406.25
333.4	385.25
333.629	420.25
333.857	421.25
334.085	411.25
334.314	429.25
334.542	441.25
334.771	452.25
334.999	416.25
335.227	421.25
335.455	405.25
335.684	412.25
335.912	398.25
336.14	400.25
336.369	403.25
336.597	405.25
336.825	395.25
337.053	369.25
337.281	400.25
337.51	378.25
337.738	374.25
337.966	399.25
338.194	401.25
338.422	395.25
338.65	396.25
338.878	384.25
339.106	385.25
339.334	377.25
339.562	378.25
339.79	377.25
340.018	372.25
340.246	362.25
340.474	380.25
340.702	387.25
340.93	375.25
341.158	395.25
341.386	391.25
341.614	383.25
341.842	403.25
342.07	376.25
342.298	380.25
342.526	349.25
342.754	358.25
342.981	370.25
343.209	352.25
343.437	375.25
343.665	385.25
343.893	379.25
344.12	398.25
344.348	397.25
344.576	378.25
344.804	392.25
345.031	393.25
345.259	401.25
345.487	399.25
345.714	395.25
345.942	371.25
346.17	372.25
346.397	373.25
346.625	364.25
346.853	372.25
347.08	369.25
347.308	376.25
347.535	378.25
347.763	388.25
347.99	382.25
348.218	389.25
348.445	388.25
348.673	394.25
348.9	375.25
349.128	374.25
349.355	378.25
349.583	370.25
349.81	349.25
350.037	365.25
350.265	363.25
350.492	334.25
350.72	372.25
350.947	364.25
351.174	358.25
351.402	374.25
351.629	364.25
351.856	350.25
352.083	359.25
352.311	381.25
352.538	384.25
352.765	380.25
352.992	360.25
353.22	360.25
353.447	358.25
353.674	363.25
353.901	346.25
354.128	356.25
354.355	336.25
354.583	356.25
354.81	342.25
355.037	347.25
355.264	323.25
355.491	342.25
355.718	345.25
355.945	343.25
356.172	333.25
356.399	333.25
356.626	315.25
356.853	327.25
357.08	331.25
357.307	344.25
357.534	331.25
357.761	333.25
357.988	344.25
358.215	339.25
358.441	341.25
358.668	340.25
358.895	349.25
359.122	325.25
359.349	346.25
359.576	361.25
359.802	384.25
360.029	408.25
360.256	411.25
360.483	390.25
360.709	347.25
360.936	349.25
361.163	341.25
361.39	379.25
361.616	364.25
361.843	352.25
362.07	351.25
362.296	366.25
362.523	376.25
362.749	355.25
362.976	362.25
363.203	360.25
363.429	356.25
363.656	343.25
363.882	328.25
364.109	335.25
364.335	341.25
364.562	328.25
364.788	343.25
365.015	329.25
365.241	343.25
365.468	344.25
365.694	343.25
365.92	346.25
366.147	348.25
366.373	328.25
366.599	324.25
366.826	314.25
367.052	345.25
367.278	353.25
367.505	351.25
367.731	333.25
367.957	337.25
368.184	334.25
368.41	331.25
368.636	362.25
368.862	340.25
369.089	345.25
369.315	372.25
369.541	322.25
369.767	349.25
369.993	341.25
370.219	343.25
370.445	340.25
370.672	320.25
370.898	340.25
371.124	324.25
371.35	345.25
371.576	335.25
371.802	328.25
372.028	310.25
372.254	337.25
372.48	347.25
372.706	328.25
372.932	312.25
373.158	342.25
373.384	339.25
373.61	352.25
373.835	354.25
374.061	336.25
374.287	330.25
374.513	341.25
374.739	344.25
374.965	335.25
375.191	342.25
375.416	344.25
375.642	316.25
375.868	351.25
376.094	329.25
376.319	320.25
376.545	346.25
376.771	348.25
376.997	346.25
377.222	324.25
377.448	342.25
377.674	337.25
377.899	334.25
378.125	309.25
378.35	318.25
378.576	317.25
378.802	334.25
379.027	324.25
379.253	322.25
379.478	333.25
379.704	349.25
379.929	347.25
380.155	329.25
380.38	336.25
380.606	318.25
380.831	328.25
381.057	331.25
381.282	342.25
381.507	321.25
381.733	332.25
381.958	337.25
382.184	356.25
382.409	316.25
382.634	326.25
382.86	344.25
383.085	338.25
383.31	339.25
383.535	316.25
383.761	356.25
383.986	334.25
384.211	326.25
384.436	336.25
384.662	327.25
384.887	331.25
385.112	352.25
385.337	347.25
385.562	338.25
385.787	344.25
386.013	340.25
386.238	336.25
386.463	340.25
386.688	352.25
386.913	341.25
387.138	343.25
387.363	337.25
387.588	348.25
387.813	342.25
388.038	343.25
388.263	353.25
388.488	345.25
388.713	338.25
388.938	340.25
389.163	344.25
389.387	340.25
389.612	333.25
389.837	328.25
390.062	326.25
390.287	338.25
390.512	334.25
390.736	346.25
390.961	331.25
391.186	352.25
391.411	349.25
391.636	338.25
391.86	364.25
392.085	344.25
392.31	350.25
392.534	332.25
392.759	336.25
392.984	339.25
393.208	357.25
393.433	345.25
393.658	340.25
393.882	355.25
394.107	339.25
394.331	347.25
394.556	357.25
394.78	345.25
395.005	345.25
395.229	346.25
395.454	347.25
395.678	349.25
395.903	373.25
396.127	370.25
396.352	368.25
396.576	352.25
396.801	348.25
397.025	358.25
397.249	350.25
397.474	349.25
397.698	354.25
397.922	380.25
398.147	400.25
398.371	395.25
398.595	376.25
398.82	365.25
399.044	375.25
399.268	369.25
399.492	396.25
399.717	420.25
399.941	448.25
400.165	459.25
400.389	454.25
400.613	427.25
400.837	404.25
401.062	394.25
401.286	376.25
401.51	382.25
401.734	408.25
401.958	386.25
402.182	394.25
402.406	396.25
402.63	402.25
402.854	392.25
403.078	387.25
403.302	371.25
403.526	396.25
403.75	384.25
403.974	386.25
404.198	373.25
404.422	395.25
404.645	385.25
404.869	396.25
405.093	428.25
405.317	441.25
405.541	444.25
405.765	421.25
405.988	415.25
406.212	429.25
406.436	436.25
406.66	446.25
406.883	412.25
407.107	452.25
407.331	487.25
407.555	523.25
407.778	522.25
408.002	475.25
408.226	448.25
408.449	434.25
408.673	440.25
408.896	449.25
409.12	494.25
409.344	457.25
409.567	411.25
409.791	420.25
410.014	420.25
410.238	398.25
410.461	386.25
410.685	382.25
410.908	415.25
411.132	420.25
411.355	462.25
411.578	436.25
411.802	386.25
412.025	392.25
412.249	383.25
412.472	422.25
412.695	418.25
412.919	406.25
413.142	413.25
413.365	377.25
413.589	389.25
413.812	376.25
414.035	381.25
414.258	361.25
414.482	369.25
414.705	352.25
414.928	362.25
415.151	401.25
415.374	389.25
415.597	360.25
415.821	368.25
416.044	378.25
416.267	362.25
416.49	372.25
416.713	371.25
416.936	368.25
417.159	353.25
417.382	357.25
417.605	382.25
417.828	371.25
418.051	384.25
418.274	356.25
418.497	350.25
418.72	379.25
418.943	372.25
419.166	391.25
419.389	383.25
419.611	402.25
419.834	385.25
420.057	387.25
420.28	378.25
420.503	389.25
420.726	376.25
420.948	397.25
421.171	422.25
421.394	449.25
421.617	390.25
421.839	384.25
422.062	416.25
422.285	393.25
422.507	461.25
422.73	505.25
422.953	469.25
423.175	438.25
423.398	418.25
423.621	413.25
423.843	429.25
424.066	421.25
424.288	397.25
424.511	432.25
424.733	472.25
424.956	534.25
425.178	536.25
425.401	540.25
425.623	530.25
425.846	457.25
426.068	442.25
426.291	429.25
426.513	406.25
426.735	453.25
426.958	462.25
427.18	532.25
427.402	650.25
427.625	675.25
427.847	596.25
428.069	509.25
428.292	468.25
428.514	410.25
428.736	415.25
428.958	404.25
429.181	391.25
429.403	388.25
429.625	377.25
429.847	434.25
430.069	473.25
430.292	468.25
430.514	410.25
430.736	410.25
430.958	378.25
431.18	357.25
431.402	386.25
431.624	355.25
431.846	390.25
432.068	370.25
432.29	349.25
432.512	361.25
432.734	384.25
432.956	388.25
433.178	387.25
433.4	387.25
433.622	380.25
433.844	384.25
434.066	380.25
434.287	379.25
434.509	391.25
434.731	369.25
434.953	373.25
435.175	396.25
435.397	422.25
435.618	419.25
435.84	456.25
436.062	545.25
436.284	585.25
436.505	486.25
436.727	416.25
436.949	404.25
437.17	397.25
437.392	404.25
437.614	424.25
437.835	427.25
438.057	508.25
438.278	587.25
438.5	613.25
438.721	637.25
438.943	602.25
439.165	475.25
439.386	446.25
439.608	429.25
439.829	457.25
440.05	457.25
440.272	503.25
440.493	473.25
440.715	448.25
440.936	420.25
441.158	385.25
441.379	402.25
441.6	406.25
441.822	414.25
442.043	464.25
442.264	516.25
442.486	561.25
442.707	473.25
442.928	432.25
443.149	430.25
443.371	453.25
443.592	482.25
443.813	569.25
444.034	597.25
444.255	505.25
444.476	461.25
444.698	410.25
444.919	406.25
445.14	505.25
445.361	472.25
445.582	457.25
445.803	524.25
446.024	576.25
446.245	596.25
446.466	526.25
446.687	447.25
446.908	434.25
447.129	387.25
447.35	394.25
447.571	405.25
447.792	406.25
448.013	400.25
448.234	433.25
448.455	467.25
448.675	553.25
448.896	633.25
449.117	541.25
449.338	501.25
449.559	598.25
449.779	649.25
450	538.25
450.221	424.25
450.442	402.25
450.662	399.25
450.883	413.25
451.104	412.25
451.324	364.25
451.545	372.25
451.766	352.25
451.986	350.25
452.207	357.25
452.428	338.25
452.648	357.25
452.869	364.25
453.089	353.25
453.31	380.25
453.53	373.25
453.751	349.25
453.971	360.25
454.192	360.25
454.412	360.25
454.633	347.25
454.853	343.25
455.073	342.25
455.294	386.25
455.514	436.25
455.734	436.25
455.955	362.25
456.175	342.25
456.395	349.25
456.616	334.25
456.836	325.25
457.056	315.25
457.276	327.25
457.497	333.25
457.717	322.25
457.937	341.25
458.157	338.25
458.377	352.25
458.598	362.25
458.818	411.25
459.038	470.25
459.258	488.25
459.478	412.25
459.698	363.25
459.918	399.25
460.138	370.25
460.358	372.25
460.578	365.25
460.798	356.25
461.018	356.25
461.238	377.25
461.458	376.25
461.678	374.25
461.898	378.25
462.118	371.25
462.338	364.25
462.558	384.25
462.777	350.25
462.997	376.25
463.217	388.25
463.437	397.25
463.657	373.25
463.876	397.25
464.096	382.25
464.316	389.25
464.536	375.25
464.755	374.25
464.975	400.25
465.195	425.25
465.414	464.25
465.634	428.25
465.854	393.25
466.073	392.25
466.293	372.25
466.512	357.25
466.732	361.25
466.951	368.25
467.171	350.25
467.391	354.25
467.61	371.25
467.829	375.25
468.049	378.25
468.268	382.25
468.488	360.25
468.707	344.25
468.927	336.25
469.146	342.25
469.365	353.25
469.585	334.25
469.804	381.25
470.023	358.25
470.243	370.25
470.462	349.25
470.681	400.25
470.901	384.25
471.12	376.25
471.339	389.25
471.558	375.25
471.777	378.25
471.997	373.25
472.216	371.25
472.435	373.25
472.654	369.25
472.873	358.25
473.092	358.25
473.311	350.25
473.53	354.25
473.749	387.25
473.968	418.25
474.187	485.25
474.406	514.25
474.625	423.25
474.844	388.25
475.063	369.25
475.282	366.25
475.501	372.25
475.72	379.25
475.939	379.25
476.158	377.25
476.377	356.25
476.596	393.25
476.814	391.25
477.033	412.25
477.252	391.25
477.471	392.25
477.69	378.25
477.908	368.25
478.127	394.25
478.346	380.25
478.564	396.25
478.783	406.25
479.002	396.25
479.22	385.25
479.439	424.25
479.658	440.25
479.876	424.25
480.095	422.25
480.313	455.25
480.532	444.25
480.751	450.25
480.969	425.25
481.188	460.25
481.406	485.25
481.624	448.25
481.843	443.25
482.061	439.25
482.28	413.25
482.498	440.25
482.717	424.25
482.935	426.25
483.153	411.25
483.372	422.25
483.59	434.25
483.808	413.25
484.027	408.25
484.245	432.25
484.463	435.25
484.681	440.25
484.9	430.25
485.118	465.25
485.336	424.25
485.554	435.25
485.772	447.25
485.99	432.25
486.209	422.25
486.427	438.25
486.645	448.25
486.863	460.25
487.081	467.25
487.299	458.25
487.517	466.25
487.735	438.25
487.953	444.25
488.171	450.25
488.389	452.25
488.607	460.25
488.825	472.25
489.043	488.25
489.261	456.25
489.479	464.25
489.696	459.25
489.914	462.25
490.132	468.25
490.35	471.25
490.568	462.25
490.786	473.25
491.003	496.25
491.221	492.25
491.439	512.25
491.657	512.25
491.874	531.25
492.092	516.25
492.31	534.25
492.527	529.25
492.745	501.25
492.963	498.25
493.18	501.25
493.398	523.25
493.615	542.25
493.833	541.25
494.05	509.25
494.268	512.25
494.485	530.25
494.703	519.25
494.92	521.25
495.138	524.25
495.355	522.25
495.573	539.25
495.79	527.25
496.008	529.25
496.225	531.25
496.442	538.25
496.66	520.25
496.877	533.25
497.094	534.25
497.312	546.25
497.529	527.25
497.746	548.25
497.963	562.25
498.181	602.25
498.398	572.25
498.615	579.25
498.832	593.25
499.049	592.25
499.267	608.25
499.484	629.25
499.701	628.25
499.918	650.25
500.135	661.25
500.352	670.25
500.569	664.25
500.786	673.25
501.003	703.25
501.22	664.25
501.437	644.25
501.654	661.25
501.871	641.25
502.088	631.25
