Data from 1981.PennyLincolnUp.Lamp.En5.5.200Scan.071819.P1_HRD10591_16-42-01-959.txt Node
Date: Thu Jul 18 16:42:01 EDT 2019
User: cochatt
Spectrometer: HR+D1059
Trigger mode: 1
Integration Time (sec): 1.000000E-1
Scans to average: 1
Electric dark correction enabled: true
Nonlinearity correction enabled: false
Boxcar width: 0
XAxis mode: Wavelengths
Number of Pixels in Spectrum: 2048
>>>>>Begin Spectral Data<<<<<
223.165	-16.62
223.4	-16.62
223.635	-16.62
223.869	-16.62
224.104	-15.62
224.338	-9.62
224.573	-10.62
224.808	-21.62
225.042	-32.62
225.277	-0.62
225.511	7.38
225.746	3.38
225.98	7.38
226.215	10.38
226.449	19.38
226.683	16.38
226.918	23.38
227.152	36.38
227.387	49.38
227.621	38.38
227.856	38.38
228.09	43.38
228.324	64.38
228.559	74.38
228.793	77.38
229.027	96.38
229.262	116.38
229.496	116.38
229.73	141.38
229.964	164.38
230.199	137.38
230.433	127.38
230.667	122.38
230.901	120.38
231.136	118.38
231.37	114.38
231.604	110.38
231.838	126.38
232.072	108.38
232.306	99.38
232.541	102.38
232.775	125.38
233.009	103.38
233.243	122.38
233.477	119.38
233.711	122.38
233.945	108.38
234.179	118.38
234.413	104.38
234.647	118.38
234.881	122.38
235.115	113.38
235.349	114.38
235.583	111.38
235.817	118.38
236.051	132.38
236.285	134.38
236.519	142.38
236.753	129.38
236.987	141.38
237.221	167.38
237.455	222.38
237.689	188.38
237.922	153.38
238.156	144.38
238.39	155.38
238.624	144.38
238.858	134.38
239.091	119.38
239.325	144.38
239.559	126.38
239.793	131.38
240.027	128.38
240.26	156.38
240.494	154.38
240.728	157.38
240.961	155.38
241.195	142.38
241.429	143.38
241.662	140.38
241.896	143.38
242.13	138.38
242.363	130.38
242.597	141.38
242.83	151.38
243.064	138.38
243.298	137.38
243.531	148.38
243.765	140.38
243.998	135.38
244.232	133.38
244.465	159.38
244.699	146.38
244.932	154.38
245.166	144.38
245.399	154.38
245.633	147.38
245.866	152.38
246.099	169.38
246.333	145.38
246.566	150.38
246.8	151.38
247.033	165.38
247.266	178.38
247.5	163.38
247.733	165.38
247.966	166.38
248.2	190.38
248.433	186.38
248.666	186.38
248.899	197.38
249.133	201.38
249.366	200.38
249.599	200.38
249.832	207.38
250.066	191.38
250.299	174.38
250.532	198.38
250.765	214.38
250.998	225.38
251.231	225.38
251.465	229.38
251.698	222.38
251.931	223.38
252.164	220.38
252.397	201.38
252.63	222.38
252.863	225.38
253.096	218.38
253.329	240.38
253.562	220.38
253.795	226.38
254.028	221.38
254.261	235.38
254.494	250.38
254.727	260.38
254.96	292.38
255.193	281.38
255.426	268.38
255.659	245.38
255.892	254.38
256.124	251.38
256.357	247.38
256.59	238.38
256.823	232.38
257.056	224.38
257.289	219.38
257.521	228.38
257.754	216.38
257.987	222.38
258.22	223.38
258.452	216.38
258.685	236.38
258.918	220.38
259.151	213.38
259.383	246.38
259.616	231.38
259.849	231.38
260.081	238.38
260.314	262.38
260.547	270.38
260.779	256.38
261.012	234.38
261.244	231.38
261.477	229.38
261.71	220.38
261.942	235.38
262.175	241.38
262.407	242.38
262.64	214.38
262.872	218.38
263.105	216.38
263.337	230.38
263.57	200.38
263.802	228.38
264.035	211.38
264.267	219.38
264.499	216.38
264.732	234.38
264.964	219.38
265.197	214.38
265.429	231.38
265.661	229.38
265.894	224.38
266.126	236.38
266.358	233.38
266.591	208.38
266.823	234.38
267.055	239.38
267.287	263.38
267.52	244.38
267.752	238.38
267.984	243.38
268.216	235.38
268.448	256.38
268.681	260.38
268.913	272.38
269.145	267.38
269.377	279.38
269.609	275.38
269.841	271.38
270.073	286.38
270.306	297.38
270.538	325.38
270.77	323.38
271.002	303.38
271.234	303.38
271.466	326.38
271.698	317.38
271.93	329.38
272.162	350.38
272.394	346.38
272.626	302.38
272.858	275.38
273.09	300.38
273.322	287.38
273.553	286.38
273.785	287.38
274.017	276.38
274.249	276.38
274.481	286.38
274.713	286.38
274.945	271.38
275.176	279.38
275.408	263.38
275.64	269.38
275.872	266.38
276.104	271.38
276.335	284.38
276.567	279.38
276.799	305.38
277.031	319.38
277.262	314.38
277.494	338.38
277.726	309.38
277.957	294.38
278.189	310.38
278.421	288.38
278.652	279.38
278.884	263.38
279.115	270.38
279.347	284.38
279.579	267.38
279.81	271.38
280.042	291.38
280.273	278.38
280.505	270.38
280.736	273.38
280.968	270.38
281.199	262.38
281.431	244.38
281.662	274.38
281.894	275.38
282.125	276.38
282.356	300.38
282.588	298.38
282.819	330.38
283.051	280.38
283.282	285.38
283.513	276.38
283.745	274.38
283.976	261.38
284.207	277.38
284.439	265.38
284.67	281.38
284.901	279.38
285.132	283.38
285.364	279.38
285.595	296.38
285.826	275.38
286.057	287.38
286.288	300.38
286.52	275.38
286.751	290.38
286.982	295.38
287.213	286.38
287.444	299.38
287.675	292.38
287.906	287.38
288.138	303.38
288.369	270.38
288.6	294.38
288.831	300.38
289.062	290.38
289.293	292.38
289.524	286.38
289.755	284.38
289.986	281.38
290.217	298.38
290.448	285.38
290.679	277.38
290.91	284.38
291.141	283.38
291.371	298.38
291.602	290.38
291.833	288.38
292.064	292.38
292.295	290.38
292.526	280.38
292.757	295.38
292.987	275.38
293.218	289.38
293.449	289.38
293.68	299.38
293.91	288.38
294.141	284.38
294.372	278.38
294.603	291.38
294.833	281.38
295.064	307.38
295.295	308.38
295.525	303.38
295.756	306.38
295.987	297.38
296.217	315.38
296.448	331.38
296.679	314.38
296.909	300.38
297.14	296.38
297.37	293.38
297.601	309.38
297.831	310.38
298.062	296.38
298.292	304.38
298.523	316.38
298.753	288.38
298.984	292.38
299.214	297.38
299.445	294.38
299.675	301.38
299.905	318.38
300.136	315.38
300.366	309.38
300.597	315.38
300.827	318.38
301.057	308.38
301.288	331.38
301.518	318.38
301.748	335.38
301.979	316.38
302.209	320.38
302.439	313.38
302.669	326.38
302.9	320.38
303.13	314.38
303.36	341.38
303.59	347.38
303.82	355.38
304.051	344.38
304.281	304.38
304.511	330.38
304.741	329.38
304.971	316.38
305.201	328.38
305.431	316.38
305.661	335.38
305.891	330.38
306.121	319.38
306.352	319.38
306.582	327.38
306.812	339.38
307.042	333.38
307.272	308.38
307.502	327.38
307.731	318.38
307.961	330.38
308.191	326.38
308.421	341.38
308.651	343.38
308.881	327.38
309.111	348.38
309.341	334.38
309.571	349.38
309.8	372.38
310.03	367.38
310.26	373.38
310.49	364.38
310.72	372.38
310.949	405.38
311.179	424.38
311.409	396.38
311.639	378.38
311.868	391.38
312.098	378.38
312.328	398.38
312.557	397.38
312.787	425.38
313.017	420.38
313.246	415.38
313.476	390.38
313.706	381.38
313.935	394.38
314.165	394.38
314.394	399.38
314.624	381.38
314.853	392.38
315.083	395.38
315.312	381.38
315.542	390.38
315.771	371.38
316.001	373.38
316.23	362.38
316.46	380.38
316.689	376.38
316.919	411.38
317.148	380.38
317.377	407.38
317.607	382.38
317.836	388.38
318.065	394.38
318.295	382.38
318.524	391.38
318.753	379.38
318.983	375.38
319.212	379.38
319.441	400.38
319.67	387.38
319.9	385.38
320.129	394.38
320.358	388.38
320.587	401.38
320.816	405.38
321.046	403.38
321.275	405.38
321.504	418.38
321.733	422.38
321.962	408.38
322.191	451.38
322.42	453.38
322.649	443.38
322.878	476.38
323.108	502.38
323.337	504.38
323.566	538.38
323.795	580.38
324.024	646.38
324.253	783.38
324.482	1167.38
324.71	1770.38
324.939	2371.38
325.168	2006.38
325.397	1080.38
325.626	720.38
325.855	607.38
326.084	554.38
326.313	548.38
326.542	548.38
326.77	608.38
326.999	732.38
327.228	1015.38
327.457	1484.38
327.686	1774.38
327.914	1159.38
328.143	792.38
328.372	722.38
328.6	648.38
328.829	619.38
329.058	613.38
329.287	617.38
329.515	586.38
329.744	548.38
329.972	542.38
330.201	554.38
330.43	591.38
330.658	610.38
330.887	642.38
331.115	620.38
331.344	550.38
331.572	519.38
331.801	495.38
332.03	504.38
332.258	477.38
332.486	450.38
332.715	453.38
332.943	456.38
333.172	451.38
333.4	454.38
333.629	464.38
333.857	475.38
334.085	477.38
334.314	491.38
334.542	497.38
334.771	526.38
334.999	487.38
335.227	481.38
335.455	432.38
335.684	444.38
335.912	433.38
336.14	432.38
336.369	431.38
336.597	460.38
336.825	431.38
337.053	420.38
337.281	424.38
337.51	423.38
337.738	426.38
337.966	434.38
338.194	442.38
338.422	420.38
338.65	412.38
338.878	428.38
339.106	398.38
339.334	416.38
339.562	422.38
339.79	409.38
340.018	433.38
340.246	419.38
340.474	426.38
340.702	408.38
340.93	407.38
341.158	407.38
341.386	410.38
341.614	430.38
341.842	389.38
342.07	407.38
342.298	410.38
342.526	397.38
342.754	397.38
342.981	414.38
343.209	391.38
343.437	386.38
343.665	409.38
343.893	406.38
344.12	428.38
344.348	416.38
344.576	423.38
344.804	421.38
345.031	427.38
345.259	439.38
345.487	416.38
345.714	435.38
345.942	422.38
346.17	395.38
346.397	398.38
346.625	412.38
346.853	411.38
347.08	411.38
347.308	415.38
347.535	425.38
347.763	425.38
347.99	406.38
348.218	401.38
348.445	415.38
348.673	420.38
348.9	391.38
349.128	404.38
349.355	406.38
349.583	382.38
349.81	389.38
350.037	386.38
350.265	396.38
350.492	398.38
350.72	397.38
350.947	376.38
351.174	411.38
351.402	426.38
351.629	393.38
351.856	409.38
352.083	407.38
352.311	415.38
352.538	439.38
352.765	441.38
352.992	417.38
353.22	401.38
353.447	405.38
353.674	391.38
353.901	380.38
354.128	373.38
354.355	380.38
354.583	367.38
354.81	373.38
355.037	366.38
355.264	374.38
355.491	352.38
355.718	348.38
355.945	355.38
356.172	355.38
356.399	344.38
356.626	371.38
356.853	349.38
357.08	359.38
357.307	360.38
357.534	356.38
357.761	358.38
357.988	371.38
358.215	376.38
358.441	360.38
358.668	351.38
358.895	372.38
359.122	383.38
359.349	375.38
359.576	390.38
359.802	428.38
360.029	454.38
360.256	470.38
360.483	442.38
360.709	425.38
360.936	391.38
361.163	389.38
361.39	385.38
361.616	393.38
361.843	394.38
362.07	377.38
362.296	405.38
362.523	396.38
362.749	385.38
362.976	384.38
363.203	381.38
363.429	361.38
363.656	397.38
363.882	361.38
364.109	361.38
364.335	364.38
364.562	366.38
364.788	359.38
365.015	373.38
365.241	376.38
365.468	381.38
365.694	383.38
365.92	400.38
366.147	383.38
366.373	373.38
366.599	363.38
366.826	367.38
367.052	363.38
367.278	368.38
367.505	380.38
367.731	376.38
367.957	353.38
368.184	354.38
368.41	377.38
368.636	388.38
368.862	383.38
369.089	388.38
369.315	368.38
369.541	373.38
369.767	353.38
369.993	348.38
370.219	365.38
370.445	363.38
370.672	350.38
370.898	369.38
371.124	342.38
371.35	344.38
371.576	367.38
371.802	357.38
372.028	355.38
372.254	349.38
372.48	334.38
372.706	350.38
372.932	351.38
373.158	370.38
373.384	337.38
373.61	330.38
373.835	348.38
374.061	348.38
374.287	363.38
374.513	371.38
374.739	377.38
374.965	363.38
375.191	362.38
375.416	359.38
375.642	327.38
375.868	349.38
376.094	359.38
376.319	362.38
376.545	336.38
376.771	348.38
376.997	363.38
377.222	355.38
377.448	351.38
377.674	355.38
377.899	355.38
378.125	353.38
378.35	339.38
378.576	370.38
378.802	357.38
379.027	356.38
379.253	350.38
379.478	338.38
379.704	357.38
379.929	339.38
380.155	340.38
380.38	361.38
380.606	340.38
380.831	333.38
381.057	365.38
381.282	360.38
381.507	360.38
381.733	344.38
381.958	350.38
382.184	336.38
382.409	355.38
382.634	354.38
382.86	348.38
383.085	346.38
383.31	336.38
383.535	342.38
383.761	366.38
383.986	364.38
384.211	346.38
384.436	348.38
384.662	352.38
384.887	352.38
385.112	355.38
385.337	367.38
385.562	351.38
385.787	372.38
386.013	380.38
386.238	376.38
386.463	379.38
386.688	374.38
386.913	370.38
387.138	351.38
387.363	361.38
387.588	355.38
387.813	353.38
388.038	357.38
388.263	363.38
388.488	358.38
388.713	374.38
388.938	375.38
389.163	367.38
389.387	372.38
389.612	361.38
389.837	375.38
390.062	364.38
390.287	354.38
390.512	362.38
390.736	349.38
390.961	358.38
391.186	353.38
391.411	366.38
391.636	374.38
391.86	359.38
392.085	357.38
392.31	370.38
392.534	360.38
392.759	374.38
392.984	365.38
393.208	368.38
393.433	350.38
393.658	363.38
393.882	363.38
394.107	356.38
394.331	365.38
394.556	365.38
394.78	356.38
395.005	361.38
395.229	361.38
395.454	378.38
395.678	363.38
395.903	400.38
396.127	392.38
396.352	390.38
396.576	383.38
396.801	384.38
397.025	379.38
397.249	383.38
397.474	403.38
397.698	383.38
397.922	411.38
398.147	406.38
398.371	414.38
398.595	400.38
398.82	397.38
399.044	387.38
399.268	418.38
399.492	427.38
399.717	446.38
399.941	463.38
400.165	482.38
400.389	486.38
400.613	449.38
400.837	417.38
401.062	413.38
401.286	406.38
401.51	407.38
401.734	406.38
401.958	407.38
402.182	434.38
402.406	433.38
402.63	408.38
402.854	413.38
403.078	423.38
403.302	413.38
403.526	427.38
403.75	426.38
403.974	411.38
404.198	405.38
404.422	424.38
404.645	438.38
404.869	432.38
405.093	443.38
405.317	478.38
405.541	501.38
405.765	486.38
405.988	446.38
406.212	451.38
406.436	457.38
406.66	472.38
406.883	459.38
407.107	479.38
407.331	516.38
407.555	558.38
407.778	589.38
408.002	493.38
408.226	447.38
408.449	452.38
408.673	462.38
408.896	504.38
409.12	528.38
409.344	480.38
409.567	460.38
409.791	451.38
410.014	413.38
410.238	410.38
410.461	430.38
410.685	414.38
410.908	436.38
411.132	457.38
411.355	493.38
411.578	473.38
411.802	437.38
412.025	418.38
412.249	404.38
412.472	445.38
412.695	487.38
412.919	463.38
413.142	422.38
413.365	430.38
413.589	414.38
413.812	386.38
414.035	406.38
414.258	390.38
414.482	382.38
414.705	397.38
414.928	395.38
415.151	395.38
415.374	392.38
415.597	391.38
415.821	395.38
416.044	390.38
416.267	399.38
416.49	387.38
416.713	399.38
416.936	407.38
417.159	392.38
417.382	392.38
417.605	400.38
417.828	439.38
418.051	442.38
418.274	406.38
418.497	396.38
418.72	380.38
418.943	383.38
419.166	398.38
419.389	405.38
419.611	428.38
419.834	420.38
420.057	405.38
420.28	434.38
420.503	415.38
420.726	435.38
420.948	418.38
421.171	468.38
421.394	480.38
421.617	447.38
421.839	425.38
422.062	406.38
422.285	431.38
422.507	486.38
422.73	544.38
422.953	542.38
423.175	480.38
423.398	464.38
423.621	453.38
423.843	451.38
424.066	454.38
424.288	453.38
424.511	458.38
424.733	518.38
424.956	588.38
425.178	566.38
425.401	584.38
425.623	588.38
425.846	486.38
426.068	477.38
426.291	459.38
426.513	455.38
426.735	458.38
426.958	501.38
427.18	588.38
427.402	684.38
427.625	743.38
427.847	647.38
428.069	583.38
428.292	500.38
428.514	477.38
428.736	442.38
428.958	447.38
429.181	415.38
429.403	422.38
429.625	445.38
429.847	444.38
430.069	518.38
430.292	527.38
430.514	444.38
430.736	432.38
430.958	427.38
431.18	421.38
431.402	406.38
431.624	420.38
431.846	407.38
432.068	387.38
432.29	381.38
432.512	391.38
432.734	390.38
432.956	405.38
433.178	395.38
433.4	403.38
433.622	412.38
433.844	386.38
434.066	393.38
434.287	390.38
434.509	391.38
434.731	398.38
434.953	399.38
435.175	421.38
435.397	454.38
435.618	460.38
435.84	478.38
436.062	582.38
436.284	652.38
436.505	542.38
436.727	488.38
436.949	445.38
437.17	431.38
437.392	429.38
437.614	435.38
437.835	463.38
438.057	581.38
438.278	680.38
438.5	635.38
438.721	687.38
438.943	663.38
439.165	540.38
439.386	472.38
439.608	483.38
439.829	468.38
440.05	521.38
440.272	550.38
440.493	516.38
440.715	463.38
440.936	447.38
441.158	427.38
441.379	431.38
441.6	432.38
441.822	469.38
442.043	504.38
442.264	597.38
442.486	597.38
442.707	527.38
442.928	479.38
443.149	475.38
443.371	518.38
443.592	537.38
443.813	638.38
444.034	647.38
444.255	522.38
444.476	492.38
444.698	470.38
444.919	457.38
445.14	589.38
445.361	526.38
445.582	502.38
445.803	571.38
446.024	670.38
446.245	639.38
446.466	592.38
446.687	520.38
446.908	463.38
447.129	441.38
447.35	431.38
447.571	426.38
447.792	416.38
448.013	436.38
448.234	451.38
448.455	508.38
448.675	573.38
448.896	681.38
449.117	584.38
449.338	590.38
449.559	657.38
449.779	722.38
450	595.38
450.221	495.38
450.442	438.38
450.662	438.38
450.883	451.38
451.104	420.38
451.324	422.38
451.545	382.38
451.766	404.38
451.986	384.38
452.207	391.38
452.428	384.38
452.648	381.38
452.869	396.38
453.089	394.38
453.31	398.38
453.53	395.38
453.751	389.38
453.971	398.38
454.192	433.38
454.412	417.38
454.633	393.38
454.853	386.38
455.073	379.38
455.294	424.38
455.514	477.38
455.734	450.38
455.955	408.38
456.175	382.38
456.395	356.38
456.616	344.38
456.836	365.38
457.056	343.38
457.276	339.38
457.497	371.38
457.717	342.38
457.937	366.38
458.157	375.38
458.377	386.38
458.598	395.38
458.818	442.38
459.038	494.38
459.258	528.38
459.478	450.38
459.698	412.38
459.918	382.38
460.138	366.38
460.358	396.38
460.578	379.38
460.798	392.38
461.018	403.38
461.238	382.38
461.458	396.38
461.678	379.38
461.898	375.38
462.118	377.38
462.338	371.38
462.558	395.38
462.777	376.38
462.997	384.38
463.217	408.38
463.437	399.38
463.657	375.38
463.876	378.38
464.096	390.38
464.316	410.38
464.536	407.38
464.755	436.38
464.975	407.38
465.195	496.38
465.414	550.38
465.634	471.38
465.854	428.38
466.073	415.38
466.293	394.38
466.512	365.38
466.732	375.38
466.951	394.38
467.171	378.38
467.391	372.38
467.61	374.38
467.829	389.38
468.049	414.38
468.268	376.38
468.488	378.38
468.707	372.38
468.927	364.38
469.146	382.38
469.365	372.38
469.585	398.38
469.804	394.38
470.023	381.38
470.243	378.38
470.462	404.38
470.681	408.38
470.901	413.38
471.12	392.38
471.339	385.38
471.558	391.38
471.777	400.38
471.997	375.38
472.216	379.38
472.435	434.38
472.654	394.38
472.873	383.38
473.092	408.38
473.311	362.38
473.53	384.38
473.749	386.38
473.968	450.38
474.187	539.38
474.406	551.38
474.625	449.38
474.844	409.38
475.063	400.38
475.282	373.38
475.501	402.38
475.72	411.38
475.939	402.38
476.158	402.38
476.377	421.38
476.596	388.38
476.814	411.38
477.033	431.38
477.252	409.38
477.471	411.38
477.69	421.38
477.908	437.38
478.127	424.38
478.346	424.38
478.564	428.38
478.783	433.38
479.002	440.38
479.22	435.38
479.439	440.38
479.658	468.38
479.876	469.38
480.095	458.38
480.313	476.38
480.532	485.38
480.751	471.38
480.969	470.38
481.188	541.38
481.406	556.38
481.624	523.38
481.843	490.38
482.061	456.38
482.28	467.38
482.498	478.38
482.717	438.38
482.935	454.38
483.153	455.38
483.372	450.38
483.59	446.38
483.808	451.38
484.027	441.38
484.245	451.38
484.463	461.38
484.681	448.38
484.9	462.38
485.118	471.38
485.336	459.38
485.554	462.38
485.772	458.38
485.99	469.38
486.209	490.38
486.427	484.38
486.645	522.38
486.863	493.38
487.081	528.38
487.299	514.38
487.517	485.38
487.735	473.38
487.953	489.38
488.171	502.38
488.389	475.38
488.607	486.38
488.825	499.38
489.043	472.38
489.261	483.38
489.479	504.38
489.696	520.38
489.914	496.38
490.132	522.38
490.35	516.38
490.568	499.38
490.786	525.38
491.003	512.38
491.221	538.38
491.439	576.38
491.657	575.38
491.874	546.38
492.092	548.38
492.31	563.38
492.527	573.38
492.745	566.38
492.963	580.38
493.18	570.38
493.398	558.38
493.615	582.38
493.833	583.38
494.05	583.38
494.268	556.38
494.485	576.38
494.703	574.38
494.92	598.38
495.138	575.38
495.355	597.38
495.573	600.38
495.79	570.38
496.008	591.38
496.225	560.38
496.442	602.38
496.66	596.38
496.877	588.38
497.094	582.38
497.312	559.38
497.529	587.38
497.746	608.38
497.963	601.38
498.181	623.38
498.398	642.38
498.615	619.38
498.832	643.38
499.049	634.38
499.267	653.38
499.484	646.38
499.701	654.38
499.918	672.38
500.135	695.38
500.352	685.38
500.569	711.38
500.786	706.38
501.003	708.38
501.22	700.38
501.437	682.38
501.654	708.38
501.871	706.38
