Data from 1981.PennyLincolnUp.Lamp.En5.5.200Scan.071819.P1_HRD10591_16-42-59-961.txt Node
Date: Thu Jul 18 16:42:59 EDT 2019
User: cochatt
Spectrometer: HR+D1059
Trigger mode: 1
Integration Time (sec): 1.000000E-1
Scans to average: 1
Electric dark correction enabled: true
Nonlinearity correction enabled: false
Boxcar width: 0
XAxis mode: Wavelengths
Number of Pixels in Spectrum: 2048
>>>>>Begin Spectral Data<<<<<
223.165	-26.56
223.4	-26.56
223.635	-26.56
223.869	-9.56
224.104	-3.56
224.338	-15.56
224.573	-12.56
224.808	-24.56
225.042	-7.56
225.277	-7.56
225.511	-2.56
225.746	17.44
225.98	7.44
226.215	5.44
226.449	9.44
226.683	3.44
226.918	31.44
227.152	35.44
227.387	36.44
227.621	28.44
227.856	47.44
228.09	47.44
228.324	50.44
228.559	50.44
228.793	58.44
229.027	96.44
229.262	100.44
229.496	128.44
229.73	130.44
229.964	161.44
230.199	136.44
230.433	129.44
230.667	105.44
230.901	110.44
231.136	111.44
231.37	120.44
231.604	105.44
231.838	100.44
232.072	103.44
232.306	108.44
232.541	101.44
232.775	114.44
233.009	101.44
233.243	108.44
233.477	127.44
233.711	128.44
233.945	109.44
234.179	92.44
234.413	124.44
234.647	123.44
234.881	113.44
235.115	117.44
235.349	118.44
235.583	105.44
235.817	110.44
236.051	116.44
236.285	119.44
236.519	133.44
236.753	118.44
236.987	165.44
237.221	197.44
237.455	226.44
237.689	188.44
237.922	161.44
238.156	146.44
238.39	137.44
238.624	134.44
238.858	103.44
239.091	128.44
239.325	134.44
239.559	125.44
239.793	120.44
240.027	151.44
240.26	150.44
240.494	158.44
240.728	164.44
240.961	154.44
241.195	141.44
241.429	132.44
241.662	153.44
241.896	128.44
242.13	133.44
242.363	133.44
242.597	132.44
242.83	140.44
243.064	151.44
243.298	150.44
243.531	130.44
243.765	144.44
243.998	146.44
244.232	137.44
244.465	144.44
244.699	142.44
244.932	126.44
245.166	148.44
245.399	142.44
245.633	143.44
245.866	154.44
246.099	153.44
246.333	147.44
246.566	151.44
246.8	146.44
247.033	158.44
247.266	138.44
247.5	155.44
247.733	167.44
247.966	190.44
248.2	172.44
248.433	190.44
248.666	168.44
248.899	193.44
249.133	186.44
249.366	218.44
249.599	208.44
249.832	181.44
250.066	186.44
250.299	195.44
250.532	186.44
250.765	216.44
250.998	230.44
251.231	218.44
251.465	224.44
251.698	219.44
251.931	215.44
252.164	197.44
252.397	215.44
252.63	206.44
252.863	215.44
253.096	210.44
253.329	246.44
253.562	232.44
253.795	231.44
254.028	227.44
254.261	230.44
254.494	255.44
254.727	263.44
254.96	307.44
255.193	291.44
255.426	272.44
255.659	245.44
255.892	251.44
256.124	240.44
256.357	237.44
256.59	244.44
256.823	230.44
257.056	229.44
257.289	207.44
257.521	217.44
257.754	211.44
257.987	212.44
258.22	213.44
258.452	219.44
258.685	230.44
258.918	229.44
259.151	223.44
259.383	233.44
259.616	240.44
259.849	215.44
260.081	243.44
260.314	277.44
260.547	267.44
260.779	264.44
261.012	249.44
261.244	226.44
261.477	229.44
261.71	242.44
261.942	258.44
262.175	240.44
262.407	252.44
262.64	232.44
262.872	228.44
263.105	222.44
263.337	226.44
263.57	216.44
263.802	225.44
264.035	213.44
264.267	218.44
264.499	208.44
264.732	227.44
264.964	230.44
265.197	231.44
265.429	220.44
265.661	216.44
265.894	214.44
266.126	219.44
266.358	222.44
266.591	213.44
266.823	209.44
267.055	246.44
267.287	240.44
267.52	222.44
267.752	238.44
267.984	228.44
268.216	235.44
268.448	264.44
268.681	240.44
268.913	238.44
269.145	284.44
269.377	284.44
269.609	278.44
269.841	290.44
270.073	298.44
270.306	304.44
270.538	331.44
270.77	328.44
271.002	323.44
271.234	326.44
271.466	315.44
271.698	328.44
271.93	344.44
272.162	329.44
272.394	329.44
272.626	341.44
272.858	307.44
273.09	292.44
273.322	297.44
273.553	282.44
273.785	274.44
274.017	280.44
274.249	272.44
274.481	280.44
274.713	299.44
274.945	281.44
275.176	288.44
275.408	267.44
275.64	269.44
275.872	280.44
276.104	268.44
276.335	285.44
276.567	287.44
276.799	305.44
277.031	313.44
277.262	336.44
277.494	328.44
277.726	322.44
277.957	307.44
278.189	276.44
278.421	280.44
278.652	292.44
278.884	277.44
279.115	268.44
279.347	272.44
279.579	281.44
279.81	284.44
280.042	274.44
280.273	291.44
280.505	279.44
280.736	268.44
280.968	282.44
281.199	276.44
281.431	275.44
281.662	279.44
281.894	292.44
282.125	278.44
282.356	295.44
282.588	317.44
282.819	314.44
283.051	286.44
283.282	288.44
283.513	265.44
283.745	299.44
283.976	285.44
284.207	293.44
284.439	298.44
284.67	283.44
284.901	286.44
285.132	280.44
285.364	277.44
285.595	277.44
285.826	291.44
286.057	290.44
286.288	286.44
286.52	271.44
286.751	281.44
286.982	303.44
287.213	294.44
287.444	284.44
287.675	284.44
287.906	308.44
288.138	306.44
288.369	308.44
288.6	320.44
288.831	320.44
289.062	301.44
289.293	287.44
289.524	295.44
289.755	292.44
289.986	292.44
290.217	271.44
290.448	294.44
290.679	290.44
290.91	289.44
291.141	289.44
291.371	279.44
291.602	272.44
291.833	283.44
292.064	296.44
292.295	278.44
292.526	284.44
292.757	282.44
292.987	288.44
293.218	289.44
293.449	285.44
293.68	303.44
293.91	284.44
294.141	287.44
294.372	282.44
294.603	286.44
294.833	288.44
295.064	293.44
295.295	294.44
295.525	283.44
295.756	303.44
295.987	309.44
296.217	319.44
296.448	330.44
296.679	323.44
296.909	303.44
297.14	283.44
297.37	289.44
297.601	283.44
297.831	287.44
298.062	303.44
298.292	294.44
298.523	306.44
298.753	306.44
298.984	311.44
299.214	327.44
299.445	310.44
299.675	296.44
299.905	326.44
300.136	319.44
300.366	312.44
300.597	303.44
300.827	311.44
301.057	304.44
301.288	322.44
301.518	331.44
301.748	321.44
301.979	338.44
302.209	320.44
302.439	344.44
302.669	316.44
302.9	323.44
303.13	306.44
303.36	321.44
303.59	326.44
303.82	341.44
304.051	350.44
304.281	347.44
304.511	325.44
304.741	326.44
304.971	343.44
305.201	325.44
305.431	325.44
305.661	326.44
305.891	320.44
306.121	337.44
306.352	339.44
306.582	345.44
306.812	321.44
307.042	322.44
307.272	325.44
307.502	332.44
307.731	326.44
307.961	328.44
308.191	340.44
308.421	343.44
308.651	327.44
308.881	353.44
309.111	358.44
309.341	350.44
309.571	369.44
309.8	358.44
310.03	404.44
310.26	378.44
310.49	403.44
310.72	403.44
310.949	408.44
311.179	397.44
311.409	390.44
311.639	384.44
311.868	417.44
312.098	395.44
312.328	401.44
312.557	427.44
312.787	432.44
313.017	423.44
313.246	397.44
313.476	371.44
313.706	377.44
313.935	405.44
314.165	414.44
314.394	427.44
314.624	395.44
314.853	399.44
315.083	403.44
315.312	375.44
315.542	370.44
315.771	403.44
316.001	383.44
316.23	398.44
316.46	370.44
316.689	381.44
316.919	378.44
317.148	397.44
317.377	390.44
317.607	420.44
317.836	410.44
318.065	376.44
318.295	384.44
318.524	392.44
318.753	389.44
318.983	393.44
319.212	381.44
319.441	402.44
319.67	393.44
319.9	394.44
320.129	401.44
320.358	396.44
320.587	404.44
320.816	411.44
321.046	399.44
321.275	417.44
321.504	430.44
321.733	433.44
321.962	408.44
322.191	427.44
322.42	454.44
322.649	465.44
322.878	486.44
323.108	511.44
323.337	530.44
323.566	560.44
323.795	600.44
324.024	658.44
324.253	847.44
324.482	1231.44
324.71	1825.44
324.939	2542.44
325.168	2142.44
325.397	1124.44
325.626	743.44
325.855	636.44
326.084	586.44
326.313	554.44
326.542	575.44
326.77	611.44
326.999	780.44
327.228	1082.44
327.457	1613.44
327.686	1840.44
327.914	1263.44
328.143	822.44
328.372	693.44
328.6	674.44
328.829	629.44
329.058	636.44
329.287	634.44
329.515	599.44
329.744	562.44
329.972	536.44
330.201	592.44
330.43	622.44
330.658	656.44
330.887	666.44
331.115	658.44
331.344	564.44
331.572	540.44
331.801	519.44
332.03	516.44
332.258	478.44
332.486	470.44
332.715	463.44
332.943	439.44
333.172	483.44
333.4	478.44
333.629	458.44
333.857	466.44
334.085	491.44
334.314	491.44
334.542	533.44
334.771	542.44
334.999	499.44
335.227	465.44
335.455	474.44
335.684	446.44
335.912	441.44
336.14	444.44
336.369	450.44
336.597	444.44
336.825	459.44
337.053	447.44
337.281	430.44
337.51	425.44
337.738	424.44
337.966	433.44
338.194	442.44
338.422	425.44
338.65	434.44
338.878	408.44
339.106	418.44
339.334	432.44
339.562	432.44
339.79	435.44
340.018	411.44
340.246	438.44
340.474	425.44
340.702	444.44
340.93	429.44
341.158	416.44
341.386	415.44
341.614	444.44
341.842	404.44
342.07	415.44
342.298	418.44
342.526	413.44
342.754	391.44
342.981	400.44
343.209	410.44
343.437	416.44
343.665	419.44
343.893	405.44
344.12	404.44
344.348	404.44
344.576	436.44
344.804	449.44
345.031	434.44
345.259	431.44
345.487	450.44
345.714	414.44
345.942	412.44
346.17	401.44
346.397	388.44
346.625	394.44
346.853	404.44
347.08	416.44
347.308	417.44
347.535	436.44
347.763	431.44
347.99	436.44
348.218	433.44
348.445	428.44
348.673	420.44
348.9	408.44
349.128	411.44
349.355	402.44
349.583	381.44
349.81	381.44
350.037	411.44
350.265	391.44
350.492	401.44
350.72	393.44
350.947	424.44
351.174	409.44
351.402	408.44
351.629	415.44
351.856	418.44
352.083	397.44
352.311	434.44
352.538	440.44
352.765	428.44
352.992	392.44
353.22	397.44
353.447	384.44
353.674	412.44
353.901	379.44
354.128	395.44
354.355	383.44
354.583	372.44
354.81	387.44
355.037	366.44
355.264	371.44
355.491	365.44
355.718	372.44
355.945	376.44
356.172	383.44
356.399	364.44
356.626	363.44
356.853	369.44
357.08	363.44
357.307	376.44
357.534	375.44
357.761	368.44
357.988	358.44
358.215	384.44
358.441	379.44
358.668	369.44
358.895	367.44
359.122	360.44
359.349	391.44
359.576	402.44
359.802	424.44
360.029	446.44
360.256	486.44
360.483	424.44
360.709	406.44
360.936	401.44
361.163	422.44
361.39	396.44
361.616	412.44
361.843	400.44
362.07	410.44
362.296	390.44
362.523	391.44
362.749	399.44
362.976	406.44
363.203	395.44
363.429	383.44
363.656	366.44
363.882	386.44
364.109	380.44
364.335	359.44
364.562	380.44
364.788	388.44
365.015	371.44
365.241	370.44
365.468	375.44
365.694	376.44
365.92	373.44
366.147	376.44
366.373	378.44
366.599	377.44
366.826	381.44
367.052	370.44
367.278	366.44
367.505	367.44
367.731	340.44
367.957	370.44
368.184	376.44
368.41	373.44
368.636	373.44
368.862	378.44
369.089	395.44
369.315	358.44
369.541	363.44
369.767	348.44
369.993	364.44
370.219	354.44
370.445	353.44
370.672	379.44
370.898	348.44
371.124	357.44
371.35	350.44
371.576	328.44
371.802	356.44
372.028	353.44
372.254	362.44
372.48	356.44
372.706	369.44
372.932	366.44
373.158	366.44
373.384	357.44
373.61	357.44
373.835	359.44
374.061	343.44
374.287	324.44
374.513	362.44
374.739	379.44
374.965	355.44
375.191	363.44
375.416	362.44
375.642	341.44
375.868	356.44
376.094	368.44
376.319	352.44
376.545	350.44
376.771	345.44
376.997	336.44
377.222	352.44
377.448	350.44
377.674	351.44
377.899	337.44
378.125	356.44
378.35	345.44
378.576	332.44
378.802	356.44
379.027	349.44
379.253	324.44
379.478	346.44
379.704	353.44
379.929	348.44
380.155	357.44
380.38	354.44
380.606	348.44
380.831	348.44
381.057	355.44
381.282	346.44
381.507	338.44
381.733	363.44
381.958	351.44
382.184	345.44
382.409	356.44
382.634	338.44
382.86	357.44
383.085	342.44
383.31	355.44
383.535	362.44
383.761	367.44
383.986	350.44
384.211	371.44
384.436	354.44
384.662	363.44
384.887	362.44
385.112	377.44
385.337	364.44
385.562	350.44
385.787	371.44
386.013	383.44
386.238	358.44
386.463	368.44
386.688	347.44
386.913	357.44
387.138	351.44
387.363	359.44
387.588	367.44
387.813	359.44
388.038	351.44
388.263	372.44
388.488	348.44
388.713	371.44
388.938	348.44
389.163	378.44
389.387	360.44
389.612	356.44
389.837	366.44
390.062	359.44
390.287	366.44
390.512	342.44
390.736	358.44
390.961	360.44
391.186	350.44
391.411	379.44
391.636	374.44
391.86	355.44
392.085	379.44
392.31	366.44
392.534	371.44
392.759	368.44
392.984	363.44
393.208	363.44
393.433	369.44
393.658	360.44
393.882	370.44
394.107	356.44
394.331	347.44
394.556	359.44
394.78	383.44
395.005	362.44
395.229	368.44
395.454	388.44
395.678	388.44
395.903	367.44
396.127	390.44
396.352	415.44
396.576	389.44
396.801	378.44
397.025	377.44
397.249	386.44
397.474	377.44
397.698	380.44
397.922	381.44
398.147	405.44
398.371	412.44
398.595	398.44
398.82	406.44
399.044	386.44
399.268	402.44
399.492	447.44
399.717	444.44
399.941	444.44
400.165	494.44
400.389	500.44
400.613	476.44
400.837	455.44
401.062	417.44
401.286	414.44
401.51	407.44
401.734	395.44
401.958	414.44
402.182	420.44
402.406	421.44
402.63	402.44
402.854	419.44
403.078	421.44
403.302	416.44
403.526	415.44
403.75	421.44
403.974	429.44
404.198	399.44
404.422	431.44
404.645	414.44
404.869	435.44
405.093	456.44
405.317	471.44
405.541	522.44
405.765	473.44
405.988	457.44
406.212	440.44
406.436	490.44
406.66	488.44
406.883	466.44
407.107	487.44
407.331	521.44
407.555	590.44
407.778	575.44
408.002	537.44
408.226	479.44
408.449	464.44
408.673	453.44
408.896	487.44
409.12	531.44
409.344	498.44
409.567	458.44
409.791	414.44
410.014	426.44
410.238	409.44
410.461	420.44
410.685	438.44
410.908	447.44
411.132	473.44
411.355	500.44
411.578	479.44
411.802	436.44
412.025	437.44
412.249	434.44
412.472	428.44
412.695	470.44
412.919	485.44
413.142	431.44
413.365	418.44
413.589	390.44
413.812	394.44
414.035	398.44
414.258	406.44
414.482	401.44
414.705	395.44
414.928	390.44
415.151	379.44
415.374	379.44
415.597	388.44
415.821	389.44
416.044	386.44
416.267	399.44
416.49	394.44
416.713	403.44
416.936	397.44
417.159	392.44
417.382	402.44
417.605	391.44
417.828	403.44
418.051	414.44
418.274	393.44
418.497	420.44
418.72	412.44
418.943	378.44
419.166	397.44
419.389	420.44
419.611	428.44
419.834	415.44
420.057	436.44
420.28	410.44
420.503	423.44
420.726	414.44
420.948	435.44
421.171	474.44
421.394	506.44
421.617	450.44
421.839	437.44
422.062	428.44
422.285	427.44
422.507	499.44
422.73	548.44
422.953	521.44
423.175	471.44
423.398	442.44
423.621	446.44
423.843	461.44
424.066	462.44
424.288	453.44
424.511	470.44
424.733	525.44
424.956	602.44
425.178	577.44
425.401	583.44
425.623	576.44
425.846	507.44
426.068	459.44
426.291	476.44
426.513	459.44
426.735	470.44
426.958	521.44
427.18	600.44
427.402	678.44
427.625	769.44
427.847	694.44
428.069	611.44
428.292	532.44
428.514	477.44
428.736	455.44
428.958	449.44
429.181	414.44
429.403	433.44
429.625	443.44
429.847	469.44
430.069	519.44
430.292	534.44
430.514	444.44
430.736	419.44
430.958	432.44
431.18	406.44
431.402	400.44
431.624	386.44
431.846	389.44
432.068	374.44
432.29	402.44
432.512	406.44
432.734	384.44
432.956	398.44
433.178	417.44
433.4	421.44
433.622	416.44
433.844	392.44
434.066	400.44
434.287	384.44
434.509	408.44
434.731	407.44
434.953	420.44
435.175	420.44
435.397	443.44
435.618	459.44
435.84	523.44
436.062	588.44
436.284	649.44
436.505	555.44
436.727	489.44
436.949	430.44
437.17	426.44
437.392	411.44
437.614	455.44
437.835	512.44
438.057	562.44
438.278	657.44
438.5	666.44
438.721	708.44
438.943	679.44
439.165	574.44
439.386	508.44
439.608	502.44
439.829	494.44
440.05	533.44
440.272	562.44
440.493	541.44
440.715	475.44
440.936	465.44
441.158	464.44
441.379	446.44
441.6	430.44
441.822	458.44
442.043	503.44
442.264	578.44
442.486	614.44
442.707	523.44
442.928	489.44
443.149	512.44
443.371	515.44
443.592	566.44
443.813	636.44
444.034	662.44
444.255	560.44
444.476	489.44
444.698	452.44
444.919	434.44
445.14	550.44
445.361	520.44
445.582	492.44
445.803	561.44
446.024	644.44
446.245	675.44
446.466	614.44
446.687	517.44
446.908	468.44
447.129	470.44
447.35	442.44
447.571	463.44
447.792	434.44
448.013	448.44
448.234	456.44
448.455	509.44
448.675	609.44
448.896	676.44
449.117	607.44
449.338	577.44
449.559	677.44
449.779	742.44
450	610.44
450.221	483.44
450.442	459.44
450.662	453.44
450.883	446.44
451.104	446.44
451.324	435.44
451.545	424.44
451.766	409.44
451.986	390.44
452.207	408.44
452.428	389.44
452.648	389.44
452.869	375.44
453.089	396.44
453.31	384.44
453.53	378.44
453.751	392.44
453.971	383.44
454.192	426.44
454.412	402.44
454.633	406.44
454.853	392.44
455.073	376.44
455.294	408.44
455.514	491.44
455.734	451.44
455.955	415.44
456.175	384.44
456.395	363.44
456.616	371.44
456.836	368.44
457.056	355.44
457.276	366.44
457.497	366.44
457.717	359.44
457.937	357.44
458.157	359.44
458.377	358.44
458.598	408.44
458.818	462.44
459.038	540.44
459.258	539.44
459.478	459.44
459.698	397.44
459.918	392.44
460.138	382.44
460.358	393.44
460.578	390.44
460.798	386.44
461.018	388.44
461.238	391.44
461.458	372.44
461.678	386.44
461.898	398.44
462.118	387.44
462.338	400.44
462.558	403.44
462.777	405.44
462.997	375.44
463.217	401.44
463.437	416.44
463.657	409.44
463.876	397.44
464.096	385.44
464.316	406.44
464.536	405.44
464.755	418.44
464.975	419.44
465.195	487.44
465.414	543.44
465.634	484.44
465.854	437.44
466.073	407.44
466.293	406.44
466.512	395.44
466.732	372.44
466.951	392.44
467.171	389.44
467.391	374.44
467.61	386.44
467.829	408.44
468.049	390.44
468.268	394.44
468.488	383.44
468.707	378.44
468.927	360.44
469.146	374.44
469.365	382.44
469.585	375.44
469.804	388.44
470.023	387.44
470.243	387.44
470.462	412.44
470.681	405.44
470.901	401.44
471.12	386.44
471.339	396.44
471.558	388.44
471.777	380.44
471.997	396.44
472.216	388.44
472.435	430.44
472.654	410.44
472.873	393.44
473.092	392.44
473.311	388.44
473.53	394.44
473.749	422.44
473.968	461.44
474.187	561.44
474.406	591.44
474.625	457.44
474.844	417.44
475.063	407.44
475.282	405.44
475.501	396.44
475.72	413.44
475.939	404.44
476.158	415.44
476.377	425.44
476.596	402.44
476.814	420.44
477.033	423.44
477.252	414.44
477.471	432.44
477.69	429.44
477.908	415.44
478.127	420.44
478.346	407.44
478.564	439.44
478.783	411.44
479.002	433.44
479.22	427.44
479.439	448.44
479.658	451.44
479.876	504.44
480.095	474.44
480.313	501.44
480.532	471.44
480.751	492.44
480.969	474.44
481.188	555.44
481.406	577.44
481.624	494.44
481.843	486.44
482.061	472.44
482.28	454.44
482.498	472.44
482.717	468.44
482.935	457.44
483.153	470.44
483.372	464.44
483.59	471.44
483.808	451.44
484.027	472.44
484.245	474.44
484.463	446.44
484.681	480.44
484.9	447.44
485.118	474.44
485.336	471.44
485.554	479.44
485.772	468.44
485.99	480.44
486.209	488.44
486.427	500.44
486.645	486.44
486.863	532.44
487.081	497.44
487.299	490.44
487.517	512.44
487.735	465.44
487.953	482.44
488.171	486.44
488.389	505.44
488.607	489.44
488.825	511.44
489.043	498.44
489.261	498.44
489.479	527.44
489.696	500.44
489.914	494.44
490.132	513.44
490.35	530.44
490.568	528.44
490.786	533.44
491.003	531.44
491.221	523.44
491.439	532.44
491.657	566.44
491.874	564.44
492.092	586.44
492.31	562.44
492.527	576.44
492.745	571.44
492.963	576.44
493.18	600.44
493.398	572.44
493.615	585.44
493.833	578.44
494.05	589.44
494.268	573.44
494.485	591.44
494.703	581.44
494.92	598.44
495.138	595.44
495.355	598.44
495.573	595.44
495.79	584.44
496.008	609.44
496.225	612.44
496.442	619.44
496.66	580.44
496.877	598.44
497.094	583.44
497.312	591.44
497.529	598.44
497.746	615.44
497.963	604.44
498.181	627.44
498.398	628.44
498.615	652.44
498.832	668.44
499.049	646.44
499.267	658.44
499.484	669.44
499.701	664.44
499.918	671.44
500.135	684.44
500.352	727.44
500.569	692.44
500.786	734.44
501.003	720.44
501.22	727.44
501.437	696.44
501.654	697.44
501.871	708.44
