Data from 1981.PennyLincolnUp.Lamp.En5.5.200Scan.071819.P1_HRD10591_16-42-26-963.txt Node
Date: Thu Jul 18 16:42:26 EDT 2019
User: cochatt
Spectrometer: HR+D1059
Trigger mode: 1
Integration Time (sec): 1.000000E-1
Scans to average: 1
Electric dark correction enabled: true
Nonlinearity correction enabled: false
Boxcar width: 0
XAxis mode: Wavelengths
Number of Pixels in Spectrum: 2048
>>>>>Begin Spectral Data<<<<<
223.165	-13.56
223.4	-13.56
223.635	-13.56
223.869	-19.56
224.104	-21.56
224.338	-3.56
224.573	-19.56
224.808	-5.56
225.042	-2.56
225.277	-4.56
225.511	0.44
225.746	-0.56
225.98	9.44
226.215	5.44
226.449	13.44
226.683	7.44
226.918	27.44
227.152	27.44
227.387	37.44
227.621	49.44
227.856	57.44
228.09	50.44
228.324	44.44
228.559	65.44
228.793	71.44
229.027	106.44
229.262	123.44
229.496	123.44
229.73	141.44
229.964	141.44
230.199	130.44
230.433	117.44
230.667	111.44
230.901	118.44
231.136	105.44
231.37	101.44
231.604	114.44
231.838	121.44
232.072	105.44
232.306	135.44
232.541	110.44
232.775	104.44
233.009	107.44
233.243	118.44
233.477	109.44
233.711	118.44
233.945	129.44
234.179	105.44
234.413	113.44
234.647	112.44
234.881	125.44
235.115	125.44
235.349	130.44
235.583	127.44
235.817	132.44
236.051	119.44
236.285	132.44
236.519	127.44
236.753	130.44
236.987	169.44
237.221	183.44
237.455	238.44
237.689	205.44
237.922	151.44
238.156	140.44
238.39	151.44
238.624	130.44
238.858	131.44
239.091	131.44
239.325	121.44
239.559	133.44
239.793	133.44
240.027	126.44
240.26	154.44
240.494	163.44
240.728	154.44
240.961	147.44
241.195	150.44
241.429	139.44
241.662	143.44
241.896	141.44
242.13	141.44
242.363	133.44
242.597	134.44
242.83	141.44
243.064	137.44
243.298	104.44
243.531	145.44
243.765	135.44
243.998	150.44
244.232	129.44
244.465	154.44
244.699	137.44
244.932	141.44
245.166	157.44
245.399	143.44
245.633	150.44
245.866	153.44
246.099	132.44
246.333	160.44
246.566	141.44
246.8	153.44
247.033	146.44
247.266	169.44
247.5	179.44
247.733	170.44
247.966	180.44
248.2	186.44
248.433	166.44
248.666	191.44
248.899	187.44
249.133	204.44
249.366	220.44
249.599	201.44
249.832	202.44
250.066	169.44
250.299	191.44
250.532	211.44
250.765	200.44
250.998	229.44
251.231	245.44
251.465	219.44
251.698	202.44
251.931	219.44
252.164	201.44
252.397	213.44
252.63	230.44
252.863	210.44
253.096	234.44
253.329	225.44
253.562	230.44
253.795	227.44
254.028	232.44
254.261	225.44
254.494	240.44
254.727	269.44
254.96	284.44
255.193	284.44
255.426	268.44
255.659	263.44
255.892	270.44
256.124	266.44
256.357	241.44
256.59	238.44
256.823	238.44
257.056	217.44
257.289	229.44
257.521	207.44
257.754	228.44
257.987	223.44
258.22	235.44
258.452	233.44
258.685	216.44
258.918	214.44
259.151	225.44
259.383	211.44
259.616	217.44
259.849	246.44
260.081	260.44
260.314	281.44
260.547	263.44
260.779	261.44
261.012	238.44
261.244	245.44
261.477	246.44
261.71	242.44
261.942	231.44
262.175	245.44
262.407	236.44
262.64	232.44
262.872	239.44
263.105	227.44
263.337	232.44
263.57	231.44
263.802	224.44
264.035	226.44
264.267	222.44
264.499	231.44
264.732	227.44
264.964	226.44
265.197	214.44
265.429	225.44
265.661	233.44
265.894	245.44
266.126	240.44
266.358	246.44
266.591	219.44
266.823	236.44
267.055	231.44
267.287	244.44
267.52	234.44
267.752	230.44
267.984	230.44
268.216	246.44
268.448	232.44
268.681	256.44
268.913	261.44
269.145	270.44
269.377	290.44
269.609	293.44
269.841	285.44
270.073	291.44
270.306	290.44
270.538	345.44
270.77	337.44
271.002	325.44
271.234	307.44
271.466	317.44
271.698	347.44
271.93	346.44
272.162	347.44
272.394	342.44
272.626	343.44
272.858	310.44
273.09	313.44
273.322	294.44
273.553	273.44
273.785	298.44
274.017	270.44
274.249	287.44
274.481	271.44
274.713	288.44
274.945	279.44
275.176	273.44
275.408	297.44
275.64	295.44
275.872	261.44
276.104	279.44
276.335	291.44
276.567	281.44
276.799	297.44
277.031	321.44
277.262	349.44
277.494	331.44
277.726	318.44
277.957	302.44
278.189	304.44
278.421	300.44
278.652	287.44
278.884	287.44
279.115	270.44
279.347	278.44
279.579	270.44
279.81	278.44
280.042	284.44
280.273	283.44
280.505	277.44
280.736	264.44
280.968	273.44
281.199	294.44
281.431	285.44
281.662	273.44
281.894	289.44
282.125	286.44
282.356	290.44
282.588	308.44
282.819	335.44
283.051	293.44
283.282	304.44
283.513	290.44
283.745	277.44
283.976	287.44
284.207	298.44
284.439	277.44
284.67	272.44
284.901	285.44
285.132	274.44
285.364	283.44
285.595	278.44
285.826	273.44
286.057	302.44
286.288	297.44
286.52	288.44
286.751	291.44
286.982	287.44
287.213	281.44
287.444	304.44
287.675	306.44
287.906	303.44
288.138	316.44
288.369	300.44
288.6	313.44
288.831	307.44
289.062	317.44
289.293	281.44
289.524	287.44
289.755	306.44
289.986	295.44
290.217	279.44
290.448	282.44
290.679	291.44
290.91	296.44
291.141	278.44
291.371	283.44
291.602	296.44
291.833	273.44
292.064	288.44
292.295	284.44
292.526	286.44
292.757	286.44
292.987	289.44
293.218	296.44
293.449	300.44
293.68	287.44
293.91	302.44
294.141	289.44
294.372	287.44
294.603	291.44
294.833	290.44
295.064	308.44
295.295	303.44
295.525	302.44
295.756	303.44
295.987	303.44
296.217	325.44
296.448	347.44
296.679	313.44
296.909	323.44
297.14	297.44
297.37	304.44
297.601	309.44
297.831	297.44
298.062	306.44
298.292	313.44
298.523	315.44
298.753	305.44
298.984	322.44
299.214	304.44
299.445	300.44
299.675	294.44
299.905	322.44
300.136	305.44
300.366	290.44
300.597	313.44
300.827	315.44
301.057	317.44
301.288	341.44
301.518	320.44
301.748	337.44
301.979	317.44
302.209	312.44
302.439	349.44
302.669	335.44
302.9	327.44
303.13	330.44
303.36	322.44
303.59	333.44
303.82	358.44
304.051	336.44
304.281	328.44
304.511	335.44
304.741	327.44
304.971	320.44
305.201	310.44
305.431	310.44
305.661	308.44
305.891	337.44
306.121	313.44
306.352	328.44
306.582	326.44
306.812	336.44
307.042	332.44
307.272	319.44
307.502	316.44
307.731	333.44
307.961	340.44
308.191	345.44
308.421	347.44
308.651	337.44
308.881	330.44
309.111	349.44
309.341	366.44
309.571	364.44
309.8	360.44
310.03	387.44
310.26	391.44
310.49	379.44
310.72	411.44
310.949	397.44
311.179	403.44
311.409	401.44
311.639	393.44
311.868	396.44
312.098	395.44
312.328	416.44
312.557	415.44
312.787	425.44
313.017	423.44
313.246	403.44
313.476	389.44
313.706	391.44
313.935	410.44
314.165	396.44
314.394	439.44
314.624	403.44
314.853	401.44
315.083	397.44
315.312	383.44
315.542	384.44
315.771	383.44
316.001	383.44
316.23	381.44
316.46	388.44
316.689	374.44
316.919	391.44
317.148	406.44
317.377	428.44
317.607	393.44
317.836	397.44
318.065	410.44
318.295	392.44
318.524	397.44
318.753	410.44
318.983	375.44
319.212	397.44
319.441	396.44
319.67	401.44
319.9	407.44
320.129	399.44
320.358	408.44
320.587	397.44
320.816	411.44
321.046	420.44
321.275	424.44
321.504	426.44
321.733	398.44
321.962	421.44
322.191	438.44
322.42	446.44
322.649	488.44
322.878	511.44
323.108	506.44
323.337	527.44
323.566	581.44
323.795	583.44
324.024	642.44
324.253	838.44
324.482	1215.44
324.71	1810.44
324.939	2451.44
325.168	2123.44
325.397	1150.44
325.626	743.44
325.855	642.44
326.084	573.44
326.313	563.44
326.542	581.44
326.77	639.44
326.999	762.44
327.228	1053.44
327.457	1579.44
327.686	1847.44
327.914	1250.44
328.143	829.44
328.372	701.44
328.6	657.44
328.829	626.44
329.058	628.44
329.287	651.44
329.515	614.44
329.744	542.44
329.972	576.44
330.201	583.44
330.43	624.44
330.658	639.44
330.887	665.44
331.115	645.44
331.344	554.44
331.572	540.44
331.801	542.44
332.03	517.44
332.258	494.44
332.486	467.44
332.715	490.44
332.943	446.44
333.172	455.44
333.4	457.44
333.629	478.44
333.857	471.44
334.085	468.44
334.314	496.44
334.542	527.44
334.771	544.44
334.999	499.44
335.227	476.44
335.455	449.44
335.684	440.44
335.912	443.44
336.14	438.44
336.369	439.44
336.597	458.44
336.825	476.44
337.053	458.44
337.281	432.44
337.51	431.44
337.738	438.44
337.966	437.44
338.194	446.44
338.422	453.44
338.65	448.44
338.878	426.44
339.106	422.44
339.334	427.44
339.562	423.44
339.79	424.44
340.018	420.44
340.246	427.44
340.474	419.44
340.702	409.44
340.93	426.44
341.158	441.44
341.386	409.44
341.614	419.44
341.842	449.44
342.07	420.44
342.298	403.44
342.526	403.44
342.754	410.44
342.981	413.44
343.209	387.44
343.437	400.44
343.665	413.44
343.893	403.44
344.12	423.44
344.348	422.44
344.576	421.44
344.804	423.44
345.031	434.44
345.259	459.44
345.487	437.44
345.714	435.44
345.942	422.44
346.17	426.44
346.397	394.44
346.625	417.44
346.853	415.44
347.08	394.44
347.308	417.44
347.535	433.44
347.763	429.44
347.99	424.44
348.218	439.44
348.445	418.44
348.673	433.44
348.9	425.44
349.128	402.44
349.355	409.44
349.583	409.44
349.81	402.44
350.037	395.44
350.265	403.44
350.492	403.44
350.72	416.44
350.947	403.44
351.174	421.44
351.402	426.44
351.629	411.44
351.856	411.44
352.083	419.44
352.311	432.44
352.538	426.44
352.765	446.44
352.992	454.44
353.22	412.44
353.447	385.44
353.674	416.44
353.901	402.44
354.128	390.44
354.355	363.44
354.583	385.44
354.81	377.44
355.037	383.44
355.264	366.44
355.491	381.44
355.718	357.44
355.945	371.44
356.172	377.44
356.399	362.44
356.626	368.44
356.853	361.44
357.08	361.44
357.307	360.44
357.534	357.44
357.761	364.44
357.988	345.44
358.215	384.44
358.441	379.44
358.668	359.44
358.895	376.44
359.122	378.44
359.349	404.44
359.576	395.44
359.802	428.44
360.029	449.44
360.256	468.44
360.483	450.44
360.709	426.44
360.936	398.44
361.163	407.44
361.39	409.44
361.616	409.44
361.843	396.44
362.07	392.44
362.296	398.44
362.523	413.44
362.749	394.44
362.976	407.44
363.203	377.44
363.429	389.44
363.656	379.44
363.882	387.44
364.109	378.44
364.335	379.44
364.562	362.44
364.788	385.44
365.015	370.44
365.241	387.44
365.468	366.44
365.694	373.44
365.92	375.44
366.147	372.44
366.373	373.44
366.599	393.44
366.826	357.44
367.052	382.44
367.278	380.44
367.505	355.44
367.731	387.44
367.957	363.44
368.184	383.44
368.41	391.44
368.636	394.44
368.862	383.44
369.089	376.44
369.315	363.44
369.541	361.44
369.767	356.44
369.993	370.44
370.219	371.44
370.445	357.44
370.672	342.44
370.898	354.44
371.124	354.44
371.35	367.44
371.576	361.44
371.802	371.44
372.028	345.44
372.254	343.44
372.48	347.44
372.706	358.44
372.932	362.44
373.158	363.44
373.384	365.44
373.61	353.44
373.835	354.44
374.061	364.44
374.287	355.44
374.513	358.44
374.739	353.44
374.965	359.44
375.191	357.44
375.416	355.44
375.642	350.44
375.868	365.44
376.094	371.44
376.319	365.44
376.545	350.44
376.771	353.44
376.997	362.44
377.222	368.44
377.448	354.44
377.674	377.44
377.899	353.44
378.125	323.44
378.35	336.44
378.576	339.44
378.802	337.44
379.027	346.44
379.253	340.44
379.478	334.44
379.704	357.44
379.929	359.44
380.155	345.44
380.38	355.44
380.606	354.44
380.831	330.44
381.057	339.44
381.282	336.44
381.507	345.44
381.733	356.44
381.958	349.44
382.184	354.44
382.409	340.44
382.634	365.44
382.86	362.44
383.085	349.44
383.31	376.44
383.535	353.44
383.761	359.44
383.986	366.44
384.211	345.44
384.436	367.44
384.662	374.44
384.887	344.44
385.112	343.44
385.337	375.44
385.562	361.44
385.787	366.44
386.013	371.44
386.238	389.44
386.463	390.44
386.688	388.44
386.913	353.44
387.138	359.44
387.363	378.44
387.588	356.44
387.813	365.44
388.038	371.44
388.263	360.44
388.488	376.44
388.713	364.44
388.938	355.44
389.163	387.44
389.387	383.44
389.612	354.44
389.837	366.44
390.062	360.44
390.287	372.44
390.512	359.44
390.736	354.44
390.961	386.44
391.186	367.44
391.411	343.44
391.636	355.44
391.86	358.44
392.085	362.44
392.31	367.44
392.534	376.44
392.759	356.44
392.984	363.44
393.208	345.44
393.433	368.44
393.658	377.44
393.882	369.44
394.107	367.44
394.331	375.44
394.556	359.44
394.78	368.44
395.005	361.44
395.229	370.44
395.454	348.44
395.678	364.44
395.903	387.44
396.127	411.44
396.352	390.44
396.576	386.44
396.801	381.44
397.025	358.44
397.249	379.44
397.474	385.44
397.698	395.44
397.922	379.44
398.147	407.44
398.371	393.44
398.595	394.44
398.82	403.44
399.044	386.44
399.268	412.44
399.492	421.44
399.717	439.44
399.941	465.44
400.165	485.44
400.389	501.44
400.613	470.44
400.837	437.44
401.062	416.44
401.286	411.44
401.51	409.44
401.734	382.44
401.958	403.44
402.182	421.44
402.406	431.44
402.63	438.44
402.854	415.44
403.078	421.44
403.302	425.44
403.526	430.44
403.75	423.44
403.974	430.44
404.198	401.44
404.422	425.44
404.645	431.44
404.869	425.44
405.093	471.44
405.317	498.44
405.541	489.44
405.765	466.44
405.988	441.44
406.212	464.44
406.436	481.44
406.66	477.44
406.883	464.44
407.107	485.44
407.331	521.44
407.555	556.44
407.778	590.44
408.002	530.44
408.226	463.44
408.449	473.44
408.673	474.44
408.896	486.44
409.12	508.44
409.344	505.44
409.567	446.44
409.791	434.44
410.014	444.44
410.238	428.44
410.461	420.44
410.685	432.44
410.908	438.44
411.132	460.44
411.355	502.44
411.578	450.44
411.802	442.44
412.025	431.44
412.249	426.44
412.472	455.44
412.695	481.44
412.919	477.44
413.142	434.44
413.365	413.44
413.589	393.44
413.812	404.44
414.035	399.44
414.258	389.44
414.482	403.44
414.705	404.44
414.928	395.44
415.151	399.44
415.374	402.44
415.597	393.44
415.821	389.44
416.044	393.44
416.267	377.44
416.49	383.44
416.713	387.44
416.936	397.44
417.159	412.44
417.382	423.44
417.605	395.44
417.828	422.44
418.051	426.44
418.274	414.44
418.497	419.44
418.72	411.44
418.943	395.44
419.166	412.44
419.389	425.44
419.611	425.44
419.834	392.44
420.057	415.44
420.28	403.44
420.503	432.44
420.726	418.44
420.948	438.44
421.171	467.44
421.394	481.44
421.617	439.44
421.839	437.44
422.062	431.44
422.285	438.44
422.507	470.44
422.73	530.44
422.953	528.44
423.175	470.44
423.398	463.44
423.621	473.44
423.843	465.44
424.066	467.44
424.288	457.44
424.511	501.44
424.733	539.44
424.956	573.44
425.178	578.44
425.401	579.44
425.623	600.44
425.846	519.44
426.068	480.44
426.291	455.44
426.513	461.44
426.735	469.44
426.958	527.44
427.18	594.44
427.402	698.44
427.625	768.44
427.847	690.44
428.069	592.44
428.292	542.44
428.514	488.44
428.736	463.44
428.958	449.44
429.181	437.44
429.403	414.44
429.625	448.44
429.847	465.44
430.069	524.44
430.292	529.44
430.514	450.44
430.736	440.44
430.958	415.44
431.18	425.44
431.402	398.44
431.624	398.44
431.846	399.44
432.068	408.44
432.29	394.44
432.512	416.44
432.734	431.44
432.956	407.44
433.178	433.44
433.4	415.44
433.622	408.44
433.844	398.44
434.066	407.44
434.287	404.44
434.509	393.44
434.731	417.44
434.953	414.44
435.175	425.44
435.397	451.44
435.618	457.44
435.84	518.44
436.062	594.44
436.284	654.44
436.505	542.44
436.727	494.44
436.949	458.44
437.17	425.44
437.392	441.44
437.614	456.44
437.835	516.44
438.057	599.44
438.278	671.44
438.5	669.44
438.721	717.44
438.943	697.44
439.165	556.44
439.386	497.44
439.608	487.44
439.829	496.44
440.05	546.44
440.272	566.44
440.493	517.44
440.715	459.44
440.936	434.44
441.158	441.44
441.379	446.44
441.6	431.44
441.822	475.44
442.043	495.44
442.264	591.44
442.486	613.44
442.707	505.44
442.928	486.44
443.149	471.44
443.371	522.44
443.592	551.44
443.813	642.44
444.034	671.44
444.255	549.44
444.476	480.44
444.698	476.44
444.919	453.44
445.14	550.44
445.361	513.44
445.582	515.44
445.803	579.44
446.024	662.44
446.245	673.44
446.466	631.44
446.687	537.44
446.908	467.44
447.129	450.44
447.35	424.44
447.571	439.44
447.792	403.44
448.013	436.44
448.234	465.44
448.455	519.44
448.675	612.44
448.896	698.44
449.117	614.44
449.338	576.44
449.559	658.44
449.779	700.44
450	598.44
450.221	483.44
450.442	464.44
450.662	440.44
450.883	454.44
451.104	458.44
451.324	452.44
451.545	417.44
451.766	418.44
451.986	393.44
452.207	403.44
452.428	396.44
452.648	390.44
452.869	395.44
453.089	414.44
453.31	393.44
453.53	389.44
453.751	412.44
453.971	395.44
454.192	421.44
454.412	419.44
454.633	395.44
454.853	408.44
455.073	385.44
455.294	432.44
455.514	481.44
455.734	487.44
455.955	395.44
456.175	384.44
456.395	378.44
456.616	368.44
456.836	370.44
457.056	362.44
457.276	359.44
457.497	349.44
457.717	360.44
457.937	368.44
458.157	375.44
458.377	389.44
458.598	413.44
458.818	477.44
459.038	518.44
459.258	559.44
459.478	462.44
459.698	415.44
459.918	404.44
460.138	385.44
460.358	384.44
460.578	398.44
460.798	410.44
461.018	396.44
461.238	393.44
461.458	386.44
461.678	377.44
461.898	387.44
462.118	383.44
462.338	388.44
462.558	410.44
462.777	421.44
462.997	411.44
463.217	413.44
463.437	437.44
463.657	418.44
463.876	410.44
464.096	394.44
464.316	410.44
464.536	419.44
464.755	429.44
464.975	433.44
465.195	480.44
465.414	541.44
465.634	486.44
465.854	434.44
466.073	406.44
466.293	405.44
466.512	393.44
466.732	397.44
466.951	382.44
467.171	387.44
467.391	390.44
467.61	395.44
467.829	426.44
468.049	407.44
468.268	407.44
468.488	401.44
468.707	379.44
468.927	374.44
469.146	378.44
469.365	367.44
469.585	379.44
469.804	407.44
470.023	384.44
470.243	387.44
470.462	418.44
470.681	429.44
470.901	425.44
471.12	381.44
471.339	410.44
471.558	403.44
471.777	409.44
471.997	395.44
472.216	390.44
472.435	432.44
472.654	418.44
472.873	382.44
473.092	405.44
473.311	385.44
473.53	404.44
473.749	413.44
473.968	442.44
474.187	559.44
474.406	591.44
474.625	467.44
474.844	409.44
475.063	404.44
475.282	393.44
475.501	389.44
475.72	412.44
475.939	403.44
476.158	425.44
476.377	409.44
476.596	392.44
476.814	423.44
477.033	409.44
477.252	409.44
477.471	426.44
477.69	425.44
477.908	408.44
478.127	411.44
478.346	419.44
478.564	440.44
478.783	419.44
479.002	410.44
479.22	405.44
479.439	453.44
479.658	456.44
479.876	479.44
480.095	472.44
480.313	500.44
480.532	494.44
480.751	450.44
480.969	486.44
481.188	523.44
481.406	584.44
481.624	521.44
481.843	471.44
482.061	471.44
482.28	489.44
482.498	490.44
482.717	444.44
482.935	458.44
483.153	454.44
483.372	460.44
483.59	447.44
483.808	455.44
484.027	461.44
484.245	460.44
484.463	464.44
484.681	459.44
484.9	449.44
485.118	482.44
485.336	470.44
485.554	480.44
485.772	469.44
485.99	493.44
486.209	475.44
486.427	491.44
486.645	499.44
486.863	518.44
487.081	525.44
487.299	496.44
487.517	479.44
487.735	489.44
487.953	477.44
488.171	514.44
488.389	517.44
488.607	494.44
488.825	476.44
489.043	482.44
489.261	517.44
489.479	510.44
489.696	521.44
489.914	505.44
490.132	526.44
490.35	513.44
490.568	529.44
490.786	541.44
491.003	532.44
491.221	545.44
491.439	537.44
491.657	558.44
491.874	554.44
492.092	563.44
492.31	571.44
492.527	563.44
492.745	566.44
492.963	568.44
493.18	575.44
493.398	589.44
493.615	566.44
493.833	583.44
494.05	579.44
494.268	574.44
494.485	559.44
494.703	592.44
494.92	581.44
495.138	602.44
495.355	601.44
495.573	591.44
495.79	606.44
496.008	585.44
496.225	580.44
496.442	590.44
496.66	559.44
496.877	567.44
497.094	593.44
497.312	575.44
497.529	599.44
497.746	615.44
497.963	623.44
498.181	637.44
498.398	641.44
498.615	633.44
498.832	642.44
499.049	649.44
499.267	657.44
499.484	677.44
499.701	675.44
499.918	675.44
500.135	694.44
500.352	716.44
500.569	701.44
500.786	718.44
501.003	727.44
501.22	707.44
501.437	712.44
501.654	684.44
501.871	697.44
