Data from 1981.PennyLincolnUp.Lamp.En5.5.200Scan.071819.P1_HRD10591_16-43-36-960.txt Node
Date: Thu Jul 18 16:43:36 EDT 2019
User: cochatt
Spectrometer: HR+D1059
Trigger mode: 1
Integration Time (sec): 1.000000E-1
Scans to average: 1
Electric dark correction enabled: true
Nonlinearity correction enabled: false
Boxcar width: 0
XAxis mode: Wavelengths
Number of Pixels in Spectrum: 2048
>>>>>Begin Spectral Data<<<<<
223.165	-11.56
223.4	-11.56
223.635	-11.56
223.869	-12.56
224.104	-18.56
224.338	-1.56
224.573	-15.56
224.808	-18.56
225.042	-13.56
225.277	-2.56
225.511	-4.56
225.746	-3.56
225.98	11.44
226.215	13.44
226.449	13.44
226.683	15.44
226.918	26.44
227.152	22.44
227.387	39.44
227.621	45.44
227.856	48.44
228.09	38.44
228.324	27.44
228.559	56.44
228.793	70.44
229.027	100.44
229.262	112.44
229.496	132.44
229.73	142.44
229.964	156.44
230.199	132.44
230.433	106.44
230.667	125.44
230.901	106.44
231.136	106.44
231.37	126.44
231.604	117.44
231.838	126.44
232.072	116.44
232.306	127.44
232.541	120.44
232.775	119.44
233.009	106.44
233.243	111.44
233.477	118.44
233.711	115.44
233.945	108.44
234.179	130.44
234.413	131.44
234.647	118.44
234.881	124.44
235.115	120.44
235.349	119.44
235.583	120.44
235.817	118.44
236.051	132.44
236.285	121.44
236.519	130.44
236.753	157.44
236.987	140.44
237.221	174.44
237.455	251.44
237.689	190.44
237.922	147.44
238.156	138.44
238.39	127.44
238.624	131.44
238.858	123.44
239.091	120.44
239.325	137.44
239.559	132.44
239.793	122.44
240.027	130.44
240.26	159.44
240.494	172.44
240.728	154.44
240.961	146.44
241.195	150.44
241.429	144.44
241.662	130.44
241.896	141.44
242.13	141.44
242.363	138.44
242.597	141.44
242.83	147.44
243.064	153.44
243.298	158.44
243.531	151.44
243.765	146.44
243.998	138.44
244.232	144.44
244.465	156.44
244.699	164.44
244.932	152.44
245.166	150.44
245.399	137.44
245.633	152.44
245.866	141.44
246.099	162.44
246.333	152.44
246.566	141.44
246.8	142.44
247.033	154.44
247.266	184.44
247.5	175.44
247.733	178.44
247.966	174.44
248.2	186.44
248.433	172.44
248.666	183.44
248.899	213.44
249.133	188.44
249.366	218.44
249.599	214.44
249.832	207.44
250.066	195.44
250.299	190.44
250.532	208.44
250.765	220.44
250.998	213.44
251.231	246.44
251.465	222.44
251.698	220.44
251.931	219.44
252.164	219.44
252.397	225.44
252.63	211.44
252.863	225.44
253.096	252.44
253.329	237.44
253.562	236.44
253.795	228.44
254.028	253.44
254.261	249.44
254.494	254.44
254.727	279.44
254.96	318.44
255.193	306.44
255.426	286.44
255.659	249.44
255.892	261.44
256.124	252.44
256.357	243.44
256.59	231.44
256.823	234.44
257.056	242.44
257.289	226.44
257.521	241.44
257.754	218.44
257.987	220.44
258.22	234.44
258.452	220.44
258.685	239.44
258.918	228.44
259.151	238.44
259.383	234.44
259.616	243.44
259.849	238.44
260.081	260.44
260.314	284.44
260.547	283.44
260.779	276.44
261.012	254.44
261.244	236.44
261.477	251.44
261.71	235.44
261.942	242.44
262.175	271.44
262.407	259.44
262.64	243.44
262.872	230.44
263.105	217.44
263.337	230.44
263.57	230.44
263.802	231.44
264.035	223.44
264.267	223.44
264.499	225.44
264.732	239.44
264.964	223.44
265.197	227.44
265.429	223.44
265.661	221.44
265.894	221.44
266.126	215.44
266.358	241.44
266.591	244.44
266.823	230.44
267.055	238.44
267.287	226.44
267.52	245.44
267.752	248.44
267.984	255.44
268.216	258.44
268.448	242.44
268.681	268.44
268.913	278.44
269.145	296.44
269.377	287.44
269.609	296.44
269.841	304.44
270.073	307.44
270.306	324.44
270.538	339.44
270.77	358.44
271.002	314.44
271.234	315.44
271.466	315.44
271.698	353.44
271.93	349.44
272.162	354.44
272.394	337.44
272.626	326.44
272.858	320.44
273.09	304.44
273.322	281.44
273.553	281.44
273.785	285.44
274.017	286.44
274.249	289.44
274.481	271.44
274.713	279.44
274.945	295.44
275.176	284.44
275.408	307.44
275.64	286.44
275.872	284.44
276.104	271.44
276.335	274.44
276.567	306.44
276.799	306.44
277.031	320.44
277.262	339.44
277.494	336.44
277.726	322.44
277.957	311.44
278.189	286.44
278.421	290.44
278.652	280.44
278.884	298.44
279.115	270.44
279.347	273.44
279.579	299.44
279.81	299.44
280.042	279.44
280.273	279.44
280.505	272.44
280.736	292.44
280.968	282.44
281.199	270.44
281.431	288.44
281.662	275.44
281.894	284.44
282.125	278.44
282.356	309.44
282.588	301.44
282.819	330.44
283.051	276.44
283.282	280.44
283.513	293.44
283.745	282.44
283.976	290.44
284.207	305.44
284.439	286.44
284.67	291.44
284.901	287.44
285.132	288.44
285.364	301.44
285.595	284.44
285.826	279.44
286.057	277.44
286.288	272.44
286.52	275.44
286.751	277.44
286.982	285.44
287.213	301.44
287.444	300.44
287.675	311.44
287.906	308.44
288.138	315.44
288.369	309.44
288.6	314.44
288.831	301.44
289.062	311.44
289.293	304.44
289.524	308.44
289.755	291.44
289.986	303.44
290.217	308.44
290.448	291.44
290.679	288.44
290.91	290.44
291.141	300.44
291.371	301.44
291.602	292.44
291.833	303.44
292.064	292.44
292.295	292.44
292.526	319.44
292.757	299.44
292.987	292.44
293.218	290.44
293.449	290.44
293.68	282.44
293.91	311.44
294.141	296.44
294.372	286.44
294.603	299.44
294.833	298.44
295.064	296.44
295.295	300.44
295.525	301.44
295.756	309.44
295.987	320.44
296.217	344.44
296.448	352.44
296.679	331.44
296.909	310.44
297.14	317.44
297.37	320.44
297.601	309.44
297.831	298.44
298.062	317.44
298.292	301.44
298.523	319.44
298.753	330.44
298.984	311.44
299.214	314.44
299.445	305.44
299.675	323.44
299.905	327.44
300.136	331.44
300.366	317.44
300.597	331.44
300.827	320.44
301.057	322.44
301.288	318.44
301.518	331.44
301.748	332.44
301.979	323.44
302.209	320.44
302.439	344.44
302.669	335.44
302.9	346.44
303.13	334.44
303.36	344.44
303.59	350.44
303.82	338.44
304.051	350.44
304.281	330.44
304.511	312.44
304.741	330.44
304.971	333.44
305.201	350.44
305.431	343.44
305.661	320.44
305.891	322.44
306.121	330.44
306.352	348.44
306.582	334.44
306.812	341.44
307.042	356.44
307.272	350.44
307.502	361.44
307.731	360.44
307.961	346.44
308.191	352.44
308.421	354.44
308.651	349.44
308.881	363.44
309.111	374.44
309.341	351.44
309.571	369.44
309.8	365.44
310.03	382.44
310.26	386.44
310.49	395.44
310.72	390.44
310.949	404.44
311.179	426.44
311.409	415.44
311.639	399.44
311.868	393.44
312.098	408.44
312.328	418.44
312.557	410.44
312.787	439.44
313.017	434.44
313.246	406.44
313.476	395.44
313.706	386.44
313.935	392.44
314.165	432.44
314.394	436.44
314.624	418.44
314.853	404.44
315.083	407.44
315.312	400.44
315.542	374.44
315.771	385.44
316.001	398.44
316.23	381.44
316.46	382.44
316.689	396.44
316.919	392.44
317.148	408.44
317.377	401.44
317.607	422.44
317.836	398.44
318.065	371.44
318.295	416.44
318.524	386.44
318.753	379.44
318.983	390.44
319.212	397.44
319.441	394.44
319.67	405.44
319.9	394.44
320.129	402.44
320.358	395.44
320.587	409.44
320.816	420.44
321.046	398.44
321.275	424.44
321.504	419.44
321.733	432.44
321.962	441.44
322.191	457.44
322.42	485.44
322.649	475.44
322.878	501.44
323.108	491.44
323.337	536.44
323.566	557.44
323.795	633.44
324.024	700.44
324.253	867.44
324.482	1241.44
324.71	1954.44
324.939	2606.44
325.168	2232.44
325.397	1178.44
325.626	758.44
325.855	643.44
326.084	581.44
326.313	558.44
326.542	597.44
326.77	658.44
326.999	776.44
327.228	1135.44
327.457	1666.44
327.686	1958.44
327.914	1284.44
328.143	852.44
328.372	744.44
328.6	701.44
328.829	647.44
329.058	680.44
329.287	656.44
329.515	643.44
329.744	591.44
329.972	586.44
330.201	606.44
330.43	624.44
330.658	655.44
330.887	695.44
331.115	660.44
331.344	571.44
331.572	548.44
331.801	528.44
332.03	533.44
332.258	486.44
332.486	479.44
332.715	467.44
332.943	487.44
333.172	458.44
333.4	489.44
333.629	475.44
333.857	497.44
334.085	524.44
334.314	496.44
334.542	547.44
334.771	552.44
334.999	523.44
335.227	470.44
335.455	466.44
335.684	457.44
335.912	457.44
336.14	457.44
336.369	437.44
336.597	469.44
336.825	455.44
337.053	438.44
337.281	435.44
337.51	442.44
337.738	443.44
337.966	460.44
338.194	468.44
338.422	443.44
338.65	446.44
338.878	436.44
339.106	406.44
339.334	442.44
339.562	434.44
339.79	438.44
340.018	430.44
340.246	426.44
340.474	426.44
340.702	432.44
340.93	436.44
341.158	421.44
341.386	438.44
341.614	441.44
341.842	428.44
342.07	429.44
342.298	422.44
342.526	409.44
342.754	426.44
342.981	412.44
343.209	410.44
343.437	415.44
343.665	445.44
343.893	419.44
344.12	434.44
344.348	428.44
344.576	438.44
344.804	431.44
345.031	448.44
345.259	469.44
345.487	462.44
345.714	434.44
345.942	412.44
346.17	415.44
346.397	431.44
346.625	420.44
346.853	424.44
347.08	418.44
347.308	431.44
347.535	430.44
347.763	430.44
347.99	443.44
348.218	412.44
348.445	434.44
348.673	441.44
348.9	426.44
349.128	394.44
349.355	394.44
349.583	386.44
349.81	391.44
350.037	394.44
350.265	427.44
350.492	405.44
350.72	395.44
350.947	395.44
351.174	428.44
351.402	446.44
351.629	424.44
351.856	414.44
352.083	436.44
352.311	437.44
352.538	420.44
352.765	442.44
352.992	422.44
353.22	422.44
353.447	413.44
353.674	403.44
353.901	386.44
354.128	388.44
354.355	387.44
354.583	396.44
354.81	379.44
355.037	403.44
355.264	364.44
355.491	381.44
355.718	374.44
355.945	360.44
356.172	378.44
356.399	364.44
356.626	369.44
356.853	366.44
357.08	374.44
357.307	378.44
357.534	381.44
357.761	395.44
357.988	386.44
358.215	371.44
358.441	380.44
358.668	386.44
358.895	382.44
359.122	390.44
359.349	404.44
359.576	392.44
359.802	430.44
360.029	476.44
360.256	502.44
360.483	453.44
360.709	439.44
360.936	414.44
361.163	411.44
361.39	420.44
361.616	418.44
361.843	392.44
362.07	393.44
362.296	409.44
362.523	407.44
362.749	412.44
362.976	393.44
363.203	397.44
363.429	388.44
363.656	392.44
363.882	387.44
364.109	374.44
364.335	398.44
364.562	384.44
364.788	379.44
365.015	378.44
365.241	384.44
365.468	393.44
365.694	398.44
365.92	403.44
366.147	390.44
366.373	386.44
366.599	398.44
366.826	380.44
367.052	386.44
367.278	393.44
367.505	393.44
367.731	370.44
367.957	372.44
368.184	376.44
368.41	385.44
368.636	389.44
368.862	403.44
369.089	383.44
369.315	367.44
369.541	370.44
369.767	364.44
369.993	365.44
370.219	378.44
370.445	377.44
370.672	375.44
370.898	356.44
371.124	378.44
371.35	372.44
371.576	363.44
371.802	355.44
372.028	347.44
372.254	349.44
372.48	342.44
372.706	355.44
372.932	357.44
373.158	355.44
373.384	364.44
373.61	375.44
373.835	384.44
374.061	371.44
374.287	386.44
374.513	371.44
374.739	382.44
374.965	372.44
375.191	358.44
375.416	360.44
375.642	357.44
375.868	362.44
376.094	366.44
376.319	365.44
376.545	352.44
376.771	351.44
376.997	339.44
377.222	355.44
377.448	355.44
377.674	367.44
377.899	361.44
378.125	359.44
378.35	354.44
378.576	354.44
378.802	338.44
379.027	351.44
379.253	340.44
379.478	342.44
379.704	365.44
379.929	351.44
380.155	353.44
380.38	335.44
380.606	362.44
380.831	358.44
381.057	337.44
381.282	358.44
381.507	355.44
381.733	347.44
381.958	350.44
382.184	361.44
382.409	374.44
382.634	352.44
382.86	346.44
383.085	355.44
383.31	345.44
383.535	379.44
383.761	366.44
383.986	368.44
384.211	346.44
384.436	361.44
384.662	359.44
384.887	382.44
385.112	363.44
385.337	348.44
385.562	361.44
385.787	359.44
386.013	379.44
386.238	385.44
386.463	384.44
386.688	377.44
386.913	381.44
387.138	375.44
387.363	384.44
387.588	380.44
387.813	372.44
388.038	364.44
388.263	377.44
388.488	358.44
388.713	375.44
388.938	375.44
389.163	394.44
389.387	388.44
389.612	366.44
389.837	384.44
390.062	400.44
390.287	378.44
390.512	373.44
390.736	378.44
390.961	374.44
391.186	358.44
391.411	379.44
391.636	340.44
391.86	373.44
392.085	356.44
392.31	378.44
392.534	374.44
392.759	375.44
392.984	379.44
393.208	374.44
393.433	384.44
393.658	362.44
393.882	367.44
394.107	367.44
394.331	358.44
394.556	399.44
394.78	356.44
395.005	374.44
395.229	371.44
395.454	397.44
395.678	390.44
395.903	396.44
396.127	404.44
396.352	397.44
396.576	398.44
396.801	375.44
397.025	378.44
397.249	381.44
397.474	400.44
397.698	389.44
397.922	397.44
398.147	411.44
398.371	411.44
398.595	413.44
398.82	414.44
399.044	404.44
399.268	418.44
399.492	422.44
399.717	462.44
399.941	477.44
400.165	498.44
400.389	500.44
400.613	484.44
400.837	431.44
401.062	442.44
401.286	432.44
401.51	426.44
401.734	412.44
401.958	422.44
402.182	412.44
402.406	445.44
402.63	436.44
402.854	426.44
403.078	423.44
403.302	420.44
403.526	427.44
403.75	443.44
403.974	420.44
404.198	424.44
404.422	434.44
404.645	430.44
404.869	457.44
405.093	477.44
405.317	488.44
405.541	538.44
405.765	484.44
405.988	464.44
406.212	461.44
406.436	511.44
406.66	504.44
406.883	472.44
407.107	504.44
407.331	527.44
407.555	584.44
407.778	586.44
408.002	546.44
408.226	490.44
408.449	482.44
408.673	499.44
408.896	510.44
409.12	542.44
409.344	533.44
409.567	478.44
409.791	425.44
410.014	416.44
410.238	425.44
410.461	442.44
410.685	440.44
410.908	454.44
411.132	478.44
411.355	508.44
411.578	510.44
411.802	436.44
412.025	443.44
412.249	448.44
412.472	449.44
412.695	486.44
412.919	472.44
413.142	434.44
413.365	436.44
413.589	410.44
413.812	418.44
414.035	393.44
414.258	409.44
414.482	399.44
414.705	407.44
414.928	397.44
415.151	419.44
415.374	395.44
415.597	409.44
415.821	396.44
416.044	410.44
416.267	396.44
416.49	395.44
416.713	389.44
416.936	416.44
417.159	387.44
417.382	399.44
417.605	415.44
417.828	421.44
418.051	433.44
418.274	429.44
418.497	412.44
418.72	387.44
418.943	395.44
419.166	419.44
419.389	408.44
419.611	420.44
419.834	429.44
420.057	439.44
420.28	433.44
420.503	415.44
420.726	440.44
420.948	450.44
421.171	493.44
421.394	530.44
421.617	468.44
421.839	438.44
422.062	436.44
422.285	459.44
422.507	486.44
422.73	560.44
422.953	562.44
423.175	470.44
423.398	467.44
423.621	472.44
423.843	459.44
424.066	486.44
424.288	489.44
424.511	490.44
424.733	552.44
424.956	613.44
425.178	580.44
425.401	579.44
425.623	607.44
425.846	528.44
426.068	498.44
426.291	468.44
426.513	463.44
426.735	519.44
426.958	557.44
427.18	621.44
427.402	723.44
427.625	766.44
427.847	731.44
428.069	616.44
428.292	546.44
428.514	488.44
428.736	454.44
428.958	463.44
429.181	430.44
429.403	420.44
429.625	445.44
429.847	517.44
430.069	553.44
430.292	559.44
430.514	470.44
430.736	450.44
430.958	420.44
431.18	415.44
431.402	401.44
431.624	414.44
431.846	405.44
432.068	401.44
432.29	398.44
432.512	418.44
432.734	422.44
432.956	407.44
433.178	414.44
433.4	424.44
433.622	418.44
433.844	423.44
434.066	397.44
434.287	394.44
434.509	401.44
434.731	413.44
434.953	435.44
435.175	440.44
435.397	460.44
435.618	470.44
435.84	521.44
436.062	619.44
436.284	664.44
436.505	556.44
436.727	502.44
436.949	452.44
437.17	459.44
437.392	464.44
437.614	472.44
437.835	495.44
438.057	609.44
438.278	662.44
438.5	699.44
438.721	747.44
438.943	694.44
439.165	558.44
439.386	520.44
439.608	509.44
439.829	518.44
440.05	527.44
440.272	602.44
440.493	539.44
440.715	488.44
440.936	475.44
441.158	440.44
441.379	454.44
441.6	476.44
441.822	493.44
442.043	531.44
442.264	626.44
442.486	623.44
442.707	542.44
442.928	503.44
443.149	513.44
443.371	546.44
443.592	573.44
443.813	637.44
444.034	686.44
444.255	587.44
444.476	501.44
444.698	462.44
444.919	450.44
445.14	598.44
445.361	550.44
445.582	536.44
445.803	595.44
446.024	679.44
446.245	694.44
446.466	663.44
446.687	537.44
446.908	503.44
447.129	464.44
447.35	444.44
447.571	449.44
447.792	442.44
448.013	447.44
448.234	476.44
448.455	508.44
448.675	640.44
448.896	729.44
449.117	595.44
449.338	564.44
449.559	695.44
449.779	729.44
450	616.44
450.221	518.44
450.442	465.44
450.662	446.44
450.883	462.44
451.104	478.44
451.324	487.44
451.545	410.44
451.766	398.44
451.986	406.44
452.207	405.44
452.428	416.44
452.648	399.44
452.869	402.44
453.089	418.44
453.31	419.44
453.53	412.44
453.751	401.44
453.971	387.44
454.192	429.44
454.412	427.44
454.633	394.44
454.853	393.44
455.073	404.44
455.294	418.44
455.514	483.44
455.734	482.44
455.955	420.44
456.175	385.44
456.395	381.44
456.616	359.44
456.836	366.44
457.056	359.44
457.276	355.44
457.497	384.44
457.717	380.44
457.937	382.44
458.157	379.44
458.377	367.44
458.598	395.44
458.818	452.44
459.038	549.44
459.258	578.44
459.478	456.44
459.698	431.44
459.918	397.44
460.138	409.44
460.358	410.44
460.578	406.44
460.798	399.44
461.018	413.44
461.238	422.44
461.458	393.44
461.678	390.44
461.898	390.44
462.118	392.44
462.338	394.44
462.558	416.44
462.777	414.44
462.997	411.44
463.217	394.44
463.437	435.44
463.657	410.44
463.876	407.44
464.096	404.44
464.316	419.44
464.536	426.44
464.755	431.44
464.975	448.44
465.195	488.44
465.414	576.44
465.634	462.44
465.854	451.44
466.073	422.44
466.293	431.44
466.512	402.44
466.732	392.44
466.951	378.44
467.171	397.44
467.391	388.44
467.61	421.44
467.829	412.44
468.049	399.44
468.268	380.44
468.488	383.44
468.707	393.44
468.927	375.44
469.146	372.44
469.365	366.44
469.585	390.44
469.804	394.44
470.023	397.44
470.243	394.44
470.462	405.44
470.681	414.44
470.901	422.44
471.12	422.44
471.339	415.44
471.558	411.44
471.777	421.44
471.997	397.44
472.216	405.44
472.435	439.44
472.654	439.44
472.873	415.44
473.092	402.44
473.311	401.44
473.53	414.44
473.749	435.44
473.968	455.44
474.187	564.44
474.406	592.44
474.625	459.44
474.844	431.44
475.063	423.44
475.282	409.44
475.501	412.44
475.72	394.44
475.939	410.44
476.158	414.44
476.377	422.44
476.596	413.44
476.814	442.44
477.033	440.44
477.252	424.44
477.471	417.44
477.69	404.44
477.908	427.44
478.127	446.44
478.346	420.44
478.564	446.44
478.783	438.44
479.002	462.44
479.22	443.44
479.439	460.44
479.658	464.44
479.876	479.44
480.095	482.44
480.313	524.44
480.532	507.44
480.751	482.44
480.969	502.44
481.188	567.44
481.406	595.44
481.624	533.44
481.843	494.44
482.061	485.44
482.28	485.44
482.498	489.44
482.717	492.44
482.935	478.44
483.153	468.44
483.372	471.44
483.59	468.44
483.808	472.44
484.027	487.44
484.245	472.44
484.463	467.44
484.681	487.44
484.9	470.44
485.118	487.44
485.336	483.44
485.554	477.44
485.772	477.44
485.99	500.44
486.209	489.44
486.427	506.44
486.645	532.44
486.863	522.44
487.081	516.44
487.299	522.44
487.517	501.44
487.735	513.44
487.953	498.44
488.171	507.44
488.389	511.44
488.607	508.44
488.825	519.44
489.043	524.44
489.261	506.44
489.479	503.44
489.696	512.44
489.914	512.44
490.132	517.44
490.35	511.44
490.568	542.44
490.786	542.44
491.003	522.44
491.221	545.44
491.439	558.44
491.657	580.44
491.874	587.44
492.092	594.44
492.31	573.44
492.527	585.44
492.745	596.44
492.963	604.44
493.18	604.44
493.398	592.44
493.615	600.44
493.833	624.44
494.05	614.44
494.268	604.44
494.485	579.44
494.703	599.44
494.92	604.44
495.138	593.44
495.355	588.44
495.573	582.44
495.79	601.44
496.008	616.44
496.225	614.44
496.442	593.44
496.66	610.44
496.877	618.44
497.094	626.44
497.312	597.44
497.529	609.44
497.746	626.44
497.963	638.44
498.181	662.44
498.398	665.44
498.615	647.44
498.832	660.44
499.049	651.44
499.267	661.44
499.484	669.44
499.701	675.44
499.918	668.44
500.135	704.44
500.352	715.44
500.569	703.44
500.786	719.44
501.003	751.44
501.22	740.44
501.437	712.44
501.654	725.44
501.871	730.44
