Data from 1981.PennyLincolnUp.Lamp.En5.5.200Scan.071819.P1_HRD10591_16-42-15-959.txt Node
Date: Thu Jul 18 16:42:15 EDT 2019
User: cochatt
Spectrometer: HR+D1059
Trigger mode: 1
Integration Time (sec): 1.000000E-1
Scans to average: 1
Electric dark correction enabled: true
Nonlinearity correction enabled: false
Boxcar width: 0
XAxis mode: Wavelengths
Number of Pixels in Spectrum: 2048
>>>>>Begin Spectral Data<<<<<
223.165	-12.31
223.4	-12.31
223.635	-12.31
223.869	-19.31
224.104	-8.31
224.338	-23.31
224.573	-21.31
224.808	-21.31
225.042	-7.31
225.277	-11.31
225.511	1.69
225.746	10.69
225.98	7.69
226.215	2.69
226.449	29.69
226.683	22.69
226.918	22.69
227.152	26.69
227.387	32.69
227.621	50.69
227.856	55.69
228.09	51.69
228.324	38.69
228.559	58.69
228.793	63.69
229.027	107.69
229.262	107.69
229.496	118.69
229.73	142.69
229.964	142.69
230.199	132.69
230.433	124.69
230.667	114.69
230.901	123.69
231.136	117.69
231.37	114.69
231.604	102.69
231.838	114.69
232.072	104.69
232.306	118.69
232.541	121.69
232.775	120.69
233.009	119.69
233.243	119.69
233.477	118.69
233.711	104.69
233.945	113.69
234.179	111.69
234.413	116.69
234.647	110.69
234.881	114.69
235.115	124.69
235.349	136.69
235.583	130.69
235.817	127.69
236.051	124.69
236.285	126.69
236.519	120.69
236.753	134.69
236.987	161.69
237.221	184.69
237.455	231.69
237.689	198.69
237.922	143.69
238.156	134.69
238.39	124.69
238.624	126.69
238.858	139.69
239.091	123.69
239.325	123.69
239.559	135.69
239.793	133.69
240.027	127.69
240.26	162.69
240.494	144.69
240.728	156.69
240.961	156.69
241.195	154.69
241.429	128.69
241.662	140.69
241.896	138.69
242.13	124.69
242.363	143.69
242.597	127.69
242.83	142.69
243.064	132.69
243.298	124.69
243.531	122.69
243.765	119.69
243.998	139.69
244.232	136.69
244.465	148.69
244.699	139.69
244.932	136.69
245.166	135.69
245.399	144.69
245.633	141.69
245.866	147.69
246.099	148.69
246.333	158.69
246.566	142.69
246.8	154.69
247.033	160.69
247.266	166.69
247.5	175.69
247.733	160.69
247.966	174.69
248.2	154.69
248.433	180.69
248.666	178.69
248.899	180.69
249.133	202.69
249.366	221.69
249.599	205.69
249.832	193.69
250.066	182.69
250.299	190.69
250.532	190.69
250.765	212.69
250.998	236.69
251.231	254.69
251.465	230.69
251.698	211.69
251.931	208.69
252.164	218.69
252.397	223.69
252.63	214.69
252.863	219.69
253.096	216.69
253.329	226.69
253.562	238.69
253.795	230.69
254.028	222.69
254.261	223.69
254.494	231.69
254.727	284.69
254.96	289.69
255.193	307.69
255.426	267.69
255.659	244.69
255.892	259.69
256.124	253.69
256.357	240.69
256.59	236.69
256.823	226.69
257.056	211.69
257.289	236.69
257.521	222.69
257.754	212.69
257.987	224.69
258.22	214.69
258.452	214.69
258.685	213.69
258.918	212.69
259.151	215.69
259.383	242.69
259.616	236.69
259.849	240.69
260.081	235.69
260.314	279.69
260.547	286.69
260.779	256.69
261.012	250.69
261.244	229.69
261.477	246.69
261.71	227.69
261.942	225.69
262.175	250.69
262.407	248.69
262.64	230.69
262.872	219.69
263.105	239.69
263.337	233.69
263.57	207.69
263.802	213.69
264.035	216.69
264.267	216.69
264.499	230.69
264.732	228.69
264.964	219.69
265.197	227.69
265.429	208.69
265.661	220.69
265.894	229.69
266.126	229.69
266.358	222.69
266.591	206.69
266.823	229.69
267.055	232.69
267.287	237.69
267.52	236.69
267.752	227.69
267.984	242.69
268.216	210.69
268.448	247.69
268.681	262.69
268.913	263.69
269.145	270.69
269.377	316.69
269.609	298.69
269.841	280.69
270.073	290.69
270.306	298.69
270.538	318.69
270.77	331.69
271.002	331.69
271.234	315.69
271.466	318.69
271.698	354.69
271.93	344.69
272.162	354.69
272.394	331.69
272.626	320.69
272.858	307.69
273.09	302.69
273.322	289.69
273.553	277.69
273.785	280.69
274.017	292.69
274.249	283.69
274.481	269.69
274.713	291.69
274.945	280.69
275.176	278.69
275.408	262.69
275.64	251.69
275.872	262.69
276.104	270.69
276.335	275.69
276.567	276.69
276.799	301.69
277.031	332.69
277.262	332.69
277.494	325.69
277.726	303.69
277.957	312.69
278.189	296.69
278.421	279.69
278.652	275.69
278.884	277.69
279.115	289.69
279.347	278.69
279.579	283.69
279.81	278.69
280.042	264.69
280.273	265.69
280.505	282.69
280.736	272.69
280.968	278.69
281.199	270.69
281.431	279.69
281.662	271.69
281.894	276.69
282.125	276.69
282.356	313.69
282.588	317.69
282.819	319.69
283.051	296.69
283.282	285.69
283.513	275.69
283.745	278.69
283.976	291.69
284.207	277.69
284.439	280.69
284.67	282.69
284.901	271.69
285.132	284.69
285.364	283.69
285.595	271.69
285.826	286.69
286.057	280.69
286.288	284.69
286.52	295.69
286.751	292.69
286.982	293.69
287.213	286.69
287.444	275.69
287.675	311.69
287.906	292.69
288.138	306.69
288.369	309.69
288.6	317.69
288.831	306.69
289.062	324.69
289.293	294.69
289.524	288.69
289.755	296.69
289.986	291.69
290.217	282.69
290.448	302.69
290.679	298.69
290.91	295.69
291.141	294.69
291.371	300.69
291.602	292.69
291.833	283.69
292.064	271.69
292.295	276.69
292.526	310.69
292.757	278.69
292.987	287.69
293.218	285.69
293.449	311.69
293.68	294.69
293.91	298.69
294.141	299.69
294.372	289.69
294.603	290.69
294.833	307.69
295.064	301.69
295.295	304.69
295.525	298.69
295.756	298.69
295.987	298.69
296.217	351.69
296.448	332.69
296.679	320.69
296.909	295.69
297.14	297.69
297.37	292.69
297.601	296.69
297.831	306.69
298.062	294.69
298.292	314.69
298.523	302.69
298.753	302.69
298.984	304.69
299.214	307.69
299.445	310.69
299.675	310.69
299.905	327.69
300.136	310.69
300.366	315.69
300.597	330.69
300.827	338.69
301.057	335.69
301.288	326.69
301.518	332.69
301.748	302.69
301.979	329.69
302.209	344.69
302.439	333.69
302.669	308.69
302.9	326.69
303.13	325.69
303.36	323.69
303.59	338.69
303.82	346.69
304.051	325.69
304.281	336.69
304.511	334.69
304.741	317.69
304.971	323.69
305.201	320.69
305.431	328.69
305.661	322.69
305.891	338.69
306.121	331.69
306.352	336.69
306.582	336.69
306.812	330.69
307.042	320.69
307.272	324.69
307.502	319.69
307.731	336.69
307.961	326.69
308.191	339.69
308.421	353.69
308.651	347.69
308.881	347.69
309.111	358.69
309.341	343.69
309.571	362.69
309.8	382.69
310.03	394.69
310.26	384.69
310.49	394.69
310.72	404.69
310.949	399.69
311.179	423.69
311.409	387.69
311.639	391.69
311.868	407.69
312.098	389.69
312.328	419.69
312.557	404.69
312.787	415.69
313.017	452.69
313.246	412.69
313.476	382.69
313.706	372.69
313.935	411.69
314.165	418.69
314.394	435.69
314.624	400.69
314.853	401.69
315.083	401.69
315.312	391.69
315.542	390.69
315.771	375.69
316.001	393.69
316.23	386.69
316.46	389.69
316.689	372.69
316.919	404.69
317.148	391.69
317.377	403.69
317.607	384.69
317.836	386.69
318.065	403.69
318.295	397.69
318.524	387.69
318.753	378.69
318.983	372.69
319.212	384.69
319.441	390.69
319.67	425.69
319.9	390.69
320.129	397.69
320.358	401.69
320.587	400.69
320.816	415.69
321.046	428.69
321.275	420.69
321.504	413.69
321.733	418.69
321.962	439.69
322.191	458.69
322.42	461.69
322.649	472.69
322.878	476.69
323.108	493.69
323.337	510.69
323.566	550.69
323.795	591.69
324.024	670.69
324.253	825.69
324.482	1208.69
324.71	1857.69
324.939	2523.69
325.168	2125.69
325.397	1110.69
325.626	743.69
325.855	627.69
326.084	586.69
326.313	541.69
326.542	569.69
326.77	600.69
326.999	765.69
327.228	1069.69
327.457	1580.69
327.686	1839.69
327.914	1204.69
328.143	822.69
328.372	684.69
328.6	678.69
328.829	628.69
329.058	644.69
329.287	651.69
329.515	581.69
329.744	556.69
329.972	543.69
330.201	565.69
330.43	615.69
330.658	642.69
330.887	677.69
331.115	642.69
331.344	568.69
331.572	519.69
331.801	511.69
332.03	516.69
332.258	480.69
332.486	476.69
332.715	464.69
332.943	433.69
333.172	465.69
333.4	460.69
333.629	476.69
333.857	489.69
334.085	483.69
334.314	533.69
334.542	550.69
334.771	551.69
334.999	504.69
335.227	467.69
335.455	441.69
335.684	446.69
335.912	434.69
336.14	429.69
336.369	438.69
336.597	442.69
336.825	466.69
337.053	444.69
337.281	450.69
337.51	426.69
337.738	454.69
337.966	445.69
338.194	466.69
338.422	434.69
338.65	438.69
338.878	441.69
339.106	428.69
339.334	426.69
339.562	434.69
339.79	435.69
340.018	425.69
340.246	408.69
340.474	431.69
340.702	424.69
340.93	421.69
341.158	427.69
341.386	392.69
341.614	434.69
341.842	425.69
342.07	408.69
342.298	402.69
342.526	406.69
342.754	399.69
342.981	383.69
343.209	398.69
343.437	397.69
343.665	411.69
343.893	431.69
344.12	426.69
344.348	427.69
344.576	438.69
344.804	412.69
345.031	426.69
345.259	436.69
345.487	425.69
345.714	435.69
345.942	415.69
346.17	413.69
346.397	411.69
346.625	422.69
346.853	416.69
347.08	399.69
347.308	418.69
347.535	425.69
347.763	424.69
347.99	418.69
348.218	415.69
348.445	412.69
348.673	416.69
348.9	403.69
349.128	401.69
349.355	400.69
349.583	390.69
349.81	382.69
350.037	382.69
350.265	397.69
350.492	430.69
350.72	380.69
350.947	404.69
351.174	434.69
351.402	429.69
351.629	422.69
351.856	433.69
352.083	405.69
352.311	427.69
352.538	461.69
352.765	432.69
352.992	416.69
353.22	395.69
353.447	407.69
353.674	403.69
353.901	399.69
354.128	371.69
354.355	388.69
354.583	376.69
354.81	376.69
355.037	364.69
355.264	370.69
355.491	358.69
355.718	364.69
355.945	387.69
356.172	361.69
356.399	353.69
356.626	387.69
356.853	372.69
357.08	370.69
357.307	345.69
357.534	354.69
357.761	361.69
357.988	364.69
358.215	372.69
358.441	379.69
358.668	371.69
358.895	381.69
359.122	371.69
359.349	413.69
359.576	404.69
359.802	442.69
360.029	431.69
360.256	461.69
360.483	438.69
360.709	419.69
360.936	411.69
361.163	394.69
361.39	394.69
361.616	413.69
361.843	394.69
362.07	384.69
362.296	387.69
362.523	386.69
362.749	401.69
362.976	405.69
363.203	380.69
363.429	385.69
363.656	379.69
363.882	380.69
364.109	367.69
364.335	368.69
364.562	391.69
364.788	366.69
365.015	382.69
365.241	394.69
365.468	401.69
365.694	380.69
365.92	381.69
366.147	357.69
366.373	385.69
366.599	371.69
366.826	370.69
367.052	384.69
367.278	376.69
367.505	362.69
367.731	374.69
367.957	384.69
368.184	376.69
368.41	374.69
368.636	372.69
368.862	378.69
369.089	377.69
369.315	378.69
369.541	355.69
369.767	374.69
369.993	365.69
370.219	376.69
370.445	367.69
370.672	373.69
370.898	364.69
371.124	354.69
371.35	357.69
371.576	358.69
371.802	350.69
372.028	358.69
372.254	362.69
372.48	359.69
372.706	364.69
372.932	364.69
373.158	363.69
373.384	349.69
373.61	356.69
373.835	356.69
374.061	353.69
374.287	383.69
374.513	359.69
374.739	368.69
374.965	360.69
375.191	348.69
375.416	355.69
375.642	370.69
375.868	372.69
376.094	364.69
376.319	358.69
376.545	371.69
376.771	346.69
376.997	367.69
377.222	356.69
377.448	358.69
377.674	340.69
377.899	333.69
378.125	328.69
378.35	331.69
378.576	348.69
378.802	352.69
379.027	350.69
379.253	350.69
379.478	363.69
379.704	342.69
379.929	347.69
380.155	352.69
380.38	338.69
380.606	334.69
380.831	348.69
381.057	363.69
381.282	355.69
381.507	357.69
381.733	356.69
381.958	356.69
382.184	345.69
382.409	342.69
382.634	365.69
382.86	343.69
383.085	349.69
383.31	359.69
383.535	351.69
383.761	349.69
383.986	351.69
384.211	360.69
384.436	356.69
384.662	374.69
384.887	376.69
385.112	363.69
385.337	356.69
385.562	373.69
385.787	358.69
386.013	376.69
386.238	386.69
386.463	379.69
386.688	367.69
386.913	359.69
387.138	367.69
387.363	357.69
387.588	384.69
387.813	388.69
388.038	361.69
388.263	360.69
388.488	374.69
388.713	370.69
388.938	350.69
389.163	357.69
389.387	360.69
389.612	359.69
389.837	379.69
390.062	358.69
390.287	380.69
390.512	354.69
390.736	357.69
390.961	358.69
391.186	383.69
391.411	348.69
391.636	367.69
391.86	374.69
392.085	350.69
392.31	372.69
392.534	364.69
392.759	376.69
392.984	368.69
393.208	359.69
393.433	374.69
393.658	371.69
393.882	369.69
394.107	376.69
394.331	382.69
394.556	382.69
394.78	381.69
395.005	376.69
395.229	362.69
395.454	372.69
395.678	370.69
395.903	376.69
396.127	402.69
396.352	407.69
396.576	388.69
396.801	384.69
397.025	367.69
397.249	388.69
397.474	386.69
397.698	396.69
397.922	400.69
398.147	411.69
398.371	392.69
398.595	412.69
398.82	409.69
399.044	395.69
399.268	409.69
399.492	442.69
399.717	454.69
399.941	463.69
400.165	464.69
400.389	483.69
400.613	460.69
400.837	426.69
401.062	412.69
401.286	406.69
401.51	419.69
401.734	410.69
401.958	412.69
402.182	407.69
402.406	400.69
402.63	423.69
402.854	430.69
403.078	449.69
403.302	412.69
403.526	431.69
403.75	416.69
403.974	421.69
404.198	413.69
404.422	421.69
404.645	447.69
404.869	428.69
405.093	472.69
405.317	488.69
405.541	533.69
405.765	480.69
405.988	443.69
406.212	478.69
406.436	464.69
406.66	483.69
406.883	452.69
407.107	478.69
407.331	513.69
407.555	580.69
407.778	558.69
408.002	526.69
408.226	483.69
408.449	477.69
408.673	474.69
408.896	497.69
409.12	517.69
409.344	496.69
409.567	455.69
409.791	418.69
410.014	422.69
410.238	406.69
410.461	432.69
410.685	421.69
410.908	429.69
411.132	467.69
411.355	527.69
411.578	492.69
411.802	454.69
412.025	424.69
412.249	430.69
412.472	458.69
412.695	474.69
412.919	477.69
413.142	449.69
413.365	408.69
413.589	403.69
413.812	399.69
414.035	403.69
414.258	393.69
414.482	391.69
414.705	397.69
414.928	408.69
415.151	390.69
415.374	384.69
415.597	393.69
415.821	394.69
416.044	389.69
416.267	397.69
416.49	402.69
416.713	367.69
416.936	380.69
417.159	394.69
417.382	400.69
417.605	398.69
417.828	427.69
418.051	423.69
418.274	411.69
418.497	401.69
418.72	397.69
418.943	382.69
419.166	420.69
419.389	416.69
419.611	408.69
419.834	424.69
420.057	430.69
420.28	418.69
420.503	420.69
420.726	412.69
420.948	445.69
421.171	467.69
421.394	498.69
421.617	432.69
421.839	419.69
422.062	431.69
422.285	445.69
422.507	488.69
422.73	559.69
422.953	542.69
423.175	456.69
423.398	447.69
423.621	453.69
423.843	454.69
424.066	489.69
424.288	490.69
424.511	477.69
424.733	535.69
424.956	607.69
425.178	573.69
425.401	575.69
425.623	606.69
425.846	485.69
426.068	487.69
426.291	498.69
426.513	487.69
426.735	463.69
426.958	524.69
427.18	591.69
427.402	708.69
427.625	776.69
427.847	738.69
428.069	606.69
428.292	503.69
428.514	485.69
428.736	452.69
428.958	443.69
429.181	458.69
429.403	419.69
429.625	452.69
429.847	499.69
430.069	501.69
430.292	525.69
430.514	450.69
430.736	410.69
430.958	428.69
431.18	421.69
431.402	416.69
431.624	406.69
431.846	400.69
432.068	420.69
432.29	408.69
432.512	410.69
432.734	415.69
432.956	396.69
433.178	407.69
433.4	423.69
433.622	411.69
433.844	393.69
434.066	400.69
434.287	393.69
434.509	398.69
434.731	417.69
434.953	436.69
435.175	438.69
435.397	432.69
435.618	479.69
435.84	501.69
436.062	593.69
436.284	655.69
436.505	549.69
436.727	481.69
436.949	461.69
437.17	437.69
437.392	441.69
437.614	430.69
437.835	486.69
438.057	570.69
438.278	679.69
438.5	684.69
438.721	687.69
438.943	683.69
439.165	550.69
439.386	514.69
439.608	479.69
439.829	486.69
440.05	514.69
440.272	551.69
440.493	537.69
440.715	480.69
440.936	464.69
441.158	454.69
441.379	444.69
441.6	448.69
441.822	454.69
442.043	514.69
442.264	607.69
442.486	613.69
442.707	528.69
442.928	509.69
443.149	502.69
443.371	516.69
443.592	542.69
443.813	623.69
444.034	655.69
444.255	577.69
444.476	478.69
444.698	472.69
444.919	450.69
445.14	601.69
445.361	536.69
445.582	504.69
445.803	594.69
446.024	671.69
446.245	684.69
446.466	595.69
446.687	531.69
446.908	475.69
447.129	445.69
447.35	440.69
447.571	450.69
447.792	431.69
448.013	470.69
448.234	452.69
448.455	489.69
448.675	629.69
448.896	703.69
449.117	574.69
449.338	565.69
449.559	644.69
449.779	736.69
450	606.69
450.221	500.69
450.442	439.69
450.662	433.69
450.883	452.69
451.104	468.69
451.324	448.69
451.545	444.69
451.766	382.69
451.986	397.69
452.207	399.69
452.428	370.69
452.648	388.69
452.869	387.69
453.089	399.69
453.31	384.69
453.53	388.69
453.751	382.69
453.971	408.69
454.192	423.69
454.412	407.69
454.633	382.69
454.853	390.69
455.073	385.69
455.294	428.69
455.514	490.69
455.734	467.69
455.955	397.69
456.175	374.69
456.395	345.69
456.616	354.69
456.836	377.69
457.056	384.69
457.276	352.69
457.497	379.69
457.717	378.69
457.937	374.69
458.157	367.69
458.377	376.69
458.598	392.69
458.818	450.69
459.038	568.69
459.258	548.69
459.478	451.69
459.698	394.69
459.918	392.69
460.138	376.69
460.358	381.69
460.578	394.69
460.798	383.69
461.018	408.69
461.238	403.69
461.458	376.69
461.678	382.69
461.898	400.69
462.118	379.69
462.338	394.69
462.558	395.69
462.777	413.69
462.997	407.69
463.217	420.69
463.437	402.69
463.657	411.69
463.876	401.69
464.096	414.69
464.316	419.69
464.536	429.69
464.755	425.69
464.975	438.69
465.195	488.69
465.414	542.69
465.634	453.69
465.854	438.69
466.073	397.69
466.293	410.69
466.512	395.69
466.732	390.69
466.951	372.69
467.171	390.69
467.391	390.69
467.61	403.69
467.829	405.69
468.049	407.69
468.268	403.69
468.488	409.69
468.707	376.69
468.927	382.69
469.146	370.69
469.365	402.69
469.585	362.69
469.804	377.69
470.023	390.69
470.243	386.69
470.462	399.69
470.681	418.69
470.901	423.69
471.12	385.69
471.339	382.69
471.558	390.69
471.777	397.69
471.997	383.69
472.216	397.69
472.435	427.69
472.654	409.69
472.873	387.69
473.092	395.69
473.311	392.69
473.53	392.69
473.749	395.69
473.968	465.69
474.187	537.69
474.406	592.69
474.625	478.69
474.844	411.69
475.063	392.69
475.282	410.69
475.501	416.69
475.72	415.69
475.939	416.69
476.158	410.69
476.377	405.69
476.596	412.69
476.814	427.69
477.033	412.69
477.252	422.69
477.471	397.69
477.69	422.69
477.908	411.69
478.127	421.69
478.346	429.69
478.564	428.69
478.783	437.69
479.002	464.69
479.22	452.69
479.439	467.69
479.658	475.69
479.876	483.69
480.095	475.69
480.313	493.69
480.532	492.69
480.751	480.69
480.969	477.69
481.188	532.69
481.406	571.69
481.624	516.69
481.843	475.69
482.061	468.69
482.28	464.69
482.498	454.69
482.717	460.69
482.935	465.69
483.153	460.69
483.372	464.69
483.59	459.69
483.808	471.69
484.027	452.69
484.245	455.69
484.463	460.69
484.681	475.69
484.9	464.69
485.118	491.69
485.336	482.69
485.554	468.69
485.772	488.69
485.99	478.69
486.209	473.69
486.427	481.69
486.645	502.69
486.863	489.69
487.081	517.69
487.299	486.69
487.517	507.69
487.735	478.69
487.953	476.69
488.171	483.69
488.389	500.69
488.607	495.69
488.825	512.69
489.043	533.69
489.261	509.69
489.479	483.69
489.696	509.69
489.914	498.69
490.132	510.69
490.35	516.69
490.568	519.69
490.786	533.69
491.003	544.69
491.221	543.69
491.439	542.69
491.657	542.69
491.874	584.69
492.092	569.69
492.31	566.69
492.527	585.69
492.745	592.69
492.963	592.69
493.18	574.69
493.398	578.69
493.615	570.69
493.833	603.69
494.05	580.69
494.268	568.69
494.485	585.69
494.703	589.69
494.92	571.69
495.138	600.69
495.355	592.69
495.573	599.69
495.79	596.69
496.008	595.69
496.225	605.69
496.442	613.69
496.66	612.69
496.877	592.69
497.094	599.69
497.312	615.69
497.529	599.69
497.746	614.69
497.963	614.69
498.181	641.69
498.398	648.69
498.615	624.69
498.832	619.69
499.049	645.69
499.267	645.69
499.484	665.69
499.701	670.69
499.918	698.69
500.135	706.69
500.352	741.69
500.569	734.69
500.786	743.69
501.003	709.69
501.22	723.69
501.437	706.69
501.654	703.69
501.871	692.69
