Data from 1981.PennyLincolnUp.Lamp.En5.5.200Scan.071819.P1_HRD10591_16-41-47-959.txt Node
Date: Thu Jul 18 16:41:47 EDT 2019
User: cochatt
Spectrometer: HR+D1059
Trigger mode: 1
Integration Time (sec): 1.000000E-1
Scans to average: 1
Electric dark correction enabled: true
Nonlinearity correction enabled: false
Boxcar width: 0
XAxis mode: Wavelengths
Number of Pixels in Spectrum: 2048
>>>>>Begin Spectral Data<<<<<
223.165	-11.56
223.4	-11.56
223.635	-11.56
223.869	-17.56
224.104	-15.56
224.338	-9.56
224.573	-10.56
224.808	-20.56
225.042	-1.56
225.277	-9.56
225.511	-6.56
225.746	-9.56
225.98	-2.56
226.215	20.44
226.449	23.44
226.683	35.44
226.918	16.44
227.152	19.44
227.387	36.44
227.621	40.44
227.856	54.44
228.09	54.44
228.324	44.44
228.559	53.44
228.793	72.44
229.027	93.44
229.262	102.44
229.496	113.44
229.73	140.44
229.964	139.44
230.199	109.44
230.433	105.44
230.667	112.44
230.901	114.44
231.136	98.44
231.37	101.44
231.604	109.44
231.838	109.44
232.072	109.44
232.306	108.44
232.541	113.44
232.775	112.44
233.009	105.44
233.243	118.44
233.477	110.44
233.711	108.44
233.945	115.44
234.179	125.44
234.413	125.44
234.647	123.44
234.881	104.44
235.115	108.44
235.349	123.44
235.583	117.44
235.817	122.44
236.051	118.44
236.285	133.44
236.519	126.44
236.753	141.44
236.987	140.44
237.221	189.44
237.455	219.44
237.689	172.44
237.922	129.44
238.156	135.44
238.39	138.44
238.624	135.44
238.858	124.44
239.091	121.44
239.325	113.44
239.559	125.44
239.793	115.44
240.027	135.44
240.26	140.44
240.494	156.44
240.728	144.44
240.961	155.44
241.195	139.44
241.429	128.44
241.662	148.44
241.896	138.44
242.13	138.44
242.363	130.44
242.597	147.44
242.83	133.44
243.064	138.44
243.298	152.44
243.531	137.44
243.765	134.44
243.998	132.44
244.232	143.44
244.465	147.44
244.699	143.44
244.932	149.44
245.166	155.44
245.399	152.44
245.633	146.44
245.866	149.44
246.099	145.44
246.333	135.44
246.566	137.44
246.8	153.44
247.033	149.44
247.266	149.44
247.5	166.44
247.733	177.44
247.966	174.44
248.2	171.44
248.433	186.44
248.666	171.44
248.899	196.44
249.133	194.44
249.366	213.44
249.599	213.44
249.832	189.44
250.066	166.44
250.299	191.44
250.532	193.44
250.765	197.44
250.998	223.44
251.231	219.44
251.465	235.44
251.698	204.44
251.931	201.44
252.164	203.44
252.397	196.44
252.63	200.44
252.863	205.44
253.096	212.44
253.329	228.44
253.562	244.44
253.795	243.44
254.028	216.44
254.261	227.44
254.494	251.44
254.727	259.44
254.96	286.44
255.193	269.44
255.426	256.44
255.659	263.44
255.892	241.44
256.124	240.44
256.357	232.44
256.59	213.44
256.823	242.44
257.056	213.44
257.289	214.44
257.521	206.44
257.754	212.44
257.987	225.44
258.22	226.44
258.452	223.44
258.685	208.44
258.918	216.44
259.151	222.44
259.383	233.44
259.616	217.44
259.849	241.44
260.081	237.44
260.314	256.44
260.547	270.44
260.779	244.44
261.012	254.44
261.244	229.44
261.477	247.44
261.71	232.44
261.942	240.44
262.175	238.44
262.407	249.44
262.64	214.44
262.872	233.44
263.105	218.44
263.337	205.44
263.57	222.44
263.802	219.44
264.035	205.44
264.267	229.44
264.499	203.44
264.732	214.44
264.964	214.44
265.197	214.44
265.429	217.44
265.661	213.44
265.894	214.44
266.126	226.44
266.358	211.44
266.591	210.44
266.823	215.44
267.055	210.44
267.287	224.44
267.52	210.44
267.752	229.44
267.984	226.44
268.216	235.44
268.448	243.44
268.681	232.44
268.913	250.44
269.145	268.44
269.377	282.44
269.609	259.44
269.841	276.44
270.073	279.44
270.306	307.44
270.538	339.44
270.77	329.44
271.002	308.44
271.234	317.44
271.466	296.44
271.698	328.44
271.93	332.44
272.162	344.44
272.394	346.44
272.626	314.44
272.858	300.44
273.09	286.44
273.322	290.44
273.553	275.44
273.785	266.44
274.017	263.44
274.249	262.44
274.481	280.44
274.713	274.44
274.945	278.44
275.176	270.44
275.408	267.44
275.64	273.44
275.872	263.44
276.104	271.44
276.335	271.44
276.567	287.44
276.799	308.44
277.031	313.44
277.262	330.44
277.494	333.44
277.726	298.44
277.957	298.44
278.189	286.44
278.421	282.44
278.652	279.44
278.884	261.44
279.115	281.44
279.347	269.44
279.579	283.44
279.81	282.44
280.042	268.44
280.273	273.44
280.505	265.44
280.736	277.44
280.968	251.44
281.199	263.44
281.431	263.44
281.662	261.44
281.894	268.44
282.125	287.44
282.356	306.44
282.588	300.44
282.819	292.44
283.051	295.44
283.282	259.44
283.513	272.44
283.745	254.44
283.976	278.44
284.207	283.44
284.439	286.44
284.67	275.44
284.901	272.44
285.132	260.44
285.364	274.44
285.595	272.44
285.826	279.44
286.057	278.44
286.288	264.44
286.52	271.44
286.751	269.44
286.982	284.44
287.213	271.44
287.444	275.44
287.675	271.44
287.906	295.44
288.138	297.44
288.369	300.44
288.6	297.44
288.831	300.44
289.062	288.44
289.293	289.44
289.524	282.44
289.755	284.44
289.986	278.44
290.217	270.44
290.448	289.44
290.679	294.44
290.91	276.44
291.141	279.44
291.371	291.44
291.602	299.44
291.833	275.44
292.064	281.44
292.295	274.44
292.526	277.44
292.757	272.44
292.987	279.44
293.218	263.44
293.449	281.44
293.68	290.44
293.91	284.44
294.141	268.44
294.372	278.44
294.603	275.44
294.833	276.44
295.064	280.44
295.295	279.44
295.525	283.44
295.756	268.44
295.987	299.44
296.217	302.44
296.448	300.44
296.679	299.44
296.909	280.44
297.14	289.44
297.37	293.44
297.601	301.44
297.831	289.44
298.062	279.44
298.292	284.44
298.523	300.44
298.753	317.44
298.984	297.44
299.214	290.44
299.445	305.44
299.675	291.44
299.905	292.44
300.136	304.44
300.366	297.44
300.597	293.44
300.827	319.44
301.057	311.44
301.288	342.44
301.518	318.44
301.748	321.44
301.979	310.44
302.209	296.44
302.439	309.44
302.669	318.44
302.9	306.44
303.13	314.44
303.36	321.44
303.59	321.44
303.82	332.44
304.051	332.44
304.281	322.44
304.511	338.44
304.741	322.44
304.971	325.44
305.201	308.44
305.431	317.44
305.661	315.44
305.891	311.44
306.121	332.44
306.352	318.44
306.582	317.44
306.812	310.44
307.042	319.44
307.272	307.44
307.502	306.44
307.731	328.44
307.961	304.44
308.191	294.44
308.421	312.44
308.651	339.44
308.881	333.44
309.111	343.44
309.341	330.44
309.571	347.44
309.8	352.44
310.03	377.44
310.26	372.44
310.49	391.44
310.72	377.44
310.949	406.44
311.179	393.44
311.409	388.44
311.639	384.44
311.868	390.44
312.098	369.44
312.328	371.44
312.557	406.44
312.787	414.44
313.017	424.44
313.246	370.44
313.476	386.44
313.706	368.44
313.935	398.44
314.165	399.44
314.394	398.44
314.624	394.44
314.853	387.44
315.083	392.44
315.312	374.44
315.542	362.44
315.771	370.44
316.001	346.44
316.23	365.44
316.46	365.44
316.689	384.44
316.919	356.44
317.148	370.44
317.377	392.44
317.607	388.44
317.836	399.44
318.065	380.44
318.295	359.44
318.524	353.44
318.753	372.44
318.983	357.44
319.212	393.44
319.441	379.44
319.67	371.44
319.9	377.44
320.129	362.44
320.358	364.44
320.587	392.44
320.816	395.44
321.046	411.44
321.275	397.44
321.504	387.44
321.733	417.44
321.962	390.44
322.191	449.44
322.42	445.44
322.649	465.44
322.878	471.44
323.108	491.44
323.337	505.44
323.566	513.44
323.795	558.44
324.024	648.44
324.253	774.44
324.482	1114.44
324.71	1709.44
324.939	2357.44
325.168	2060.44
325.397	1061.44
325.626	716.44
325.855	584.44
326.084	546.44
326.313	532.44
326.542	551.44
326.77	587.44
326.999	710.44
327.228	991.44
327.457	1450.44
327.686	1695.44
327.914	1163.44
328.143	772.44
328.372	676.44
328.6	605.44
328.829	587.44
329.058	612.44
329.287	608.44
329.515	569.44
329.744	537.44
329.972	527.44
330.201	531.44
330.43	588.44
330.658	575.44
330.887	615.44
331.115	614.44
331.344	563.44
331.572	498.44
331.801	497.44
332.03	493.44
332.258	464.44
332.486	440.44
332.715	426.44
332.943	426.44
333.172	416.44
333.4	429.44
333.629	471.44
333.857	469.44
334.085	453.44
334.314	460.44
334.542	491.44
334.771	516.44
334.999	482.44
335.227	448.44
335.455	437.44
335.684	432.44
335.912	426.44
336.14	413.44
336.369	428.44
336.597	418.44
336.825	417.44
337.053	418.44
337.281	407.44
337.51	405.44
337.738	434.44
337.966	429.44
338.194	444.44
338.422	412.44
338.65	397.44
338.878	428.44
339.106	403.44
339.334	406.44
339.562	403.44
339.79	405.44
340.018	397.44
340.246	412.44
340.474	405.44
340.702	414.44
340.93	389.44
341.158	392.44
341.386	414.44
341.614	400.44
341.842	418.44
342.07	410.44
342.298	419.44
342.526	386.44
342.754	388.44
342.981	392.44
343.209	391.44
343.437	385.44
343.665	408.44
343.893	384.44
344.12	405.44
344.348	407.44
344.576	406.44
344.804	409.44
345.031	426.44
345.259	436.44
345.487	416.44
345.714	434.44
345.942	397.44
346.17	388.44
346.397	387.44
346.625	402.44
346.853	409.44
347.08	382.44
347.308	396.44
347.535	398.44
347.763	406.44
347.99	423.44
348.218	418.44
348.445	418.44
348.673	406.44
348.9	391.44
349.128	381.44
349.355	364.44
349.583	374.44
349.81	385.44
350.037	381.44
350.265	384.44
350.492	385.44
350.72	393.44
350.947	384.44
351.174	423.44
351.402	409.44
351.629	379.44
351.856	419.44
352.083	409.44
352.311	412.44
352.538	421.44
352.765	418.44
352.992	382.44
353.22	401.44
353.447	408.44
353.674	390.44
353.901	373.44
354.128	361.44
354.355	330.44
354.583	362.44
354.81	361.44
355.037	357.44
355.264	365.44
355.491	317.44
355.718	353.44
355.945	332.44
356.172	339.44
356.399	341.44
356.626	359.44
356.853	362.44
357.08	361.44
357.307	343.44
357.534	362.44
357.761	342.44
357.988	345.44
358.215	363.44
358.441	353.44
358.668	356.44
358.895	374.44
359.122	375.44
359.349	405.44
359.576	397.44
359.802	385.44
360.029	440.44
360.256	442.44
360.483	422.44
360.709	386.44
360.936	391.44
361.163	386.44
361.39	394.44
361.616	395.44
361.843	376.44
362.07	384.44
362.296	360.44
362.523	365.44
362.749	378.44
362.976	380.44
363.203	385.44
363.429	358.44
363.656	358.44
363.882	342.44
364.109	354.44
364.335	351.44
364.562	330.44
364.788	329.44
365.015	373.44
365.241	358.44
365.468	361.44
365.694	352.44
365.92	369.44
366.147	359.44
366.373	348.44
366.599	373.44
366.826	352.44
367.052	342.44
367.278	339.44
367.505	359.44
367.731	361.44
367.957	370.44
368.184	358.44
368.41	361.44
368.636	336.44
368.862	374.44
369.089	361.44
369.315	356.44
369.541	345.44
369.767	352.44
369.993	356.44
370.219	358.44
370.445	363.44
370.672	350.44
370.898	345.44
371.124	334.44
371.35	333.44
371.576	351.44
371.802	346.44
372.028	345.44
372.254	341.44
372.48	325.44
372.706	342.44
372.932	362.44
373.158	321.44
373.384	351.44
373.61	340.44
373.835	340.44
374.061	336.44
374.287	344.44
374.513	351.44
374.739	365.44
374.965	348.44
375.191	363.44
375.416	347.44
375.642	352.44
375.868	355.44
376.094	348.44
376.319	354.44
376.545	360.44
376.771	338.44
376.997	337.44
377.222	362.44
377.448	350.44
377.674	345.44
377.899	344.44
378.125	332.44
378.35	335.44
378.576	327.44
378.802	322.44
379.027	326.44
379.253	344.44
379.478	338.44
379.704	323.44
379.929	338.44
380.155	325.44
380.38	333.44
380.606	317.44
380.831	327.44
381.057	344.44
381.282	354.44
381.507	330.44
381.733	351.44
381.958	330.44
382.184	331.44
382.409	349.44
382.634	361.44
382.86	341.44
383.085	348.44
383.31	349.44
383.535	354.44
383.761	345.44
383.986	346.44
384.211	357.44
384.436	347.44
384.662	333.44
384.887	331.44
385.112	342.44
385.337	362.44
385.562	348.44
385.787	358.44
386.013	347.44
386.238	363.44
386.463	365.44
386.688	366.44
386.913	341.44
387.138	379.44
387.363	332.44
387.588	351.44
387.813	352.44
388.038	344.44
388.263	349.44
388.488	373.44
388.713	363.44
388.938	356.44
389.163	353.44
389.387	347.44
389.612	331.44
389.837	343.44
390.062	352.44
390.287	357.44
390.512	342.44
390.736	341.44
390.961	338.44
391.186	369.44
391.411	356.44
391.636	359.44
391.86	348.44
392.085	357.44
392.31	342.44
392.534	362.44
392.759	359.44
392.984	345.44
393.208	350.44
393.433	345.44
393.658	354.44
393.882	354.44
394.107	360.44
394.331	339.44
394.556	344.44
394.78	342.44
395.005	332.44
395.229	354.44
395.454	365.44
395.678	339.44
395.903	374.44
396.127	384.44
396.352	386.44
396.576	375.44
396.801	366.44
397.025	358.44
397.249	366.44
397.474	357.44
397.698	359.44
397.922	369.44
398.147	392.44
398.371	385.44
398.595	384.44
398.82	401.44
399.044	386.44
399.268	394.44
399.492	425.44
399.717	445.44
399.941	432.44
400.165	482.44
400.389	481.44
400.613	448.44
400.837	415.44
401.062	412.44
401.286	401.44
401.51	380.44
401.734	394.44
401.958	384.44
402.182	396.44
402.406	397.44
402.63	414.44
402.854	393.44
403.078	382.44
403.302	393.44
403.526	385.44
403.75	416.44
403.974	416.44
404.198	389.44
404.422	404.44
404.645	412.44
404.869	404.44
405.093	434.44
405.317	481.44
405.541	484.44
405.765	447.44
405.988	423.44
406.212	453.44
406.436	453.44
406.66	469.44
406.883	424.44
407.107	448.44
407.331	478.44
407.555	527.44
407.778	544.44
408.002	489.44
408.226	446.44
408.449	466.44
408.673	464.44
408.896	478.44
409.12	518.44
409.344	463.44
409.567	427.44
409.791	399.44
410.014	399.44
410.238	414.44
410.461	412.44
410.685	392.44
410.908	424.44
411.132	434.44
411.355	498.44
411.578	474.44
411.802	412.44
412.025	406.44
412.249	418.44
412.472	434.44
412.695	468.44
412.919	453.44
413.142	407.44
413.365	388.44
413.589	365.44
413.812	385.44
414.035	378.44
414.258	384.44
414.482	382.44
414.705	355.44
414.928	382.44
415.151	386.44
415.374	364.44
415.597	358.44
415.821	378.44
416.044	376.44
416.267	375.44
416.49	372.44
416.713	374.44
416.936	380.44
417.159	379.44
417.382	372.44
417.605	396.44
417.828	394.44
418.051	403.44
418.274	408.44
418.497	388.44
418.72	370.44
418.943	366.44
419.166	377.44
419.389	396.44
419.611	398.44
419.834	393.44
420.057	409.44
420.28	380.44
420.503	406.44
420.726	412.44
420.948	409.44
421.171	449.44
421.394	462.44
421.617	442.44
421.839	413.44
422.062	417.44
422.285	448.44
422.507	464.44
422.73	530.44
422.953	509.44
423.175	462.44
423.398	423.44
423.621	411.44
423.843	449.44
424.066	437.44
424.288	452.44
424.511	455.44
424.733	489.44
424.956	572.44
425.178	562.44
425.401	561.44
425.623	555.44
425.846	492.44
426.068	462.44
426.291	437.44
426.513	438.44
426.735	464.44
426.958	504.44
427.18	586.44
427.402	676.44
427.625	740.44
427.847	650.44
428.069	594.44
428.292	503.44
428.514	437.44
428.736	436.44
428.958	432.44
429.181	439.44
429.403	393.44
429.625	450.44
429.847	457.44
430.069	514.44
430.292	503.44
430.514	444.44
430.736	412.44
430.958	401.44
431.18	394.44
431.402	406.44
431.624	390.44
431.846	388.44
432.068	380.44
432.29	398.44
432.512	394.44
432.734	398.44
432.956	389.44
433.178	405.44
433.4	392.44
433.622	388.44
433.844	385.44
434.066	378.44
434.287	393.44
434.509	396.44
434.731	388.44
434.953	407.44
435.175	397.44
435.397	433.44
435.618	438.44
435.84	499.44
436.062	585.44
436.284	636.44
436.505	532.44
436.727	469.44
436.949	439.44
437.17	413.44
437.392	412.44
437.614	423.44
437.835	472.44
438.057	545.44
438.278	632.44
438.5	624.44
438.721	667.44
438.943	667.44
439.165	517.44
439.386	497.44
439.608	477.44
439.829	460.44
440.05	499.44
440.272	551.44
440.493	485.44
440.715	467.44
440.936	442.44
441.158	419.44
441.379	421.44
441.6	419.44
441.822	444.44
442.043	465.44
442.264	560.44
442.486	616.44
442.707	505.44
442.928	462.44
443.149	472.44
443.371	478.44
443.592	519.44
443.813	583.44
444.034	640.44
444.255	534.44
444.476	474.44
444.698	459.44
444.919	457.44
445.14	565.44
445.361	510.44
445.582	480.44
445.803	566.44
446.024	653.44
446.245	668.44
446.466	596.44
446.687	508.44
446.908	455.44
447.129	432.44
447.35	399.44
447.571	411.44
447.792	426.44
448.013	418.44
448.234	432.44
448.455	501.44
448.675	593.44
448.896	659.44
449.117	585.44
449.338	570.44
449.559	640.44
449.779	688.44
450	564.44
450.221	493.44
450.442	432.44
450.662	410.44
450.883	421.44
451.104	435.44
451.324	426.44
451.545	399.44
451.766	376.44
451.986	389.44
452.207	358.44
452.428	386.44
452.648	350.44
452.869	368.44
453.089	370.44
453.31	377.44
453.53	362.44
453.751	361.44
453.971	377.44
454.192	400.44
454.412	378.44
454.633	383.44
454.853	371.44
455.073	378.44
455.294	391.44
455.514	469.44
455.734	440.44
455.955	384.44
456.175	368.44
456.395	361.44
456.616	349.44
456.836	344.44
457.056	354.44
457.276	340.44
457.497	330.44
457.717	342.44
457.937	361.44
458.157	361.44
458.377	372.44
458.598	375.44
458.818	449.44
459.038	527.44
459.258	526.44
459.478	449.44
459.698	413.44
459.918	382.44
460.138	395.44
460.358	379.44
460.578	390.44
460.798	377.44
461.018	369.44
461.238	381.44
461.458	368.44
461.678	386.44
461.898	363.44
462.118	378.44
462.338	378.44
462.558	399.44
462.777	392.44
462.997	402.44
463.217	396.44
463.437	390.44
463.657	373.44
463.876	380.44
464.096	400.44
464.316	403.44
464.536	417.44
464.755	419.44
464.975	420.44
465.195	463.44
465.414	520.44
465.634	452.44
465.854	426.44
466.073	395.44
466.293	390.44
466.512	362.44
466.732	374.44
466.951	372.44
467.171	383.44
467.391	380.44
467.61	393.44
467.829	379.44
468.049	390.44
468.268	392.44
468.488	379.44
468.707	362.44
468.927	364.44
469.146	357.44
469.365	353.44
469.585	361.44
469.804	371.44
470.023	380.44
470.243	390.44
470.462	391.44
470.681	402.44
470.901	385.44
471.12	385.44
471.339	360.44
471.558	378.44
471.777	366.44
471.997	368.44
472.216	389.44
472.435	406.44
472.654	380.44
472.873	378.44
473.092	385.44
473.311	394.44
473.53	402.44
473.749	387.44
473.968	442.44
474.187	516.44
474.406	539.44
474.625	432.44
474.844	424.44
475.063	388.44
475.282	385.44
475.501	391.44
475.72	391.44
475.939	409.44
476.158	391.44
476.377	399.44
476.596	397.44
476.814	413.44
477.033	416.44
477.252	410.44
477.471	415.44
477.69	400.44
477.908	423.44
478.127	419.44
478.346	402.44
478.564	406.44
478.783	427.44
479.002	432.44
479.22	420.44
479.439	434.44
479.658	458.44
479.876	461.44
480.095	450.44
480.313	474.44
480.532	488.44
480.751	456.44
480.969	469.44
481.188	522.44
481.406	541.44
481.624	489.44
481.843	476.44
482.061	469.44
482.28	432.44
482.498	453.44
482.717	448.44
482.935	457.44
483.153	429.44
483.372	431.44
483.59	448.44
483.808	440.44
484.027	434.44
484.245	439.44
484.463	430.44
484.681	434.44
484.9	442.44
485.118	447.44
485.336	437.44
485.554	462.44
485.772	448.44
485.99	428.44
486.209	461.44
486.427	459.44
486.645	470.44
486.863	478.44
487.081	482.44
487.299	482.44
487.517	499.44
487.735	474.44
487.953	469.44
488.171	489.44
488.389	469.44
488.607	488.44
488.825	477.44
489.043	477.44
489.261	509.44
489.479	481.44
489.696	477.44
489.914	499.44
490.132	480.44
490.35	498.44
490.568	496.44
490.786	503.44
491.003	524.44
491.221	517.44
491.439	521.44
491.657	544.44
491.874	544.44
492.092	529.44
492.31	564.44
492.527	563.44
492.745	557.44
492.963	538.44
493.18	540.44
493.398	556.44
493.615	569.44
493.833	576.44
494.05	577.44
494.268	577.44
494.485	586.44
494.703	563.44
494.92	551.44
495.138	582.44
495.355	572.44
495.573	589.44
495.79	588.44
496.008	564.44
496.225	564.44
496.442	575.44
496.66	574.44
496.877	569.44
497.094	593.44
497.312	579.44
497.529	595.44
497.746	606.44
497.963	584.44
498.181	620.44
498.398	602.44
498.615	598.44
498.832	624.44
499.049	631.44
499.267	642.44
499.484	637.44
499.701	664.44
499.918	663.44
500.135	680.44
500.352	693.44
500.569	692.44
500.786	694.44
501.003	716.44
501.22	677.44
501.437	682.44
501.654	684.44
501.871	691.44
