Data from 1981.PennyLincolnUp.Lamp.En5.5.200Scan.071819.P1_HRD10591_16-43-40-963.txt Node
Date: Thu Jul 18 16:43:40 EDT 2019
User: cochatt
Spectrometer: HR+D1059
Trigger mode: 1
Integration Time (sec): 1.000000E-1
Scans to average: 1
Electric dark correction enabled: true
Nonlinearity correction enabled: false
Boxcar width: 0
XAxis mode: Wavelengths
Number of Pixels in Spectrum: 2048
>>>>>Begin Spectral Data<<<<<
223.165	-20.94
223.4	-20.94
223.635	-20.94
223.869	-13.94
224.104	-7.94
224.338	-8.94
224.573	-9.94
224.808	-8.94
225.042	-0.94
225.277	-6.94
225.511	-12.94
225.746	9.06
225.98	-9.94
226.215	7.06
226.449	18.06
226.683	23.06
226.918	20.06
227.152	24.06
227.387	28.06
227.621	44.06
227.856	39.06
228.09	39.06
228.324	35.06
228.559	52.06
228.793	66.06
229.027	104.06
229.262	102.06
229.496	102.06
229.73	130.06
229.964	155.06
230.199	135.06
230.433	123.06
230.667	106.06
230.901	118.06
231.136	93.06
231.37	107.06
231.604	114.06
231.838	121.06
232.072	123.06
232.306	126.06
232.541	125.06
232.775	113.06
233.009	105.06
233.243	123.06
233.477	116.06
233.711	121.06
233.945	133.06
234.179	117.06
234.413	116.06
234.647	114.06
234.881	125.06
235.115	122.06
235.349	129.06
235.583	119.06
235.817	125.06
236.051	107.06
236.285	133.06
236.519	133.06
236.753	138.06
236.987	154.06
237.221	195.06
237.455	237.06
237.689	202.06
237.922	159.06
238.156	163.06
238.39	131.06
238.624	125.06
238.858	124.06
239.091	115.06
239.325	119.06
239.559	132.06
239.793	135.06
240.027	130.06
240.26	149.06
240.494	167.06
240.728	162.06
240.961	155.06
241.195	153.06
241.429	144.06
241.662	156.06
241.896	134.06
242.13	147.06
242.363	149.06
242.597	152.06
242.83	144.06
243.064	137.06
243.298	146.06
243.531	135.06
243.765	149.06
243.998	142.06
244.232	135.06
244.465	162.06
244.699	149.06
244.932	141.06
245.166	159.06
245.399	151.06
245.633	151.06
245.866	140.06
246.099	159.06
246.333	161.06
246.566	155.06
246.8	157.06
247.033	154.06
247.266	152.06
247.5	166.06
247.733	166.06
247.966	198.06
248.2	174.06
248.433	174.06
248.666	198.06
248.899	201.06
249.133	207.06
249.366	222.06
249.599	227.06
249.832	206.06
250.066	187.06
250.299	192.06
250.532	177.06
250.765	207.06
250.998	236.06
251.231	261.06
251.465	217.06
251.698	222.06
251.931	222.06
252.164	206.06
252.397	212.06
252.63	226.06
252.863	226.06
253.096	247.06
253.329	249.06
253.562	240.06
253.795	234.06
254.028	226.06
254.261	229.06
254.494	271.06
254.727	283.06
254.96	306.06
255.193	308.06
255.426	272.06
255.659	260.06
255.892	254.06
256.124	275.06
256.357	254.06
256.59	247.06
256.823	218.06
257.056	222.06
257.289	210.06
257.521	244.06
257.754	238.06
257.987	224.06
258.22	219.06
258.452	203.06
258.685	217.06
258.918	216.06
259.151	213.06
259.383	238.06
259.616	224.06
259.849	244.06
260.081	251.06
260.314	255.06
260.547	267.06
260.779	265.06
261.012	258.06
261.244	242.06
261.477	243.06
261.71	233.06
261.942	263.06
262.175	251.06
262.407	253.06
262.64	247.06
262.872	232.06
263.105	236.06
263.337	233.06
263.57	217.06
263.802	222.06
264.035	224.06
264.267	220.06
264.499	216.06
264.732	218.06
264.964	214.06
265.197	226.06
265.429	215.06
265.661	225.06
265.894	237.06
266.126	227.06
266.358	223.06
266.591	234.06
266.823	236.06
267.055	244.06
267.287	244.06
267.52	246.06
267.752	232.06
267.984	243.06
268.216	242.06
268.448	255.06
268.681	234.06
268.913	264.06
269.145	281.06
269.377	290.06
269.609	285.06
269.841	295.06
270.073	306.06
270.306	334.06
270.538	339.06
270.77	373.06
271.002	295.06
271.234	303.06
271.466	329.06
271.698	348.06
271.93	341.06
272.162	356.06
272.394	338.06
272.626	335.06
272.858	315.06
273.09	307.06
273.322	290.06
273.553	279.06
273.785	284.06
274.017	287.06
274.249	293.06
274.481	293.06
274.713	289.06
274.945	290.06
275.176	300.06
275.408	291.06
275.64	298.06
275.872	269.06
276.104	265.06
276.335	270.06
276.567	293.06
276.799	334.06
277.031	323.06
277.262	347.06
277.494	345.06
277.726	331.06
277.957	310.06
278.189	298.06
278.421	287.06
278.652	288.06
278.884	293.06
279.115	281.06
279.347	271.06
279.579	291.06
279.81	275.06
280.042	268.06
280.273	263.06
280.505	278.06
280.736	263.06
280.968	282.06
281.199	275.06
281.431	265.06
281.662	273.06
281.894	301.06
282.125	289.06
282.356	291.06
282.588	338.06
282.819	334.06
283.051	278.06
283.282	288.06
283.513	297.06
283.745	289.06
283.976	306.06
284.207	290.06
284.439	292.06
284.67	290.06
284.901	292.06
285.132	294.06
285.364	291.06
285.595	279.06
285.826	293.06
286.057	289.06
286.288	294.06
286.52	311.06
286.751	283.06
286.982	267.06
287.213	280.06
287.444	289.06
287.675	285.06
287.906	313.06
288.138	305.06
288.369	320.06
288.6	297.06
288.831	290.06
289.062	316.06
289.293	305.06
289.524	311.06
289.755	283.06
289.986	299.06
290.217	298.06
290.448	305.06
290.679	309.06
290.91	308.06
291.141	288.06
291.371	295.06
291.602	277.06
291.833	290.06
292.064	292.06
292.295	282.06
292.526	280.06
292.757	297.06
292.987	284.06
293.218	300.06
293.449	289.06
293.68	291.06
293.91	300.06
294.141	295.06
294.372	289.06
294.603	293.06
294.833	277.06
295.064	289.06
295.295	293.06
295.525	292.06
295.756	322.06
295.987	312.06
296.217	332.06
296.448	338.06
296.679	313.06
296.909	293.06
297.14	313.06
297.37	332.06
297.601	300.06
297.831	306.06
298.062	320.06
298.292	317.06
298.523	320.06
298.753	320.06
298.984	309.06
299.214	308.06
299.445	318.06
299.675	323.06
299.905	324.06
300.136	318.06
300.366	310.06
300.597	320.06
300.827	335.06
301.057	334.06
301.288	332.06
301.518	331.06
301.748	347.06
301.979	348.06
302.209	324.06
302.439	340.06
302.669	324.06
302.9	337.06
303.13	342.06
303.36	346.06
303.59	351.06
303.82	328.06
304.051	334.06
304.281	309.06
304.511	326.06
304.741	338.06
304.971	330.06
305.201	334.06
305.431	343.06
305.661	347.06
305.891	322.06
306.121	332.06
306.352	349.06
306.582	352.06
306.812	328.06
307.042	356.06
307.272	341.06
307.502	328.06
307.731	362.06
307.961	332.06
308.191	355.06
308.421	339.06
308.651	363.06
308.881	351.06
309.111	359.06
309.341	348.06
309.571	354.06
309.8	378.06
310.03	383.06
310.26	386.06
310.49	409.06
310.72	405.06
310.949	428.06
311.179	431.06
311.409	403.06
311.639	372.06
311.868	389.06
312.098	402.06
312.328	400.06
312.557	419.06
312.787	442.06
313.017	436.06
313.246	413.06
313.476	394.06
313.706	393.06
313.935	407.06
314.165	411.06
314.394	418.06
314.624	415.06
314.853	407.06
315.083	410.06
315.312	391.06
315.542	389.06
315.771	389.06
316.001	378.06
316.23	394.06
316.46	396.06
316.689	413.06
316.919	396.06
317.148	397.06
317.377	410.06
317.607	405.06
317.836	396.06
318.065	391.06
318.295	418.06
318.524	400.06
318.753	396.06
318.983	387.06
319.212	382.06
319.441	405.06
319.67	401.06
319.9	407.06
320.129	396.06
320.358	398.06
320.587	409.06
320.816	419.06
321.046	419.06
321.275	432.06
321.504	413.06
321.733	422.06
321.962	425.06
322.191	470.06
322.42	445.06
322.649	468.06
322.878	497.06
323.108	533.06
323.337	539.06
323.566	569.06
323.795	596.06
324.024	686.06
324.253	826.06
324.482	1205.06
324.71	1891.06
324.939	2626.06
325.168	2195.06
325.397	1165.06
325.626	781.06
325.855	659.06
326.084	583.06
326.313	557.06
326.542	577.06
326.77	625.06
326.999	763.06
327.228	1085.06
327.457	1634.06
327.686	1897.06
327.914	1257.06
328.143	837.06
328.372	722.06
328.6	657.06
328.829	625.06
329.058	674.06
329.287	657.06
329.515	623.06
329.744	556.06
329.972	567.06
330.201	584.06
330.43	639.06
330.658	669.06
330.887	707.06
331.115	663.06
331.344	565.06
331.572	527.06
331.801	511.06
332.03	526.06
332.258	501.06
332.486	464.06
332.715	461.06
332.943	458.06
333.172	456.06
333.4	473.06
333.629	456.06
333.857	497.06
334.085	512.06
334.314	498.06
334.542	582.06
334.771	561.06
334.999	506.06
335.227	455.06
335.455	458.06
335.684	450.06
335.912	430.06
336.14	456.06
336.369	454.06
336.597	461.06
336.825	477.06
337.053	459.06
337.281	447.06
337.51	431.06
337.738	435.06
337.966	438.06
338.194	436.06
338.422	440.06
338.65	459.06
338.878	427.06
339.106	416.06
339.334	430.06
339.562	416.06
339.79	429.06
340.018	435.06
340.246	440.06
340.474	435.06
340.702	438.06
340.93	404.06
341.158	416.06
341.386	427.06
341.614	443.06
341.842	430.06
342.07	416.06
342.298	413.06
342.526	417.06
342.754	418.06
342.981	399.06
343.209	417.06
343.437	423.06
343.665	411.06
343.893	421.06
344.12	413.06
344.348	454.06
344.576	430.06
344.804	422.06
345.031	445.06
345.259	453.06
345.487	456.06
345.714	447.06
345.942	425.06
346.17	409.06
346.397	435.06
346.625	427.06
346.853	425.06
347.08	423.06
347.308	424.06
347.535	437.06
347.763	452.06
347.99	405.06
348.218	423.06
348.445	446.06
348.673	435.06
348.9	413.06
349.128	401.06
349.355	401.06
349.583	404.06
349.81	405.06
350.037	405.06
350.265	388.06
350.492	403.06
350.72	405.06
350.947	421.06
351.174	410.06
351.402	420.06
351.629	433.06
351.856	405.06
352.083	447.06
352.311	435.06
352.538	433.06
352.765	435.06
352.992	412.06
353.22	407.06
353.447	406.06
353.674	404.06
353.901	378.06
354.128	375.06
354.355	392.06
354.583	382.06
354.81	395.06
355.037	382.06
355.264	369.06
355.491	363.06
355.718	369.06
355.945	355.06
356.172	345.06
356.399	375.06
356.626	361.06
356.853	383.06
357.08	362.06
357.307	361.06
357.534	369.06
357.761	359.06
357.988	383.06
358.215	370.06
358.441	375.06
358.668	409.06
358.895	378.06
359.122	375.06
359.349	386.06
359.576	419.06
359.802	431.06
360.029	450.06
360.256	467.06
360.483	457.06
360.709	399.06
360.936	407.06
361.163	410.06
361.39	406.06
361.616	397.06
361.843	425.06
362.07	387.06
362.296	407.06
362.523	398.06
362.749	417.06
362.976	392.06
363.203	383.06
363.429	387.06
363.656	397.06
363.882	389.06
364.109	394.06
364.335	375.06
364.562	387.06
364.788	379.06
365.015	371.06
365.241	395.06
365.468	406.06
365.694	397.06
365.92	368.06
366.147	376.06
366.373	372.06
366.599	389.06
366.826	386.06
367.052	375.06
367.278	372.06
367.505	356.06
367.731	365.06
367.957	374.06
368.184	380.06
368.41	398.06
368.636	407.06
368.862	386.06
369.089	397.06
369.315	354.06
369.541	387.06
369.767	381.06
369.993	377.06
370.219	366.06
370.445	362.06
370.672	358.06
370.898	359.06
371.124	379.06
371.35	377.06
371.576	357.06
371.802	362.06
372.028	347.06
372.254	372.06
372.48	355.06
372.706	355.06
372.932	349.06
373.158	362.06
373.384	361.06
373.61	357.06
373.835	366.06
374.061	371.06
374.287	380.06
374.513	362.06
374.739	360.06
374.965	355.06
375.191	350.06
375.416	377.06
375.642	363.06
375.868	361.06
376.094	356.06
376.319	358.06
376.545	341.06
376.771	363.06
376.997	359.06
377.222	375.06
377.448	347.06
377.674	325.06
377.899	346.06
378.125	359.06
378.35	364.06
378.576	336.06
378.802	335.06
379.027	343.06
379.253	343.06
379.478	351.06
379.704	341.06
379.929	357.06
380.155	365.06
380.38	362.06
380.606	351.06
380.831	350.06
381.057	350.06
381.282	347.06
381.507	355.06
381.733	367.06
381.958	352.06
382.184	353.06
382.409	338.06
382.634	360.06
382.86	352.06
383.085	357.06
383.31	355.06
383.535	363.06
383.761	369.06
383.986	366.06
384.211	349.06
384.436	357.06
384.662	379.06
384.887	366.06
385.112	366.06
385.337	351.06
385.562	369.06
385.787	355.06
386.013	379.06
386.238	361.06
386.463	391.06
386.688	361.06
386.913	350.06
387.138	379.06
387.363	393.06
387.588	375.06
387.813	358.06
388.038	373.06
388.263	367.06
388.488	369.06
388.713	362.06
388.938	360.06
389.163	366.06
389.387	381.06
389.612	366.06
389.837	377.06
390.062	373.06
390.287	359.06
390.512	358.06
390.736	360.06
390.961	366.06
391.186	375.06
391.411	361.06
391.636	369.06
391.86	397.06
392.085	379.06
392.31	370.06
392.534	376.06
392.759	364.06
392.984	371.06
393.208	372.06
393.433	376.06
393.658	388.06
393.882	362.06
394.107	376.06
394.331	358.06
394.556	358.06
394.78	374.06
395.005	372.06
395.229	373.06
395.454	370.06
395.678	375.06
395.903	377.06
396.127	407.06
396.352	409.06
396.576	369.06
396.801	364.06
397.025	371.06
397.249	375.06
397.474	385.06
397.698	376.06
397.922	403.06
398.147	406.06
398.371	406.06
398.595	408.06
398.82	409.06
399.044	399.06
399.268	405.06
399.492	427.06
399.717	448.06
399.941	481.06
400.165	476.06
400.389	530.06
400.613	453.06
400.837	436.06
401.062	411.06
401.286	425.06
401.51	403.06
401.734	391.06
401.958	415.06
402.182	424.06
402.406	420.06
402.63	441.06
402.854	423.06
403.078	402.06
403.302	428.06
403.526	413.06
403.75	430.06
403.974	417.06
404.198	401.06
404.422	403.06
404.645	419.06
404.869	444.06
405.093	470.06
405.317	487.06
405.541	531.06
405.765	485.06
405.988	477.06
406.212	468.06
406.436	472.06
406.66	504.06
406.883	463.06
407.107	478.06
407.331	533.06
407.555	572.06
407.778	566.06
408.002	495.06
408.226	471.06
408.449	472.06
408.673	474.06
408.896	490.06
409.12	564.06
409.344	500.06
409.567	455.06
409.791	435.06
410.014	419.06
410.238	420.06
410.461	425.06
410.685	426.06
410.908	443.06
411.132	494.06
411.355	517.06
411.578	472.06
411.802	443.06
412.025	421.06
412.249	435.06
412.472	425.06
412.695	489.06
412.919	484.06
413.142	432.06
413.365	421.06
413.589	421.06
413.812	398.06
414.035	397.06
414.258	397.06
414.482	403.06
414.705	387.06
414.928	399.06
415.151	396.06
415.374	385.06
415.597	381.06
415.821	393.06
416.044	400.06
416.267	414.06
416.49	381.06
416.713	389.06
416.936	390.06
417.159	403.06
417.382	403.06
417.605	423.06
417.828	414.06
418.051	431.06
418.274	434.06
418.497	399.06
418.72	421.06
418.943	407.06
419.166	424.06
419.389	441.06
419.611	415.06
419.834	408.06
420.057	422.06
420.28	429.06
420.503	425.06
420.726	418.06
420.948	440.06
421.171	482.06
421.394	494.06
421.617	464.06
421.839	427.06
422.062	434.06
422.285	445.06
422.507	500.06
422.73	581.06
422.953	531.06
423.175	484.06
423.398	455.06
423.621	442.06
423.843	461.06
424.066	479.06
424.288	459.06
424.511	486.06
424.733	524.06
424.956	612.06
425.178	582.06
425.401	590.06
425.623	588.06
425.846	518.06
426.068	466.06
426.291	474.06
426.513	476.06
426.735	492.06
426.958	539.06
427.18	586.06
427.402	683.06
427.625	774.06
427.847	698.06
428.069	608.06
428.292	545.06
428.514	491.06
428.736	464.06
428.958	458.06
429.181	442.06
429.403	438.06
429.625	455.06
429.847	488.06
430.069	550.06
430.292	550.06
430.514	461.06
430.736	434.06
430.958	432.06
431.18	419.06
431.402	400.06
431.624	417.06
431.846	393.06
432.068	402.06
432.29	398.06
432.512	418.06
432.734	413.06
432.956	423.06
433.178	379.06
433.4	440.06
433.622	411.06
433.844	393.06
434.066	397.06
434.287	401.06
434.509	394.06
434.731	414.06
434.953	421.06
435.175	425.06
435.397	475.06
435.618	461.06
435.84	519.06
436.062	612.06
436.284	660.06
436.505	560.06
436.727	516.06
436.949	443.06
437.17	460.06
437.392	452.06
437.614	466.06
437.835	489.06
438.057	575.06
438.278	666.06
438.5	665.06
438.721	707.06
438.943	678.06
439.165	561.06
439.386	527.06
439.608	490.06
439.829	503.06
440.05	521.06
440.272	574.06
440.493	532.06
440.715	484.06
440.936	463.06
441.158	450.06
441.379	449.06
441.6	427.06
441.822	451.06
442.043	510.06
442.264	598.06
442.486	611.06
442.707	520.06
442.928	499.06
443.149	483.06
443.371	540.06
443.592	551.06
443.813	630.06
444.034	688.06
444.255	561.06
444.476	488.06
444.698	461.06
444.919	477.06
445.14	566.06
445.361	510.06
445.582	537.06
445.803	597.06
446.024	689.06
446.245	699.06
446.466	629.06
446.687	541.06
446.908	479.06
447.129	457.06
447.35	426.06
447.571	460.06
447.792	449.06
448.013	451.06
448.234	474.06
448.455	500.06
448.675	607.06
448.896	714.06
449.117	634.06
449.338	568.06
449.559	676.06
449.779	737.06
450	631.06
450.221	497.06
450.442	456.06
450.662	458.06
450.883	458.06
451.104	461.06
451.324	453.06
451.545	429.06
451.766	408.06
451.986	412.06
452.207	414.06
452.428	404.06
452.648	399.06
452.869	383.06
453.089	388.06
453.31	390.06
453.53	401.06
453.751	426.06
453.971	395.06
454.192	426.06
454.412	399.06
454.633	412.06
454.853	413.06
455.073	390.06
455.294	417.06
455.514	508.06
455.734	478.06
455.955	399.06
456.175	376.06
456.395	382.06
456.616	373.06
456.836	363.06
457.056	360.06
457.276	342.06
457.497	376.06
457.717	348.06
457.937	369.06
458.157	378.06
458.377	387.06
458.598	398.06
458.818	459.06
459.038	572.06
459.258	553.06
459.478	458.06
459.698	415.06
459.918	403.06
460.138	401.06
460.358	392.06
460.578	406.06
460.798	397.06
461.018	399.06
461.238	396.06
461.458	381.06
461.678	385.06
461.898	382.06
462.118	385.06
462.338	383.06
462.558	405.06
462.777	404.06
462.997	383.06
463.217	397.06
463.437	407.06
463.657	403.06
463.876	417.06
464.096	404.06
464.316	400.06
464.536	413.06
464.755	407.06
464.975	425.06
465.195	479.06
465.414	557.06
465.634	478.06
465.854	446.06
466.073	414.06
466.293	399.06
466.512	383.06
466.732	390.06
466.951	360.06
467.171	381.06
467.391	387.06
467.61	393.06
467.829	427.06
468.049	414.06
468.268	423.06
468.488	372.06
468.707	366.06
468.927	373.06
469.146	379.06
469.365	390.06
469.585	385.06
469.804	408.06
470.023	405.06
470.243	403.06
470.462	406.06
470.681	398.06
470.901	428.06
471.12	396.06
471.339	385.06
471.558	417.06
471.777	386.06
471.997	413.06
472.216	405.06
472.435	420.06
472.654	418.06
472.873	407.06
473.092	387.06
473.311	390.06
473.53	414.06
473.749	429.06
473.968	471.06
474.187	556.06
474.406	592.06
474.625	488.06
474.844	421.06
475.063	423.06
475.282	391.06
475.501	406.06
475.72	396.06
475.939	417.06
476.158	413.06
476.377	420.06
476.596	429.06
476.814	421.06
477.033	420.06
477.252	408.06
477.471	411.06
477.69	429.06
477.908	425.06
478.127	426.06
478.346	433.06
478.564	419.06
478.783	429.06
479.002	467.06
479.22	441.06
479.439	457.06
479.658	467.06
479.876	481.06
480.095	483.06
480.313	497.06
480.532	495.06
480.751	503.06
480.969	499.06
481.188	567.06
481.406	578.06
481.624	514.06
481.843	508.06
482.061	473.06
482.28	467.06
482.498	467.06
482.717	472.06
482.935	481.06
483.153	471.06
483.372	451.06
483.59	455.06
483.808	455.06
484.027	456.06
484.245	479.06
484.463	455.06
484.681	473.06
484.9	468.06
485.118	470.06
485.336	474.06
485.554	450.06
485.772	475.06
485.99	471.06
486.209	488.06
486.427	501.06
486.645	473.06
486.863	528.06
487.081	516.06
487.299	523.06
487.517	500.06
487.735	494.06
487.953	507.06
488.171	487.06
488.389	473.06
488.607	486.06
488.825	474.06
489.043	488.06
489.261	493.06
489.479	523.06
489.696	514.06
489.914	506.06
490.132	509.06
490.35	536.06
490.568	526.06
490.786	538.06
491.003	573.06
491.221	539.06
491.439	552.06
491.657	564.06
491.874	570.06
492.092	595.06
492.31	586.06
492.527	574.06
492.745	577.06
492.963	581.06
493.18	591.06
493.398	574.06
493.615	568.06
493.833	587.06
494.05	590.06
494.268	591.06
494.485	600.06
494.703	584.06
494.92	620.06
495.138	618.06
495.355	603.06
495.573	603.06
495.79	609.06
496.008	599.06
496.225	601.06
496.442	594.06
496.66	606.06
496.877	583.06
497.094	614.06
497.312	603.06
497.529	604.06
497.746	610.06
497.963	595.06
498.181	645.06
498.398	625.06
498.615	642.06
498.832	656.06
499.049	634.06
499.267	640.06
499.484	658.06
499.701	673.06
499.918	697.06
500.135	709.06
500.352	717.06
500.569	699.06
500.786	697.06
501.003	726.06
501.22	737.06
501.437	735.06
501.654	719.06
501.871	726.06
