Data from 1981.PennyLincolnUp.Lamp.En5.5.200Scan.071819.P1_HRD10591_16-41-00-959.txt Node
Date: Thu Jul 18 16:41:00 EDT 2019
User: cochatt
Spectrometer: HR+D1059
Trigger mode: 1
Integration Time (sec): 1.000000E-1
Scans to average: 1
Electric dark correction enabled: true
Nonlinearity correction enabled: false
Boxcar width: 0
XAxis mode: Wavelengths
Number of Pixels in Spectrum: 2048
>>>>>Begin Spectral Data<<<<<
223.165	-18.06
223.4	-18.06
223.635	-18.06
223.869	-31.06
224.104	-15.06
224.338	-12.06
224.573	-24.06
224.808	-2.06
225.042	-12.06
225.277	-7.06
225.511	3.94
225.746	7.94
225.98	5.94
226.215	13.94
226.449	0.94
226.683	21.94
226.918	33.94
227.152	32.94
227.387	26.94
227.621	36.94
227.856	41.94
228.09	42.94
228.324	32.94
228.559	52.94
228.793	68.94
229.027	80.94
229.262	106.94
229.496	105.94
229.73	114.94
229.964	135.94
230.199	130.94
230.433	106.94
230.667	107.94
230.901	108.94
231.136	101.94
231.37	95.94
231.604	113.94
231.838	92.94
232.072	102.94
232.306	101.94
232.541	113.94
232.775	96.94
233.009	94.94
233.243	102.94
233.477	112.94
233.711	115.94
233.945	101.94
234.179	106.94
234.413	102.94
234.647	119.94
234.881	105.94
235.115	106.94
235.349	110.94
235.583	116.94
235.817	112.94
236.051	113.94
236.285	114.94
236.519	120.94
236.753	117.94
236.987	133.94
237.221	177.94
237.455	224.94
237.689	168.94
237.922	130.94
238.156	107.94
238.39	123.94
238.624	120.94
238.858	115.94
239.091	117.94
239.325	101.94
239.559	115.94
239.793	124.94
240.027	139.94
240.26	145.94
240.494	161.94
240.728	133.94
240.961	131.94
241.195	134.94
241.429	146.94
241.662	134.94
241.896	130.94
242.13	144.94
242.363	129.94
242.597	116.94
242.83	127.94
243.064	133.94
243.298	132.94
243.531	135.94
243.765	135.94
243.998	136.94
244.232	127.94
244.465	149.94
244.699	131.94
244.932	144.94
245.166	156.94
245.399	132.94
245.633	139.94
245.866	154.94
246.099	145.94
246.333	138.94
246.566	148.94
246.8	143.94
247.033	158.94
247.266	136.94
247.5	159.94
247.733	175.94
247.966	176.94
248.2	169.94
248.433	157.94
248.666	170.94
248.899	161.94
249.133	192.94
249.366	212.94
249.599	190.94
249.832	189.94
250.066	168.94
250.299	168.94
250.532	172.94
250.765	211.94
250.998	211.94
251.231	211.94
251.465	223.94
251.698	217.94
251.931	192.94
252.164	199.94
252.397	194.94
252.63	207.94
252.863	204.94
253.096	224.94
253.329	216.94
253.562	234.94
253.795	205.94
254.028	216.94
254.261	224.94
254.494	207.94
254.727	247.94
254.96	237.94
255.193	271.94
255.426	236.94
255.659	234.94
255.892	233.94
256.124	245.94
256.357	232.94
256.59	225.94
256.823	200.94
257.056	204.94
257.289	200.94
257.521	194.94
257.754	212.94
257.987	199.94
258.22	203.94
258.452	208.94
258.685	203.94
258.918	207.94
259.151	217.94
259.383	215.94
259.616	209.94
259.849	215.94
260.081	215.94
260.314	256.94
260.547	248.94
260.779	227.94
261.012	244.94
261.244	239.94
261.477	203.94
261.71	203.94
261.942	222.94
262.175	230.94
262.407	223.94
262.64	217.94
262.872	215.94
263.105	205.94
263.337	217.94
263.57	201.94
263.802	216.94
264.035	202.94
264.267	206.94
264.499	222.94
264.732	210.94
264.964	199.94
265.197	217.94
265.429	211.94
265.661	201.94
265.894	206.94
266.126	203.94
266.358	208.94
266.591	218.94
266.823	219.94
267.055	226.94
267.287	212.94
267.52	224.94
267.752	221.94
267.984	215.94
268.216	215.94
268.448	225.94
268.681	246.94
268.913	228.94
269.145	249.94
269.377	270.94
269.609	268.94
269.841	261.94
270.073	267.94
270.306	303.94
270.538	288.94
270.77	285.94
271.002	305.94
271.234	301.94
271.466	304.94
271.698	306.94
271.93	322.94
272.162	313.94
272.394	315.94
272.626	307.94
272.858	284.94
273.09	291.94
273.322	271.94
273.553	260.94
273.785	250.94
274.017	258.94
274.249	241.94
274.481	259.94
274.713	271.94
274.945	267.94
275.176	270.94
275.408	256.94
275.64	248.94
275.872	254.94
276.104	236.94
276.335	271.94
276.567	273.94
276.799	280.94
277.031	300.94
277.262	300.94
277.494	299.94
277.726	278.94
277.957	288.94
278.189	281.94
278.421	245.94
278.652	249.94
278.884	256.94
279.115	257.94
279.347	274.94
279.579	248.94
279.81	271.94
280.042	259.94
280.273	264.94
280.505	252.94
280.736	245.94
280.968	248.94
281.199	258.94
281.431	250.94
281.662	255.94
281.894	257.94
282.125	279.94
282.356	283.94
282.588	283.94
282.819	292.94
283.051	277.94
283.282	250.94
283.513	240.94
283.745	254.94
283.976	264.94
284.207	282.94
284.439	278.94
284.67	252.94
284.901	264.94
285.132	255.94
285.364	264.94
285.595	258.94
285.826	269.94
286.057	247.94
286.288	259.94
286.52	255.94
286.751	260.94
286.982	276.94
287.213	268.94
287.444	287.94
287.675	283.94
287.906	268.94
288.138	284.94
288.369	276.94
288.6	282.94
288.831	273.94
289.062	285.94
289.293	276.94
289.524	278.94
289.755	263.94
289.986	264.94
290.217	268.94
290.448	283.94
290.679	275.94
290.91	251.94
291.141	280.94
291.371	254.94
291.602	272.94
291.833	280.94
292.064	262.94
292.295	285.94
292.526	287.94
292.757	264.94
292.987	263.94
293.218	282.94
293.449	271.94
293.68	277.94
293.91	265.94
294.141	275.94
294.372	271.94
294.603	285.94
294.833	268.94
295.064	283.94
295.295	275.94
295.525	280.94
295.756	280.94
295.987	297.94
296.217	308.94
296.448	304.94
296.679	286.94
296.909	279.94
297.14	277.94
297.37	286.94
297.601	290.94
297.831	274.94
298.062	300.94
298.292	291.94
298.523	263.94
298.753	289.94
298.984	283.94
299.214	297.94
299.445	287.94
299.675	264.94
299.905	279.94
300.136	299.94
300.366	300.94
300.597	276.94
300.827	293.94
301.057	288.94
301.288	291.94
301.518	309.94
301.748	308.94
301.979	299.94
302.209	307.94
302.439	291.94
302.669	323.94
302.9	286.94
303.13	307.94
303.36	301.94
303.59	303.94
303.82	321.94
304.051	314.94
304.281	309.94
304.511	312.94
304.741	308.94
304.971	291.94
305.201	317.94
305.431	301.94
305.661	311.94
305.891	289.94
306.121	303.94
306.352	313.94
306.582	303.94
306.812	323.94
307.042	315.94
307.272	303.94
307.502	307.94
307.731	300.94
307.961	311.94
308.191	315.94
308.421	323.94
308.651	332.94
308.881	309.94
309.111	333.94
309.341	315.94
309.571	337.94
309.8	342.94
310.03	341.94
310.26	355.94
310.49	363.94
310.72	363.94
310.949	370.94
311.179	371.94
311.409	372.94
311.639	355.94
311.868	341.94
312.098	354.94
312.328	357.94
312.557	377.94
312.787	400.94
313.017	389.94
313.246	368.94
313.476	344.94
313.706	363.94
313.935	367.94
314.165	375.94
314.394	368.94
314.624	383.94
314.853	375.94
315.083	374.94
315.312	361.94
315.542	348.94
315.771	340.94
316.001	367.94
316.23	363.94
316.46	356.94
316.689	362.94
316.919	359.94
317.148	343.94
317.377	372.94
317.607	373.94
317.836	364.94
318.065	339.94
318.295	356.94
318.524	357.94
318.753	364.94
318.983	360.94
319.212	364.94
319.441	341.94
319.67	376.94
319.9	353.94
320.129	357.94
320.358	377.94
320.587	361.94
320.816	359.94
321.046	373.94
321.275	381.94
321.504	377.94
321.733	402.94
321.962	393.94
322.191	405.94
322.42	392.94
322.649	433.94
322.878	437.94
323.108	439.94
323.337	459.94
323.566	495.94
323.795	520.94
324.024	576.94
324.253	700.94
324.482	1004.94
324.71	1535.94
324.939	2102.94
325.168	1807.94
325.397	957.94
325.626	664.94
325.855	552.94
326.084	512.94
326.313	503.94
326.542	487.94
326.77	562.94
326.999	631.94
327.228	923.94
327.457	1317.94
327.686	1588.94
327.914	1082.94
328.143	736.94
328.372	595.94
328.6	557.94
328.829	541.94
329.058	564.94
329.287	573.94
329.515	523.94
329.744	491.94
329.972	497.94
330.201	512.94
330.43	560.94
330.658	557.94
330.887	557.94
331.115	559.94
331.344	513.94
331.572	476.94
331.801	477.94
332.03	427.94
332.258	450.94
332.486	436.94
332.715	415.94
332.943	425.94
333.172	426.94
333.4	413.94
333.629	437.94
333.857	433.94
334.085	434.94
334.314	443.94
334.542	463.94
334.771	461.94
334.999	439.94
335.227	423.94
335.455	419.94
335.684	408.94
335.912	417.94
336.14	409.94
336.369	401.94
336.597	423.94
336.825	427.94
337.053	416.94
337.281	408.94
337.51	400.94
337.738	407.94
337.966	399.94
338.194	398.94
338.422	411.94
338.65	393.94
338.878	398.94
339.106	395.94
339.334	397.94
339.562	385.94
339.79	397.94
340.018	395.94
340.246	383.94
340.474	395.94
340.702	405.94
340.93	383.94
341.158	373.94
341.386	381.94
341.614	387.94
341.842	389.94
342.07	375.94
342.298	391.94
342.526	377.94
342.754	385.94
342.981	358.94
343.209	371.94
343.437	372.94
343.665	379.94
343.893	383.94
344.12	387.94
344.348	384.94
344.576	379.94
344.804	415.94
345.031	410.94
345.259	432.94
345.487	423.94
345.714	393.94
345.942	395.94
346.17	399.94
346.397	383.94
346.625	377.94
346.853	377.94
347.08	372.94
347.308	382.94
347.535	399.94
347.763	393.94
347.99	388.94
348.218	386.94
348.445	405.94
348.673	390.94
348.9	364.94
349.128	371.94
349.355	379.94
349.583	356.94
349.81	370.94
350.037	362.94
350.265	379.94
350.492	353.94
350.72	363.94
350.947	358.94
351.174	383.94
351.402	387.94
351.629	382.94
351.856	373.94
352.083	395.94
352.311	365.94
352.538	395.94
352.765	390.94
352.992	395.94
353.22	373.94
353.447	385.94
353.674	386.94
353.901	370.94
354.128	332.94
354.355	352.94
354.583	345.94
354.81	340.94
355.037	378.94
355.264	355.94
355.491	321.94
355.718	338.94
355.945	326.94
356.172	356.94
356.399	347.94
356.626	338.94
356.853	361.94
357.08	348.94
357.307	356.94
357.534	355.94
357.761	360.94
357.988	335.94
358.215	340.94
358.441	345.94
358.668	352.94
358.895	354.94
359.122	364.94
359.349	357.94
359.576	368.94
359.802	389.94
360.029	424.94
360.256	429.94
360.483	389.94
360.709	389.94
360.936	398.94
361.163	386.94
361.39	356.94
361.616	381.94
361.843	380.94
362.07	361.94
362.296	373.94
362.523	369.94
362.749	359.94
362.976	354.94
363.203	377.94
363.429	373.94
363.656	377.94
363.882	363.94
364.109	337.94
364.335	351.94
364.562	349.94
364.788	319.94
365.015	348.94
365.241	373.94
365.468	372.94
365.694	361.94
365.92	355.94
366.147	363.94
366.373	349.94
366.599	347.94
366.826	356.94
367.052	340.94
367.278	351.94
367.505	351.94
367.731	343.94
367.957	361.94
368.184	355.94
368.41	354.94
368.636	371.94
368.862	375.94
369.089	343.94
369.315	345.94
369.541	360.94
369.767	354.94
369.993	347.94
370.219	354.94
370.445	352.94
370.672	333.94
370.898	355.94
371.124	340.94
371.35	322.94
371.576	341.94
371.802	335.94
372.028	340.94
372.254	336.94
372.48	335.94
372.706	342.94
372.932	359.94
373.158	333.94
373.384	335.94
373.61	347.94
373.835	333.94
374.061	356.94
374.287	347.94
374.513	355.94
374.739	333.94
374.965	344.94
375.191	359.94
375.416	325.94
375.642	352.94
375.868	354.94
376.094	340.94
376.319	329.94
376.545	339.94
376.771	341.94
376.997	347.94
377.222	331.94
377.448	321.94
377.674	332.94
377.899	325.94
378.125	338.94
378.35	328.94
378.576	339.94
378.802	338.94
379.027	333.94
379.253	315.94
379.478	321.94
379.704	321.94
379.929	334.94
380.155	329.94
380.38	320.94
380.606	310.94
380.831	332.94
381.057	332.94
381.282	330.94
381.507	338.94
381.733	319.94
381.958	345.94
382.184	326.94
382.409	333.94
382.634	333.94
382.86	346.94
383.085	329.94
383.31	340.94
383.535	320.94
383.761	339.94
383.986	343.94
384.211	355.94
384.436	351.94
384.662	340.94
384.887	331.94
385.112	365.94
385.337	354.94
385.562	359.94
385.787	351.94
386.013	363.94
386.238	376.94
386.463	363.94
386.688	342.94
386.913	355.94
387.138	375.94
387.363	333.94
387.588	351.94
387.813	345.94
388.038	347.94
388.263	357.94
388.488	349.94
388.713	357.94
388.938	360.94
389.163	354.94
389.387	363.94
389.612	359.94
389.837	353.94
390.062	350.94
390.287	356.94
390.512	349.94
390.736	353.94
390.961	357.94
391.186	337.94
391.411	336.94
391.636	360.94
391.86	371.94
392.085	335.94
392.31	363.94
392.534	343.94
392.759	365.94
392.984	355.94
393.208	368.94
393.433	347.94
393.658	345.94
393.882	331.94
394.107	349.94
394.331	369.94
394.556	340.94
394.78	328.94
395.005	356.94
395.229	360.94
395.454	346.94
395.678	365.94
395.903	355.94
396.127	375.94
396.352	383.94
396.576	380.94
396.801	354.94
397.025	347.94
397.249	348.94
397.474	355.94
397.698	366.94
397.922	384.94
398.147	401.94
398.371	387.94
398.595	394.94
398.82	387.94
399.044	369.94
399.268	392.94
399.492	407.94
399.717	437.94
399.941	433.94
400.165	475.94
400.389	460.94
400.613	448.94
400.837	404.94
401.062	395.94
401.286	378.94
401.51	379.94
401.734	376.94
401.958	387.94
402.182	389.94
402.406	387.94
402.63	408.94
402.854	410.94
403.078	396.94
403.302	383.94
403.526	399.94
403.75	384.94
403.974	406.94
404.198	393.94
404.422	403.94
404.645	398.94
404.869	390.94
405.093	414.94
405.317	438.94
405.541	471.94
405.765	457.94
405.988	420.94
406.212	427.94
406.436	467.94
406.66	460.94
406.883	433.94
407.107	453.94
407.331	488.94
407.555	544.94
407.778	553.94
408.002	481.94
408.226	442.94
408.449	445.94
408.673	444.94
408.896	486.94
409.12	507.94
409.344	468.94
409.567	437.94
409.791	417.94
410.014	405.94
410.238	398.94
410.461	399.94
410.685	415.94
410.908	399.94
411.132	420.94
411.355	471.94
411.578	450.94
411.802	415.94
412.025	411.94
412.249	400.94
412.472	411.94
412.695	439.94
412.919	441.94
413.142	403.94
413.365	405.94
413.589	405.94
413.812	384.94
414.035	378.94
414.258	375.94
414.482	378.94
414.705	365.94
414.928	375.94
415.151	373.94
415.374	376.94
415.597	375.94
415.821	361.94
416.044	365.94
416.267	365.94
416.49	378.94
416.713	393.94
416.936	361.94
417.159	377.94
417.382	385.94
417.605	364.94
417.828	388.94
418.051	396.94
418.274	384.94
418.497	350.94
418.72	375.94
418.943	381.94
419.166	373.94
419.389	405.94
419.611	384.94
419.834	400.94
420.057	396.94
420.28	398.94
420.503	394.94
420.726	407.94
420.948	411.94
421.171	440.94
421.394	468.94
421.617	409.94
421.839	414.94
422.062	411.94
422.285	387.94
422.507	451.94
422.73	500.94
422.953	494.94
423.175	452.94
423.398	433.94
423.621	397.94
423.843	427.94
424.066	422.94
424.288	435.94
424.511	458.94
424.733	519.94
424.956	552.94
425.178	543.94
425.401	532.94
425.623	557.94
425.846	463.94
426.068	427.94
426.291	433.94
426.513	415.94
426.735	447.94
426.958	480.94
427.18	531.94
427.402	650.94
427.625	719.94
427.847	625.94
428.069	543.94
428.292	501.94
428.514	425.94
428.736	425.94
428.958	418.94
429.181	415.94
429.403	413.94
429.625	427.94
429.847	433.94
430.069	484.94
430.292	488.94
430.514	426.94
430.736	424.94
430.958	394.94
431.18	372.94
431.402	379.94
431.624	363.94
431.846	379.94
432.068	374.94
432.29	371.94
432.512	398.94
432.734	396.94
432.956	393.94
433.178	391.94
433.4	408.94
433.622	381.94
433.844	386.94
434.066	381.94
434.287	387.94
434.509	389.94
434.731	378.94
434.953	386.94
435.175	411.94
435.397	440.94
435.618	442.94
435.84	466.94
436.062	547.94
436.284	610.94
436.505	522.94
436.727	450.94
436.949	435.94
437.17	403.94
437.392	404.94
437.614	417.94
437.835	455.94
438.057	531.94
438.278	611.94
438.5	607.94
438.721	653.94
438.943	614.94
439.165	519.94
439.386	465.94
439.608	466.94
439.829	441.94
440.05	482.94
440.272	521.94
440.493	470.94
440.715	451.94
440.936	408.94
441.158	423.94
441.379	411.94
441.6	419.94
441.822	422.94
442.043	467.94
442.264	534.94
442.486	552.94
442.707	515.94
442.928	473.94
443.149	482.94
443.371	482.94
443.592	518.94
443.813	605.94
444.034	627.94
444.255	509.94
444.476	451.94
444.698	430.94
444.919	413.94
445.14	509.94
445.361	476.94
445.582	473.94
445.803	524.94
446.024	620.94
446.245	626.94
446.466	541.94
446.687	480.94
446.908	433.94
447.129	423.94
447.35	391.94
447.571	420.94
447.792	397.94
448.013	438.94
448.234	443.94
448.455	492.94
448.675	557.94
448.896	663.94
449.117	575.94
449.338	555.94
449.559	618.94
449.779	693.94
450	565.94
450.221	465.94
450.442	431.94
450.662	424.94
450.883	428.94
451.104	434.94
451.324	412.94
451.545	389.94
451.766	400.94
451.986	363.94
452.207	369.94
452.428	374.94
452.648	369.94
452.869	366.94
453.089	354.94
453.31	375.94
453.53	381.94
453.751	377.94
453.971	381.94
454.192	383.94
454.412	391.94
454.633	360.94
454.853	359.94
455.073	359.94
455.294	393.94
455.514	441.94
455.734	429.94
455.955	377.94
456.175	363.94
456.395	345.94
456.616	356.94
456.836	324.94
457.056	327.94
457.276	351.94
457.497	345.94
457.717	333.94
457.937	334.94
458.157	370.94
458.377	362.94
458.598	365.94
458.818	422.94
459.038	515.94
459.258	501.94
459.478	396.94
459.698	390.94
459.918	380.94
460.138	350.94
460.358	381.94
460.578	379.94
460.798	350.94
461.018	355.94
461.238	374.94
461.458	362.94
461.678	379.94
461.898	372.94
462.118	372.94
462.338	372.94
462.558	381.94
462.777	378.94
462.997	380.94
463.217	410.94
463.437	405.94
463.657	379.94
463.876	380.94
464.096	404.94
464.316	387.94
464.536	397.94
464.755	392.94
464.975	415.94
465.195	451.94
465.414	515.94
465.634	451.94
465.854	417.94
466.073	392.94
466.293	376.94
466.512	355.94
466.732	341.94
466.951	345.94
467.171	347.94
467.391	343.94
467.61	372.94
467.829	387.94
468.049	369.94
468.268	366.94
468.488	351.94
468.707	349.94
468.927	357.94
469.146	351.94
469.365	370.94
469.585	355.94
469.804	354.94
470.023	361.94
470.243	379.94
470.462	381.94
470.681	383.94
470.901	386.94
471.12	375.94
471.339	359.94
471.558	371.94
471.777	361.94
471.997	367.94
472.216	373.94
472.435	385.94
472.654	396.94
472.873	367.94
473.092	374.94
473.311	370.94
473.53	374.94
473.749	388.94
473.968	423.94
474.187	529.94
474.406	538.94
474.625	438.94
474.844	396.94
475.063	381.94
475.282	363.94
475.501	376.94
475.72	417.94
475.939	387.94
476.158	390.94
476.377	381.94
476.596	395.94
476.814	381.94
477.033	396.94
477.252	380.94
477.471	389.94
477.69	384.94
477.908	389.94
478.127	401.94
478.346	412.94
478.564	395.94
478.783	395.94
479.002	407.94
479.22	421.94
479.439	413.94
479.658	443.94
479.876	463.94
480.095	460.94
480.313	447.94
480.532	487.94
480.751	482.94
480.969	457.94
481.188	513.94
481.406	519.94
481.624	483.94
481.843	429.94
482.061	437.94
482.28	436.94
482.498	440.94
482.717	412.94
482.935	448.94
483.153	440.94
483.372	428.94
483.59	435.94
483.808	440.94
484.027	423.94
484.245	446.94
484.463	431.94
484.681	440.94
484.9	434.94
485.118	448.94
485.336	462.94
485.554	451.94
485.772	435.94
485.99	434.94
486.209	448.94
486.427	439.94
486.645	454.94
486.863	469.94
487.081	465.94
487.299	463.94
487.517	476.94
487.735	477.94
487.953	452.94
488.171	475.94
488.389	447.94
488.607	467.94
488.825	488.94
489.043	471.94
489.261	477.94
489.479	480.94
489.696	464.94
489.914	481.94
490.132	497.94
490.35	507.94
490.568	495.94
490.786	484.94
491.003	507.94
491.221	520.94
491.439	521.94
491.657	530.94
491.874	525.94
492.092	519.94
492.31	544.94
492.527	524.94
492.745	551.94
492.963	524.94
493.18	533.94
493.398	553.94
493.615	540.94
493.833	559.94
494.05	557.94
494.268	541.94
494.485	556.94
494.703	535.94
494.92	537.94
495.138	532.94
495.355	546.94
495.573	556.94
495.79	556.94
496.008	558.94
496.225	563.94
496.442	578.94
496.66	546.94
496.877	544.94
497.094	570.94
497.312	580.94
497.529	573.94
497.746	569.94
497.963	566.94
498.181	586.94
498.398	591.94
498.615	611.94
498.832	592.94
499.049	589.94
499.267	635.94
499.484	603.94
499.701	627.94
499.918	652.94
500.135	667.94
500.352	690.94
500.569	689.94
500.786	696.94
501.003	692.94
501.22	674.94
501.437	664.94
501.654	675.94
501.871	685.94
502.088	638.94
