Data from 1981.PennyLincolnUp.Lamp.En5.5.200Scan.071819.P1_HRD10591_16-40-35-958.txt Node
Date: Thu Jul 18 16:40:35 EDT 2019
User: cochatt
Spectrometer: HR+D1059
Trigger mode: 1
Integration Time (sec): 1.000000E-1
Scans to average: 1
Electric dark correction enabled: true
Nonlinearity correction enabled: false
Boxcar width: 0
XAxis mode: Wavelengths
Number of Pixels in Spectrum: 2048
>>>>>Begin Spectral Data<<<<<
223.165	-23.06
223.4	-23.06
223.635	-23.06
223.869	-14.06
224.104	-10.06
224.338	-14.06
224.573	-10.06
224.808	-17.06
225.042	-6.06
225.277	-2.06
225.511	-7.06
225.746	3.94
225.98	-0.06
226.215	16.94
226.449	14.94
226.683	11.94
226.918	37.94
227.152	17.94
227.387	33.94
227.621	33.94
227.856	49.94
228.09	29.94
228.324	56.94
228.559	78.94
228.793	65.94
229.027	88.94
229.262	101.94
229.496	93.94
229.73	112.94
229.964	135.94
230.199	117.94
230.433	105.94
230.667	105.94
230.901	107.94
231.136	111.94
231.37	102.94
231.604	95.94
231.838	107.94
232.072	99.94
232.306	106.94
232.541	113.94
232.775	117.94
233.009	107.94
233.243	106.94
233.477	104.94
233.711	102.94
233.945	107.94
234.179	115.94
234.413	115.94
234.647	113.94
234.881	110.94
235.115	123.94
235.349	117.94
235.583	113.94
235.817	119.94
236.051	117.94
236.285	115.94
236.519	117.94
236.753	121.94
236.987	127.94
237.221	168.94
237.455	202.94
237.689	163.94
237.922	133.94
238.156	127.94
238.39	124.94
238.624	108.94
238.858	125.94
239.091	109.94
239.325	110.94
239.559	122.94
239.793	125.94
240.027	128.94
240.26	124.94
240.494	153.94
240.728	138.94
240.961	133.94
241.195	139.94
241.429	133.94
241.662	119.94
241.896	129.94
242.13	117.94
242.363	114.94
242.597	129.94
242.83	121.94
243.064	128.94
243.298	124.94
243.531	121.94
243.765	118.94
243.998	124.94
244.232	138.94
244.465	146.94
244.699	130.94
244.932	135.94
245.166	126.94
245.399	131.94
245.633	147.94
245.866	131.94
246.099	140.94
246.333	123.94
246.566	145.94
246.8	138.94
247.033	145.94
247.266	142.94
247.5	155.94
247.733	163.94
247.966	146.94
248.2	156.94
248.433	163.94
248.666	181.94
248.899	171.94
249.133	153.94
249.366	180.94
249.599	177.94
249.832	181.94
250.066	170.94
250.299	181.94
250.532	173.94
250.765	174.94
250.998	209.94
251.231	193.94
251.465	202.94
251.698	191.94
251.931	191.94
252.164	174.94
252.397	175.94
252.63	185.94
252.863	196.94
253.096	193.94
253.329	193.94
253.562	210.94
253.795	194.94
254.028	184.94
254.261	194.94
254.494	202.94
254.727	227.94
254.96	253.94
255.193	241.94
255.426	245.94
255.659	218.94
255.892	200.94
256.124	225.94
256.357	223.94
256.59	207.94
256.823	198.94
257.056	203.94
257.289	169.94
257.521	193.94
257.754	186.94
257.987	189.94
258.22	193.94
258.452	193.94
258.685	196.94
258.918	197.94
259.151	184.94
259.383	195.94
259.616	206.94
259.849	199.94
260.081	206.94
260.314	234.94
260.547	226.94
260.779	213.94
261.012	223.94
261.244	210.94
261.477	210.94
261.71	185.94
261.942	204.94
262.175	212.94
262.407	210.94
262.64	194.94
262.872	185.94
263.105	209.94
263.337	196.94
263.57	191.94
263.802	194.94
264.035	197.94
264.267	193.94
264.499	198.94
264.732	194.94
264.964	185.94
265.197	201.94
265.429	214.94
265.661	179.94
265.894	191.94
266.126	192.94
266.358	184.94
266.591	197.94
266.823	209.94
267.055	196.94
267.287	208.94
267.52	200.94
267.752	219.94
267.984	208.94
268.216	184.94
268.448	208.94
268.681	219.94
268.913	225.94
269.145	219.94
269.377	238.94
269.609	255.94
269.841	229.94
270.073	243.94
270.306	239.94
270.538	273.94
270.77	273.94
271.002	269.94
271.234	250.94
271.466	248.94
271.698	262.94
271.93	275.94
272.162	283.94
272.394	272.94
272.626	267.94
272.858	248.94
273.09	243.94
273.322	245.94
273.553	233.94
273.785	237.94
274.017	219.94
274.249	233.94
274.481	239.94
274.713	232.94
274.945	219.94
275.176	253.94
275.408	234.94
275.64	230.94
275.872	243.94
276.104	236.94
276.335	227.94
276.567	243.94
276.799	241.94
277.031	261.94
277.262	262.94
277.494	271.94
277.726	276.94
277.957	267.94
278.189	232.94
278.421	238.94
278.652	241.94
278.884	222.94
279.115	237.94
279.347	224.94
279.579	232.94
279.81	237.94
280.042	234.94
280.273	229.94
280.505	238.94
280.736	238.94
280.968	241.94
281.199	241.94
281.431	241.94
281.662	236.94
281.894	225.94
282.125	238.94
282.356	236.94
282.588	258.94
282.819	259.94
283.051	226.94
283.282	238.94
283.513	248.94
283.745	234.94
283.976	249.94
284.207	246.94
284.439	259.94
284.67	252.94
284.901	250.94
285.132	222.94
285.364	238.94
285.595	227.94
285.826	242.94
286.057	225.94
286.288	244.94
286.52	250.94
286.751	237.94
286.982	239.94
287.213	239.94
287.444	249.94
287.675	255.94
287.906	263.94
288.138	259.94
288.369	251.94
288.6	251.94
288.831	255.94
289.062	267.94
289.293	272.94
289.524	258.94
289.755	249.94
289.986	239.94
290.217	255.94
290.448	261.94
290.679	246.94
290.91	245.94
291.141	251.94
291.371	242.94
291.602	260.94
291.833	234.94
292.064	253.94
292.295	263.94
292.526	245.94
292.757	251.94
292.987	264.94
293.218	255.94
293.449	258.94
293.68	259.94
293.91	263.94
294.141	237.94
294.372	243.94
294.603	247.94
294.833	242.94
295.064	248.94
295.295	247.94
295.525	252.94
295.756	253.94
295.987	250.94
296.217	281.94
296.448	292.94
296.679	259.94
296.909	241.94
297.14	267.94
297.37	249.94
297.601	249.94
297.831	242.94
298.062	262.94
298.292	262.94
298.523	267.94
298.753	262.94
298.984	268.94
299.214	261.94
299.445	265.94
299.675	263.94
299.905	263.94
300.136	267.94
300.366	274.94
300.597	257.94
300.827	271.94
301.057	273.94
301.288	287.94
301.518	271.94
301.748	278.94
301.979	278.94
302.209	286.94
302.439	286.94
302.669	304.94
302.9	272.94
303.13	274.94
303.36	273.94
303.59	289.94
303.82	308.94
304.051	291.94
304.281	287.94
304.511	270.94
304.741	278.94
304.971	272.94
305.201	269.94
305.431	276.94
305.661	303.94
305.891	261.94
306.121	292.94
306.352	292.94
306.582	298.94
306.812	275.94
307.042	281.94
307.272	279.94
307.502	282.94
307.731	295.94
307.961	294.94
308.191	296.94
308.421	292.94
308.651	280.94
308.881	281.94
309.111	281.94
309.341	282.94
309.571	312.94
309.8	323.94
310.03	309.94
310.26	314.94
310.49	296.94
310.72	323.94
310.949	344.94
311.179	335.94
311.409	312.94
311.639	319.94
311.868	338.94
312.098	343.94
312.328	325.94
312.557	346.94
312.787	347.94
313.017	334.94
313.246	333.94
313.476	335.94
313.706	321.94
313.935	338.94
314.165	329.94
314.394	338.94
314.624	336.94
314.853	326.94
315.083	322.94
315.312	333.94
315.542	295.94
315.771	311.94
316.001	341.94
316.23	314.94
316.46	318.94
316.689	321.94
316.919	318.94
317.148	326.94
317.377	326.94
317.607	326.94
317.836	329.94
318.065	334.94
318.295	333.94
318.524	313.94
318.753	343.94
318.983	310.94
319.212	329.94
319.441	329.94
319.67	334.94
319.9	340.94
320.129	333.94
320.358	350.94
320.587	327.94
320.816	332.94
321.046	351.94
321.275	341.94
321.504	343.94
321.733	368.94
321.962	355.94
322.191	364.94
322.42	377.94
322.649	383.94
322.878	382.94
323.108	386.94
323.337	393.94
323.566	422.94
323.795	458.94
324.024	496.94
324.253	600.94
324.482	834.94
324.71	1275.94
324.939	1764.94
325.168	1505.94
325.397	793.94
325.626	568.94
325.855	469.94
326.084	429.94
326.313	436.94
326.542	436.94
326.77	483.94
326.999	542.94
327.228	775.94
327.457	1079.94
327.686	1260.94
327.914	882.94
328.143	599.94
328.372	513.94
328.6	491.94
328.829	484.94
329.058	472.94
329.287	481.94
329.515	466.94
329.744	413.94
329.972	422.94
330.201	396.94
330.43	452.94
330.658	456.94
330.887	482.94
331.115	482.94
331.344	418.94
331.572	407.94
331.801	403.94
332.03	379.94
332.258	389.94
332.486	352.94
332.715	381.94
332.943	371.94
333.172	370.94
333.4	382.94
333.629	380.94
333.857	370.94
334.085	373.94
334.314	390.94
334.542	409.94
334.771	417.94
334.999	398.94
335.227	370.94
335.455	367.94
335.684	369.94
335.912	381.94
336.14	363.94
336.369	367.94
336.597	358.94
336.825	380.94
337.053	375.94
337.281	359.94
337.51	358.94
337.738	375.94
337.966	369.94
338.194	366.94
338.422	357.94
338.65	350.94
338.878	377.94
339.106	332.94
339.334	357.94
339.562	358.94
339.79	353.94
340.018	346.94
340.246	368.94
340.474	347.94
340.702	348.94
340.93	357.94
341.158	378.94
341.386	366.94
341.614	349.94
341.842	347.94
342.07	353.94
342.298	341.94
342.526	353.94
342.754	347.94
342.981	357.94
343.209	340.94
343.437	344.94
343.665	344.94
343.893	366.94
344.12	349.94
344.348	344.94
344.576	357.94
344.804	356.94
345.031	372.94
345.259	366.94
345.487	353.94
345.714	350.94
345.942	334.94
346.17	358.94
346.397	345.94
346.625	343.94
346.853	341.94
347.08	339.94
347.308	336.94
347.535	355.94
347.763	340.94
347.99	351.94
348.218	347.94
348.445	359.94
348.673	337.94
348.9	340.94
349.128	335.94
349.355	343.94
349.583	309.94
349.81	334.94
350.037	342.94
350.265	326.94
350.492	331.94
350.72	311.94
350.947	330.94
351.174	344.94
351.402	336.94
351.629	350.94
351.856	361.94
352.083	342.94
352.311	357.94
352.538	366.94
352.765	346.94
352.992	360.94
353.22	346.94
353.447	332.94
353.674	317.94
353.901	321.94
354.128	320.94
354.355	334.94
354.583	337.94
354.81	313.94
355.037	329.94
355.264	310.94
355.491	311.94
355.718	302.94
355.945	314.94
356.172	314.94
356.399	320.94
356.626	301.94
356.853	328.94
357.08	323.94
357.307	321.94
357.534	312.94
357.761	329.94
357.988	305.94
358.215	325.94
358.441	307.94
358.668	332.94
358.895	325.94
359.122	330.94
359.349	313.94
359.576	332.94
359.802	339.94
360.029	382.94
360.256	387.94
360.483	361.94
360.709	320.94
360.936	349.94
361.163	330.94
361.39	351.94
361.616	360.94
361.843	354.94
362.07	334.94
362.296	349.94
362.523	337.94
362.749	311.94
362.976	318.94
363.203	327.94
363.429	306.94
363.656	342.94
363.882	315.94
364.109	325.94
364.335	325.94
364.562	301.94
364.788	326.94
365.015	335.94
365.241	304.94
365.468	315.94
365.694	328.94
365.92	331.94
366.147	340.94
366.373	314.94
366.599	315.94
366.826	343.94
367.052	318.94
367.278	335.94
367.505	315.94
367.731	314.94
367.957	320.94
368.184	319.94
368.41	333.94
368.636	323.94
368.862	332.94
369.089	323.94
369.315	312.94
369.541	335.94
369.767	323.94
369.993	324.94
370.219	325.94
370.445	298.94
370.672	301.94
370.898	297.94
371.124	314.94
371.35	307.94
371.576	310.94
371.802	317.94
372.028	315.94
372.254	318.94
372.48	299.94
372.706	312.94
372.932	294.94
373.158	318.94
373.384	319.94
373.61	329.94
373.835	303.94
374.061	331.94
374.287	334.94
374.513	325.94
374.739	327.94
374.965	321.94
375.191	317.94
375.416	325.94
375.642	305.94
375.868	303.94
376.094	300.94
376.319	313.94
376.545	306.94
376.771	308.94
376.997	306.94
377.222	321.94
377.448	306.94
377.674	321.94
377.899	318.94
378.125	293.94
378.35	310.94
378.576	315.94
378.802	316.94
379.027	326.94
379.253	311.94
379.478	309.94
379.704	319.94
379.929	318.94
380.155	308.94
380.38	316.94
380.606	309.94
380.831	319.94
381.057	327.94
381.282	306.94
381.507	309.94
381.733	320.94
381.958	319.94
382.184	304.94
382.409	313.94
382.634	329.94
382.86	315.94
383.085	313.94
383.31	301.94
383.535	318.94
383.761	308.94
383.986	318.94
384.211	315.94
384.436	329.94
384.662	323.94
384.887	344.94
385.112	345.94
385.337	326.94
385.562	322.94
385.787	325.94
386.013	319.94
386.238	325.94
386.463	329.94
386.688	317.94
386.913	316.94
387.138	308.94
387.363	313.94
387.588	306.94
387.813	330.94
388.038	338.94
388.263	342.94
388.488	339.94
388.713	343.94
388.938	338.94
389.163	331.94
389.387	348.94
389.612	305.94
389.837	328.94
390.062	341.94
390.287	313.94
390.512	319.94
390.736	329.94
390.961	347.94
391.186	336.94
391.411	337.94
391.636	333.94
391.86	329.94
392.085	324.94
392.31	337.94
392.534	342.94
392.759	343.94
392.984	345.94
393.208	331.94
393.433	349.94
393.658	325.94
393.882	330.94
394.107	333.94
394.331	337.94
394.556	333.94
394.78	323.94
395.005	309.94
395.229	320.94
395.454	339.94
395.678	330.94
395.903	355.94
396.127	361.94
396.352	363.94
396.576	349.94
396.801	343.94
397.025	351.94
397.249	354.94
397.474	344.94
397.698	350.94
397.922	348.94
398.147	349.94
398.371	355.94
398.595	355.94
398.82	347.94
399.044	363.94
399.268	358.94
399.492	379.94
399.717	379.94
399.941	418.94
400.165	445.94
400.389	425.94
400.613	405.94
400.837	409.94
401.062	389.94
401.286	381.94
401.51	367.94
401.734	374.94
401.958	361.94
402.182	345.94
402.406	379.94
402.63	381.94
402.854	378.94
403.078	377.94
403.302	378.94
403.526	371.94
403.75	380.94
403.974	360.94
404.198	378.94
404.422	388.94
404.645	383.94
404.869	384.94
405.093	378.94
405.317	420.94
405.541	435.94
405.765	407.94
405.988	397.94
406.212	416.94
406.436	408.94
406.66	426.94
406.883	391.94
407.107	443.94
407.331	433.94
407.555	488.94
407.778	481.94
408.002	435.94
408.226	414.94
408.449	413.94
408.673	424.94
408.896	441.94
409.12	453.94
409.344	418.94
409.567	379.94
409.791	390.94
410.014	387.94
410.238	381.94
410.461	376.94
410.685	359.94
410.908	388.94
411.132	417.94
411.355	437.94
411.578	405.94
411.802	383.94
412.025	369.94
412.249	366.94
412.472	408.94
412.695	391.94
412.919	393.94
413.142	390.94
413.365	337.94
413.589	362.94
413.812	343.94
414.035	356.94
414.258	343.94
414.482	355.94
414.705	354.94
414.928	355.94
415.151	363.94
415.374	358.94
415.597	345.94
415.821	333.94
416.044	319.94
416.267	345.94
416.49	355.94
416.713	337.94
416.936	351.94
417.159	354.94
417.382	347.94
417.605	344.94
417.828	362.94
418.051	365.94
418.274	363.94
418.497	365.94
418.72	366.94
418.943	355.94
419.166	362.94
419.389	358.94
419.611	363.94
419.834	378.94
420.057	381.94
420.28	378.94
420.503	376.94
420.726	367.94
420.948	382.94
421.171	411.94
421.394	425.94
421.617	373.94
421.839	372.94
422.062	374.94
422.285	385.94
422.507	407.94
422.73	461.94
422.953	446.94
423.175	372.94
423.398	379.94
423.621	398.94
423.843	389.94
424.066	381.94
424.288	380.94
424.511	411.94
424.733	457.94
424.956	524.94
425.178	495.94
425.401	492.94
425.623	499.94
425.846	431.94
426.068	411.94
426.291	403.94
426.513	398.94
426.735	407.94
426.958	445.94
427.18	490.94
427.402	611.94
427.625	641.94
427.847	542.94
428.069	511.94
428.292	425.94
428.514	407.94
428.736	395.94
428.958	366.94
429.181	379.94
429.403	375.94
429.625	391.94
429.847	421.94
430.069	455.94
430.292	455.94
430.514	390.94
430.736	383.94
430.958	359.94
431.18	368.94
431.402	357.94
431.624	351.94
431.846	345.94
432.068	358.94
432.29	350.94
432.512	347.94
432.734	343.94
432.956	358.94
433.178	365.94
433.4	342.94
433.622	357.94
433.844	342.94
434.066	350.94
434.287	370.94
434.509	379.94
434.731	365.94
434.953	372.94
435.175	379.94
435.397	395.94
435.618	410.94
435.84	428.94
436.062	492.94
436.284	527.94
436.505	455.94
436.727	409.94
436.949	378.94
437.17	364.94
437.392	373.94
437.614	389.94
437.835	406.94
438.057	483.94
438.278	563.94
438.5	572.94
438.721	585.94
438.943	574.94
439.165	468.94
439.386	430.94
439.608	404.94
439.829	404.94
440.05	425.94
440.272	484.94
440.493	419.94
440.715	395.94
440.936	394.94
441.158	382.94
441.379	389.94
441.6	383.94
441.822	381.94
442.043	426.94
442.264	467.94
442.486	532.94
442.707	451.94
442.928	428.94
443.149	429.94
443.371	428.94
443.592	458.94
443.813	516.94
444.034	570.94
444.255	474.94
444.476	411.94
444.698	406.94
444.919	405.94
445.14	502.94
445.361	451.94
445.582	418.94
445.803	469.94
446.024	538.94
446.245	569.94
446.466	511.94
446.687	423.94
446.908	393.94
447.129	370.94
447.35	376.94
447.571	405.94
447.792	377.94
448.013	395.94
448.234	390.94
448.455	438.94
448.675	501.94
448.896	576.94
449.117	499.94
449.338	478.94
449.559	548.94
449.779	601.94
450	522.94
450.221	431.94
450.442	396.94
450.662	388.94
450.883	361.94
451.104	381.94
451.324	353.94
451.545	360.94
451.766	330.94
451.986	343.94
452.207	330.94
452.428	326.94
452.648	326.94
452.869	343.94
453.089	343.94
453.31	370.94
453.53	337.94
453.751	330.94
453.971	348.94
454.192	350.94
454.412	339.94
454.633	326.94
454.853	331.94
455.073	321.94
455.294	362.94
455.514	397.94
455.734	409.94
455.955	334.94
456.175	319.94
456.395	298.94
456.616	311.94
456.836	323.94
457.056	314.94
457.276	297.94
457.497	303.94
457.717	322.94
457.937	339.94
458.157	327.94
458.377	339.94
458.598	354.94
458.818	380.94
459.038	429.94
459.258	445.94
459.478	367.94
459.698	359.94
459.918	362.94
460.138	345.94
460.358	339.94
460.578	346.94
460.798	330.94
461.018	332.94
461.238	349.94
461.458	334.94
461.678	342.94
461.898	331.94
462.118	346.94
462.338	354.94
462.558	354.94
462.777	349.94
462.997	370.94
463.217	377.94
463.437	373.94
463.657	357.94
463.876	355.94
464.096	356.94
464.316	366.94
464.536	369.94
464.755	366.94
464.975	369.94
465.195	415.94
465.414	445.94
465.634	386.94
465.854	377.94
466.073	356.94
466.293	345.94
466.512	339.94
466.732	348.94
466.951	334.94
467.171	347.94
467.391	345.94
467.61	337.94
467.829	350.94
468.049	336.94
468.268	343.94
468.488	343.94
468.707	317.94
468.927	323.94
469.146	339.94
469.365	342.94
469.585	334.94
469.804	355.94
470.023	330.94
470.243	346.94
470.462	335.94
470.681	356.94
470.901	363.94
471.12	346.94
471.339	342.94
471.558	340.94
471.777	349.94
471.997	339.94
472.216	347.94
472.435	342.94
472.654	338.94
472.873	332.94
473.092	334.94
473.311	334.94
473.53	350.94
473.749	370.94
473.968	375.94
474.187	449.94
474.406	478.94
474.625	388.94
474.844	375.94
475.063	355.94
475.282	340.94
475.501	346.94
475.72	341.94
475.939	353.94
476.158	354.94
476.377	340.94
476.596	353.94
476.814	355.94
477.033	366.94
477.252	373.94
477.471	365.94
477.69	344.94
477.908	366.94
478.127	394.94
478.346	362.94
478.564	372.94
478.783	376.94
479.002	377.94
479.22	381.94
479.439	397.94
479.658	408.94
479.876	414.94
480.095	418.94
480.313	439.94
480.532	429.94
480.751	404.94
480.969	395.94
481.188	417.94
481.406	419.94
481.624	411.94
481.843	410.94
482.061	407.94
482.28	409.94
482.498	400.94
482.717	417.94
482.935	410.94
483.153	378.94
483.372	397.94
483.59	404.94
483.808	386.94
484.027	390.94
484.245	414.94
484.463	419.94
484.681	421.94
484.9	406.94
485.118	428.94
485.336	410.94
485.554	413.94
485.772	421.94
485.99	415.94
486.209	429.94
486.427	397.94
486.645	437.94
486.863	429.94
487.081	438.94
487.299	424.94
487.517	408.94
487.735	411.94
487.953	450.94
488.171	429.94
488.389	402.94
488.607	427.94
488.825	437.94
489.043	434.94
489.261	436.94
489.479	434.94
489.696	427.94
489.914	451.94
490.132	437.94
490.35	437.94
490.568	463.94
490.786	444.94
491.003	457.94
491.221	457.94
491.439	489.94
491.657	494.94
491.874	473.94
492.092	469.94
492.31	482.94
492.527	505.94
492.745	489.94
492.963	493.94
493.18	486.94
493.398	479.94
493.615	486.94
493.833	520.94
494.05	499.94
494.268	510.94
494.485	525.94
494.703	490.94
494.92	483.94
495.138	497.94
495.355	508.94
495.573	493.94
495.79	520.94
496.008	501.94
496.225	490.94
496.442	486.94
496.66	511.94
496.877	491.94
497.094	532.94
497.312	514.94
497.529	492.94
497.746	527.94
497.963	528.94
498.181	547.94
498.398	552.94
498.615	540.94
498.832	539.94
499.049	564.94
499.267	582.94
499.484	597.94
499.701	597.94
499.918	610.94
500.135	633.94
500.352	629.94
500.569	634.94
500.786	610.94
501.003	643.94
501.22	619.94
501.437	621.94
501.654	627.94
501.871	628.94
