Data from 1981.PennyLincolnUp.Lamp.En5.5.200Scan.071819.P1_HRD10591_16-43-24-960.txt Node
Date: Thu Jul 18 16:43:24 EDT 2019
User: cochatt
Spectrometer: HR+D1059
Trigger mode: 1
Integration Time (sec): 1.000000E-1
Scans to average: 1
Electric dark correction enabled: true
Nonlinearity correction enabled: false
Boxcar width: 0
XAxis mode: Wavelengths
Number of Pixels in Spectrum: 2048
>>>>>Begin Spectral Data<<<<<
223.165	-11.69
223.4	-11.69
223.635	-11.69
223.869	-20.69
224.104	-25.69
224.338	-16.69
224.573	-23.69
224.808	-8.69
225.042	-16.69
225.277	4.31
225.511	-1.69
225.746	3.31
225.98	7.31
226.215	0.31
226.449	19.31
226.683	17.31
226.918	33.31
227.152	40.31
227.387	45.31
227.621	34.31
227.856	53.31
228.09	47.31
228.324	48.31
228.559	48.31
228.793	70.31
229.027	112.31
229.262	123.31
229.496	126.31
229.73	154.31
229.964	164.31
230.199	132.31
230.433	116.31
230.667	103.31
230.901	115.31
231.136	110.31
231.37	113.31
231.604	113.31
231.838	104.31
232.072	117.31
232.306	122.31
232.541	131.31
232.775	109.31
233.009	105.31
233.243	111.31
233.477	143.31
233.711	119.31
233.945	123.31
234.179	132.31
234.413	135.31
234.647	118.31
234.881	122.31
235.115	128.31
235.349	126.31
235.583	119.31
235.817	115.31
236.051	135.31
236.285	143.31
236.519	130.31
236.753	133.31
236.987	154.31
237.221	208.31
237.455	230.31
237.689	190.31
237.922	164.31
238.156	149.31
238.39	142.31
238.624	124.31
238.858	125.31
239.091	128.31
239.325	141.31
239.559	139.31
239.793	145.31
240.027	135.31
240.26	144.31
240.494	164.31
240.728	159.31
240.961	161.31
241.195	154.31
241.429	155.31
241.662	144.31
241.896	146.31
242.13	144.31
242.363	117.31
242.597	142.31
242.83	140.31
243.064	149.31
243.298	140.31
243.531	142.31
243.765	141.31
243.998	145.31
244.232	134.31
244.465	165.31
244.699	147.31
244.932	154.31
245.166	146.31
245.399	154.31
245.633	148.31
245.866	150.31
246.099	151.31
246.333	156.31
246.566	151.31
246.8	159.31
247.033	156.31
247.266	160.31
247.5	164.31
247.733	166.31
247.966	188.31
248.2	173.31
248.433	199.31
248.666	201.31
248.899	188.31
249.133	212.31
249.366	250.31
249.599	239.31
249.832	193.31
250.066	195.31
250.299	189.31
250.532	184.31
250.765	213.31
250.998	229.31
251.231	261.31
251.465	248.31
251.698	242.31
251.931	217.31
252.164	189.31
252.397	218.31
252.63	211.31
252.863	211.31
253.096	226.31
253.329	241.31
253.562	240.31
253.795	224.31
254.028	244.31
254.261	239.31
254.494	258.31
254.727	268.31
254.96	310.31
255.193	317.31
255.426	264.31
255.659	266.31
255.892	260.31
256.124	266.31
256.357	235.31
256.59	260.31
256.823	231.31
257.056	214.31
257.289	231.31
257.521	228.31
257.754	223.31
257.987	234.31
258.22	223.31
258.452	225.31
258.685	228.31
258.918	220.31
259.151	212.31
259.383	232.31
259.616	242.31
259.849	236.31
260.081	252.31
260.314	277.31
260.547	281.31
260.779	275.31
261.012	267.31
261.244	257.31
261.477	239.31
261.71	247.31
261.942	254.31
262.175	239.31
262.407	240.31
262.64	232.31
262.872	225.31
263.105	231.31
263.337	229.31
263.57	231.31
263.802	227.31
264.035	223.31
264.267	212.31
264.499	219.31
264.732	226.31
264.964	216.31
265.197	225.31
265.429	217.31
265.661	223.31
265.894	231.31
266.126	221.31
266.358	227.31
266.591	222.31
266.823	231.31
267.055	231.31
267.287	230.31
267.52	221.31
267.752	236.31
267.984	256.31
268.216	239.31
268.448	246.31
268.681	266.31
268.913	258.31
269.145	285.31
269.377	278.31
269.609	276.31
269.841	293.31
270.073	297.31
270.306	325.31
270.538	346.31
270.77	340.31
271.002	319.31
271.234	318.31
271.466	333.31
271.698	340.31
271.93	348.31
272.162	360.31
272.394	340.31
272.626	333.31
272.858	306.31
273.09	310.31
273.322	299.31
273.553	278.31
273.785	268.31
274.017	281.31
274.249	271.31
274.481	317.31
274.713	271.31
274.945	297.31
275.176	283.31
275.408	283.31
275.64	293.31
275.872	275.31
276.104	287.31
276.335	292.31
276.567	287.31
276.799	297.31
277.031	336.31
277.262	354.31
277.494	349.31
277.726	332.31
277.957	316.31
278.189	288.31
278.421	312.31
278.652	301.31
278.884	294.31
279.115	283.31
279.347	261.31
279.579	270.31
279.81	288.31
280.042	273.31
280.273	264.31
280.505	274.31
280.736	280.31
280.968	290.31
281.199	283.31
281.431	281.31
281.662	279.31
281.894	275.31
282.125	277.31
282.356	310.31
282.588	315.31
282.819	311.31
283.051	300.31
283.282	282.31
283.513	287.31
283.745	287.31
283.976	288.31
284.207	301.31
284.439	293.31
284.67	294.31
284.901	286.31
285.132	267.31
285.364	277.31
285.595	294.31
285.826	283.31
286.057	284.31
286.288	300.31
286.52	268.31
286.751	301.31
286.982	288.31
287.213	278.31
287.444	276.31
287.675	307.31
287.906	316.31
288.138	308.31
288.369	307.31
288.6	306.31
288.831	303.31
289.062	303.31
289.293	307.31
289.524	306.31
289.755	311.31
289.986	288.31
290.217	312.31
290.448	295.31
290.679	281.31
290.91	298.31
291.141	299.31
291.371	307.31
291.602	300.31
291.833	284.31
292.064	281.31
292.295	294.31
292.526	271.31
292.757	287.31
292.987	308.31
293.218	269.31
293.449	287.31
293.68	296.31
293.91	305.31
294.141	280.31
294.372	285.31
294.603	292.31
294.833	283.31
295.064	301.31
295.295	310.31
295.525	293.31
295.756	299.31
295.987	311.31
296.217	335.31
296.448	369.31
296.679	322.31
296.909	303.31
297.14	294.31
297.37	300.31
297.601	312.31
297.831	317.31
298.062	323.31
298.292	304.31
298.523	300.31
298.753	283.31
298.984	308.31
299.214	300.31
299.445	290.31
299.675	303.31
299.905	314.31
300.136	336.31
300.366	308.31
300.597	316.31
300.827	326.31
301.057	322.31
301.288	335.31
301.518	346.31
301.748	332.31
301.979	332.31
302.209	336.31
302.439	331.31
302.669	335.31
302.9	323.31
303.13	324.31
303.36	344.31
303.59	340.31
303.82	344.31
304.051	353.31
304.281	338.31
304.511	318.31
304.741	333.31
304.971	319.31
305.201	339.31
305.431	315.31
305.661	316.31
305.891	326.31
306.121	328.31
306.352	330.31
306.582	343.31
306.812	337.31
307.042	348.31
307.272	333.31
307.502	341.31
307.731	344.31
307.961	335.31
308.191	347.31
308.421	337.31
308.651	349.31
308.881	358.31
309.111	343.31
309.341	356.31
309.571	385.31
309.8	367.31
310.03	384.31
310.26	400.31
310.49	399.31
310.72	399.31
310.949	430.31
311.179	448.31
311.409	419.31
311.639	407.31
311.868	388.31
312.098	392.31
312.328	400.31
312.557	417.31
312.787	423.31
313.017	429.31
313.246	407.31
313.476	408.31
313.706	407.31
313.935	402.31
314.165	416.31
314.394	412.31
314.624	413.31
314.853	406.31
315.083	404.31
315.312	402.31
315.542	385.31
315.771	383.31
316.001	394.31
316.23	388.31
316.46	405.31
316.689	397.31
316.919	373.31
317.148	405.31
317.377	408.31
317.607	408.31
317.836	410.31
318.065	383.31
318.295	383.31
318.524	395.31
318.753	387.31
318.983	370.31
319.212	384.31
319.441	407.31
319.67	405.31
319.9	390.31
320.129	413.31
320.358	400.31
320.587	442.31
320.816	407.31
321.046	420.31
321.275	414.31
321.504	431.31
321.733	444.31
321.962	456.31
322.191	458.31
322.42	454.31
322.649	479.31
322.878	497.31
323.108	519.31
323.337	548.31
323.566	570.31
323.795	614.31
324.024	680.31
324.253	845.31
324.482	1231.31
324.71	1908.31
324.939	2622.31
325.168	2207.31
325.397	1163.31
325.626	788.31
325.855	653.31
326.084	605.31
326.313	564.31
326.542	574.31
326.77	636.31
326.999	789.31
327.228	1052.31
327.457	1626.31
327.686	1920.31
327.914	1281.31
328.143	841.31
328.372	738.31
328.6	668.31
328.829	644.31
329.058	646.31
329.287	666.31
329.515	594.31
329.744	554.31
329.972	573.31
330.201	579.31
330.43	620.31
330.658	670.31
330.887	673.31
331.115	660.31
331.344	551.31
331.572	556.31
331.801	524.31
332.03	510.31
332.258	505.31
332.486	485.31
332.715	468.31
332.943	483.31
333.172	486.31
333.4	486.31
333.629	452.31
333.857	489.31
334.085	501.31
334.314	509.31
334.542	532.31
334.771	539.31
334.999	500.31
335.227	487.31
335.455	456.31
335.684	455.31
335.912	427.31
336.14	440.31
336.369	437.31
336.597	469.31
336.825	458.31
337.053	435.31
337.281	438.31
337.51	425.31
337.738	437.31
337.966	455.31
338.194	432.31
338.422	444.31
338.65	451.31
338.878	448.31
339.106	428.31
339.334	426.31
339.562	425.31
339.79	409.31
340.018	416.31
340.246	439.31
340.474	431.31
340.702	418.31
340.93	424.31
341.158	418.31
341.386	443.31
341.614	438.31
341.842	440.31
342.07	431.31
342.298	413.31
342.526	412.31
342.754	412.31
342.981	410.31
343.209	403.31
343.437	405.31
343.665	423.31
343.893	423.31
344.12	423.31
344.348	419.31
344.576	419.31
344.804	436.31
345.031	427.31
345.259	440.31
345.487	446.31
345.714	439.31
345.942	417.31
346.17	399.31
346.397	406.31
346.625	418.31
346.853	426.31
347.08	407.31
347.308	412.31
347.535	418.31
347.763	442.31
347.99	426.31
348.218	421.31
348.445	431.31
348.673	437.31
348.9	424.31
349.128	388.31
349.355	398.31
349.583	393.31
349.81	394.31
350.037	382.31
350.265	393.31
350.492	401.31
350.72	404.31
350.947	403.31
351.174	427.31
351.402	439.31
351.629	429.31
351.856	413.31
352.083	437.31
352.311	439.31
352.538	444.31
352.765	436.31
352.992	419.31
353.22	414.31
353.447	392.31
353.674	422.31
353.901	395.31
354.128	380.31
354.355	363.31
354.583	383.31
354.81	385.31
355.037	381.31
355.264	368.31
355.491	370.31
355.718	356.31
355.945	378.31
356.172	357.31
356.399	376.31
356.626	362.31
356.853	358.31
357.08	372.31
357.307	368.31
357.534	376.31
357.761	368.31
357.988	380.31
358.215	372.31
358.441	367.31
358.668	382.31
358.895	382.31
359.122	389.31
359.349	386.31
359.576	405.31
359.802	429.31
360.029	468.31
360.256	464.31
360.483	444.31
360.709	413.31
360.936	398.31
361.163	409.31
361.39	403.31
361.616	401.31
361.843	425.31
362.07	405.31
362.296	403.31
362.523	407.31
362.749	390.31
362.976	379.31
363.203	406.31
363.429	375.31
363.656	390.31
363.882	379.31
364.109	367.31
364.335	388.31
364.562	376.31
364.788	377.31
365.015	367.31
365.241	380.31
365.468	358.31
365.694	379.31
365.92	392.31
366.147	377.31
366.373	364.31
366.599	372.31
366.826	370.31
367.052	351.31
367.278	373.31
367.505	388.31
367.731	380.31
367.957	379.31
368.184	363.31
368.41	374.31
368.636	394.31
368.862	404.31
369.089	393.31
369.315	376.31
369.541	360.31
369.767	356.31
369.993	364.31
370.219	372.31
370.445	362.31
370.672	373.31
370.898	365.31
371.124	376.31
371.35	350.31
371.576	369.31
371.802	342.31
372.028	336.31
372.254	360.31
372.48	366.31
372.706	365.31
372.932	359.31
373.158	356.31
373.384	361.31
373.61	352.31
373.835	358.31
374.061	346.31
374.287	371.31
374.513	352.31
374.739	378.31
374.965	367.31
375.191	371.31
375.416	360.31
375.642	357.31
375.868	359.31
376.094	375.31
376.319	347.31
376.545	366.31
376.771	366.31
376.997	367.31
377.222	351.31
377.448	347.31
377.674	360.31
377.899	370.31
378.125	360.31
378.35	358.31
378.576	349.31
378.802	355.31
379.027	354.31
379.253	366.31
379.478	349.31
379.704	358.31
379.929	365.31
380.155	365.31
380.38	347.31
380.606	357.31
380.831	342.31
381.057	373.31
381.282	357.31
381.507	344.31
381.733	354.31
381.958	342.31
382.184	352.31
382.409	336.31
382.634	349.31
382.86	370.31
383.085	376.31
383.31	360.31
383.535	382.31
383.761	359.31
383.986	333.31
384.211	345.31
384.436	362.31
384.662	373.31
384.887	378.31
385.112	377.31
385.337	370.31
385.562	375.31
385.787	367.31
386.013	382.31
386.238	394.31
386.463	375.31
386.688	374.31
386.913	355.31
387.138	362.31
387.363	349.31
387.588	356.31
387.813	370.31
388.038	345.31
388.263	364.31
388.488	352.31
388.713	379.31
388.938	358.31
389.163	384.31
389.387	363.31
389.612	341.31
389.837	365.31
390.062	335.31
390.287	355.31
390.512	351.31
390.736	354.31
390.961	334.31
391.186	372.31
391.411	379.31
391.636	379.31
391.86	372.31
392.085	362.31
392.31	376.31
392.534	371.31
392.759	388.31
392.984	379.31
393.208	359.31
393.433	368.31
393.658	361.31
393.882	378.31
394.107	367.31
394.331	371.31
394.556	366.31
394.78	364.31
395.005	364.31
395.229	368.31
395.454	377.31
395.678	395.31
395.903	378.31
396.127	396.31
396.352	400.31
396.576	371.31
396.801	362.31
397.025	374.31
397.249	372.31
397.474	387.31
397.698	400.31
397.922	404.31
398.147	433.31
398.371	410.31
398.595	419.31
398.82	418.31
399.044	381.31
399.268	391.31
399.492	412.31
399.717	444.31
399.941	452.31
400.165	489.31
400.389	499.31
400.613	480.31
400.837	429.31
401.062	410.31
401.286	404.31
401.51	411.31
401.734	408.31
401.958	410.31
402.182	399.31
402.406	430.31
402.63	422.31
402.854	422.31
403.078	421.31
403.302	431.31
403.526	438.31
403.75	432.31
403.974	413.31
404.198	408.31
404.422	435.31
404.645	438.31
404.869	418.31
405.093	452.31
405.317	488.31
405.541	549.31
405.765	479.31
405.988	439.31
406.212	482.31
406.436	470.31
406.66	511.31
406.883	462.31
407.107	465.31
407.331	525.31
407.555	574.31
407.778	586.31
408.002	494.31
408.226	486.31
408.449	481.31
408.673	472.31
408.896	476.31
409.12	529.31
409.344	495.31
409.567	434.31
409.791	443.31
410.014	415.31
410.238	404.31
410.461	426.31
410.685	416.31
410.908	418.31
411.132	469.31
411.355	516.31
411.578	495.31
411.802	446.31
412.025	439.31
412.249	421.31
412.472	458.31
412.695	471.31
412.919	449.31
413.142	428.31
413.365	431.31
413.589	415.31
413.812	400.31
414.035	408.31
414.258	405.31
414.482	378.31
414.705	392.31
414.928	405.31
415.151	393.31
415.374	408.31
415.597	382.31
415.821	379.31
416.044	388.31
416.267	401.31
416.49	412.31
416.713	418.31
416.936	395.31
417.159	396.31
417.382	422.31
417.605	402.31
417.828	400.31
418.051	418.31
418.274	398.31
418.497	402.31
418.72	412.31
418.943	398.31
419.166	408.31
419.389	421.31
419.611	405.31
419.834	414.31
420.057	439.31
420.28	435.31
420.503	412.31
420.726	422.31
420.948	430.31
421.171	460.31
421.394	479.31
421.617	440.31
421.839	419.31
422.062	418.31
422.285	438.31
422.507	491.31
422.73	546.31
422.953	532.31
423.175	477.31
423.398	452.31
423.621	469.31
423.843	462.31
424.066	475.31
424.288	470.31
424.511	488.31
424.733	504.31
424.956	610.31
425.178	579.31
425.401	578.31
425.623	607.31
425.846	518.31
426.068	477.31
426.291	475.31
426.513	483.31
426.735	478.31
426.958	509.31
427.18	574.31
427.402	703.31
427.625	767.31
427.847	722.31
428.069	596.31
428.292	548.31
428.514	500.31
428.736	459.31
428.958	445.31
429.181	452.31
429.403	448.31
429.625	446.31
429.847	474.31
430.069	544.31
430.292	536.31
430.514	462.31
430.736	432.31
430.958	434.31
431.18	412.31
431.402	415.31
431.624	417.31
431.846	397.31
432.068	393.31
432.29	379.31
432.512	394.31
432.734	410.31
432.956	429.31
433.178	421.31
433.4	436.31
433.622	418.31
433.844	402.31
434.066	401.31
434.287	397.31
434.509	398.31
434.731	400.31
434.953	408.31
435.175	432.31
435.397	480.31
435.618	477.31
435.84	496.31
436.062	599.31
436.284	673.31
436.505	548.31
436.727	493.31
436.949	472.31
437.17	453.31
437.392	441.31
437.614	433.31
437.835	489.31
438.057	591.31
438.278	679.31
438.5	669.31
438.721	728.31
438.943	685.31
439.165	566.31
439.386	507.31
439.608	510.31
439.829	474.31
440.05	511.31
440.272	566.31
440.493	520.31
440.715	470.31
440.936	447.31
441.158	430.31
441.379	450.31
441.6	468.31
441.822	468.31
442.043	501.31
442.264	594.31
442.486	626.31
442.707	546.31
442.928	495.31
443.149	494.31
443.371	519.31
443.592	554.31
443.813	648.31
444.034	684.31
444.255	571.31
444.476	526.31
444.698	477.31
444.919	439.31
445.14	581.31
445.361	534.31
445.582	521.31
445.803	587.31
446.024	695.31
446.245	712.31
446.466	634.31
446.687	552.31
446.908	494.31
447.129	467.31
447.35	446.31
447.571	466.31
447.792	442.31
448.013	447.31
448.234	482.31
448.455	540.31
448.675	619.31
448.896	732.31
449.117	600.31
449.338	589.31
449.559	676.31
449.779	727.31
450	583.31
450.221	498.31
450.442	468.31
450.662	443.31
450.883	456.31
451.104	461.31
451.324	447.31
451.545	408.31
451.766	402.31
451.986	396.31
452.207	379.31
452.428	400.31
452.648	394.31
452.869	386.31
453.089	407.31
453.31	437.31
453.53	415.31
453.751	398.31
453.971	399.31
454.192	429.31
454.412	395.31
454.633	407.31
454.853	386.31
455.073	410.31
455.294	441.31
455.514	487.31
455.734	479.31
455.955	387.31
456.175	380.31
456.395	384.31
456.616	347.31
456.836	381.31
457.056	348.31
457.276	354.31
457.497	357.31
457.717	347.31
457.937	374.31
458.157	380.31
458.377	389.31
458.598	406.31
458.818	458.31
459.038	546.31
459.258	563.31
459.478	452.31
459.698	425.31
459.918	428.31
460.138	390.31
460.358	382.31
460.578	390.31
460.798	415.31
461.018	415.31
461.238	414.31
461.458	406.31
461.678	389.31
461.898	390.31
462.118	388.31
462.338	394.31
462.558	390.31
462.777	384.31
462.997	410.31
463.217	386.31
463.437	428.31
463.657	403.31
463.876	418.31
464.096	399.31
464.316	405.31
464.536	423.31
464.755	420.31
464.975	454.31
465.195	450.31
465.414	552.31
465.634	475.31
465.854	440.31
466.073	423.31
466.293	383.31
466.512	400.31
466.732	399.31
466.951	388.31
467.171	376.31
467.391	395.31
467.61	411.31
467.829	380.31
468.049	394.31
468.268	413.31
468.488	374.31
468.707	376.31
468.927	371.31
469.146	367.31
469.365	373.31
469.585	368.31
469.804	388.31
470.023	397.31
470.243	412.31
470.462	383.31
470.681	436.31
470.901	409.31
471.12	393.31
471.339	398.31
471.558	383.31
471.777	388.31
471.997	393.31
472.216	403.31
472.435	440.31
472.654	411.31
472.873	380.31
473.092	410.31
473.311	398.31
473.53	391.31
473.749	401.31
473.968	468.31
474.187	546.31
474.406	595.31
474.625	459.31
474.844	431.31
475.063	420.31
475.282	385.31
475.501	396.31
475.72	415.31
475.939	402.31
476.158	420.31
476.377	400.31
476.596	416.31
476.814	429.31
477.033	412.31
477.252	419.31
477.471	403.31
477.69	415.31
477.908	434.31
478.127	430.31
478.346	425.31
478.564	434.31
478.783	404.31
479.002	420.31
479.22	450.31
479.439	464.31
479.658	452.31
479.876	460.31
480.095	487.31
480.313	492.31
480.532	501.31
480.751	485.31
480.969	495.31
481.188	555.31
481.406	594.31
481.624	530.31
481.843	493.31
482.061	464.31
482.28	466.31
482.498	462.31
482.717	465.31
482.935	460.31
483.153	454.31
483.372	455.31
483.59	468.31
483.808	461.31
484.027	472.31
484.245	468.31
484.463	472.31
484.681	475.31
484.9	462.31
485.118	458.31
485.336	473.31
485.554	481.31
485.772	482.31
485.99	482.31
486.209	479.31
486.427	498.31
486.645	492.31
486.863	495.31
487.081	519.31
487.299	495.31
487.517	524.31
487.735	484.31
487.953	504.31
488.171	516.31
488.389	508.31
488.607	489.31
488.825	491.31
489.043	479.31
489.261	511.31
489.479	516.31
489.696	519.31
489.914	518.31
490.132	516.31
490.35	500.31
490.568	525.31
490.786	556.31
491.003	549.31
491.221	560.31
491.439	548.31
491.657	576.31
491.874	567.31
492.092	584.31
492.31	578.31
492.527	558.31
492.745	557.31
492.963	592.31
493.18	584.31
493.398	578.31
493.615	599.31
493.833	605.31
494.05	573.31
494.268	597.31
494.485	592.31
494.703	588.31
494.92	600.31
495.138	594.31
495.355	588.31
495.573	613.31
495.79	593.31
496.008	604.31
496.225	606.31
496.442	605.31
496.66	590.31
496.877	608.31
497.094	606.31
497.312	568.31
497.529	601.31
497.746	640.31
497.963	613.31
498.181	634.31
498.398	631.31
498.615	650.31
498.832	660.31
499.049	642.31
499.267	662.31
499.484	676.31
499.701	652.31
499.918	680.31
500.135	681.31
500.352	704.31
500.569	701.31
500.786	720.31
501.003	710.31
501.22	717.31
501.437	711.31
501.654	702.31
501.871	726.31
