Data from 1981.PennyLincolnUp.Lamp.En5.5.200Scan.071819.P1_HRD10591_16-40-36-959.txt Node
Date: Thu Jul 18 16:40:36 EDT 2019
User: cochatt
Spectrometer: HR+D1059
Trigger mode: 1
Integration Time (sec): 1.000000E-1
Scans to average: 1
Electric dark correction enabled: true
Nonlinearity correction enabled: false
Boxcar width: 0
XAxis mode: Wavelengths
Number of Pixels in Spectrum: 2048
>>>>>Begin Spectral Data<<<<<
223.165	-14.19
223.4	-14.19
223.635	-14.19
223.869	-22.19
224.104	-22.19
224.338	-9.19
224.573	-17.19
224.808	-16.19
225.042	-8.19
225.277	-4.19
225.511	10.81
225.746	-7.19
225.98	2.81
226.215	19.81
226.449	17.81
226.683	27.81
226.918	5.81
227.152	35.81
227.387	33.81
227.621	24.81
227.856	31.81
228.09	46.81
228.324	46.81
228.559	55.81
228.793	68.81
229.027	100.81
229.262	95.81
229.496	89.81
229.73	118.81
229.964	120.81
230.199	114.81
230.433	104.81
230.667	96.81
230.901	104.81
231.136	105.81
231.37	92.81
231.604	109.81
231.838	96.81
232.072	105.81
232.306	118.81
232.541	98.81
232.775	96.81
233.009	108.81
233.243	98.81
233.477	110.81
233.711	105.81
233.945	116.81
234.179	115.81
234.413	98.81
234.647	100.81
234.881	99.81
235.115	112.81
235.349	104.81
235.583	110.81
235.817	100.81
236.051	106.81
236.285	135.81
236.519	126.81
236.753	128.81
236.987	129.81
237.221	144.81
237.455	200.81
237.689	146.81
237.922	128.81
238.156	121.81
238.39	98.81
238.624	115.81
238.858	111.81
239.091	113.81
239.325	113.81
239.559	103.81
239.793	114.81
240.027	117.81
240.26	127.81
240.494	143.81
240.728	142.81
240.961	134.81
241.195	120.81
241.429	118.81
241.662	132.81
241.896	117.81
242.13	109.81
242.363	109.81
242.597	121.81
242.83	121.81
243.064	129.81
243.298	125.81
243.531	111.81
243.765	121.81
243.998	115.81
244.232	123.81
244.465	119.81
244.699	122.81
244.932	129.81
245.166	128.81
245.399	132.81
245.633	133.81
245.866	129.81
246.099	138.81
246.333	138.81
246.566	148.81
246.8	131.81
247.033	121.81
247.266	142.81
247.5	153.81
247.733	154.81
247.966	143.81
248.2	152.81
248.433	138.81
248.666	145.81
248.899	169.81
249.133	177.81
249.366	173.81
249.599	178.81
249.832	163.81
250.066	175.81
250.299	175.81
250.532	182.81
250.765	182.81
250.998	199.81
251.231	197.81
251.465	188.81
251.698	181.81
251.931	185.81
252.164	198.81
252.397	172.81
252.63	180.81
252.863	191.81
253.096	195.81
253.329	200.81
253.562	207.81
253.795	197.81
254.028	180.81
254.261	213.81
254.494	206.81
254.727	237.81
254.96	247.81
255.193	252.81
255.426	216.81
255.659	231.81
255.892	222.81
256.124	207.81
256.357	217.81
256.59	204.81
256.823	192.81
257.056	192.81
257.289	198.81
257.521	183.81
257.754	195.81
257.987	190.81
258.22	188.81
258.452	181.81
258.685	192.81
258.918	202.81
259.151	185.81
259.383	188.81
259.616	193.81
259.849	205.81
260.081	203.81
260.314	239.81
260.547	229.81
260.779	222.81
261.012	205.81
261.244	197.81
261.477	194.81
261.71	190.81
261.942	203.81
262.175	204.81
262.407	197.81
262.64	199.81
262.872	201.81
263.105	201.81
263.337	205.81
263.57	209.81
263.802	191.81
264.035	211.81
264.267	190.81
264.499	182.81
264.732	182.81
264.964	198.81
265.197	194.81
265.429	204.81
265.661	195.81
265.894	207.81
266.126	192.81
266.358	187.81
266.591	177.81
266.823	201.81
267.055	185.81
267.287	195.81
267.52	201.81
267.752	204.81
267.984	218.81
268.216	194.81
268.448	205.81
268.681	215.81
268.913	204.81
269.145	209.81
269.377	221.81
269.609	270.81
269.841	239.81
270.073	242.81
270.306	249.81
270.538	269.81
270.77	280.81
271.002	256.81
271.234	258.81
271.466	256.81
271.698	277.81
271.93	275.81
272.162	270.81
272.394	275.81
272.626	264.81
272.858	243.81
273.09	248.81
273.322	236.81
273.553	242.81
273.785	260.81
274.017	225.81
274.249	238.81
274.481	245.81
274.713	239.81
274.945	256.81
275.176	240.81
275.408	233.81
275.64	228.81
275.872	229.81
276.104	237.81
276.335	240.81
276.567	244.81
276.799	254.81
277.031	275.81
277.262	286.81
277.494	270.81
277.726	270.81
277.957	243.81
278.189	246.81
278.421	234.81
278.652	231.81
278.884	222.81
279.115	234.81
279.347	234.81
279.579	242.81
279.81	237.81
280.042	246.81
280.273	255.81
280.505	243.81
280.736	236.81
280.968	227.81
281.199	230.81
281.431	238.81
281.662	241.81
281.894	245.81
282.125	242.81
282.356	250.81
282.588	288.81
282.819	259.81
283.051	260.81
283.282	240.81
283.513	249.81
283.745	252.81
283.976	247.81
284.207	240.81
284.439	253.81
284.67	260.81
284.901	230.81
285.132	250.81
285.364	235.81
285.595	243.81
285.826	240.81
286.057	254.81
286.288	257.81
286.52	254.81
286.751	243.81
286.982	250.81
287.213	257.81
287.444	241.81
287.675	233.81
287.906	260.81
288.138	264.81
288.369	279.81
288.6	276.81
288.831	259.81
289.062	264.81
289.293	264.81
289.524	263.81
289.755	251.81
289.986	240.81
290.217	260.81
290.448	253.81
290.679	259.81
290.91	247.81
291.141	263.81
291.371	264.81
291.602	254.81
291.833	246.81
292.064	247.81
292.295	260.81
292.526	243.81
292.757	261.81
292.987	248.81
293.218	245.81
293.449	250.81
293.68	241.81
293.91	255.81
294.141	256.81
294.372	266.81
294.603	257.81
294.833	251.81
295.064	265.81
295.295	274.81
295.525	260.81
295.756	259.81
295.987	257.81
296.217	265.81
296.448	262.81
296.679	260.81
296.909	262.81
297.14	241.81
297.37	264.81
297.601	254.81
297.831	249.81
298.062	267.81
298.292	283.81
298.523	266.81
298.753	262.81
298.984	254.81
299.214	274.81
299.445	265.81
299.675	274.81
299.905	272.81
300.136	273.81
300.366	268.81
300.597	275.81
300.827	272.81
301.057	289.81
301.288	296.81
301.518	279.81
301.748	272.81
301.979	278.81
302.209	270.81
302.439	296.81
302.669	286.81
302.9	282.81
303.13	272.81
303.36	280.81
303.59	284.81
303.82	301.81
304.051	275.81
304.281	288.81
304.511	279.81
304.741	286.81
304.971	278.81
305.201	271.81
305.431	291.81
305.661	288.81
305.891	278.81
306.121	278.81
306.352	279.81
306.582	277.81
306.812	280.81
307.042	280.81
307.272	288.81
307.502	279.81
307.731	295.81
307.961	269.81
308.191	306.81
308.421	292.81
308.651	307.81
308.881	298.81
309.111	292.81
309.341	291.81
309.571	308.81
309.8	303.81
310.03	313.81
310.26	334.81
310.49	327.81
310.72	341.81
310.949	351.81
311.179	352.81
311.409	337.81
311.639	317.81
311.868	331.81
312.098	329.81
312.328	339.81
312.557	331.81
312.787	356.81
313.017	338.81
313.246	352.81
313.476	325.81
313.706	334.81
313.935	337.81
314.165	330.81
314.394	349.81
314.624	353.81
314.853	328.81
315.083	334.81
315.312	321.81
315.542	296.81
315.771	341.81
316.001	323.81
316.23	316.81
316.46	328.81
316.689	336.81
316.919	324.81
317.148	345.81
317.377	338.81
317.607	327.81
317.836	337.81
318.065	316.81
318.295	312.81
318.524	332.81
318.753	327.81
318.983	317.81
319.212	333.81
319.441	357.81
319.67	332.81
319.9	325.81
320.129	327.81
320.358	329.81
320.587	353.81
320.816	333.81
321.046	342.81
321.275	353.81
321.504	341.81
321.733	355.81
321.962	341.81
322.191	374.81
322.42	378.81
322.649	388.81
322.878	408.81
323.108	402.81
323.337	409.81
323.566	433.81
323.795	459.81
324.024	495.81
324.253	600.81
324.482	857.81
324.71	1305.81
324.939	1783.81
325.168	1516.81
325.397	793.81
325.626	584.81
325.855	478.81
326.084	453.81
326.313	451.81
326.542	440.81
326.77	485.81
326.999	575.81
327.228	787.81
327.457	1174.81
327.686	1315.81
327.914	905.81
328.143	622.81
328.372	526.81
328.6	494.81
328.829	485.81
329.058	496.81
329.287	492.81
329.515	464.81
329.744	435.81
329.972	419.81
330.201	445.81
330.43	466.81
330.658	440.81
330.887	501.81
331.115	475.81
331.344	425.81
331.572	401.81
331.801	402.81
332.03	409.81
332.258	389.81
332.486	390.81
332.715	380.81
332.943	376.81
333.172	372.81
333.4	390.81
333.629	370.81
333.857	394.81
334.085	398.81
334.314	398.81
334.542	408.81
334.771	396.81
334.999	395.81
335.227	401.81
335.455	385.81
335.684	369.81
335.912	372.81
336.14	359.81
336.369	396.81
336.597	391.81
336.825	382.81
337.053	388.81
337.281	368.81
337.51	375.81
337.738	386.81
337.966	364.81
338.194	388.81
338.422	356.81
338.65	367.81
338.878	358.81
339.106	356.81
339.334	388.81
339.562	366.81
339.79	337.81
340.018	348.81
340.246	349.81
340.474	364.81
340.702	376.81
340.93	364.81
341.158	365.81
341.386	365.81
341.614	372.81
341.842	374.81
342.07	351.81
342.298	346.81
342.526	345.81
342.754	356.81
342.981	357.81
343.209	365.81
343.437	368.81
343.665	360.81
343.893	375.81
344.12	385.81
344.348	372.81
344.576	385.81
344.804	381.81
345.031	377.81
345.259	395.81
345.487	380.81
345.714	370.81
345.942	379.81
346.17	364.81
346.397	339.81
346.625	364.81
346.853	373.81
347.08	356.81
347.308	355.81
347.535	351.81
347.763	356.81
347.99	353.81
348.218	346.81
348.445	369.81
348.673	370.81
348.9	345.81
349.128	355.81
349.355	331.81
349.583	357.81
349.81	342.81
350.037	345.81
350.265	341.81
350.492	333.81
350.72	317.81
350.947	343.81
351.174	342.81
351.402	360.81
351.629	344.81
351.856	355.81
352.083	355.81
352.311	367.81
352.538	387.81
352.765	371.81
352.992	358.81
353.22	334.81
353.447	339.81
353.674	332.81
353.901	319.81
354.128	302.81
354.355	320.81
354.583	340.81
354.81	321.81
355.037	324.81
355.264	321.81
355.491	299.81
355.718	317.81
355.945	328.81
356.172	303.81
356.399	318.81
356.626	335.81
356.853	309.81
357.08	328.81
357.307	319.81
357.534	317.81
357.761	307.81
357.988	320.81
358.215	323.81
358.441	332.81
358.668	316.81
358.895	330.81
359.122	337.81
359.349	352.81
359.576	336.81
359.802	374.81
360.029	374.81
360.256	376.81
360.483	365.81
360.709	343.81
360.936	370.81
361.163	357.81
361.39	338.81
361.616	344.81
361.843	321.81
362.07	355.81
362.296	346.81
362.523	343.81
362.749	316.81
362.976	359.81
363.203	334.81
363.429	332.81
363.656	346.81
363.882	336.81
364.109	334.81
364.335	323.81
364.562	322.81
364.788	324.81
365.015	336.81
365.241	312.81
365.468	318.81
365.694	322.81
365.92	338.81
366.147	349.81
366.373	340.81
366.599	329.81
366.826	309.81
367.052	316.81
367.278	322.81
367.505	327.81
367.731	335.81
367.957	326.81
368.184	322.81
368.41	325.81
368.636	351.81
368.862	336.81
369.089	333.81
369.315	319.81
369.541	337.81
369.767	328.81
369.993	340.81
370.219	328.81
370.445	322.81
370.672	319.81
370.898	340.81
371.124	317.81
371.35	328.81
371.576	340.81
371.802	336.81
372.028	321.81
372.254	309.81
372.48	328.81
372.706	320.81
372.932	328.81
373.158	296.81
373.384	322.81
373.61	321.81
373.835	308.81
374.061	324.81
374.287	319.81
374.513	329.81
374.739	349.81
374.965	323.81
375.191	327.81
375.416	329.81
375.642	311.81
375.868	311.81
376.094	313.81
376.319	300.81
376.545	305.81
376.771	338.81
376.997	312.81
377.222	329.81
377.448	330.81
377.674	314.81
377.899	333.81
378.125	320.81
378.35	291.81
378.576	314.81
378.802	321.81
379.027	336.81
379.253	325.81
379.478	312.81
379.704	319.81
379.929	318.81
380.155	316.81
380.38	340.81
380.606	315.81
380.831	318.81
381.057	324.81
381.282	310.81
381.507	321.81
381.733	321.81
381.958	311.81
382.184	322.81
382.409	324.81
382.634	313.81
382.86	318.81
383.085	336.81
383.31	311.81
383.535	328.81
383.761	323.81
383.986	335.81
384.211	328.81
384.436	329.81
384.662	314.81
384.887	327.81
385.112	325.81
385.337	329.81
385.562	325.81
385.787	324.81
386.013	325.81
386.238	333.81
386.463	321.81
386.688	321.81
386.913	324.81
387.138	345.81
387.363	348.81
387.588	333.81
387.813	346.81
388.038	325.81
388.263	330.81
388.488	337.81
388.713	324.81
388.938	326.81
389.163	353.81
389.387	332.81
389.612	337.81
389.837	322.81
390.062	324.81
390.287	327.81
390.512	309.81
390.736	325.81
390.961	334.81
391.186	334.81
391.411	339.81
391.636	337.81
391.86	337.81
392.085	356.81
392.31	354.81
392.534	335.81
392.759	337.81
392.984	335.81
393.208	340.81
393.433	348.81
393.658	329.81
393.882	322.81
394.107	324.81
394.331	318.81
394.556	330.81
394.78	352.81
395.005	354.81
395.229	342.81
395.454	352.81
395.678	336.81
395.903	361.81
396.127	365.81
396.352	372.81
396.576	361.81
396.801	337.81
397.025	340.81
397.249	345.81
397.474	348.81
397.698	349.81
397.922	361.81
398.147	381.81
398.371	359.81
398.595	355.81
398.82	366.81
399.044	378.81
399.268	367.81
399.492	392.81
399.717	422.81
399.941	421.81
400.165	443.81
400.389	454.81
400.613	432.81
400.837	398.81
401.062	386.81
401.286	366.81
401.51	374.81
401.734	379.81
401.958	361.81
402.182	373.81
402.406	403.81
402.63	390.81
402.854	374.81
403.078	361.81
403.302	355.81
403.526	376.81
403.75	366.81
403.974	366.81
404.198	382.81
404.422	369.81
404.645	389.81
404.869	381.81
405.093	402.81
405.317	439.81
405.541	432.81
405.765	434.81
405.988	405.81
406.212	410.81
406.436	393.81
406.66	450.81
406.883	417.81
407.107	421.81
407.331	447.81
407.555	477.81
407.778	510.81
408.002	484.81
408.226	423.81
408.449	409.81
408.673	416.81
408.896	444.81
409.12	473.81
409.344	464.81
409.567	406.81
409.791	410.81
410.014	390.81
410.238	359.81
410.461	401.81
410.685	394.81
410.908	411.81
411.132	426.81
411.355	445.81
411.578	431.81
411.802	392.81
412.025	403.81
412.249	401.81
412.472	374.81
412.695	381.81
412.919	394.81
413.142	383.81
413.365	383.81
413.589	368.81
413.812	360.81
414.035	361.81
414.258	373.81
414.482	370.81
414.705	350.81
414.928	347.81
415.151	361.81
415.374	358.81
415.597	355.81
415.821	344.81
416.044	336.81
416.267	349.81
416.49	343.81
416.713	361.81
416.936	358.81
417.159	354.81
417.382	362.81
417.605	367.81
417.828	366.81
418.051	376.81
418.274	364.81
418.497	363.81
418.72	354.81
418.943	352.81
419.166	379.81
419.389	365.81
419.611	368.81
419.834	372.81
420.057	371.81
420.28	386.81
420.503	376.81
420.726	383.81
420.948	378.81
421.171	397.81
421.394	444.81
421.617	403.81
421.839	377.81
422.062	404.81
422.285	392.81
422.507	443.81
422.73	476.81
422.953	473.81
423.175	418.81
423.398	412.81
423.621	394.81
423.843	401.81
424.066	407.81
424.288	416.81
424.511	418.81
424.733	455.81
424.956	502.81
425.178	480.81
425.401	497.81
425.623	512.81
425.846	442.81
426.068	407.81
426.291	406.81
426.513	400.81
426.735	412.81
426.958	453.81
427.18	523.81
427.402	618.81
427.625	678.81
427.847	582.81
428.069	488.81
428.292	449.81
428.514	429.81
428.736	414.81
428.958	388.81
429.181	390.81
429.403	392.81
429.625	380.81
429.847	418.81
430.069	464.81
430.292	441.81
430.514	380.81
430.736	380.81
430.958	373.81
431.18	387.81
431.402	365.81
431.624	330.81
431.846	350.81
432.068	331.81
432.29	355.81
432.512	357.81
432.734	368.81
432.956	374.81
433.178	391.81
433.4	394.81
433.622	371.81
433.844	357.81
434.066	346.81
434.287	365.81
434.509	362.81
434.731	368.81
434.953	360.81
435.175	371.81
435.397	407.81
435.618	404.81
435.84	449.81
436.062	520.81
436.284	559.81
436.505	472.81
436.727	435.81
436.949	395.81
437.17	382.81
437.392	401.81
437.614	400.81
437.835	417.81
438.057	476.81
438.278	572.81
438.5	567.81
438.721	613.81
438.943	595.81
439.165	478.81
439.386	441.81
439.608	431.81
439.829	418.81
440.05	434.81
440.272	468.81
440.493	455.81
440.715	410.81
440.936	386.81
441.158	392.81
441.379	399.81
441.6	397.81
441.822	420.81
442.043	436.81
442.264	505.81
442.486	526.81
442.707	452.81
442.928	433.81
443.149	420.81
443.371	432.81
443.592	470.81
443.813	554.81
444.034	586.81
444.255	472.81
444.476	417.81
444.698	404.81
444.919	396.81
445.14	502.81
445.361	433.81
445.582	470.81
445.803	481.81
446.024	578.81
446.245	588.81
446.466	531.81
446.687	446.81
446.908	432.81
447.129	409.81
447.35	372.81
447.571	370.81
447.792	386.81
448.013	402.81
448.234	383.81
448.455	442.81
448.675	506.81
448.896	595.81
449.117	530.81
449.338	488.81
449.559	588.81
449.779	649.81
450	504.81
450.221	436.81
450.442	396.81
450.662	378.81
450.883	377.81
451.104	391.81
451.324	373.81
451.545	360.81
451.766	352.81
451.986	336.81
452.207	342.81
452.428	320.81
452.648	346.81
452.869	337.81
453.089	347.81
453.31	351.81
453.53	361.81
453.751	352.81
453.971	356.81
454.192	371.81
454.412	361.81
454.633	344.81
454.853	351.81
455.073	330.81
455.294	354.81
455.514	417.81
455.734	390.81
455.955	320.81
456.175	314.81
456.395	319.81
456.616	324.81
456.836	319.81
457.056	321.81
457.276	340.81
457.497	306.81
457.717	313.81
457.937	326.81
458.157	317.81
458.377	327.81
458.598	350.81
458.818	392.81
459.038	492.81
459.258	452.81
459.478	388.81
459.698	359.81
459.918	344.81
460.138	354.81
460.358	367.81
460.578	358.81
460.798	360.81
461.018	361.81
461.238	347.81
461.458	352.81
461.678	345.81
461.898	380.81
462.118	347.81
462.338	364.81
462.558	365.81
462.777	371.81
462.997	361.81
463.217	384.81
463.437	368.81
463.657	364.81
463.876	384.81
464.096	365.81
464.316	358.81
464.536	364.81
464.755	374.81
464.975	375.81
465.195	413.81
465.414	454.81
465.634	446.81
465.854	365.81
466.073	362.81
466.293	354.81
466.512	351.81
466.732	344.81
466.951	349.81
467.171	336.81
467.391	368.81
467.61	343.81
467.829	352.81
468.049	341.81
468.268	351.81
468.488	351.81
468.707	332.81
468.927	326.81
469.146	349.81
469.365	337.81
469.585	317.81
469.804	325.81
470.023	354.81
470.243	357.81
470.462	356.81
470.681	350.81
470.901	351.81
471.12	342.81
471.339	335.81
471.558	335.81
471.777	359.81
471.997	364.81
472.216	348.81
472.435	350.81
472.654	352.81
472.873	348.81
473.092	348.81
473.311	330.81
473.53	340.81
473.749	381.81
473.968	384.81
474.187	466.81
474.406	498.81
474.625	416.81
474.844	364.81
475.063	355.81
475.282	347.81
475.501	365.81
475.72	359.81
475.939	364.81
476.158	356.81
476.377	371.81
476.596	365.81
476.814	390.81
477.033	389.81
477.252	381.81
477.471	355.81
477.69	380.81
477.908	379.81
478.127	388.81
478.346	392.81
478.564	380.81
478.783	387.81
479.002	411.81
479.22	396.81
479.439	402.81
479.658	413.81
479.876	433.81
480.095	400.81
480.313	432.81
480.532	440.81
480.751	412.81
480.969	416.81
481.188	442.81
481.406	450.81
481.624	440.81
481.843	421.81
482.061	420.81
482.28	432.81
482.498	423.81
482.717	397.81
482.935	407.81
483.153	413.81
483.372	385.81
483.59	390.81
483.808	409.81
484.027	401.81
484.245	414.81
484.463	413.81
484.681	420.81
484.9	428.81
485.118	432.81
485.336	412.81
485.554	423.81
485.772	441.81
485.99	415.81
486.209	422.81
486.427	448.81
486.645	414.81
486.863	457.81
487.081	452.81
487.299	458.81
487.517	449.81
487.735	448.81
487.953	440.81
488.171	452.81
488.389	416.81
488.607	447.81
488.825	439.81
489.043	441.81
489.261	439.81
489.479	452.81
489.696	434.81
489.914	446.81
490.132	458.81
490.35	444.81
490.568	470.81
490.786	455.81
491.003	476.81
491.221	497.81
491.439	466.81
491.657	487.81
491.874	484.81
492.092	487.81
492.31	498.81
492.527	518.81
492.745	512.81
492.963	513.81
493.18	488.81
493.398	497.81
493.615	513.81
493.833	517.81
494.05	507.81
494.268	500.81
494.485	496.81
494.703	522.81
494.92	515.81
495.138	498.81
495.355	531.81
495.573	510.81
495.79	507.81
496.008	518.81
496.225	518.81
496.442	513.81
496.66	506.81
496.877	502.81
497.094	506.81
497.312	538.81
497.529	523.81
497.746	534.81
497.963	535.81
498.181	565.81
498.398	562.81
498.615	551.81
498.832	571.81
499.049	594.81
499.267	578.81
499.484	595.81
499.701	616.81
499.918	624.81
500.135	637.81
500.352	646.81
500.569	629.81
500.786	671.81
501.003	654.81
501.22	649.81
501.437	648.81
501.654	647.81
501.871	653.81
502.088	610.81
