Data from 1981.PennyLincolnUp.Lamp.En5.5.200Scan.071819.P1_HRD10591_16-41-07-959.txt Node
Date: Thu Jul 18 16:41:07 EDT 2019
User: cochatt
Spectrometer: HR+D1059
Trigger mode: 1
Integration Time (sec): 1.000000E-1
Scans to average: 1
Electric dark correction enabled: true
Nonlinearity correction enabled: false
Boxcar width: 0
XAxis mode: Wavelengths
Number of Pixels in Spectrum: 2048
>>>>>Begin Spectral Data<<<<<
223.165	-14.44
223.4	-14.44
223.635	-14.44
223.869	-10.44
224.104	-6.44
224.338	-12.44
224.573	-14.44
224.808	-8.44
225.042	-5.44
225.277	-1.44
225.511	-2.44
225.746	-5.44
225.98	6.56
226.215	6.56
226.449	5.56
226.683	21.56
226.918	12.56
227.152	28.56
227.387	34.56
227.621	34.56
227.856	51.56
228.09	56.56
228.324	42.56
228.559	55.56
228.793	66.56
229.027	103.56
229.262	118.56
229.496	113.56
229.73	125.56
229.964	155.56
230.199	140.56
230.433	104.56
230.667	111.56
230.901	104.56
231.136	107.56
231.37	119.56
231.604	121.56
231.838	119.56
232.072	106.56
232.306	115.56
232.541	105.56
232.775	121.56
233.009	107.56
233.243	117.56
233.477	113.56
233.711	106.56
233.945	106.56
234.179	119.56
234.413	120.56
234.647	110.56
234.881	107.56
235.115	111.56
235.349	110.56
235.583	122.56
235.817	110.56
236.051	119.56
236.285	110.56
236.519	133.56
236.753	144.56
236.987	145.56
237.221	165.56
237.455	206.56
237.689	167.56
237.922	121.56
238.156	120.56
238.39	132.56
238.624	124.56
238.858	109.56
239.091	113.56
239.325	123.56
239.559	122.56
239.793	117.56
240.027	143.56
240.26	134.56
240.494	136.56
240.728	141.56
240.961	135.56
241.195	143.56
241.429	132.56
241.662	139.56
241.896	130.56
242.13	119.56
242.363	125.56
242.597	116.56
242.83	133.56
243.064	143.56
243.298	126.56
243.531	134.56
243.765	137.56
243.998	138.56
244.232	129.56
244.465	134.56
244.699	131.56
244.932	136.56
245.166	141.56
245.399	131.56
245.633	144.56
245.866	135.56
246.099	145.56
246.333	157.56
246.566	149.56
246.8	155.56
247.033	148.56
247.266	153.56
247.5	154.56
247.733	167.56
247.966	159.56
248.2	149.56
248.433	167.56
248.666	161.56
248.899	179.56
249.133	197.56
249.366	199.56
249.599	187.56
249.832	173.56
250.066	179.56
250.299	183.56
250.532	184.56
250.765	203.56
250.998	221.56
251.231	230.56
251.465	210.56
251.698	195.56
251.931	202.56
252.164	191.56
252.397	189.56
252.63	210.56
252.863	218.56
253.096	211.56
253.329	226.56
253.562	241.56
253.795	212.56
254.028	217.56
254.261	212.56
254.494	205.56
254.727	243.56
254.96	282.56
255.193	274.56
255.426	250.56
255.659	229.56
255.892	224.56
256.124	224.56
256.357	228.56
256.59	226.56
256.823	223.56
257.056	217.56
257.289	216.56
257.521	212.56
257.754	215.56
257.987	197.56
258.22	214.56
258.452	197.56
258.685	207.56
258.918	195.56
259.151	197.56
259.383	233.56
259.616	211.56
259.849	210.56
260.081	226.56
260.314	249.56
260.547	249.56
260.779	242.56
261.012	235.56
261.244	246.56
261.477	229.56
261.71	219.56
261.942	248.56
262.175	245.56
262.407	224.56
262.64	222.56
262.872	212.56
263.105	219.56
263.337	211.56
263.57	213.56
263.802	222.56
264.035	218.56
264.267	201.56
264.499	192.56
264.732	207.56
264.964	204.56
265.197	187.56
265.429	203.56
265.661	211.56
265.894	213.56
266.126	218.56
266.358	199.56
266.591	208.56
266.823	226.56
267.055	237.56
267.287	213.56
267.52	223.56
267.752	203.56
267.984	231.56
268.216	210.56
268.448	248.56
268.681	231.56
268.913	228.56
269.145	245.56
269.377	265.56
269.609	278.56
269.841	261.56
270.073	268.56
270.306	281.56
270.538	301.56
270.77	315.56
271.002	291.56
271.234	301.56
271.466	305.56
271.698	319.56
271.93	317.56
272.162	326.56
272.394	298.56
272.626	312.56
272.858	269.56
273.09	257.56
273.322	258.56
273.553	271.56
273.785	284.56
274.017	261.56
274.249	267.56
274.481	251.56
274.713	255.56
274.945	270.56
275.176	247.56
275.408	257.56
275.64	230.56
275.872	233.56
276.104	261.56
276.335	268.56
276.567	280.56
276.799	285.56
277.031	305.56
277.262	300.56
277.494	292.56
277.726	282.56
277.957	281.56
278.189	281.56
278.421	258.56
278.652	267.56
278.884	265.56
279.115	263.56
279.347	258.56
279.579	265.56
279.81	245.56
280.042	259.56
280.273	255.56
280.505	240.56
280.736	251.56
280.968	263.56
281.199	263.56
281.431	243.56
281.662	267.56
281.894	247.56
282.125	250.56
282.356	276.56
282.588	299.56
282.819	304.56
283.051	264.56
283.282	248.56
283.513	249.56
283.745	265.56
283.976	262.56
284.207	261.56
284.439	269.56
284.67	268.56
284.901	264.56
285.132	266.56
285.364	272.56
285.595	268.56
285.826	267.56
286.057	289.56
286.288	278.56
286.52	264.56
286.751	260.56
286.982	281.56
287.213	278.56
287.444	265.56
287.675	291.56
287.906	280.56
288.138	284.56
288.369	285.56
288.6	297.56
288.831	274.56
289.062	275.56
289.293	281.56
289.524	289.56
289.755	257.56
289.986	280.56
290.217	264.56
290.448	277.56
290.679	264.56
290.91	284.56
291.141	269.56
291.371	277.56
291.602	258.56
291.833	289.56
292.064	275.56
292.295	277.56
292.526	278.56
292.757	284.56
292.987	263.56
293.218	264.56
293.449	291.56
293.68	282.56
293.91	267.56
294.141	273.56
294.372	288.56
294.603	278.56
294.833	276.56
295.064	271.56
295.295	290.56
295.525	295.56
295.756	286.56
295.987	295.56
296.217	295.56
296.448	310.56
296.679	295.56
296.909	292.56
297.14	285.56
297.37	294.56
297.601	276.56
297.831	277.56
298.062	281.56
298.292	283.56
298.523	288.56
298.753	293.56
298.984	288.56
299.214	310.56
299.445	289.56
299.675	289.56
299.905	311.56
300.136	285.56
300.366	297.56
300.597	290.56
300.827	298.56
301.057	309.56
301.288	306.56
301.518	310.56
301.748	295.56
301.979	310.56
302.209	298.56
302.439	290.56
302.669	299.56
302.9	307.56
303.13	300.56
303.36	293.56
303.59	317.56
303.82	311.56
304.051	327.56
304.281	299.56
304.511	307.56
304.741	297.56
304.971	301.56
305.201	307.56
305.431	326.56
305.661	305.56
305.891	330.56
306.121	302.56
306.352	315.56
306.582	317.56
306.812	315.56
307.042	322.56
307.272	331.56
307.502	309.56
307.731	297.56
307.961	316.56
308.191	326.56
308.421	310.56
308.651	314.56
308.881	325.56
309.111	299.56
309.341	332.56
309.571	334.56
309.8	323.56
310.03	345.56
310.26	360.56
310.49	377.56
310.72	376.56
310.949	381.56
311.179	388.56
311.409	365.56
311.639	369.56
311.868	349.56
312.098	375.56
312.328	380.56
312.557	385.56
312.787	394.56
313.017	406.56
313.246	360.56
313.476	377.56
313.706	349.56
313.935	371.56
314.165	353.56
314.394	394.56
314.624	358.56
314.853	385.56
315.083	379.56
315.312	367.56
315.542	351.56
315.771	353.56
316.001	353.56
316.23	362.56
316.46	353.56
316.689	361.56
316.919	361.56
317.148	363.56
317.377	369.56
317.607	378.56
317.836	376.56
318.065	362.56
318.295	364.56
318.524	356.56
318.753	354.56
318.983	350.56
319.212	363.56
319.441	380.56
319.67	358.56
319.9	360.56
320.129	381.56
320.358	364.56
320.587	362.56
320.816	391.56
321.046	373.56
321.275	372.56
321.504	386.56
321.733	385.56
321.962	395.56
322.191	406.56
322.42	424.56
322.649	435.56
322.878	443.56
323.108	447.56
323.337	466.56
323.566	481.56
323.795	532.56
324.024	601.56
324.253	691.56
324.482	1025.56
324.71	1546.56
324.939	2146.56
325.168	1835.56
325.397	979.56
325.626	665.56
325.855	550.56
326.084	526.56
326.313	483.56
326.542	513.56
326.77	541.56
326.999	670.56
327.228	935.56
327.457	1337.56
327.686	1573.56
327.914	1076.56
328.143	709.56
328.372	616.56
328.6	591.56
328.829	563.56
329.058	548.56
329.287	588.56
329.515	531.56
329.744	494.56
329.972	503.56
330.201	497.56
330.43	520.56
330.658	565.56
330.887	577.56
331.115	565.56
331.344	503.56
331.572	461.56
331.801	477.56
332.03	438.56
332.258	435.56
332.486	422.56
332.715	433.56
332.943	406.56
333.172	405.56
333.4	410.56
333.629	431.56
333.857	436.56
334.085	458.56
334.314	467.56
334.542	462.56
334.771	458.56
334.999	444.56
335.227	447.56
335.455	421.56
335.684	401.56
335.912	410.56
336.14	405.56
336.369	407.56
336.597	419.56
336.825	417.56
337.053	406.56
337.281	385.56
337.51	387.56
337.738	411.56
337.966	405.56
338.194	413.56
338.422	396.56
338.65	391.56
338.878	399.56
339.106	386.56
339.334	408.56
339.562	378.56
339.79	392.56
340.018	387.56
340.246	388.56
340.474	414.56
340.702	383.56
340.93	409.56
341.158	419.56
341.386	382.56
341.614	390.56
341.842	402.56
342.07	384.56
342.298	381.56
342.526	380.56
342.754	377.56
342.981	363.56
343.209	362.56
343.437	383.56
343.665	389.56
343.893	388.56
344.12	385.56
344.348	392.56
344.576	388.56
344.804	405.56
345.031	398.56
345.259	407.56
345.487	389.56
345.714	406.56
345.942	369.56
346.17	395.56
346.397	389.56
346.625	391.56
346.853	383.56
347.08	383.56
347.308	402.56
347.535	389.56
347.763	396.56
347.99	411.56
348.218	383.56
348.445	381.56
348.673	380.56
348.9	385.56
349.128	379.56
349.355	366.56
349.583	375.56
349.81	377.56
350.037	370.56
350.265	368.56
350.492	367.56
350.72	374.56
350.947	379.56
351.174	389.56
351.402	403.56
351.629	374.56
351.856	392.56
352.083	373.56
352.311	389.56
352.538	405.56
352.765	390.56
352.992	377.56
353.22	370.56
353.447	373.56
353.674	366.56
353.901	352.56
354.128	364.56
354.355	354.56
354.583	355.56
354.81	356.56
355.037	343.56
355.264	341.56
355.491	336.56
355.718	337.56
355.945	348.56
356.172	347.56
356.399	339.56
356.626	364.56
356.853	339.56
357.08	343.56
357.307	339.56
357.534	346.56
357.761	330.56
357.988	347.56
358.215	357.56
358.441	355.56
358.668	329.56
358.895	350.56
359.122	353.56
359.349	377.56
359.576	395.56
359.802	395.56
360.029	411.56
360.256	414.56
360.483	401.56
360.709	367.56
360.936	374.56
361.163	365.56
361.39	383.56
361.616	372.56
361.843	378.56
362.07	367.56
362.296	369.56
362.523	361.56
362.749	365.56
362.976	378.56
363.203	385.56
363.429	358.56
363.656	363.56
363.882	366.56
364.109	363.56
364.335	331.56
364.562	348.56
364.788	347.56
365.015	349.56
365.241	368.56
365.468	345.56
365.694	343.56
365.92	344.56
366.147	350.56
366.373	335.56
366.599	344.56
366.826	324.56
367.052	338.56
367.278	360.56
367.505	340.56
367.731	365.56
367.957	342.56
368.184	347.56
368.41	339.56
368.636	362.56
368.862	371.56
369.089	350.56
369.315	346.56
369.541	360.56
369.767	341.56
369.993	359.56
370.219	354.56
370.445	355.56
370.672	339.56
370.898	345.56
371.124	359.56
371.35	337.56
371.576	334.56
371.802	362.56
372.028	328.56
372.254	343.56
372.48	331.56
372.706	343.56
372.932	339.56
373.158	329.56
373.384	333.56
373.61	334.56
373.835	346.56
374.061	357.56
374.287	348.56
374.513	347.56
374.739	348.56
374.965	348.56
375.191	356.56
375.416	343.56
375.642	326.56
375.868	347.56
376.094	357.56
376.319	339.56
376.545	340.56
376.771	342.56
376.997	341.56
377.222	343.56
377.448	336.56
377.674	307.56
377.899	335.56
378.125	342.56
378.35	331.56
378.576	325.56
378.802	330.56
379.027	341.56
379.253	331.56
379.478	343.56
379.704	328.56
379.929	341.56
380.155	333.56
380.38	340.56
380.606	341.56
380.831	340.56
381.057	325.56
381.282	342.56
381.507	333.56
381.733	341.56
381.958	342.56
382.184	327.56
382.409	345.56
382.634	363.56
382.86	334.56
383.085	337.56
383.31	355.56
383.535	346.56
383.761	339.56
383.986	333.56
384.211	342.56
384.436	355.56
384.662	361.56
384.887	355.56
385.112	350.56
385.337	366.56
385.562	347.56
385.787	339.56
386.013	358.56
386.238	379.56
386.463	364.56
386.688	353.56
386.913	356.56
387.138	331.56
387.363	348.56
387.588	356.56
387.813	351.56
388.038	348.56
388.263	345.56
388.488	355.56
388.713	346.56
388.938	357.56
389.163	353.56
389.387	341.56
389.612	338.56
389.837	348.56
390.062	343.56
390.287	369.56
390.512	344.56
390.736	353.56
390.961	335.56
391.186	337.56
391.411	357.56
391.636	357.56
391.86	374.56
392.085	349.56
392.31	351.56
392.534	342.56
392.759	354.56
392.984	345.56
393.208	362.56
393.433	329.56
393.658	347.56
393.882	358.56
394.107	355.56
394.331	342.56
394.556	354.56
394.78	353.56
395.005	357.56
395.229	331.56
395.454	350.56
395.678	357.56
395.903	350.56
396.127	383.56
396.352	373.56
396.576	370.56
396.801	362.56
397.025	343.56
397.249	356.56
397.474	359.56
397.698	386.56
397.922	375.56
398.147	378.56
398.371	401.56
398.595	367.56
398.82	374.56
399.044	410.56
399.268	405.56
399.492	399.56
399.717	425.56
399.941	427.56
400.165	455.56
400.389	468.56
400.613	443.56
400.837	425.56
401.062	389.56
401.286	390.56
401.51	393.56
401.734	377.56
401.958	394.56
402.182	385.56
402.406	399.56
402.63	391.56
402.854	389.56
403.078	392.56
403.302	410.56
403.526	404.56
403.75	398.56
403.974	396.56
404.198	375.56
404.422	382.56
404.645	416.56
404.869	393.56
405.093	433.56
405.317	456.56
405.541	491.56
405.765	435.56
405.988	418.56
406.212	437.56
406.436	469.56
406.66	453.56
406.883	441.56
407.107	453.56
407.331	468.56
407.555	535.56
407.778	541.56
408.002	496.56
408.226	450.56
408.449	446.56
408.673	414.56
408.896	467.56
409.12	485.56
409.344	472.56
409.567	414.56
409.791	398.56
410.014	407.56
410.238	391.56
410.461	401.56
410.685	398.56
410.908	415.56
411.132	457.56
411.355	466.56
411.578	469.56
411.802	406.56
412.025	423.56
412.249	413.56
412.472	421.56
412.695	456.56
412.919	440.56
413.142	403.56
413.365	387.56
413.589	385.56
413.812	415.56
414.035	392.56
414.258	393.56
414.482	397.56
414.705	374.56
414.928	395.56
415.151	373.56
415.374	382.56
415.597	357.56
415.821	367.56
416.044	382.56
416.267	389.56
416.49	373.56
416.713	379.56
416.936	370.56
417.159	372.56
417.382	397.56
417.605	392.56
417.828	382.56
418.051	395.56
418.274	389.56
418.497	390.56
418.72	394.56
418.943	369.56
419.166	385.56
419.389	403.56
419.611	398.56
419.834	401.56
420.057	409.56
420.28	385.56
420.503	388.56
420.726	379.56
420.948	403.56
421.171	455.56
421.394	470.56
421.617	414.56
421.839	386.56
422.062	404.56
422.285	423.56
422.507	466.56
422.73	524.56
422.953	510.56
423.175	438.56
423.398	437.56
423.621	422.56
423.843	434.56
424.066	439.56
424.288	429.56
424.511	460.56
424.733	499.56
424.956	556.56
425.178	531.56
425.401	537.56
425.623	526.56
425.846	468.56
426.068	419.56
426.291	441.56
426.513	448.56
426.735	430.56
426.958	460.56
427.18	535.56
427.402	641.56
427.625	719.56
427.847	627.56
428.069	549.56
428.292	480.56
428.514	457.56
428.736	420.56
428.958	415.56
429.181	405.56
429.403	393.56
429.625	413.56
429.847	435.56
430.069	517.56
430.292	485.56
430.514	419.56
430.736	405.56
430.958	411.56
431.18	372.56
431.402	391.56
431.624	377.56
431.846	377.56
432.068	374.56
432.29	380.56
432.512	391.56
432.734	374.56
432.956	387.56
433.178	396.56
433.4	389.56
433.622	378.56
433.844	375.56
434.066	383.56
434.287	381.56
434.509	379.56
434.731	388.56
434.953	394.56
435.175	390.56
435.397	423.56
435.618	423.56
435.84	485.56
436.062	572.56
436.284	617.56
436.505	520.56
436.727	460.56
436.949	421.56
437.17	414.56
437.392	409.56
437.614	425.56
437.835	475.56
438.057	518.56
438.278	629.56
438.5	617.56
438.721	661.56
438.943	633.56
439.165	506.56
439.386	460.56
439.608	465.56
439.829	456.56
440.05	486.56
440.272	512.56
440.493	507.56
440.715	443.56
440.936	413.56
441.158	409.56
441.379	399.56
441.6	425.56
441.822	435.56
442.043	454.56
442.264	557.56
442.486	596.56
442.707	489.56
442.928	450.56
443.149	475.56
443.371	486.56
443.592	519.56
443.813	581.56
444.034	609.56
444.255	543.56
444.476	456.56
444.698	451.56
444.919	442.56
445.14	538.56
445.361	463.56
445.582	471.56
445.803	539.56
446.024	640.56
446.245	613.56
446.466	556.56
446.687	479.56
446.908	458.56
447.129	419.56
447.35	429.56
447.571	419.56
447.792	397.56
448.013	429.56
448.234	448.56
448.455	476.56
448.675	571.56
448.896	669.56
449.117	593.56
449.338	523.56
449.559	627.56
449.779	673.56
450	566.56
450.221	461.56
450.442	439.56
450.662	419.56
450.883	397.56
451.104	444.56
451.324	417.56
451.545	401.56
451.766	373.56
451.986	375.56
452.207	373.56
452.428	366.56
452.648	359.56
452.869	369.56
453.089	370.56
453.31	394.56
453.53	369.56
453.751	379.56
453.971	383.56
454.192	385.56
454.412	383.56
454.633	355.56
454.853	371.56
455.073	369.56
455.294	380.56
455.514	442.56
455.734	416.56
455.955	358.56
456.175	354.56
456.395	338.56
456.616	330.56
456.836	345.56
457.056	348.56
457.276	315.56
457.497	327.56
457.717	356.56
457.937	337.56
458.157	337.56
458.377	361.56
458.598	390.56
458.818	414.56
459.038	493.56
459.258	504.56
459.478	433.56
459.698	401.56
459.918	364.56
460.138	370.56
460.358	362.56
460.578	366.56
460.798	367.56
461.018	375.56
461.238	381.56
461.458	372.56
461.678	355.56
461.898	374.56
462.118	368.56
462.338	375.56
462.558	389.56
462.777	374.56
462.997	375.56
463.217	393.56
463.437	402.56
463.657	384.56
463.876	385.56
464.096	395.56
464.316	394.56
464.536	381.56
464.755	397.56
464.975	395.56
465.195	441.56
465.414	525.56
465.634	450.56
465.854	410.56
466.073	396.56
466.293	398.56
466.512	362.56
466.732	365.56
466.951	377.56
467.171	367.56
467.391	355.56
467.61	377.56
467.829	377.56
468.049	384.56
468.268	380.56
468.488	359.56
468.707	353.56
468.927	371.56
469.146	345.56
469.365	357.56
469.585	377.56
469.804	371.56
470.023	379.56
470.243	363.56
470.462	374.56
470.681	387.56
470.901	383.56
471.12	381.56
471.339	377.56
471.558	365.56
471.777	379.56
471.997	389.56
472.216	391.56
472.435	412.56
472.654	403.56
472.873	360.56
473.092	385.56
473.311	369.56
473.53	371.56
473.749	380.56
473.968	426.56
474.187	521.56
474.406	521.56
474.625	437.56
474.844	375.56
475.063	390.56
475.282	379.56
475.501	375.56
475.72	389.56
475.939	388.56
476.158	377.56
476.377	387.56
476.596	382.56
476.814	375.56
477.033	410.56
477.252	382.56
477.471	401.56
477.69	424.56
477.908	390.56
478.127	431.56
478.346	415.56
478.564	397.56
478.783	425.56
479.002	415.56
479.22	418.56
479.439	434.56
479.658	466.56
479.876	446.56
480.095	445.56
480.313	475.56
480.532	456.56
480.751	469.56
480.969	462.56
481.188	479.56
481.406	547.56
481.624	435.56
481.843	440.56
482.061	443.56
482.28	431.56
482.498	445.56
482.717	427.56
482.935	437.56
483.153	443.56
483.372	444.56
483.59	444.56
483.808	427.56
484.027	438.56
484.245	445.56
484.463	451.56
484.681	447.56
484.9	454.56
485.118	439.56
485.336	451.56
485.554	466.56
485.772	445.56
485.99	439.56
486.209	476.56
486.427	468.56
486.645	478.56
486.863	465.56
487.081	475.56
487.299	433.56
487.517	467.56
487.735	454.56
487.953	462.56
488.171	473.56
488.389	465.56
488.607	469.56
488.825	470.56
489.043	466.56
489.261	486.56
489.479	479.56
489.696	483.56
489.914	473.56
490.132	478.56
490.35	485.56
490.568	473.56
490.786	478.56
491.003	504.56
491.221	489.56
491.439	501.56
491.657	535.56
491.874	530.56
492.092	534.56
492.31	542.56
492.527	525.56
492.745	545.56
492.963	543.56
493.18	561.56
493.398	539.56
493.615	541.56
493.833	557.56
494.05	557.56
494.268	548.56
494.485	529.56
494.703	546.56
494.92	566.56
495.138	535.56
495.355	546.56
495.573	563.56
495.79	566.56
496.008	535.56
496.225	527.56
496.442	557.56
496.66	547.56
496.877	537.56
497.094	577.56
497.312	564.56
497.529	570.56
497.746	568.56
497.963	589.56
498.181	568.56
498.398	577.56
498.615	602.56
498.832	617.56
499.049	621.56
499.267	635.56
499.484	631.56
499.701	647.56
499.918	654.56
500.135	697.56
500.352	705.56
500.569	705.56
500.786	694.56
501.003	685.56
501.22	694.56
501.437	703.56
501.654	676.56
501.871	669.56
