Data from 1981.PennyLincolnUp.Lamp.En5.5.200Scan.071819.P1_HRD10591_16-41-10-959.txt Node
Date: Thu Jul 18 16:41:10 EDT 2019
User: cochatt
Spectrometer: HR+D1059
Trigger mode: 1
Integration Time (sec): 1.000000E-1
Scans to average: 1
Electric dark correction enabled: true
Nonlinearity correction enabled: false
Boxcar width: 0
XAxis mode: Wavelengths
Number of Pixels in Spectrum: 2048
>>>>>Begin Spectral Data<<<<<
223.165	-15.56
223.4	-15.56
223.635	-15.56
223.869	-16.56
224.104	-19.56
224.338	-23.56
224.573	-19.56
224.808	-4.56
225.042	-15.56
225.277	4.44
225.511	1.44
225.746	0.44
225.98	6.44
226.215	16.44
226.449	17.44
226.683	17.44
226.918	23.44
227.152	27.44
227.387	23.44
227.621	28.44
227.856	31.44
228.09	37.44
228.324	50.44
228.559	55.44
228.793	65.44
229.027	93.44
229.262	109.44
229.496	117.44
229.73	128.44
229.964	152.44
230.199	123.44
230.433	95.44
230.667	105.44
230.901	100.44
231.136	99.44
231.37	104.44
231.604	97.44
231.838	107.44
232.072	106.44
232.306	108.44
232.541	106.44
232.775	112.44
233.009	111.44
233.243	90.44
233.477	103.44
233.711	114.44
233.945	112.44
234.179	95.44
234.413	112.44
234.647	106.44
234.881	96.44
235.115	106.44
235.349	115.44
235.583	115.44
235.817	108.44
236.051	126.44
236.285	117.44
236.519	117.44
236.753	119.44
236.987	145.44
237.221	164.44
237.455	215.44
237.689	181.44
237.922	135.44
238.156	134.44
238.39	124.44
238.624	118.44
238.858	124.44
239.091	114.44
239.325	133.44
239.559	114.44
239.793	108.44
240.027	128.44
240.26	140.44
240.494	132.44
240.728	156.44
240.961	130.44
241.195	134.44
241.429	141.44
241.662	120.44
241.896	128.44
242.13	114.44
242.363	116.44
242.597	129.44
242.83	124.44
243.064	127.44
243.298	126.44
243.531	123.44
243.765	123.44
243.998	128.44
244.232	132.44
244.465	123.44
244.699	147.44
244.932	120.44
245.166	131.44
245.399	143.44
245.633	121.44
245.866	143.44
246.099	150.44
246.333	137.44
246.566	147.44
246.8	141.44
247.033	145.44
247.266	155.44
247.5	158.44
247.733	165.44
247.966	160.44
248.2	151.44
248.433	161.44
248.666	164.44
248.899	179.44
249.133	190.44
249.366	198.44
249.599	195.44
249.832	182.44
250.066	183.44
250.299	161.44
250.532	188.44
250.765	195.44
250.998	216.44
251.231	217.44
251.465	200.44
251.698	219.44
251.931	199.44
252.164	209.44
252.397	181.44
252.63	214.44
252.863	196.44
253.096	222.44
253.329	230.44
253.562	225.44
253.795	225.44
254.028	199.44
254.261	216.44
254.494	216.44
254.727	237.44
254.96	268.44
255.193	267.44
255.426	252.44
255.659	246.44
255.892	213.44
256.124	228.44
256.357	244.44
256.59	221.44
256.823	219.44
257.056	225.44
257.289	197.44
257.521	228.44
257.754	207.44
257.987	218.44
258.22	189.44
258.452	200.44
258.685	204.44
258.918	203.44
259.151	207.44
259.383	222.44
259.616	212.44
259.849	206.44
260.081	235.44
260.314	243.44
260.547	255.44
260.779	238.44
261.012	230.44
261.244	220.44
261.477	199.44
261.71	233.44
261.942	226.44
262.175	230.44
262.407	196.44
262.64	216.44
262.872	196.44
263.105	197.44
263.337	226.44
263.57	227.44
263.802	211.44
264.035	214.44
264.267	195.44
264.499	203.44
264.732	203.44
264.964	193.44
265.197	195.44
265.429	209.44
265.661	201.44
265.894	214.44
266.126	214.44
266.358	210.44
266.591	210.44
266.823	224.44
267.055	224.44
267.287	220.44
267.52	234.44
267.752	227.44
267.984	215.44
268.216	225.44
268.448	203.44
268.681	241.44
268.913	224.44
269.145	248.44
269.377	255.44
269.609	259.44
269.841	262.44
270.073	271.44
270.306	283.44
270.538	286.44
270.77	315.44
271.002	303.44
271.234	299.44
271.466	291.44
271.698	311.44
271.93	316.44
272.162	320.44
272.394	308.44
272.626	308.44
272.858	284.44
273.09	272.44
273.322	261.44
273.553	273.44
273.785	262.44
274.017	255.44
274.249	267.44
274.481	271.44
274.713	257.44
274.945	262.44
275.176	263.44
275.408	265.44
275.64	259.44
275.872	244.44
276.104	256.44
276.335	264.44
276.567	264.44
276.799	278.44
277.031	287.44
277.262	300.44
277.494	311.44
277.726	296.44
277.957	287.44
278.189	271.44
278.421	246.44
278.652	265.44
278.884	257.44
279.115	267.44
279.347	248.44
279.579	273.44
279.81	276.44
280.042	263.44
280.273	247.44
280.505	246.44
280.736	253.44
280.968	243.44
281.199	264.44
281.431	258.44
281.662	263.44
281.894	256.44
282.125	284.44
282.356	278.44
282.588	291.44
282.819	299.44
283.051	281.44
283.282	257.44
283.513	253.44
283.745	263.44
283.976	271.44
284.207	267.44
284.439	259.44
284.67	263.44
284.901	272.44
285.132	251.44
285.364	251.44
285.595	266.44
285.826	257.44
286.057	269.44
286.288	255.44
286.52	263.44
286.751	274.44
286.982	270.44
287.213	259.44
287.444	271.44
287.675	268.44
287.906	303.44
288.138	287.44
288.369	279.44
288.6	294.44
288.831	278.44
289.062	300.44
289.293	273.44
289.524	266.44
289.755	265.44
289.986	267.44
290.217	256.44
290.448	271.44
290.679	285.44
290.91	269.44
291.141	276.44
291.371	261.44
291.602	257.44
291.833	279.44
292.064	275.44
292.295	278.44
292.526	267.44
292.757	274.44
292.987	277.44
293.218	258.44
293.449	260.44
293.68	281.44
293.91	278.44
294.141	283.44
294.372	263.44
294.603	277.44
294.833	294.44
295.064	264.44
295.295	294.44
295.525	291.44
295.756	279.44
295.987	296.44
296.217	316.44
296.448	320.44
296.679	285.44
296.909	270.44
297.14	288.44
297.37	273.44
297.601	288.44
297.831	289.44
298.062	289.44
298.292	296.44
298.523	282.44
298.753	294.44
298.984	287.44
299.214	296.44
299.445	297.44
299.675	275.44
299.905	293.44
300.136	289.44
300.366	308.44
300.597	279.44
300.827	284.44
301.057	304.44
301.288	294.44
301.518	318.44
301.748	303.44
301.979	306.44
302.209	305.44
302.439	322.44
302.669	294.44
302.9	320.44
303.13	308.44
303.36	305.44
303.59	294.44
303.82	309.44
304.051	305.44
304.281	317.44
304.511	307.44
304.741	310.44
304.971	303.44
305.201	309.44
305.431	323.44
305.661	316.44
305.891	298.44
306.121	318.44
306.352	305.44
306.582	312.44
306.812	325.44
307.042	311.44
307.272	310.44
307.502	293.44
307.731	328.44
307.961	315.44
308.191	309.44
308.421	314.44
308.651	321.44
308.881	319.44
309.111	325.44
309.341	320.44
309.571	323.44
309.8	345.44
310.03	355.44
310.26	365.44
310.49	352.44
310.72	373.44
310.949	382.44
311.179	394.44
311.409	380.44
311.639	359.44
311.868	363.44
312.098	323.44
312.328	392.44
312.557	367.44
312.787	379.44
313.017	397.44
313.246	369.44
313.476	357.44
313.706	358.44
313.935	354.44
314.165	399.44
314.394	397.44
314.624	395.44
314.853	359.44
315.083	350.44
315.312	382.44
315.542	357.44
315.771	335.44
316.001	347.44
316.23	362.44
316.46	353.44
316.689	371.44
316.919	356.44
317.148	365.44
317.377	377.44
317.607	372.44
317.836	355.44
318.065	358.44
318.295	363.44
318.524	374.44
318.753	373.44
318.983	367.44
319.212	351.44
319.441	366.44
319.67	357.44
319.9	363.44
320.129	375.44
320.358	368.44
320.587	362.44
320.816	361.44
321.046	389.44
321.275	390.44
321.504	375.44
321.733	398.44
321.962	408.44
322.191	398.44
322.42	409.44
322.649	422.44
322.878	435.44
323.108	446.44
323.337	476.44
323.566	512.44
323.795	529.44
324.024	589.44
324.253	728.44
324.482	1034.44
324.71	1581.44
324.939	2205.44
325.168	1841.44
325.397	990.44
325.626	690.44
325.855	561.44
326.084	508.44
326.313	499.44
326.542	519.44
326.77	536.44
326.999	641.44
327.228	942.44
327.457	1360.44
327.686	1643.44
327.914	1096.44
328.143	735.44
328.372	631.44
328.6	582.44
328.829	579.44
329.058	557.44
329.287	587.44
329.515	543.44
329.744	498.44
329.972	507.44
330.201	496.44
330.43	558.44
330.658	574.44
330.887	615.44
331.115	567.44
331.344	501.44
331.572	480.44
331.801	469.44
332.03	464.44
332.258	448.44
332.486	422.44
332.715	413.44
332.943	428.44
333.172	410.44
333.4	419.44
333.629	420.44
333.857	447.44
334.085	477.44
334.314	459.44
334.542	475.44
334.771	491.44
334.999	445.44
335.227	427.44
335.455	423.44
335.684	424.44
335.912	405.44
336.14	410.44
336.369	403.44
336.597	412.44
336.825	415.44
337.053	419.44
337.281	420.44
337.51	407.44
337.738	401.44
337.966	385.44
338.194	401.44
338.422	418.44
338.65	413.44
338.878	404.44
339.106	412.44
339.334	397.44
339.562	371.44
339.79	388.44
340.018	402.44
340.246	409.44
340.474	397.44
340.702	384.44
340.93	399.44
341.158	394.44
341.386	393.44
341.614	382.44
341.842	409.44
342.07	410.44
342.298	398.44
342.526	397.44
342.754	393.44
342.981	369.44
343.209	388.44
343.437	371.44
343.665	391.44
343.893	400.44
344.12	406.44
344.348	393.44
344.576	384.44
344.804	399.44
345.031	414.44
345.259	448.44
345.487	393.44
345.714	402.44
345.942	399.44
346.17	385.44
346.397	389.44
346.625	371.44
346.853	404.44
347.08	393.44
347.308	420.44
347.535	429.44
347.763	406.44
347.99	418.44
348.218	391.44
348.445	388.44
348.673	406.44
348.9	411.44
349.128	398.44
349.355	359.44
349.583	355.44
349.81	368.44
350.037	375.44
350.265	379.44
350.492	364.44
350.72	379.44
350.947	361.44
351.174	391.44
351.402	391.44
351.629	390.44
351.856	401.44
352.083	387.44
352.311	408.44
352.538	389.44
352.765	393.44
352.992	396.44
353.22	394.44
353.447	376.44
353.674	359.44
353.901	364.44
354.128	365.44
354.355	364.44
354.583	358.44
354.81	363.44
355.037	365.44
355.264	345.44
355.491	355.44
355.718	356.44
355.945	348.44
356.172	365.44
356.399	356.44
356.626	349.44
356.853	367.44
357.08	347.44
357.307	350.44
357.534	350.44
357.761	358.44
357.988	334.44
358.215	353.44
358.441	363.44
358.668	335.44
358.895	366.44
359.122	344.44
359.349	352.44
359.576	376.44
359.802	405.44
360.029	415.44
360.256	441.44
360.483	408.44
360.709	390.44
360.936	367.44
361.163	374.44
361.39	381.44
361.616	399.44
361.843	384.44
362.07	368.44
362.296	363.44
362.523	368.44
362.749	367.44
362.976	382.44
363.203	382.44
363.429	356.44
363.656	363.44
363.882	352.44
364.109	354.44
364.335	339.44
364.562	343.44
364.788	361.44
365.015	355.44
365.241	353.44
365.468	378.44
365.694	354.44
365.92	383.44
366.147	374.44
366.373	363.44
366.599	374.44
366.826	334.44
367.052	371.44
367.278	367.44
367.505	360.44
367.731	344.44
367.957	336.44
368.184	367.44
368.41	369.44
368.636	370.44
368.862	342.44
369.089	363.44
369.315	373.44
369.541	360.44
369.767	340.44
369.993	357.44
370.219	330.44
370.445	352.44
370.672	348.44
370.898	352.44
371.124	326.44
371.35	357.44
371.576	358.44
371.802	349.44
372.028	336.44
372.254	342.44
372.48	332.44
372.706	336.44
372.932	360.44
373.158	351.44
373.384	356.44
373.61	348.44
373.835	354.44
374.061	326.44
374.287	342.44
374.513	346.44
374.739	338.44
374.965	349.44
375.191	344.44
375.416	337.44
375.642	331.44
375.868	353.44
376.094	333.44
376.319	355.44
376.545	345.44
376.771	339.44
376.997	338.44
377.222	345.44
377.448	359.44
377.674	335.44
377.899	327.44
378.125	326.44
378.35	335.44
378.576	332.44
378.802	312.44
379.027	353.44
379.253	341.44
379.478	344.44
379.704	341.44
379.929	335.44
380.155	341.44
380.38	337.44
380.606	354.44
380.831	338.44
381.057	335.44
381.282	312.44
381.507	344.44
381.733	325.44
381.958	331.44
382.184	333.44
382.409	350.44
382.634	336.44
382.86	341.44
383.085	327.44
383.31	339.44
383.535	330.44
383.761	342.44
383.986	341.44
384.211	364.44
384.436	369.44
384.662	359.44
384.887	342.44
385.112	348.44
385.337	365.44
385.562	365.44
385.787	343.44
386.013	371.44
386.238	363.44
386.463	370.44
386.688	340.44
386.913	349.44
387.138	330.44
387.363	348.44
387.588	376.44
387.813	359.44
388.038	355.44
388.263	365.44
388.488	356.44
388.713	365.44
388.938	355.44
389.163	346.44
389.387	351.44
389.612	359.44
389.837	358.44
390.062	368.44
390.287	344.44
390.512	355.44
390.736	346.44
390.961	360.44
391.186	370.44
391.411	367.44
391.636	350.44
391.86	381.44
392.085	353.44
392.31	353.44
392.534	353.44
392.759	358.44
392.984	354.44
393.208	365.44
393.433	367.44
393.658	344.44
393.882	346.44
394.107	360.44
394.331	359.44
394.556	360.44
394.78	358.44
395.005	361.44
395.229	346.44
395.454	367.44
395.678	374.44
395.903	371.44
396.127	370.44
396.352	386.44
396.576	364.44
396.801	377.44
397.025	377.44
397.249	371.44
397.474	375.44
397.698	378.44
397.922	378.44
398.147	403.44
398.371	411.44
398.595	380.44
398.82	373.44
399.044	396.44
399.268	401.44
399.492	425.44
399.717	432.44
399.941	455.44
400.165	464.44
400.389	485.44
400.613	449.44
400.837	427.44
401.062	402.44
401.286	397.44
401.51	395.44
401.734	412.44
401.958	393.44
402.182	405.44
402.406	429.44
402.63	392.44
402.854	395.44
403.078	393.44
403.302	413.44
403.526	418.44
403.75	414.44
403.974	415.44
404.198	413.44
404.422	401.44
404.645	424.44
404.869	423.44
405.093	419.44
405.317	448.44
405.541	504.44
405.765	469.44
405.988	435.44
406.212	449.44
406.436	468.44
406.66	484.44
406.883	454.44
407.107	445.44
407.331	491.44
407.555	540.44
407.778	525.44
408.002	490.44
408.226	445.44
408.449	456.44
408.673	458.44
408.896	463.44
409.12	507.44
409.344	480.44
409.567	423.44
409.791	393.44
410.014	407.44
410.238	405.44
410.461	388.44
410.685	425.44
410.908	430.44
411.132	465.44
411.355	472.44
411.578	447.44
411.802	420.44
412.025	408.44
412.249	406.44
412.472	429.44
412.695	465.44
412.919	451.44
413.142	422.44
413.365	417.44
413.589	398.44
413.812	384.44
414.035	388.44
414.258	365.44
414.482	386.44
414.705	369.44
414.928	379.44
415.151	388.44
415.374	390.44
415.597	383.44
415.821	374.44
416.044	362.44
416.267	375.44
416.49	379.44
416.713	372.44
416.936	397.44
417.159	353.44
417.382	383.44
417.605	396.44
417.828	397.44
418.051	394.44
418.274	403.44
418.497	389.44
418.72	375.44
418.943	385.44
419.166	359.44
419.389	402.44
419.611	417.44
419.834	393.44
420.057	413.44
420.28	409.44
420.503	404.44
420.726	411.44
420.948	428.44
421.171	452.44
421.394	455.44
421.617	423.44
421.839	396.44
422.062	413.44
422.285	414.44
422.507	472.44
422.73	525.44
422.953	505.44
423.175	441.44
423.398	416.44
423.621	437.44
423.843	433.44
424.066	435.44
424.288	432.44
424.511	450.44
424.733	511.44
424.956	558.44
425.178	566.44
425.401	559.44
425.623	571.44
425.846	508.44
426.068	464.44
426.291	455.44
426.513	447.44
426.735	439.44
426.958	476.44
427.18	559.44
427.402	654.44
427.625	728.44
427.847	646.44
428.069	569.44
428.292	507.44
428.514	448.44
428.736	447.44
428.958	429.44
429.181	427.44
429.403	421.44
429.625	427.44
429.847	439.44
430.069	510.44
430.292	472.44
430.514	443.44
430.736	414.44
430.958	395.44
431.18	381.44
431.402	371.44
431.624	376.44
431.846	387.44
432.068	383.44
432.29	384.44
432.512	376.44
432.734	402.44
432.956	389.44
433.178	394.44
433.4	399.44
433.622	401.44
433.844	384.44
434.066	382.44
434.287	394.44
434.509	401.44
434.731	407.44
434.953	397.44
435.175	403.44
435.397	419.44
435.618	456.44
435.84	484.44
436.062	555.44
436.284	612.44
436.505	523.44
436.727	465.44
436.949	426.44
437.17	413.44
437.392	428.44
437.614	452.44
437.835	476.44
438.057	529.44
438.278	643.44
438.5	630.44
438.721	674.44
438.943	640.44
439.165	511.44
439.386	466.44
439.608	466.44
439.829	470.44
440.05	486.44
440.272	531.44
440.493	507.44
440.715	455.44
440.936	424.44
441.158	408.44
441.379	406.44
441.6	422.44
441.822	461.44
442.043	480.44
442.264	521.44
442.486	592.44
442.707	499.44
442.928	463.44
443.149	476.44
443.371	488.44
443.592	533.44
443.813	587.44
444.034	609.44
444.255	520.44
444.476	466.44
444.698	446.44
444.919	442.44
445.14	539.44
445.361	520.44
445.582	471.44
445.803	531.44
446.024	628.44
446.245	619.44
446.466	563.44
446.687	483.44
446.908	450.44
447.129	428.44
447.35	412.44
447.571	420.44
447.792	416.44
448.013	401.44
448.234	431.44
448.455	495.44
448.675	576.44
448.896	687.44
449.117	580.44
449.338	541.44
449.559	615.44
449.779	663.44
450	567.44
450.221	453.44
450.442	442.44
450.662	409.44
450.883	405.44
451.104	407.44
451.324	404.44
451.545	407.44
451.766	389.44
451.986	376.44
452.207	384.44
452.428	370.44
452.648	371.44
452.869	358.44
453.089	373.44
453.31	383.44
453.53	377.44
453.751	369.44
453.971	366.44
454.192	405.44
454.412	393.44
454.633	364.44
454.853	373.44
455.073	372.44
455.294	415.44
455.514	443.44
455.734	445.44
455.955	386.44
456.175	347.44
456.395	343.44
456.616	336.44
456.836	337.44
457.056	349.44
457.276	347.44
457.497	347.44
457.717	358.44
457.937	355.44
458.157	366.44
458.377	360.44
458.598	377.44
458.818	435.44
459.038	492.44
459.258	526.44
459.478	429.44
459.698	389.44
459.918	374.44
460.138	383.44
460.358	384.44
460.578	377.44
460.798	406.44
461.018	383.44
461.238	386.44
461.458	386.44
461.678	378.44
461.898	369.44
462.118	382.44
462.338	381.44
462.558	384.44
462.777	399.44
462.997	394.44
463.217	390.44
463.437	429.44
463.657	405.44
463.876	394.44
464.096	405.44
464.316	402.44
464.536	408.44
464.755	405.44
464.975	422.44
465.195	459.44
465.414	531.44
465.634	442.44
465.854	402.44
466.073	389.44
466.293	399.44
466.512	373.44
466.732	368.44
466.951	351.44
467.171	369.44
467.391	379.44
467.61	376.44
467.829	391.44
468.049	389.44
468.268	374.44
468.488	376.44
468.707	357.44
468.927	342.44
469.146	352.44
469.365	364.44
469.585	362.44
469.804	372.44
470.023	366.44
470.243	377.44
470.462	368.44
470.681	388.44
470.901	395.44
471.12	377.44
471.339	381.44
471.558	375.44
471.777	385.44
471.997	365.44
472.216	383.44
472.435	397.44
472.654	394.44
472.873	367.44
473.092	381.44
473.311	373.44
473.53	388.44
473.749	372.44
473.968	420.44
474.187	504.44
474.406	558.44
474.625	440.44
474.844	391.44
475.063	377.44
475.282	383.44
475.501	372.44
475.72	387.44
475.939	400.44
476.158	407.44
476.377	390.44
476.596	383.44
476.814	390.44
477.033	398.44
477.252	396.44
477.471	422.44
477.69	397.44
477.908	407.44
478.127	409.44
478.346	405.44
478.564	415.44
478.783	411.44
479.002	416.44
479.22	420.44
479.439	418.44
479.658	446.44
479.876	455.44
480.095	474.44
480.313	480.44
480.532	465.44
480.751	457.44
480.969	461.44
481.188	498.44
481.406	523.44
481.624	504.44
481.843	444.44
482.061	449.44
482.28	452.44
482.498	419.44
482.717	446.44
482.935	443.44
483.153	430.44
483.372	458.44
483.59	438.44
483.808	450.44
484.027	446.44
484.245	444.44
484.463	444.44
484.681	432.44
484.9	450.44
485.118	448.44
485.336	444.44
485.554	424.44
485.772	437.44
485.99	464.44
486.209	457.44
486.427	475.44
486.645	462.44
486.863	479.44
487.081	489.44
487.299	491.44
487.517	478.44
487.735	466.44
487.953	478.44
488.171	490.44
488.389	477.44
488.607	476.44
488.825	476.44
489.043	467.44
489.261	478.44
489.479	472.44
489.696	482.44
489.914	472.44
490.132	495.44
490.35	487.44
490.568	501.44
490.786	516.44
491.003	529.44
491.221	531.44
491.439	529.44
491.657	540.44
491.874	547.44
492.092	549.44
492.31	549.44
492.527	542.44
492.745	543.44
492.963	542.44
493.18	556.44
493.398	544.44
493.615	557.44
493.833	565.44
494.05	544.44
494.268	544.44
494.485	534.44
494.703	567.44
494.92	571.44
495.138	546.44
495.355	557.44
495.573	589.44
495.79	568.44
496.008	562.44
496.225	574.44
496.442	557.44
496.66	560.44
496.877	572.44
497.094	559.44
497.312	571.44
497.529	575.44
497.746	576.44
497.963	597.44
498.181	625.44
498.398	625.44
498.615	602.44
498.832	628.44
499.049	599.44
499.267	655.44
499.484	630.44
499.701	645.44
499.918	649.44
500.135	675.44
500.352	703.44
500.569	688.44
500.786	703.44
501.003	700.44
501.22	675.44
501.437	675.44
501.654	656.44
501.871	680.44
502.088	667.44
