Data from 1981.PennyLincolnUp.Lamp.En5.5.200Scan.071819.P1_HRD10591_16-42-29-959.txt Node
Date: Thu Jul 18 16:42:29 EDT 2019
User: cochatt
Spectrometer: HR+D1059
Trigger mode: 1
Integration Time (sec): 1.000000E-1
Scans to average: 1
Electric dark correction enabled: true
Nonlinearity correction enabled: false
Boxcar width: 0
XAxis mode: Wavelengths
Number of Pixels in Spectrum: 2048
>>>>>Begin Spectral Data<<<<<
223.165	-16.12
223.4	-16.12
223.635	-16.12
223.869	-21.12
224.104	-27.12
224.338	-3.12
224.573	-4.12
224.808	-15.12
225.042	-5.12
225.277	-6.12
225.511	-8.12
225.746	6.88
225.98	6.88
226.215	-1.12
226.449	17.88
226.683	19.88
226.918	23.88
227.152	31.88
227.387	24.88
227.621	38.88
227.856	55.88
228.09	44.88
228.324	42.88
228.559	47.88
228.793	63.88
229.027	94.88
229.262	107.88
229.496	116.88
229.73	141.88
229.964	160.88
230.199	127.88
230.433	106.88
230.667	116.88
230.901	125.88
231.136	100.88
231.37	106.88
231.604	121.88
231.838	115.88
232.072	106.88
232.306	107.88
232.541	106.88
232.775	116.88
233.009	117.88
233.243	117.88
233.477	106.88
233.711	117.88
233.945	121.88
234.179	115.88
234.413	122.88
234.647	105.88
234.881	122.88
235.115	127.88
235.349	122.88
235.583	130.88
235.817	139.88
236.051	129.88
236.285	128.88
236.519	135.88
236.753	135.88
236.987	154.88
237.221	182.88
237.455	250.88
237.689	193.88
237.922	141.88
238.156	145.88
238.39	140.88
238.624	144.88
238.858	120.88
239.091	127.88
239.325	130.88
239.559	121.88
239.793	127.88
240.027	145.88
240.26	150.88
240.494	173.88
240.728	139.88
240.961	153.88
241.195	151.88
241.429	141.88
241.662	127.88
241.896	116.88
242.13	141.88
242.363	132.88
242.597	138.88
242.83	136.88
243.064	145.88
243.298	149.88
243.531	140.88
243.765	129.88
243.998	141.88
244.232	136.88
244.465	137.88
244.699	145.88
244.932	146.88
245.166	143.88
245.399	135.88
245.633	153.88
245.866	153.88
246.099	140.88
246.333	167.88
246.566	167.88
246.8	169.88
247.033	164.88
247.266	171.88
247.5	158.88
247.733	167.88
247.966	183.88
248.2	169.88
248.433	176.88
248.666	160.88
248.899	183.88
249.133	211.88
249.366	233.88
249.599	203.88
249.832	212.88
250.066	201.88
250.299	198.88
250.532	196.88
250.765	211.88
250.998	223.88
251.231	250.88
251.465	238.88
251.698	213.88
251.931	223.88
252.164	217.88
252.397	227.88
252.63	223.88
252.863	220.88
253.096	233.88
253.329	251.88
253.562	251.88
253.795	240.88
254.028	229.88
254.261	225.88
254.494	257.88
254.727	263.88
254.96	292.88
255.193	285.88
255.426	280.88
255.659	272.88
255.892	267.88
256.124	252.88
256.357	255.88
256.59	240.88
256.823	253.88
257.056	223.88
257.289	218.88
257.521	221.88
257.754	219.88
257.987	223.88
258.22	230.88
258.452	222.88
258.685	229.88
258.918	208.88
259.151	229.88
259.383	247.88
259.616	227.88
259.849	242.88
260.081	276.88
260.314	265.88
260.547	298.88
260.779	248.88
261.012	248.88
261.244	249.88
261.477	260.88
261.71	247.88
261.942	233.88
262.175	259.88
262.407	245.88
262.64	221.88
262.872	219.88
263.105	237.88
263.337	233.88
263.57	217.88
263.802	231.88
264.035	255.88
264.267	223.88
264.499	222.88
264.732	228.88
264.964	218.88
265.197	214.88
265.429	231.88
265.661	220.88
265.894	218.88
266.126	224.88
266.358	237.88
266.591	223.88
266.823	227.88
267.055	243.88
267.287	249.88
267.52	232.88
267.752	248.88
267.984	248.88
268.216	229.88
268.448	237.88
268.681	259.88
268.913	237.88
269.145	271.88
269.377	303.88
269.609	295.88
269.841	291.88
270.073	260.88
270.306	320.88
270.538	345.88
270.77	333.88
271.002	316.88
271.234	317.88
271.466	342.88
271.698	330.88
271.93	336.88
272.162	318.88
272.394	335.88
272.626	340.88
272.858	307.88
273.09	294.88
273.322	285.88
273.553	283.88
273.785	283.88
274.017	304.88
274.249	279.88
274.481	277.88
274.713	284.88
274.945	285.88
275.176	260.88
275.408	271.88
275.64	288.88
275.872	293.88
276.104	297.88
276.335	279.88
276.567	292.88
276.799	276.88
277.031	328.88
277.262	332.88
277.494	324.88
277.726	320.88
277.957	289.88
278.189	278.88
278.421	277.88
278.652	276.88
278.884	295.88
279.115	271.88
279.347	273.88
279.579	294.88
279.81	286.88
280.042	277.88
280.273	257.88
280.505	261.88
280.736	263.88
280.968	272.88
281.199	285.88
281.431	277.88
281.662	279.88
281.894	298.88
282.125	268.88
282.356	287.88
282.588	321.88
282.819	327.88
283.051	295.88
283.282	285.88
283.513	293.88
283.745	295.88
283.976	297.88
284.207	303.88
284.439	283.88
284.67	288.88
284.901	294.88
285.132	286.88
285.364	289.88
285.595	282.88
285.826	274.88
286.057	282.88
286.288	284.88
286.52	279.88
286.751	281.88
286.982	282.88
287.213	302.88
287.444	309.88
287.675	299.88
287.906	292.88
288.138	289.88
288.369	313.88
288.6	303.88
288.831	291.88
289.062	296.88
289.293	281.88
289.524	277.88
289.755	292.88
289.986	299.88
290.217	287.88
290.448	288.88
290.679	287.88
290.91	295.88
291.141	285.88
291.371	289.88
291.602	296.88
291.833	303.88
292.064	309.88
292.295	301.88
292.526	299.88
292.757	293.88
292.987	284.88
293.218	284.88
293.449	297.88
293.68	309.88
293.91	297.88
294.141	299.88
294.372	308.88
294.603	295.88
294.833	276.88
295.064	291.88
295.295	294.88
295.525	312.88
295.756	319.88
295.987	322.88
296.217	313.88
296.448	340.88
296.679	308.88
296.909	290.88
297.14	305.88
297.37	301.88
297.601	317.88
297.831	324.88
298.062	307.88
298.292	307.88
298.523	316.88
298.753	313.88
298.984	297.88
299.214	316.88
299.445	296.88
299.675	328.88
299.905	324.88
300.136	307.88
300.366	323.88
300.597	311.88
300.827	303.88
301.057	327.88
301.288	325.88
301.518	331.88
301.748	331.88
301.979	347.88
302.209	344.88
302.439	340.88
302.669	335.88
302.9	332.88
303.13	316.88
303.36	328.88
303.59	323.88
303.82	336.88
304.051	340.88
304.281	332.88
304.511	307.88
304.741	313.88
304.971	352.88
305.201	327.88
305.431	313.88
305.661	313.88
305.891	344.88
306.121	330.88
306.352	329.88
306.582	346.88
306.812	341.88
307.042	329.88
307.272	336.88
307.502	361.88
307.731	335.88
307.961	340.88
308.191	323.88
308.421	350.88
308.651	333.88
308.881	336.88
309.111	362.88
309.341	363.88
309.571	371.88
309.8	379.88
310.03	388.88
310.26	393.88
310.49	396.88
310.72	397.88
310.949	410.88
311.179	416.88
311.409	395.88
311.639	383.88
311.868	405.88
312.098	404.88
312.328	391.88
312.557	421.88
312.787	443.88
313.017	427.88
313.246	422.88
313.476	376.88
313.706	397.88
313.935	411.88
314.165	412.88
314.394	416.88
314.624	427.88
314.853	399.88
315.083	409.88
315.312	386.88
315.542	396.88
315.771	373.88
316.001	385.88
316.23	374.88
316.46	365.88
316.689	381.88
316.919	400.88
317.148	394.88
317.377	430.88
317.607	415.88
317.836	400.88
318.065	388.88
318.295	400.88
318.524	399.88
318.753	380.88
318.983	383.88
319.212	386.88
319.441	391.88
319.67	407.88
319.9	411.88
320.129	383.88
320.358	386.88
320.587	383.88
320.816	417.88
321.046	441.88
321.275	411.88
321.504	423.88
321.733	400.88
321.962	425.88
322.191	451.88
322.42	456.88
322.649	483.88
322.878	501.88
323.108	500.88
323.337	500.88
323.566	564.88
323.795	594.88
324.024	659.88
324.253	841.88
324.482	1199.88
324.71	1828.88
324.939	2499.88
325.168	2128.88
325.397	1116.88
325.626	777.88
325.855	627.88
326.084	598.88
326.313	569.88
326.542	588.88
326.77	619.88
326.999	766.88
327.228	1043.88
327.457	1578.88
327.686	1907.88
327.914	1227.88
328.143	823.88
328.372	716.88
328.6	651.88
328.829	639.88
329.058	638.88
329.287	638.88
329.515	606.88
329.744	569.88
329.972	571.88
330.201	571.88
330.43	616.88
330.658	653.88
330.887	662.88
331.115	645.88
331.344	549.88
331.572	525.88
331.801	510.88
332.03	494.88
332.258	471.88
332.486	472.88
332.715	445.88
332.943	477.88
333.172	457.88
333.4	458.88
333.629	475.88
333.857	472.88
334.085	503.88
334.314	487.88
334.542	517.88
334.771	528.88
334.999	494.88
335.227	458.88
335.455	451.88
335.684	456.88
335.912	439.88
336.14	448.88
336.369	427.88
336.597	469.88
336.825	462.88
337.053	435.88
337.281	428.88
337.51	437.88
337.738	442.88
337.966	422.88
338.194	458.88
338.422	452.88
338.65	441.88
338.878	429.88
339.106	429.88
339.334	445.88
339.562	420.88
339.79	429.88
340.018	424.88
340.246	421.88
340.474	465.88
340.702	423.88
340.93	441.88
341.158	429.88
341.386	414.88
341.614	429.88
341.842	435.88
342.07	419.88
342.298	412.88
342.526	413.88
342.754	414.88
342.981	436.88
343.209	389.88
343.437	399.88
343.665	384.88
343.893	414.88
344.12	412.88
344.348	417.88
344.576	409.88
344.804	436.88
345.031	439.88
345.259	428.88
345.487	447.88
345.714	430.88
345.942	425.88
346.17	428.88
346.397	402.88
346.625	402.88
346.853	414.88
347.08	407.88
347.308	409.88
347.535	410.88
347.763	439.88
347.99	416.88
348.218	445.88
348.445	430.88
348.673	430.88
348.9	414.88
349.128	399.88
349.355	379.88
349.583	391.88
349.81	403.88
350.037	390.88
350.265	387.88
350.492	383.88
350.72	399.88
350.947	404.88
351.174	398.88
351.402	429.88
351.629	433.88
351.856	426.88
352.083	417.88
352.311	430.88
352.538	441.88
352.765	448.88
352.992	419.88
353.22	409.88
353.447	411.88
353.674	400.88
353.901	382.88
354.128	383.88
354.355	388.88
354.583	392.88
354.81	383.88
355.037	373.88
355.264	364.88
355.491	376.88
355.718	354.88
355.945	368.88
356.172	366.88
356.399	377.88
356.626	377.88
356.853	377.88
357.08	351.88
357.307	340.88
357.534	380.88
357.761	376.88
357.988	370.88
358.215	371.88
358.441	377.88
358.668	374.88
358.895	383.88
359.122	371.88
359.349	387.88
359.576	392.88
359.802	423.88
360.029	460.88
360.256	463.88
360.483	446.88
360.709	397.88
360.936	406.88
361.163	391.88
361.39	403.88
361.616	396.88
361.843	408.88
362.07	408.88
362.296	392.88
362.523	388.88
362.749	407.88
362.976	391.88
363.203	410.88
363.429	383.88
363.656	379.88
363.882	383.88
364.109	368.88
364.335	377.88
364.562	383.88
364.788	357.88
365.015	375.88
365.241	373.88
365.468	377.88
365.694	376.88
365.92	382.88
366.147	383.88
366.373	384.88
366.599	358.88
366.826	380.88
367.052	359.88
367.278	383.88
367.505	357.88
367.731	372.88
367.957	374.88
368.184	366.88
368.41	392.88
368.636	389.88
368.862	383.88
369.089	384.88
369.315	384.88
369.541	369.88
369.767	366.88
369.993	355.88
370.219	365.88
370.445	363.88
370.672	363.88
370.898	342.88
371.124	355.88
371.35	337.88
371.576	366.88
371.802	346.88
372.028	350.88
372.254	364.88
372.48	357.88
372.706	341.88
372.932	348.88
373.158	351.88
373.384	364.88
373.61	376.88
373.835	345.88
374.061	345.88
374.287	363.88
374.513	365.88
374.739	354.88
374.965	368.88
375.191	355.88
375.416	373.88
375.642	371.88
375.868	369.88
376.094	353.88
376.319	363.88
376.545	371.88
376.771	370.88
376.997	336.88
377.222	360.88
377.448	344.88
377.674	349.88
377.899	330.88
378.125	342.88
378.35	364.88
378.576	355.88
378.802	337.88
379.027	365.88
379.253	335.88
379.478	345.88
379.704	352.88
379.929	341.88
380.155	368.88
380.38	359.88
380.606	372.88
380.831	364.88
381.057	370.88
381.282	350.88
381.507	361.88
381.733	348.88
381.958	334.88
382.184	361.88
382.409	329.88
382.634	357.88
382.86	368.88
383.085	368.88
383.31	357.88
383.535	361.88
383.761	347.88
383.986	353.88
384.211	365.88
384.436	371.88
384.662	373.88
384.887	355.88
385.112	349.88
385.337	362.88
385.562	375.88
385.787	378.88
386.013	376.88
386.238	391.88
386.463	384.88
386.688	370.88
386.913	374.88
387.138	376.88
387.363	373.88
387.588	365.88
387.813	360.88
388.038	379.88
388.263	361.88
388.488	377.88
388.713	376.88
388.938	361.88
389.163	374.88
389.387	361.88
389.612	379.88
389.837	373.88
390.062	330.88
390.287	383.88
390.512	380.88
390.736	347.88
390.961	359.88
391.186	363.88
391.411	387.88
391.636	367.88
391.86	371.88
392.085	363.88
392.31	363.88
392.534	377.88
392.759	366.88
392.984	373.88
393.208	377.88
393.433	364.88
393.658	366.88
393.882	350.88
394.107	382.88
394.331	381.88
394.556	343.88
394.78	365.88
395.005	367.88
395.229	347.88
395.454	373.88
395.678	377.88
395.903	399.88
396.127	415.88
396.352	400.88
396.576	386.88
396.801	381.88
397.025	387.88
397.249	391.88
397.474	394.88
397.698	393.88
397.922	402.88
398.147	393.88
398.371	419.88
398.595	406.88
398.82	399.88
399.044	409.88
399.268	412.88
399.492	432.88
399.717	417.88
399.941	468.88
400.165	490.88
400.389	493.88
400.613	454.88
400.837	442.88
401.062	416.88
401.286	427.88
401.51	425.88
401.734	408.88
401.958	396.88
402.182	416.88
402.406	413.88
402.63	408.88
402.854	419.88
403.078	415.88
403.302	419.88
403.526	424.88
403.75	406.88
403.974	418.88
404.198	409.88
404.422	417.88
404.645	422.88
404.869	415.88
405.093	464.88
405.317	501.88
405.541	518.88
405.765	471.88
405.988	456.88
406.212	465.88
406.436	482.88
406.66	515.88
406.883	445.88
407.107	485.88
407.331	529.88
407.555	558.88
407.778	560.88
408.002	526.88
408.226	472.88
408.449	469.88
408.673	470.88
408.896	489.88
409.12	547.88
409.344	515.88
409.567	453.88
409.791	441.88
410.014	420.88
410.238	431.88
410.461	425.88
410.685	437.88
410.908	425.88
411.132	473.88
411.355	497.88
411.578	500.88
411.802	427.88
412.025	441.88
412.249	413.88
412.472	456.88
412.695	472.88
412.919	470.88
413.142	447.88
413.365	413.88
413.589	407.88
413.812	427.88
414.035	417.88
414.258	408.88
414.482	392.88
414.705	404.88
414.928	394.88
415.151	369.88
415.374	393.88
415.597	400.88
415.821	408.88
416.044	404.88
416.267	403.88
416.49	395.88
416.713	401.88
416.936	404.88
417.159	383.88
417.382	391.88
417.605	430.88
417.828	434.88
418.051	427.88
418.274	428.88
418.497	399.88
418.72	398.88
418.943	408.88
419.166	414.88
419.389	416.88
419.611	409.88
419.834	407.88
420.057	437.88
420.28	445.88
420.503	435.88
420.726	411.88
420.948	447.88
421.171	473.88
421.394	500.88
421.617	446.88
421.839	433.88
422.062	426.88
422.285	437.88
422.507	487.88
422.73	559.88
422.953	524.88
423.175	475.88
423.398	443.88
423.621	442.88
423.843	474.88
424.066	467.88
424.288	466.88
424.511	484.88
424.733	551.88
424.956	593.88
425.178	595.88
425.401	567.88
425.623	604.88
425.846	521.88
426.068	466.88
426.291	471.88
426.513	475.88
426.735	495.88
426.958	526.88
427.18	610.88
427.402	711.88
427.625	764.88
427.847	710.88
428.069	628.88
428.292	541.88
428.514	485.88
428.736	440.88
428.958	428.88
429.181	441.88
429.403	423.88
429.625	436.88
429.847	476.88
430.069	522.88
430.292	525.88
430.514	464.88
430.736	425.88
430.958	425.88
431.18	414.88
431.402	408.88
431.624	385.88
431.846	393.88
432.068	382.88
432.29	413.88
432.512	420.88
432.734	396.88
432.956	421.88
433.178	424.88
433.4	425.88
433.622	424.88
433.844	400.88
434.066	386.88
434.287	415.88
434.509	411.88
434.731	421.88
434.953	412.88
435.175	426.88
435.397	455.88
435.618	471.88
435.84	519.88
436.062	599.88
436.284	661.88
436.505	549.88
436.727	504.88
436.949	437.88
437.17	436.88
437.392	435.88
437.614	454.88
437.835	493.88
438.057	590.88
438.278	677.88
438.5	644.88
438.721	729.88
438.943	684.88
439.165	551.88
439.386	504.88
439.608	485.88
439.829	499.88
440.05	535.88
440.272	557.88
440.493	504.88
440.715	486.88
440.936	446.88
441.158	439.88
441.379	441.88
441.6	439.88
441.822	455.88
442.043	505.88
442.264	592.88
442.486	612.88
442.707	525.88
442.928	491.88
443.149	486.88
443.371	501.88
443.592	565.88
443.813	632.88
444.034	706.88
444.255	563.88
444.476	480.88
444.698	468.88
444.919	466.88
445.14	572.88
445.361	525.88
445.582	517.88
445.803	569.88
446.024	689.88
446.245	675.88
446.466	599.88
446.687	513.88
446.908	479.88
447.129	457.88
447.35	456.88
447.571	439.88
447.792	460.88
448.013	459.88
448.234	461.88
448.455	520.88
448.675	629.88
448.896	717.88
449.117	619.88
449.338	591.88
449.559	668.88
449.779	743.88
450	600.88
450.221	509.88
450.442	475.88
450.662	447.88
450.883	458.88
451.104	449.88
451.324	441.88
451.545	419.88
451.766	403.88
451.986	391.88
452.207	400.88
452.428	391.88
452.648	392.88
452.869	410.88
453.089	417.88
453.31	424.88
453.53	412.88
453.751	418.88
453.971	407.88
454.192	411.88
454.412	425.88
454.633	391.88
454.853	398.88
455.073	397.88
455.294	420.88
455.514	473.88
455.734	467.88
455.955	412.88
456.175	374.88
456.395	380.88
456.616	377.88
456.836	377.88
457.056	368.88
457.276	341.88
457.497	366.88
457.717	384.88
457.937	377.88
458.157	380.88
458.377	391.88
458.598	413.88
458.818	464.88
459.038	525.88
459.258	563.88
459.478	465.88
459.698	392.88
459.918	412.88
460.138	398.88
460.358	394.88
460.578	398.88
460.798	404.88
461.018	397.88
461.238	389.88
461.458	408.88
461.678	373.88
461.898	406.88
462.118	397.88
462.338	415.88
462.558	407.88
462.777	405.88
462.997	404.88
463.217	406.88
463.437	411.88
463.657	390.88
463.876	395.88
464.096	413.88
464.316	411.88
464.536	450.88
464.755	403.88
464.975	454.88
465.195	497.88
465.414	564.88
465.634	497.88
465.854	445.88
466.073	416.88
466.293	412.88
466.512	413.88
466.732	385.88
466.951	404.88
467.171	392.88
467.391	413.88
467.61	409.88
467.829	417.88
468.049	389.88
468.268	417.88
468.488	386.88
468.707	381.88
468.927	403.88
469.146	376.88
469.365	378.88
469.585	397.88
469.804	396.88
470.023	404.88
470.243	384.88
470.462	399.88
470.681	419.88
470.901	407.88
471.12	412.88
471.339	413.88
471.558	386.88
471.777	401.88
471.997	411.88
472.216	395.88
472.435	428.88
472.654	430.88
472.873	376.88
473.092	380.88
473.311	413.88
473.53	395.88
473.749	423.88
473.968	468.88
474.187	567.88
474.406	581.88
474.625	479.88
474.844	429.88
475.063	436.88
475.282	382.88
475.501	394.88
475.72	430.88
475.939	399.88
476.158	414.88
476.377	385.88
476.596	402.88
476.814	407.88
477.033	398.88
477.252	420.88
477.471	419.88
477.69	416.88
477.908	429.88
478.127	415.88
478.346	443.88
478.564	460.88
478.783	442.88
479.002	444.88
479.22	451.88
479.439	463.88
479.658	483.88
479.876	479.88
480.095	476.88
480.313	514.88
480.532	477.88
480.751	484.88
480.969	497.88
481.188	556.88
481.406	597.88
481.624	530.88
481.843	494.88
482.061	473.88
482.28	469.88
482.498	464.88
482.717	458.88
482.935	461.88
483.153	451.88
483.372	450.88
483.59	444.88
483.808	448.88
484.027	470.88
484.245	461.88
484.463	466.88
484.681	452.88
484.9	463.88
485.118	468.88
485.336	473.88
485.554	469.88
485.772	463.88
485.99	488.88
486.209	483.88
486.427	492.88
486.645	481.88
486.863	510.88
487.081	528.88
487.299	509.88
487.517	504.88
487.735	505.88
487.953	503.88
488.171	521.88
488.389	504.88
488.607	502.88
488.825	497.88
489.043	502.88
489.261	516.88
489.479	521.88
489.696	492.88
489.914	510.88
490.132	512.88
490.35	511.88
490.568	521.88
490.786	530.88
491.003	544.88
491.221	544.88
491.439	569.88
491.657	559.88
491.874	579.88
492.092	579.88
492.31	581.88
492.527	579.88
492.745	576.88
492.963	586.88
493.18	588.88
493.398	590.88
493.615	574.88
493.833	571.88
494.05	590.88
494.268	596.88
494.485	568.88
494.703	583.88
494.92	578.88
495.138	585.88
495.355	597.88
495.573	602.88
495.79	599.88
496.008	594.88
496.225	580.88
496.442	596.88
496.66	601.88
496.877	610.88
497.094	601.88
497.312	607.88
497.529	619.88
497.746	621.88
497.963	629.88
498.181	618.88
498.398	627.88
498.615	636.88
498.832	655.88
499.049	645.88
499.267	627.88
499.484	659.88
499.701	698.88
499.918	693.88
500.135	712.88
500.352	712.88
500.569	730.88
500.786	736.88
501.003	739.88
501.22	709.88
501.437	721.88
501.654	713.88
501.871	749.88
