Data from 1981.PennyLincolnUp.Lamp.En5.5.200Scan.071819.P1_HRD10591_16-43-11-960.txt Node
Date: Thu Jul 18 16:43:11 EDT 2019
User: cochatt
Spectrometer: HR+D1059
Trigger mode: 1
Integration Time (sec): 1.000000E-1
Scans to average: 1
Electric dark correction enabled: true
Nonlinearity correction enabled: false
Boxcar width: 0
XAxis mode: Wavelengths
Number of Pixels in Spectrum: 2048
>>>>>Begin Spectral Data<<<<<
223.165	-4.44
223.4	-4.44
223.635	-4.44
223.869	-24.44
224.104	-11.44
224.338	-17.44
224.573	-4.44
224.808	-19.44
225.042	-14.44
225.277	-5.44
225.511	-0.44
225.746	0.56
225.98	9.56
226.215	5.56
226.449	10.56
226.683	28.56
226.918	20.56
227.152	26.56
227.387	38.56
227.621	33.56
227.856	28.56
228.09	49.56
228.324	49.56
228.559	44.56
228.793	85.56
229.027	104.56
229.262	117.56
229.496	112.56
229.73	133.56
229.964	154.56
230.199	135.56
230.433	112.56
230.667	134.56
230.901	117.56
231.136	109.56
231.37	112.56
231.604	108.56
231.838	116.56
232.072	121.56
232.306	120.56
232.541	115.56
232.775	118.56
233.009	106.56
233.243	102.56
233.477	122.56
233.711	117.56
233.945	120.56
234.179	120.56
234.413	110.56
234.647	120.56
234.881	112.56
235.115	118.56
235.349	134.56
235.583	117.56
235.817	130.56
236.051	126.56
236.285	140.56
236.519	122.56
236.753	144.56
236.987	154.56
237.221	186.56
237.455	239.56
237.689	198.56
237.922	144.56
238.156	142.56
238.39	134.56
238.624	136.56
238.858	137.56
239.091	125.56
239.325	130.56
239.559	128.56
239.793	124.56
240.027	137.56
240.26	140.56
240.494	147.56
240.728	161.56
240.961	147.56
241.195	140.56
241.429	142.56
241.662	157.56
241.896	140.56
242.13	144.56
242.363	152.56
242.597	136.56
242.83	136.56
243.064	164.56
243.298	141.56
243.531	135.56
243.765	144.56
243.998	143.56
244.232	150.56
244.465	146.56
244.699	157.56
244.932	155.56
245.166	145.56
245.399	161.56
245.633	152.56
245.866	148.56
246.099	153.56
246.333	157.56
246.566	139.56
246.8	142.56
247.033	168.56
247.266	162.56
247.5	174.56
247.733	167.56
247.966	174.56
248.2	195.56
248.433	184.56
248.666	195.56
248.899	190.56
249.133	223.56
249.366	232.56
249.599	229.56
249.832	206.56
250.066	203.56
250.299	181.56
250.532	204.56
250.765	218.56
250.998	215.56
251.231	248.56
251.465	221.56
251.698	230.56
251.931	209.56
252.164	217.56
252.397	213.56
252.63	219.56
252.863	228.56
253.096	233.56
253.329	238.56
253.562	272.56
253.795	241.56
254.028	233.56
254.261	226.56
254.494	260.56
254.727	280.56
254.96	322.56
255.193	312.56
255.426	281.56
255.659	266.56
255.892	262.56
256.124	264.56
256.357	253.56
256.59	234.56
256.823	235.56
257.056	228.56
257.289	222.56
257.521	218.56
257.754	231.56
257.987	217.56
258.22	229.56
258.452	222.56
258.685	226.56
258.918	217.56
259.151	228.56
259.383	228.56
259.616	249.56
259.849	248.56
260.081	251.56
260.314	273.56
260.547	283.56
260.779	251.56
261.012	271.56
261.244	256.56
261.477	241.56
261.71	264.56
261.942	259.56
262.175	237.56
262.407	244.56
262.64	228.56
262.872	232.56
263.105	224.56
263.337	218.56
263.57	246.56
263.802	220.56
264.035	210.56
264.267	224.56
264.499	231.56
264.732	231.56
264.964	206.56
265.197	209.56
265.429	242.56
265.661	239.56
265.894	208.56
266.126	230.56
266.358	230.56
266.591	241.56
266.823	240.56
267.055	244.56
267.287	237.56
267.52	245.56
267.752	246.56
267.984	236.56
268.216	245.56
268.448	233.56
268.681	254.56
268.913	264.56
269.145	269.56
269.377	274.56
269.609	292.56
269.841	301.56
270.073	285.56
270.306	298.56
270.538	339.56
270.77	345.56
271.002	344.56
271.234	326.56
271.466	340.56
271.698	331.56
271.93	345.56
272.162	339.56
272.394	359.56
272.626	346.56
272.858	300.56
273.09	290.56
273.322	295.56
273.553	294.56
273.785	288.56
274.017	284.56
274.249	291.56
274.481	273.56
274.713	287.56
274.945	296.56
275.176	279.56
275.408	277.56
275.64	273.56
275.872	279.56
276.104	294.56
276.335	300.56
276.567	317.56
276.799	306.56
277.031	321.56
277.262	346.56
277.494	333.56
277.726	324.56
277.957	280.56
278.189	296.56
278.421	284.56
278.652	280.56
278.884	287.56
279.115	275.56
279.347	263.56
279.579	300.56
279.81	269.56
280.042	276.56
280.273	282.56
280.505	293.56
280.736	282.56
280.968	273.56
281.199	276.56
281.431	264.56
281.662	280.56
281.894	278.56
282.125	272.56
282.356	277.56
282.588	337.56
282.819	326.56
283.051	295.56
283.282	263.56
283.513	280.56
283.745	300.56
283.976	295.56
284.207	288.56
284.439	302.56
284.67	273.56
284.901	290.56
285.132	285.56
285.364	287.56
285.595	274.56
285.826	280.56
286.057	292.56
286.288	285.56
286.52	269.56
286.751	278.56
286.982	286.56
287.213	291.56
287.444	299.56
287.675	283.56
287.906	297.56
288.138	333.56
288.369	313.56
288.6	325.56
288.831	310.56
289.062	290.56
289.293	305.56
289.524	308.56
289.755	290.56
289.986	283.56
290.217	310.56
290.448	293.56
290.679	291.56
290.91	295.56
291.141	287.56
291.371	298.56
291.602	302.56
291.833	289.56
292.064	301.56
292.295	274.56
292.526	308.56
292.757	283.56
292.987	282.56
293.218	298.56
293.449	276.56
293.68	284.56
293.91	309.56
294.141	304.56
294.372	276.56
294.603	294.56
294.833	289.56
295.064	301.56
295.295	303.56
295.525	302.56
295.756	318.56
295.987	301.56
296.217	346.56
296.448	342.56
296.679	329.56
296.909	310.56
297.14	289.56
297.37	302.56
297.601	299.56
297.831	299.56
298.062	296.56
298.292	322.56
298.523	320.56
298.753	312.56
298.984	299.56
299.214	314.56
299.445	320.56
299.675	326.56
299.905	308.56
300.136	295.56
300.366	286.56
300.597	322.56
300.827	328.56
301.057	327.56
301.288	334.56
301.518	341.56
301.748	339.56
301.979	340.56
302.209	330.56
302.439	321.56
302.669	328.56
302.9	336.56
303.13	340.56
303.36	330.56
303.59	338.56
303.82	353.56
304.051	336.56
304.281	324.56
304.511	333.56
304.741	342.56
304.971	321.56
305.201	330.56
305.431	323.56
305.661	334.56
305.891	327.56
306.121	327.56
306.352	337.56
306.582	331.56
306.812	343.56
307.042	332.56
307.272	346.56
307.502	350.56
307.731	340.56
307.961	342.56
308.191	344.56
308.421	317.56
308.651	321.56
308.881	338.56
309.111	351.56
309.341	350.56
309.571	357.56
309.8	359.56
310.03	393.56
310.26	388.56
310.49	391.56
310.72	400.56
310.949	406.56
311.179	410.56
311.409	385.56
311.639	401.56
311.868	402.56
312.098	390.56
312.328	417.56
312.557	407.56
312.787	445.56
313.017	433.56
313.246	416.56
313.476	399.56
313.706	385.56
313.935	398.56
314.165	422.56
314.394	413.56
314.624	414.56
314.853	415.56
315.083	394.56
315.312	380.56
315.542	382.56
315.771	384.56
316.001	395.56
316.23	379.56
316.46	389.56
316.689	399.56
316.919	397.56
317.148	405.56
317.377	418.56
317.607	380.56
317.836	369.56
318.065	370.56
318.295	395.56
318.524	392.56
318.753	394.56
318.983	384.56
319.212	383.56
319.441	410.56
319.67	407.56
319.9	406.56
320.129	406.56
320.358	398.56
320.587	401.56
320.816	412.56
321.046	440.56
321.275	415.56
321.504	414.56
321.733	427.56
321.962	423.56
322.191	441.56
322.42	476.56
322.649	464.56
322.878	493.56
323.108	522.56
323.337	525.56
323.566	576.56
323.795	622.56
324.024	669.56
324.253	855.56
324.482	1227.56
324.71	1879.56
324.939	2562.56
325.168	2160.56
325.397	1129.56
325.626	750.56
325.855	648.56
326.084	582.56
326.313	554.56
326.542	565.56
326.77	613.56
326.999	732.56
327.228	1059.56
327.457	1619.56
327.686	1921.56
327.914	1234.56
328.143	844.56
328.372	739.56
328.6	664.56
328.829	636.56
329.058	661.56
329.287	645.56
329.515	616.56
329.744	560.56
329.972	584.56
330.201	576.56
330.43	620.56
330.658	679.56
330.887	693.56
331.115	682.56
331.344	561.56
331.572	528.56
331.801	530.56
332.03	515.56
332.258	496.56
332.486	499.56
332.715	454.56
332.943	470.56
333.172	474.56
333.4	452.56
333.629	465.56
333.857	481.56
334.085	487.56
334.314	490.56
334.542	546.56
334.771	548.56
334.999	504.56
335.227	471.56
335.455	444.56
335.684	472.56
335.912	429.56
336.14	450.56
336.369	443.56
336.597	465.56
336.825	465.56
337.053	424.56
337.281	445.56
337.51	434.56
337.738	435.56
337.966	450.56
338.194	439.56
338.422	448.56
338.65	448.56
338.878	444.56
339.106	422.56
339.334	412.56
339.562	426.56
339.79	418.56
340.018	420.56
340.246	436.56
340.474	425.56
340.702	432.56
340.93	442.56
341.158	427.56
341.386	433.56
341.614	451.56
341.842	432.56
342.07	416.56
342.298	406.56
342.526	398.56
342.754	384.56
342.981	408.56
343.209	407.56
343.437	423.56
343.665	406.56
343.893	422.56
344.12	422.56
344.348	425.56
344.576	407.56
344.804	453.56
345.031	457.56
345.259	473.56
345.487	436.56
345.714	442.56
345.942	427.56
346.17	426.56
346.397	401.56
346.625	430.56
346.853	438.56
347.08	406.56
347.308	440.56
347.535	440.56
347.763	419.56
347.99	414.56
348.218	421.56
348.445	431.56
348.673	444.56
348.9	427.56
349.128	421.56
349.355	416.56
349.583	384.56
349.81	399.56
350.037	382.56
350.265	406.56
350.492	389.56
350.72	386.56
350.947	412.56
351.174	408.56
351.402	420.56
351.629	421.56
351.856	412.56
352.083	401.56
352.311	446.56
352.538	431.56
352.765	444.56
352.992	430.56
353.22	411.56
353.447	418.56
353.674	392.56
353.901	390.56
354.128	386.56
354.355	384.56
354.583	377.56
354.81	372.56
355.037	372.56
355.264	367.56
355.491	361.56
355.718	362.56
355.945	370.56
356.172	374.56
356.399	378.56
356.626	368.56
356.853	360.56
357.08	354.56
357.307	364.56
357.534	378.56
357.761	346.56
357.988	361.56
358.215	376.56
358.441	356.56
358.668	365.56
358.895	378.56
359.122	396.56
359.349	394.56
359.576	409.56
359.802	445.56
360.029	461.56
360.256	462.56
360.483	442.56
360.709	418.56
360.936	416.56
361.163	410.56
361.39	417.56
361.616	408.56
361.843	396.56
362.07	405.56
362.296	419.56
362.523	416.56
362.749	402.56
362.976	408.56
363.203	393.56
363.429	383.56
363.656	366.56
363.882	400.56
364.109	379.56
364.335	372.56
364.562	382.56
364.788	381.56
365.015	381.56
365.241	373.56
365.468	375.56
365.694	383.56
365.92	368.56
366.147	381.56
366.373	382.56
366.599	381.56
366.826	381.56
367.052	361.56
367.278	362.56
367.505	377.56
367.731	382.56
367.957	396.56
368.184	376.56
368.41	394.56
368.636	412.56
368.862	390.56
369.089	373.56
369.315	380.56
369.541	368.56
369.767	350.56
369.993	379.56
370.219	358.56
370.445	367.56
370.672	362.56
370.898	365.56
371.124	354.56
371.35	354.56
371.576	364.56
371.802	370.56
372.028	374.56
372.254	363.56
372.48	350.56
372.706	348.56
372.932	360.56
373.158	368.56
373.384	373.56
373.61	356.56
373.835	366.56
374.061	361.56
374.287	361.56
374.513	366.56
374.739	364.56
374.965	381.56
375.191	363.56
375.416	361.56
375.642	370.56
375.868	364.56
376.094	366.56
376.319	361.56
376.545	349.56
376.771	352.56
376.997	343.56
377.222	372.56
377.448	342.56
377.674	352.56
377.899	352.56
378.125	359.56
378.35	349.56
378.576	357.56
378.802	368.56
379.027	359.56
379.253	358.56
379.478	347.56
379.704	336.56
379.929	349.56
380.155	349.56
380.38	341.56
380.606	333.56
380.831	354.56
381.057	348.56
381.282	368.56
381.507	351.56
381.733	357.56
381.958	342.56
382.184	363.56
382.409	374.56
382.634	368.56
382.86	337.56
383.085	363.56
383.31	350.56
383.535	358.56
383.761	357.56
383.986	358.56
384.211	349.56
384.436	375.56
384.662	377.56
384.887	342.56
385.112	358.56
385.337	352.56
385.562	362.56
385.787	363.56
386.013	378.56
386.238	374.56
386.463	380.56
386.688	369.56
386.913	361.56
387.138	369.56
387.363	380.56
387.588	372.56
387.813	367.56
388.038	372.56
388.263	363.56
388.488	365.56
388.713	362.56
388.938	370.56
389.163	384.56
389.387	372.56
389.612	369.56
389.837	363.56
390.062	377.56
390.287	364.56
390.512	354.56
390.736	342.56
390.961	345.56
391.186	363.56
391.411	365.56
391.636	369.56
391.86	351.56
392.085	364.56
392.31	360.56
392.534	362.56
392.759	389.56
392.984	362.56
393.208	371.56
393.433	378.56
393.658	358.56
393.882	368.56
394.107	373.56
394.331	368.56
394.556	374.56
394.78	346.56
395.005	378.56
395.229	374.56
395.454	373.56
395.678	362.56
395.903	402.56
396.127	383.56
396.352	410.56
396.576	384.56
396.801	372.56
397.025	376.56
397.249	382.56
397.474	395.56
397.698	390.56
397.922	413.56
398.147	416.56
398.371	403.56
398.595	394.56
398.82	408.56
399.044	404.56
399.268	418.56
399.492	430.56
399.717	438.56
399.941	451.56
400.165	486.56
400.389	504.56
400.613	465.56
400.837	421.56
401.062	410.56
401.286	423.56
401.51	405.56
401.734	386.56
401.958	428.56
402.182	426.56
402.406	433.56
402.63	425.56
402.854	403.56
403.078	428.56
403.302	418.56
403.526	429.56
403.75	436.56
403.974	430.56
404.198	409.56
404.422	430.56
404.645	433.56
404.869	436.56
405.093	463.56
405.317	492.56
405.541	524.56
405.765	487.56
405.988	472.56
406.212	466.56
406.436	481.56
406.66	471.56
406.883	444.56
407.107	480.56
407.331	515.56
407.555	570.56
407.778	562.56
408.002	514.56
408.226	472.56
408.449	473.56
408.673	464.56
408.896	486.56
409.12	544.56
409.344	484.56
409.567	451.56
409.791	448.56
410.014	428.56
410.238	409.56
410.461	423.56
410.685	423.56
410.908	451.56
411.132	474.56
411.355	516.56
411.578	480.56
411.802	440.56
412.025	421.56
412.249	447.56
412.472	446.56
412.695	513.56
412.919	478.56
413.142	440.56
413.365	434.56
413.589	402.56
413.812	390.56
414.035	397.56
414.258	407.56
414.482	383.56
414.705	388.56
414.928	384.56
415.151	366.56
415.374	390.56
415.597	382.56
415.821	397.56
416.044	409.56
416.267	411.56
416.49	405.56
416.713	405.56
416.936	383.56
417.159	411.56
417.382	402.56
417.605	411.56
417.828	415.56
418.051	425.56
418.274	409.56
418.497	406.56
418.72	412.56
418.943	402.56
419.166	421.56
419.389	422.56
419.611	440.56
419.834	422.56
420.057	421.56
420.28	422.56
420.503	417.56
420.726	428.56
420.948	446.56
421.171	460.56
421.394	505.56
421.617	440.56
421.839	425.56
422.062	444.56
422.285	444.56
422.507	485.56
422.73	543.56
422.953	548.56
423.175	479.56
423.398	454.56
423.621	462.56
423.843	445.56
424.066	439.56
424.288	472.56
424.511	471.56
424.733	524.56
424.956	604.56
425.178	560.56
425.401	573.56
425.623	608.56
425.846	504.56
426.068	474.56
426.291	487.56
426.513	464.56
426.735	460.56
426.958	506.56
427.18	616.56
427.402	697.56
427.625	761.56
427.847	673.56
428.069	615.56
428.292	543.56
428.514	493.56
428.736	448.56
428.958	446.56
429.181	426.56
429.403	462.56
429.625	440.56
429.847	476.56
430.069	539.56
430.292	538.56
430.514	453.56
430.736	459.56
430.958	439.56
431.18	418.56
431.402	409.56
431.624	388.56
431.846	392.56
432.068	410.56
432.29	409.56
432.512	421.56
432.734	421.56
432.956	420.56
433.178	424.56
433.4	418.56
433.622	381.56
433.844	419.56
434.066	414.56
434.287	426.56
434.509	394.56
434.731	395.56
434.953	410.56
435.175	419.56
435.397	465.56
435.618	482.56
435.84	497.56
436.062	600.56
436.284	648.56
436.505	539.56
436.727	502.56
436.949	459.56
437.17	440.56
437.392	443.56
437.614	465.56
437.835	520.56
438.057	576.56
438.278	666.56
438.5	656.56
438.721	721.56
438.943	665.56
439.165	554.56
439.386	506.56
439.608	485.56
439.829	487.56
440.05	524.56
440.272	560.56
440.493	521.56
440.715	476.56
440.936	460.56
441.158	468.56
441.379	437.56
441.6	444.56
441.822	456.56
442.043	505.56
442.264	578.56
442.486	620.56
442.707	511.56
442.928	508.56
443.149	498.56
443.371	518.56
443.592	548.56
443.813	638.56
444.034	680.56
444.255	545.56
444.476	484.56
444.698	473.56
444.919	465.56
445.14	561.56
445.361	548.56
445.582	516.56
445.803	578.56
446.024	684.56
446.245	682.56
446.466	621.56
446.687	512.56
446.908	465.56
447.129	465.56
447.35	438.56
447.571	442.56
447.792	455.56
448.013	437.56
448.234	478.56
448.455	525.56
448.675	611.56
448.896	713.56
449.117	595.56
449.338	580.56
449.559	660.56
449.779	745.56
450	596.56
450.221	499.56
450.442	473.56
450.662	448.56
450.883	463.56
451.104	461.56
451.324	443.56
451.545	429.56
451.766	416.56
451.986	398.56
452.207	399.56
452.428	398.56
452.648	401.56
452.869	401.56
453.089	401.56
453.31	399.56
453.53	411.56
453.751	383.56
453.971	389.56
454.192	417.56
454.412	410.56
454.633	412.56
454.853	392.56
455.073	396.56
455.294	430.56
455.514	504.56
455.734	455.56
455.955	401.56
456.175	352.56
456.395	353.56
456.616	364.56
456.836	354.56
457.056	347.56
457.276	353.56
457.497	362.56
457.717	358.56
457.937	365.56
458.157	378.56
458.377	386.56
458.598	396.56
458.818	480.56
459.038	550.56
459.258	536.56
459.478	455.56
459.698	422.56
459.918	402.56
460.138	391.56
460.358	401.56
460.578	396.56
460.798	387.56
461.018	392.56
461.238	397.56
461.458	380.56
461.678	381.56
461.898	401.56
462.118	369.56
462.338	403.56
462.558	381.56
462.777	395.56
462.997	429.56
463.217	403.56
463.437	417.56
463.657	400.56
463.876	406.56
464.096	436.56
464.316	405.56
464.536	422.56
464.755	430.56
464.975	421.56
465.195	476.56
465.414	574.56
465.634	480.56
465.854	442.56
466.073	414.56
466.293	412.56
466.512	398.56
466.732	394.56
466.951	390.56
467.171	391.56
467.391	396.56
467.61	401.56
467.829	428.56
468.049	408.56
468.268	408.56
468.488	404.56
468.707	372.56
468.927	378.56
469.146	373.56
469.365	370.56
469.585	369.56
469.804	381.56
470.023	410.56
470.243	397.56
470.462	420.56
470.681	417.56
470.901	412.56
471.12	408.56
471.339	397.56
471.558	400.56
471.777	377.56
471.997	382.56
472.216	394.56
472.435	442.56
472.654	418.56
472.873	406.56
473.092	393.56
473.311	413.56
473.53	400.56
473.749	420.56
473.968	443.56
474.187	563.56
474.406	576.56
474.625	469.56
474.844	420.56
475.063	404.56
475.282	408.56
475.501	406.56
475.72	406.56
475.939	408.56
476.158	410.56
476.377	412.56
476.596	399.56
476.814	405.56
477.033	408.56
477.252	417.56
477.471	408.56
477.69	421.56
477.908	428.56
478.127	413.56
478.346	397.56
478.564	433.56
478.783	453.56
479.002	446.56
479.22	454.56
479.439	464.56
479.658	450.56
479.876	478.56
480.095	473.56
480.313	488.56
480.532	501.56
480.751	480.56
480.969	495.56
481.188	546.56
481.406	596.56
481.624	517.56
481.843	489.56
482.061	472.56
482.28	458.56
482.498	469.56
482.717	472.56
482.935	472.56
483.153	466.56
483.372	458.56
483.59	458.56
483.808	464.56
484.027	466.56
484.245	465.56
484.463	482.56
484.681	456.56
484.9	449.56
485.118	469.56
485.336	472.56
485.554	479.56
485.772	478.56
485.99	479.56
486.209	475.56
486.427	485.56
486.645	506.56
486.863	527.56
487.081	512.56
487.299	494.56
487.517	500.56
487.735	502.56
487.953	500.56
488.171	484.56
488.389	502.56
488.607	522.56
488.825	498.56
489.043	479.56
489.261	520.56
489.479	495.56
489.696	512.56
489.914	500.56
490.132	506.56
490.35	502.56
490.568	538.56
490.786	518.56
491.003	534.56
491.221	549.56
491.439	556.56
491.657	586.56
491.874	576.56
492.092	572.56
492.31	573.56
492.527	562.56
492.745	570.56
492.963	582.56
493.18	569.56
493.398	583.56
493.615	606.56
493.833	582.56
494.05	610.56
494.268	598.56
494.485	593.56
494.703	581.56
494.92	571.56
495.138	591.56
495.355	620.56
495.573	600.56
495.79	582.56
496.008	594.56
496.225	610.56
496.442	594.56
496.66	609.56
496.877	578.56
497.094	598.56
497.312	584.56
497.529	610.56
497.746	603.56
497.963	622.56
498.181	639.56
498.398	636.56
498.615	649.56
498.832	653.56
499.049	629.56
499.267	651.56
499.484	643.56
499.701	673.56
499.918	669.56
500.135	689.56
500.352	726.56
500.569	716.56
500.786	733.56
501.003	717.56
501.22	719.56
501.437	707.56
501.654	717.56
501.871	709.56
