Data from 1981.PennyLincolnUp.Lamp.En5.5.200Scan.071819.P1_HRD10591_16-41-34-961.txt Node
Date: Thu Jul 18 16:41:34 EDT 2019
User: cochatt
Spectrometer: HR+D1059
Trigger mode: 1
Integration Time (sec): 1.000000E-1
Scans to average: 1
Electric dark correction enabled: true
Nonlinearity correction enabled: false
Boxcar width: 0
XAxis mode: Wavelengths
Number of Pixels in Spectrum: 2048
>>>>>Begin Spectral Data<<<<<
223.165	-28.94
223.4	-28.94
223.635	-28.94
223.869	-20.94
224.104	-17.94
224.338	-18.94
224.573	-6.94
224.808	-11.94
225.042	-2.94
225.277	-0.94
225.511	-3.94
225.746	-1.94
225.98	19.06
226.215	1.06
226.449	14.06
226.683	16.06
226.918	29.06
227.152	36.06
227.387	38.06
227.621	36.06
227.856	43.06
228.09	53.06
228.324	45.06
228.559	57.06
228.793	51.06
229.027	96.06
229.262	99.06
229.496	110.06
229.73	124.06
229.964	152.06
230.199	147.06
230.433	119.06
230.667	119.06
230.901	92.06
231.136	106.06
231.37	112.06
231.604	104.06
231.838	117.06
232.072	117.06
232.306	115.06
232.541	117.06
232.775	114.06
233.009	118.06
233.243	107.06
233.477	113.06
233.711	119.06
233.945	103.06
234.179	116.06
234.413	115.06
234.647	113.06
234.881	100.06
235.115	125.06
235.349	105.06
235.583	116.06
235.817	111.06
236.051	128.06
236.285	125.06
236.519	126.06
236.753	138.06
236.987	161.06
237.221	177.06
237.455	210.06
237.689	188.06
237.922	139.06
238.156	132.06
238.39	121.06
238.624	126.06
238.858	132.06
239.091	132.06
239.325	130.06
239.559	115.06
239.793	137.06
240.027	125.06
240.26	139.06
240.494	161.06
240.728	148.06
240.961	176.06
241.195	147.06
241.429	141.06
241.662	129.06
241.896	123.06
242.13	145.06
242.363	132.06
242.597	137.06
242.83	145.06
243.064	134.06
243.298	126.06
243.531	125.06
243.765	131.06
243.998	136.06
244.232	129.06
244.465	145.06
244.699	134.06
244.932	148.06
245.166	129.06
245.399	130.06
245.633	137.06
245.866	150.06
246.099	153.06
246.333	158.06
246.566	149.06
246.8	134.06
247.033	157.06
247.266	150.06
247.5	173.06
247.733	151.06
247.966	166.06
248.2	182.06
248.433	174.06
248.666	194.06
248.899	205.06
249.133	201.06
249.366	204.06
249.599	204.06
249.832	200.06
250.066	197.06
250.299	196.06
250.532	184.06
250.765	195.06
250.998	232.06
251.231	230.06
251.465	201.06
251.698	216.06
251.931	187.06
252.164	210.06
252.397	196.06
252.63	189.06
252.863	219.06
253.096	226.06
253.329	231.06
253.562	238.06
253.795	227.06
254.028	220.06
254.261	219.06
254.494	237.06
254.727	266.06
254.96	289.06
255.193	293.06
255.426	262.06
255.659	242.06
255.892	230.06
256.124	241.06
256.357	243.06
256.59	243.06
256.823	231.06
257.056	229.06
257.289	229.06
257.521	210.06
257.754	224.06
257.987	224.06
258.22	211.06
258.452	206.06
258.685	206.06
258.918	210.06
259.151	217.06
259.383	219.06
259.616	245.06
259.849	225.06
260.081	243.06
260.314	263.06
260.547	278.06
260.779	250.06
261.012	264.06
261.244	230.06
261.477	236.06
261.71	221.06
261.942	244.06
262.175	235.06
262.407	238.06
262.64	211.06
262.872	217.06
263.105	220.06
263.337	232.06
263.57	225.06
263.802	235.06
264.035	228.06
264.267	228.06
264.499	237.06
264.732	224.06
264.964	217.06
265.197	206.06
265.429	215.06
265.661	213.06
265.894	218.06
266.126	222.06
266.358	214.06
266.591	229.06
266.823	238.06
267.055	250.06
267.287	236.06
267.52	231.06
267.752	242.06
267.984	198.06
268.216	223.06
268.448	245.06
268.681	240.06
268.913	260.06
269.145	253.06
269.377	260.06
269.609	275.06
269.841	300.06
270.073	282.06
270.306	310.06
270.538	322.06
270.77	314.06
271.002	295.06
271.234	290.06
271.466	315.06
271.698	324.06
271.93	330.06
272.162	331.06
272.394	318.06
272.626	308.06
272.858	298.06
273.09	294.06
273.322	289.06
273.553	277.06
273.785	277.06
274.017	279.06
274.249	269.06
274.481	290.06
274.713	259.06
274.945	265.06
275.176	270.06
275.408	271.06
275.64	277.06
275.872	287.06
276.104	275.06
276.335	257.06
276.567	274.06
276.799	295.06
277.031	324.06
277.262	315.06
277.494	307.06
277.726	305.06
277.957	309.06
278.189	290.06
278.421	282.06
278.652	258.06
278.884	274.06
279.115	283.06
279.347	276.06
279.579	277.06
279.81	266.06
280.042	272.06
280.273	269.06
280.505	251.06
280.736	269.06
280.968	278.06
281.199	238.06
281.431	257.06
281.662	285.06
281.894	271.06
282.125	275.06
282.356	276.06
282.588	321.06
282.819	325.06
283.051	285.06
283.282	270.06
283.513	284.06
283.745	270.06
283.976	286.06
284.207	282.06
284.439	291.06
284.67	266.06
284.901	283.06
285.132	286.06
285.364	278.06
285.595	278.06
285.826	265.06
286.057	283.06
286.288	258.06
286.52	283.06
286.751	263.06
286.982	265.06
287.213	270.06
287.444	282.06
287.675	294.06
287.906	281.06
288.138	284.06
288.369	298.06
288.6	316.06
288.831	302.06
289.062	299.06
289.293	307.06
289.524	288.06
289.755	295.06
289.986	289.06
290.217	287.06
290.448	261.06
290.679	282.06
290.91	275.06
291.141	285.06
291.371	287.06
291.602	283.06
291.833	276.06
292.064	281.06
292.295	297.06
292.526	298.06
292.757	280.06
292.987	300.06
293.218	295.06
293.449	291.06
293.68	287.06
293.91	297.06
294.141	290.06
294.372	265.06
294.603	285.06
294.833	294.06
295.064	277.06
295.295	279.06
295.525	282.06
295.756	276.06
295.987	303.06
296.217	315.06
296.448	348.06
296.679	301.06
296.909	297.06
297.14	295.06
297.37	306.06
297.601	317.06
297.831	306.06
298.062	299.06
298.292	293.06
298.523	310.06
298.753	329.06
298.984	307.06
299.214	295.06
299.445	314.06
299.675	289.06
299.905	315.06
300.136	316.06
300.366	295.06
300.597	286.06
300.827	315.06
301.057	322.06
301.288	329.06
301.518	323.06
301.748	325.06
301.979	300.06
302.209	324.06
302.439	330.06
302.669	326.06
302.9	322.06
303.13	321.06
303.36	324.06
303.59	338.06
303.82	344.06
304.051	316.06
304.281	331.06
304.511	309.06
304.741	327.06
304.971	315.06
305.201	320.06
305.431	319.06
305.661	316.06
305.891	317.06
306.121	320.06
306.352	326.06
306.582	331.06
306.812	338.06
307.042	317.06
307.272	329.06
307.502	315.06
307.731	331.06
307.961	343.06
308.191	342.06
308.421	325.06
308.651	333.06
308.881	359.06
309.111	347.06
309.341	340.06
309.571	355.06
309.8	343.06
310.03	371.06
310.26	370.06
310.49	354.06
310.72	387.06
310.949	412.06
311.179	407.06
311.409	381.06
311.639	376.06
311.868	379.06
312.098	389.06
312.328	391.06
312.557	417.06
312.787	409.06
313.017	398.06
313.246	382.06
313.476	387.06
313.706	379.06
313.935	369.06
314.165	416.06
314.394	406.06
314.624	403.06
314.853	400.06
315.083	367.06
315.312	367.06
315.542	372.06
315.771	363.06
316.001	377.06
316.23	383.06
316.46	380.06
316.689	377.06
316.919	390.06
317.148	400.06
317.377	379.06
317.607	379.06
317.836	377.06
318.065	377.06
318.295	382.06
318.524	372.06
318.753	355.06
318.983	369.06
319.212	380.06
319.441	397.06
319.67	401.06
319.9	387.06
320.129	379.06
320.358	388.06
320.587	390.06
320.816	404.06
321.046	404.06
321.275	383.06
321.504	386.06
321.733	392.06
321.962	427.06
322.191	434.06
322.42	467.06
322.649	444.06
322.878	470.06
323.108	474.06
323.337	530.06
323.566	548.06
323.795	583.06
324.024	663.06
324.253	801.06
324.482	1085.06
324.71	1683.06
324.939	2321.06
325.168	1978.06
325.397	1057.06
325.626	697.06
325.855	589.06
326.084	539.06
326.313	543.06
326.542	557.06
326.77	586.06
326.999	718.06
327.228	998.06
327.457	1452.06
327.686	1721.06
327.914	1137.06
328.143	782.06
328.372	669.06
328.6	601.06
328.829	602.06
329.058	629.06
329.287	609.06
329.515	563.06
329.744	521.06
329.972	536.06
330.201	538.06
330.43	587.06
330.658	586.06
330.887	649.06
331.115	605.06
331.344	548.06
331.572	510.06
331.801	490.06
332.03	472.06
332.258	475.06
332.486	461.06
332.715	439.06
332.943	447.06
333.172	439.06
333.4	455.06
333.629	446.06
333.857	471.06
334.085	471.06
334.314	483.06
334.542	517.06
334.771	497.06
334.999	498.06
335.227	460.06
335.455	435.06
335.684	452.06
335.912	437.06
336.14	421.06
336.369	419.06
336.597	430.06
336.825	423.06
337.053	415.06
337.281	418.06
337.51	419.06
337.738	422.06
337.966	429.06
338.194	403.06
338.422	430.06
338.65	421.06
338.878	407.06
339.106	403.06
339.334	393.06
339.562	398.06
339.79	423.06
340.018	416.06
340.246	411.06
340.474	423.06
340.702	422.06
340.93	413.06
341.158	407.06
341.386	398.06
341.614	416.06
341.842	414.06
342.07	403.06
342.298	407.06
342.526	397.06
342.754	397.06
342.981	398.06
343.209	395.06
343.437	402.06
343.665	385.06
343.893	389.06
344.12	422.06
344.348	410.06
344.576	407.06
344.804	421.06
345.031	426.06
345.259	406.06
345.487	435.06
345.714	407.06
345.942	402.06
346.17	417.06
346.397	412.06
346.625	406.06
346.853	401.06
347.08	410.06
347.308	411.06
347.535	403.06
347.763	418.06
347.99	414.06
348.218	407.06
348.445	418.06
348.673	421.06
348.9	416.06
349.128	399.06
349.355	409.06
349.583	412.06
349.81	399.06
350.037	383.06
350.265	382.06
350.492	397.06
350.72	403.06
350.947	384.06
351.174	430.06
351.402	399.06
351.629	387.06
351.856	398.06
352.083	418.06
352.311	427.06
352.538	406.06
352.765	425.06
352.992	407.06
353.22	420.06
353.447	387.06
353.674	376.06
353.901	378.06
354.128	357.06
354.355	361.06
354.583	384.06
354.81	385.06
355.037	365.06
355.264	372.06
355.491	358.06
355.718	369.06
355.945	364.06
356.172	345.06
356.399	366.06
356.626	366.06
356.853	364.06
357.08	362.06
357.307	362.06
357.534	369.06
357.761	359.06
357.988	357.06
358.215	379.06
358.441	387.06
358.668	360.06
358.895	371.06
359.122	389.06
359.349	377.06
359.576	372.06
359.802	407.06
360.029	463.06
360.256	458.06
360.483	420.06
360.709	401.06
360.936	364.06
361.163	391.06
361.39	378.06
361.616	390.06
361.843	376.06
362.07	385.06
362.296	391.06
362.523	394.06
362.749	392.06
362.976	361.06
363.203	379.06
363.429	383.06
363.656	384.06
363.882	385.06
364.109	360.06
364.335	371.06
364.562	369.06
364.788	361.06
365.015	377.06
365.241	379.06
365.468	372.06
365.694	390.06
365.92	366.06
366.147	377.06
366.373	355.06
366.599	365.06
366.826	355.06
367.052	362.06
367.278	378.06
367.505	374.06
367.731	332.06
367.957	341.06
368.184	364.06
368.41	380.06
368.636	361.06
368.862	365.06
369.089	363.06
369.315	342.06
369.541	349.06
369.767	371.06
369.993	363.06
370.219	349.06
370.445	340.06
370.672	345.06
370.898	362.06
371.124	361.06
371.35	345.06
371.576	356.06
371.802	351.06
372.028	353.06
372.254	360.06
372.48	363.06
372.706	340.06
372.932	353.06
373.158	341.06
373.384	349.06
373.61	365.06
373.835	347.06
374.061	350.06
374.287	350.06
374.513	354.06
374.739	354.06
374.965	361.06
375.191	349.06
375.416	361.06
375.642	364.06
375.868	344.06
376.094	350.06
376.319	342.06
376.545	347.06
376.771	327.06
376.997	334.06
377.222	354.06
377.448	347.06
377.674	335.06
377.899	357.06
378.125	354.06
378.35	325.06
378.576	356.06
378.802	342.06
379.027	351.06
379.253	333.06
379.478	333.06
379.704	335.06
379.929	340.06
380.155	343.06
380.38	362.06
380.606	371.06
380.831	343.06
381.057	348.06
381.282	324.06
381.507	337.06
381.733	342.06
381.958	342.06
382.184	332.06
382.409	335.06
382.634	367.06
382.86	352.06
383.085	344.06
383.31	347.06
383.535	342.06
383.761	351.06
383.986	351.06
384.211	363.06
384.436	371.06
384.662	356.06
384.887	348.06
385.112	358.06
385.337	357.06
385.562	373.06
385.787	376.06
386.013	365.06
386.238	371.06
386.463	356.06
386.688	361.06
386.913	356.06
387.138	362.06
387.363	348.06
387.588	358.06
387.813	369.06
388.038	369.06
388.263	352.06
388.488	385.06
388.713	361.06
388.938	369.06
389.163	362.06
389.387	367.06
389.612	349.06
389.837	366.06
390.062	344.06
390.287	352.06
390.512	354.06
390.736	348.06
390.961	354.06
391.186	371.06
391.411	353.06
391.636	352.06
391.86	355.06
392.085	378.06
392.31	359.06
392.534	350.06
392.759	344.06
392.984	341.06
393.208	341.06
393.433	357.06
393.658	377.06
393.882	356.06
394.107	354.06
394.331	371.06
394.556	372.06
394.78	354.06
395.005	366.06
395.229	357.06
395.454	365.06
395.678	374.06
395.903	364.06
396.127	385.06
396.352	387.06
396.576	383.06
396.801	363.06
397.025	359.06
397.249	371.06
397.474	379.06
397.698	373.06
397.922	399.06
398.147	418.06
398.371	389.06
398.595	399.06
398.82	400.06
399.044	385.06
399.268	420.06
399.492	411.06
399.717	430.06
399.941	484.06
400.165	480.06
400.389	494.06
400.613	475.06
400.837	441.06
401.062	415.06
401.286	401.06
401.51	383.06
401.734	398.06
401.958	381.06
402.182	391.06
402.406	421.06
402.63	414.06
402.854	393.06
403.078	393.06
403.302	426.06
403.526	425.06
403.75	427.06
403.974	417.06
404.198	419.06
404.422	405.06
404.645	421.06
404.869	419.06
405.093	430.06
405.317	493.06
405.541	531.06
405.765	457.06
405.988	443.06
406.212	435.06
406.436	483.06
406.66	461.06
406.883	459.06
407.107	476.06
407.331	507.06
407.555	558.06
407.778	529.06
408.002	521.06
408.226	462.06
408.449	464.06
408.673	465.06
408.896	483.06
409.12	519.06
409.344	507.06
409.567	440.06
409.791	437.06
410.014	437.06
410.238	417.06
410.461	426.06
410.685	418.06
410.908	446.06
411.132	479.06
411.355	491.06
411.578	482.06
411.802	416.06
412.025	411.06
412.249	425.06
412.472	440.06
412.695	447.06
412.919	445.06
413.142	424.06
413.365	425.06
413.589	408.06
413.812	379.06
414.035	407.06
414.258	391.06
414.482	380.06
414.705	383.06
414.928	378.06
415.151	389.06
415.374	397.06
415.597	390.06
415.821	386.06
416.044	416.06
416.267	423.06
416.49	400.06
416.713	377.06
416.936	389.06
417.159	377.06
417.382	403.06
417.605	397.06
417.828	407.06
418.051	414.06
418.274	388.06
418.497	395.06
418.72	389.06
418.943	401.06
419.166	389.06
419.389	406.06
419.611	415.06
419.834	416.06
420.057	388.06
420.28	412.06
420.503	410.06
420.726	414.06
420.948	422.06
421.171	462.06
421.394	473.06
421.617	447.06
421.839	421.06
422.062	399.06
422.285	411.06
422.507	457.06
422.73	547.06
422.953	535.06
423.175	455.06
423.398	453.06
423.621	457.06
423.843	462.06
424.066	445.06
424.288	426.06
424.511	463.06
424.733	517.06
424.956	600.06
425.178	580.06
425.401	559.06
425.623	560.06
425.846	483.06
426.068	465.06
426.291	454.06
426.513	454.06
426.735	473.06
426.958	503.06
427.18	574.06
427.402	695.06
427.625	748.06
427.847	680.06
428.069	578.06
428.292	513.06
428.514	471.06
428.736	451.06
428.958	454.06
429.181	433.06
429.403	417.06
429.625	441.06
429.847	467.06
430.069	507.06
430.292	518.06
430.514	447.06
430.736	421.06
430.958	428.06
431.18	401.06
431.402	377.06
431.624	386.06
431.846	390.06
432.068	385.06
432.29	396.06
432.512	410.06
432.734	401.06
432.956	400.06
433.178	410.06
433.4	411.06
433.622	408.06
433.844	390.06
434.066	398.06
434.287	369.06
434.509	388.06
434.731	394.06
434.953	403.06
435.175	433.06
435.397	422.06
435.618	439.06
435.84	492.06
436.062	550.06
436.284	639.06
436.505	530.06
436.727	462.06
436.949	441.06
437.17	427.06
437.392	429.06
437.614	453.06
437.835	512.06
438.057	585.06
438.278	650.06
438.5	647.06
438.721	665.06
438.943	658.06
439.165	516.06
439.386	470.06
439.608	475.06
439.829	482.06
440.05	493.06
440.272	562.06
440.493	515.06
440.715	447.06
440.936	426.06
441.158	425.06
441.379	415.06
441.6	448.06
441.822	463.06
442.043	494.06
442.264	578.06
442.486	613.06
442.707	501.06
442.928	485.06
443.149	473.06
443.371	506.06
443.592	525.06
443.813	630.06
444.034	660.06
444.255	553.06
444.476	462.06
444.698	464.06
444.919	441.06
445.14	547.06
445.361	522.06
445.582	499.06
445.803	569.06
446.024	654.06
446.245	649.06
446.466	600.06
446.687	526.06
446.908	477.06
447.129	456.06
447.35	437.06
447.571	422.06
447.792	420.06
448.013	413.06
448.234	426.06
448.455	504.06
448.675	622.06
448.896	683.06
449.117	580.06
449.338	561.06
449.559	649.06
449.779	696.06
450	569.06
450.221	471.06
450.442	439.06
450.662	412.06
450.883	436.06
451.104	440.06
451.324	419.06
451.545	399.06
451.766	400.06
451.986	380.06
452.207	380.06
452.428	372.06
452.648	374.06
452.869	385.06
453.089	385.06
453.31	386.06
453.53	381.06
453.751	380.06
453.971	394.06
454.192	406.06
454.412	399.06
454.633	367.06
454.853	381.06
455.073	387.06
455.294	399.06
455.514	470.06
455.734	427.06
455.955	397.06
456.175	365.06
456.395	354.06
456.616	344.06
456.836	354.06
457.056	349.06
457.276	342.06
457.497	350.06
457.717	342.06
457.937	380.06
458.157	372.06
458.377	370.06
458.598	400.06
458.818	462.06
459.038	522.06
459.258	549.06
459.478	421.06
459.698	401.06
459.918	391.06
460.138	375.06
460.358	378.06
460.578	386.06
460.798	377.06
461.018	399.06
461.238	391.06
461.458	366.06
461.678	393.06
461.898	400.06
462.118	371.06
462.338	393.06
462.558	395.06
462.777	407.06
462.997	389.06
463.217	378.06
463.437	404.06
463.657	400.06
463.876	373.06
464.096	379.06
464.316	402.06
464.536	414.06
464.755	404.06
464.975	416.06
465.195	467.06
465.414	545.06
465.634	460.06
465.854	423.06
466.073	410.06
466.293	379.06
466.512	386.06
466.732	381.06
466.951	387.06
467.171	377.06
467.391	376.06
467.61	387.06
467.829	394.06
468.049	386.06
468.268	385.06
468.488	389.06
468.707	366.06
468.927	359.06
469.146	364.06
469.365	347.06
469.585	361.06
469.804	380.06
470.023	370.06
470.243	388.06
470.462	411.06
470.681	407.06
470.901	393.06
471.12	383.06
471.339	381.06
471.558	399.06
471.777	382.06
471.997	387.06
472.216	385.06
472.435	410.06
472.654	389.06
472.873	373.06
473.092	371.06
473.311	386.06
473.53	389.06
473.749	427.06
473.968	446.06
474.187	554.06
474.406	569.06
474.625	442.06
474.844	392.06
475.063	399.06
475.282	394.06
475.501	399.06
475.72	398.06
475.939	405.06
476.158	393.06
476.377	391.06
476.596	403.06
476.814	414.06
477.033	394.06
477.252	406.06
477.471	401.06
477.69	395.06
477.908	412.06
478.127	436.06
478.346	426.06
478.564	428.06
478.783	419.06
479.002	428.06
479.22	420.06
479.439	437.06
479.658	451.06
479.876	468.06
480.095	449.06
480.313	475.06
480.532	460.06
480.751	449.06
480.969	462.06
481.188	529.06
481.406	565.06
481.624	496.06
481.843	480.06
482.061	470.06
482.28	473.06
482.498	446.06
482.717	443.06
482.935	445.06
483.153	450.06
483.372	445.06
483.59	455.06
483.808	450.06
484.027	472.06
484.245	461.06
484.463	460.06
484.681	455.06
484.9	459.06
485.118	447.06
485.336	478.06
485.554	474.06
485.772	476.06
485.99	467.06
486.209	465.06
486.427	463.06
486.645	482.06
486.863	522.06
487.081	517.06
487.299	497.06
487.517	497.06
487.735	483.06
487.953	490.06
488.171	493.06
488.389	503.06
488.607	497.06
488.825	485.06
489.043	493.06
489.261	478.06
489.479	487.06
489.696	493.06
489.914	494.06
490.132	504.06
490.35	504.06
490.568	492.06
490.786	523.06
491.003	537.06
491.221	527.06
491.439	537.06
491.657	551.06
491.874	550.06
492.092	577.06
492.31	557.06
492.527	569.06
492.745	548.06
492.963	565.06
493.18	561.06
493.398	565.06
493.615	551.06
493.833	550.06
494.05	566.06
494.268	546.06
494.485	586.06
494.703	574.06
494.92	591.06
495.138	585.06
495.355	573.06
495.573	597.06
495.79	588.06
496.008	583.06
496.225	604.06
496.442	566.06
496.66	570.06
496.877	577.06
497.094	597.06
497.312	587.06
497.529	557.06
497.746	569.06
497.963	602.06
498.181	621.06
498.398	612.06
498.615	608.06
498.832	641.06
499.049	630.06
499.267	636.06
499.484	656.06
499.701	662.06
499.918	657.06
500.135	684.06
500.352	711.06
500.569	711.06
500.786	751.06
501.003	722.06
501.22	709.06
501.437	714.06
501.654	690.06
501.871	719.06
