Data from 1981.PennyLincolnUp.Lamp.En5.5.200Scan.071819.P1_HRD10591_16-41-36-959.txt Node
Date: Thu Jul 18 16:41:36 EDT 2019
User: cochatt
Spectrometer: HR+D1059
Trigger mode: 1
Integration Time (sec): 1.000000E-1
Scans to average: 1
Electric dark correction enabled: true
Nonlinearity correction enabled: false
Boxcar width: 0
XAxis mode: Wavelengths
Number of Pixels in Spectrum: 2048
>>>>>Begin Spectral Data<<<<<
223.165	-14.75
223.4	-14.75
223.635	-14.75
223.869	-22.75
224.104	-14.75
224.338	-12.75
224.573	-9.75
224.808	-3.75
225.042	2.25
225.277	-6.75
225.511	-11.75
225.746	-3.75
225.98	-2.75
226.215	9.25
226.449	9.25
226.683	31.25
226.918	28.25
227.152	23.25
227.387	22.25
227.621	50.25
227.856	36.25
228.09	47.25
228.324	37.25
228.559	45.25
228.793	59.25
229.027	94.25
229.262	106.25
229.496	114.25
229.73	125.25
229.964	167.25
230.199	129.25
230.433	113.25
230.667	98.25
230.901	112.25
231.136	107.25
231.37	113.25
231.604	125.25
231.838	109.25
232.072	117.25
232.306	125.25
232.541	114.25
232.775	105.25
233.009	109.25
233.243	114.25
233.477	121.25
233.711	122.25
233.945	103.25
234.179	107.25
234.413	110.25
234.647	120.25
234.881	100.25
235.115	125.25
235.349	115.25
235.583	125.25
235.817	131.25
236.051	120.25
236.285	137.25
236.519	122.25
236.753	131.25
236.987	153.25
237.221	188.25
237.455	234.25
237.689	185.25
237.922	160.25
238.156	133.25
238.39	126.25
238.624	118.25
238.858	105.25
239.091	117.25
239.325	117.25
239.559	123.25
239.793	126.25
240.027	134.25
240.26	139.25
240.494	159.25
240.728	157.25
240.961	133.25
241.195	147.25
241.429	164.25
241.662	129.25
241.896	130.25
242.13	133.25
242.363	112.25
242.597	141.25
242.83	134.25
243.064	131.25
243.298	124.25
243.531	124.25
243.765	147.25
243.998	153.25
244.232	136.25
244.465	130.25
244.699	142.25
244.932	135.25
245.166	135.25
245.399	146.25
245.633	148.25
245.866	157.25
246.099	134.25
246.333	139.25
246.566	146.25
246.8	156.25
247.033	161.25
247.266	149.25
247.5	156.25
247.733	173.25
247.966	170.25
248.2	161.25
248.433	174.25
248.666	178.25
248.899	180.25
249.133	198.25
249.366	215.25
249.599	202.25
249.832	186.25
250.066	186.25
250.299	191.25
250.532	197.25
250.765	215.25
250.998	223.25
251.231	245.25
251.465	214.25
251.698	216.25
251.931	199.25
252.164	194.25
252.397	203.25
252.63	229.25
252.863	203.25
253.096	219.25
253.329	232.25
253.562	225.25
253.795	218.25
254.028	234.25
254.261	218.25
254.494	237.25
254.727	263.25
254.96	283.25
255.193	293.25
255.426	251.25
255.659	234.25
255.892	254.25
256.124	249.25
256.357	243.25
256.59	235.25
256.823	217.25
257.056	225.25
257.289	224.25
257.521	221.25
257.754	209.25
257.987	207.25
258.22	214.25
258.452	209.25
258.685	210.25
258.918	209.25
259.151	231.25
259.383	224.25
259.616	235.25
259.849	238.25
260.081	243.25
260.314	269.25
260.547	274.25
260.779	244.25
261.012	243.25
261.244	242.25
261.477	238.25
261.71	233.25
261.942	236.25
262.175	222.25
262.407	230.25
262.64	231.25
262.872	210.25
263.105	226.25
263.337	232.25
263.57	219.25
263.802	234.25
264.035	219.25
264.267	241.25
264.499	213.25
264.732	219.25
264.964	203.25
265.197	219.25
265.429	213.25
265.661	214.25
265.894	229.25
266.126	221.25
266.358	208.25
266.591	220.25
266.823	237.25
267.055	243.25
267.287	241.25
267.52	229.25
267.752	219.25
267.984	215.25
268.216	236.25
268.448	225.25
268.681	214.25
268.913	242.25
269.145	265.25
269.377	283.25
269.609	274.25
269.841	281.25
270.073	270.25
270.306	293.25
270.538	312.25
270.77	319.25
271.002	311.25
271.234	314.25
271.466	317.25
271.698	355.25
271.93	342.25
272.162	325.25
272.394	334.25
272.626	322.25
272.858	302.25
273.09	285.25
273.322	291.25
273.553	282.25
273.785	266.25
274.017	264.25
274.249	257.25
274.481	265.25
274.713	271.25
274.945	267.25
275.176	275.25
275.408	266.25
275.64	277.25
275.872	250.25
276.104	277.25
276.335	285.25
276.567	274.25
276.799	310.25
277.031	321.25
277.262	325.25
277.494	321.25
277.726	307.25
277.957	307.25
278.189	285.25
278.421	288.25
278.652	277.25
278.884	282.25
279.115	276.25
279.347	267.25
279.579	255.25
279.81	259.25
280.042	259.25
280.273	267.25
280.505	298.25
280.736	271.25
280.968	269.25
281.199	276.25
281.431	259.25
281.662	264.25
281.894	262.25
282.125	270.25
282.356	272.25
282.588	317.25
282.819	312.25
283.051	286.25
283.282	285.25
283.513	283.25
283.745	275.25
283.976	273.25
284.207	286.25
284.439	275.25
284.67	291.25
284.901	279.25
285.132	282.25
285.364	280.25
285.595	287.25
285.826	293.25
286.057	282.25
286.288	264.25
286.52	266.25
286.751	266.25
286.982	290.25
287.213	280.25
287.444	277.25
287.675	292.25
287.906	315.25
288.138	293.25
288.369	291.25
288.6	301.25
288.831	293.25
289.062	285.25
289.293	301.25
289.524	300.25
289.755	279.25
289.986	290.25
290.217	281.25
290.448	282.25
290.679	285.25
290.91	281.25
291.141	282.25
291.371	293.25
291.602	267.25
291.833	277.25
292.064	275.25
292.295	287.25
292.526	272.25
292.757	268.25
292.987	293.25
293.218	271.25
293.449	294.25
293.68	281.25
293.91	293.25
294.141	269.25
294.372	298.25
294.603	286.25
294.833	284.25
295.064	290.25
295.295	282.25
295.525	281.25
295.756	298.25
295.987	310.25
296.217	323.25
296.448	335.25
296.679	307.25
296.909	309.25
297.14	271.25
297.37	287.25
297.601	315.25
297.831	283.25
298.062	298.25
298.292	307.25
298.523	314.25
298.753	301.25
298.984	292.25
299.214	294.25
299.445	302.25
299.675	309.25
299.905	304.25
300.136	298.25
300.366	312.25
300.597	324.25
300.827	299.25
301.057	315.25
301.288	313.25
301.518	321.25
301.748	317.25
301.979	318.25
302.209	333.25
302.439	314.25
302.669	309.25
302.9	313.25
303.13	310.25
303.36	333.25
303.59	341.25
303.82	345.25
304.051	331.25
304.281	335.25
304.511	324.25
304.741	306.25
304.971	326.25
305.201	322.25
305.431	325.25
305.661	330.25
305.891	324.25
306.121	339.25
306.352	340.25
306.582	330.25
306.812	349.25
307.042	328.25
307.272	327.25
307.502	334.25
307.731	323.25
307.961	329.25
308.191	320.25
308.421	322.25
308.651	324.25
308.881	340.25
309.111	334.25
309.341	354.25
309.571	343.25
309.8	377.25
310.03	373.25
310.26	373.25
310.49	382.25
310.72	404.25
310.949	402.25
311.179	392.25
311.409	386.25
311.639	396.25
311.868	379.25
312.098	397.25
312.328	383.25
312.557	403.25
312.787	409.25
313.017	414.25
313.246	400.25
313.476	382.25
313.706	383.25
313.935	393.25
314.165	381.25
314.394	415.25
314.624	406.25
314.853	376.25
315.083	394.25
315.312	385.25
315.542	382.25
315.771	379.25
316.001	361.25
316.23	377.25
316.46	371.25
316.689	378.25
316.919	401.25
317.148	400.25
317.377	398.25
317.607	398.25
317.836	395.25
318.065	394.25
318.295	383.25
318.524	382.25
318.753	370.25
318.983	382.25
319.212	365.25
319.441	369.25
319.67	409.25
319.9	396.25
320.129	384.25
320.358	392.25
320.587	372.25
320.816	401.25
321.046	400.25
321.275	430.25
321.504	395.25
321.733	402.25
321.962	411.25
322.191	434.25
322.42	445.25
322.649	461.25
322.878	476.25
323.108	476.25
323.337	520.25
323.566	526.25
323.795	573.25
324.024	647.25
324.253	789.25
324.482	1115.25
324.71	1697.25
324.939	2350.25
325.168	1932.25
325.397	1055.25
325.626	699.25
325.855	589.25
326.084	543.25
326.313	533.25
326.542	521.25
326.77	583.25
326.999	698.25
327.228	997.25
327.457	1463.25
327.686	1710.25
327.914	1154.25
328.143	789.25
328.372	675.25
328.6	617.25
328.829	609.25
329.058	620.25
329.287	621.25
329.515	565.25
329.744	549.25
329.972	511.25
330.201	540.25
330.43	595.25
330.658	606.25
330.887	634.25
331.115	598.25
331.344	521.25
331.572	519.25
331.801	497.25
332.03	500.25
332.258	491.25
332.486	459.25
332.715	448.25
332.943	445.25
333.172	461.25
333.4	456.25
333.629	447.25
333.857	476.25
334.085	494.25
334.314	479.25
334.542	523.25
334.771	521.25
334.999	476.25
335.227	460.25
335.455	442.25
335.684	426.25
335.912	433.25
336.14	411.25
336.369	415.25
336.597	461.25
336.825	434.25
337.053	419.25
337.281	442.25
337.51	411.25
337.738	426.25
337.966	413.25
338.194	451.25
338.422	453.25
338.65	439.25
338.878	404.25
339.106	413.25
339.334	427.25
339.562	418.25
339.79	406.25
340.018	418.25
340.246	404.25
340.474	413.25
340.702	431.25
340.93	417.25
341.158	414.25
341.386	441.25
341.614	407.25
341.842	429.25
342.07	391.25
342.298	428.25
342.526	421.25
342.754	396.25
342.981	416.25
343.209	416.25
343.437	405.25
343.665	423.25
343.893	418.25
344.12	420.25
344.348	421.25
344.576	419.25
344.804	421.25
345.031	420.25
345.259	444.25
345.487	440.25
345.714	424.25
345.942	423.25
346.17	401.25
346.397	413.25
346.625	408.25
346.853	402.25
347.08	391.25
347.308	415.25
347.535	402.25
347.763	425.25
347.99	410.25
348.218	418.25
348.445	430.25
348.673	411.25
348.9	409.25
349.128	405.25
349.355	371.25
349.583	377.25
349.81	378.25
350.037	385.25
350.265	388.25
350.492	371.25
350.72	375.25
350.947	396.25
351.174	401.25
351.402	415.25
351.629	413.25
351.856	405.25
352.083	413.25
352.311	436.25
352.538	427.25
352.765	419.25
352.992	406.25
353.22	405.25
353.447	396.25
353.674	399.25
353.901	395.25
354.128	374.25
354.355	382.25
354.583	359.25
354.81	365.25
355.037	377.25
355.264	363.25
355.491	373.25
355.718	375.25
355.945	342.25
356.172	365.25
356.399	359.25
356.626	365.25
356.853	355.25
357.08	351.25
357.307	356.25
357.534	353.25
357.761	362.25
357.988	360.25
358.215	351.25
358.441	358.25
358.668	377.25
358.895	351.25
359.122	365.25
359.349	382.25
359.576	395.25
359.802	419.25
360.029	438.25
360.256	471.25
360.483	447.25
360.709	393.25
360.936	378.25
361.163	398.25
361.39	413.25
361.616	395.25
361.843	375.25
362.07	395.25
362.296	403.25
362.523	395.25
362.749	387.25
362.976	381.25
363.203	373.25
363.429	380.25
363.656	375.25
363.882	363.25
364.109	369.25
364.335	364.25
364.562	361.25
364.788	372.25
365.015	374.25
365.241	380.25
365.468	385.25
365.694	370.25
365.92	378.25
366.147	380.25
366.373	367.25
366.599	378.25
366.826	370.25
367.052	361.25
367.278	358.25
367.505	366.25
367.731	363.25
367.957	351.25
368.184	371.25
368.41	392.25
368.636	370.25
368.862	374.25
369.089	363.25
369.315	346.25
369.541	372.25
369.767	361.25
369.993	387.25
370.219	363.25
370.445	366.25
370.672	344.25
370.898	342.25
371.124	349.25
371.35	358.25
371.576	354.25
371.802	346.25
372.028	338.25
372.254	361.25
372.48	342.25
372.706	353.25
372.932	351.25
373.158	350.25
373.384	353.25
373.61	370.25
373.835	351.25
374.061	365.25
374.287	363.25
374.513	348.25
374.739	369.25
374.965	353.25
375.191	357.25
375.416	366.25
375.642	374.25
375.868	362.25
376.094	341.25
376.319	345.25
376.545	340.25
376.771	356.25
376.997	346.25
377.222	328.25
377.448	358.25
377.674	331.25
377.899	341.25
378.125	362.25
378.35	342.25
378.576	326.25
378.802	359.25
379.027	354.25
379.253	346.25
379.478	347.25
379.704	344.25
379.929	371.25
380.155	364.25
380.38	350.25
380.606	359.25
380.831	338.25
381.057	349.25
381.282	356.25
381.507	347.25
381.733	377.25
381.958	350.25
382.184	369.25
382.409	349.25
382.634	359.25
382.86	350.25
383.085	337.25
383.31	362.25
383.535	359.25
383.761	355.25
383.986	355.25
384.211	362.25
384.436	353.25
384.662	375.25
384.887	363.25
385.112	367.25
385.337	358.25
385.562	341.25
385.787	364.25
386.013	371.25
386.238	377.25
386.463	388.25
386.688	383.25
386.913	361.25
387.138	375.25
387.363	357.25
387.588	354.25
387.813	361.25
388.038	381.25
388.263	359.25
388.488	360.25
388.713	361.25
388.938	367.25
389.163	367.25
389.387	371.25
389.612	358.25
389.837	355.25
390.062	344.25
390.287	354.25
390.512	385.25
390.736	342.25
390.961	356.25
391.186	369.25
391.411	373.25
391.636	373.25
391.86	359.25
392.085	364.25
392.31	365.25
392.534	385.25
392.759	369.25
392.984	360.25
393.208	353.25
393.433	366.25
393.658	363.25
393.882	374.25
394.107	368.25
394.331	373.25
394.556	339.25
394.78	364.25
395.005	366.25
395.229	360.25
395.454	381.25
395.678	381.25
395.903	392.25
396.127	398.25
396.352	392.25
396.576	367.25
396.801	383.25
397.025	373.25
397.249	373.25
397.474	380.25
397.698	383.25
397.922	377.25
398.147	423.25
398.371	405.25
398.595	402.25
398.82	415.25
399.044	413.25
399.268	400.25
399.492	406.25
399.717	434.25
399.941	456.25
400.165	492.25
400.389	492.25
400.613	436.25
400.837	417.25
401.062	406.25
401.286	408.25
401.51	420.25
401.734	406.25
401.958	422.25
402.182	423.25
402.406	424.25
402.63	409.25
402.854	441.25
403.078	405.25
403.302	419.25
403.526	416.25
403.75	399.25
403.974	409.25
404.198	409.25
404.422	429.25
404.645	416.25
404.869	420.25
405.093	434.25
405.317	470.25
405.541	498.25
405.765	471.25
405.988	451.25
406.212	466.25
406.436	491.25
406.66	483.25
406.883	452.25
407.107	467.25
407.331	506.25
407.555	565.25
407.778	561.25
408.002	521.25
408.226	485.25
408.449	512.25
408.673	472.25
408.896	478.25
409.12	499.25
409.344	493.25
409.567	449.25
409.791	455.25
410.014	416.25
410.238	397.25
410.461	421.25
410.685	406.25
410.908	419.25
411.132	471.25
411.355	501.25
411.578	466.25
411.802	429.25
412.025	426.25
412.249	433.25
412.472	433.25
412.695	489.25
412.919	454.25
413.142	409.25
413.365	418.25
413.589	423.25
413.812	403.25
414.035	391.25
414.258	386.25
414.482	381.25
414.705	394.25
414.928	398.25
415.151	396.25
415.374	393.25
415.597	386.25
415.821	399.25
416.044	388.25
416.267	405.25
416.49	403.25
416.713	385.25
416.936	412.25
417.159	392.25
417.382	394.25
417.605	420.25
417.828	409.25
418.051	420.25
418.274	417.25
418.497	404.25
418.72	380.25
418.943	389.25
419.166	396.25
419.389	406.25
419.611	407.25
419.834	389.25
420.057	426.25
420.28	412.25
420.503	415.25
420.726	407.25
420.948	434.25
421.171	461.25
421.394	477.25
421.617	420.25
421.839	411.25
422.062	437.25
422.285	431.25
422.507	480.25
422.73	548.25
422.953	523.25
423.175	456.25
423.398	405.25
423.621	447.25
423.843	451.25
424.066	433.25
424.288	433.25
424.511	466.25
424.733	507.25
424.956	587.25
425.178	562.25
425.401	555.25
425.623	567.25
425.846	485.25
426.068	468.25
426.291	467.25
426.513	445.25
426.735	464.25
426.958	519.25
427.18	587.25
427.402	689.25
427.625	754.25
427.847	678.25
428.069	588.25
428.292	515.25
428.514	453.25
428.736	449.25
428.958	442.25
429.181	435.25
429.403	414.25
429.625	433.25
429.847	466.25
430.069	535.25
430.292	526.25
430.514	439.25
430.736	445.25
430.958	423.25
431.18	403.25
431.402	405.25
431.624	386.25
431.846	383.25
432.068	371.25
432.29	390.25
432.512	389.25
432.734	389.25
432.956	396.25
433.178	402.25
433.4	419.25
433.622	420.25
433.844	413.25
434.066	395.25
434.287	392.25
434.509	410.25
434.731	391.25
434.953	408.25
435.175	409.25
435.397	440.25
435.618	461.25
435.84	501.25
436.062	568.25
436.284	634.25
436.505	528.25
436.727	486.25
436.949	429.25
437.17	439.25
437.392	436.25
437.614	439.25
437.835	464.25
438.057	558.25
438.278	661.25
438.5	641.25
438.721	696.25
438.943	678.25
439.165	544.25
439.386	483.25
439.608	475.25
439.829	471.25
440.05	504.25
440.272	569.25
440.493	509.25
440.715	463.25
440.936	437.25
441.158	456.25
441.379	420.25
441.6	444.25
441.822	457.25
442.043	501.25
442.264	562.25
442.486	608.25
442.707	519.25
442.928	477.25
443.149	470.25
443.371	503.25
443.592	527.25
443.813	642.25
444.034	678.25
444.255	568.25
444.476	486.25
444.698	459.25
444.919	439.25
445.14	604.25
445.361	507.25
445.582	524.25
445.803	565.25
446.024	643.25
446.245	668.25
446.466	597.25
446.687	487.25
446.908	465.25
447.129	443.25
447.35	444.25
447.571	439.25
447.792	409.25
448.013	425.25
448.234	447.25
448.455	497.25
448.675	588.25
448.896	695.25
449.117	595.25
449.338	565.25
449.559	652.25
449.779	704.25
450	581.25
450.221	499.25
450.442	446.25
450.662	415.25
450.883	445.25
451.104	465.25
451.324	437.25
451.545	406.25
451.766	390.25
451.986	376.25
452.207	380.25
452.428	373.25
452.648	370.25
452.869	400.25
453.089	385.25
453.31	407.25
453.53	408.25
453.751	398.25
453.971	406.25
454.192	429.25
454.412	415.25
454.633	383.25
454.853	385.25
455.073	403.25
455.294	422.25
455.514	490.25
455.734	441.25
455.955	380.25
456.175	381.25
456.395	345.25
456.616	351.25
456.836	360.25
457.056	372.25
457.276	350.25
457.497	350.25
457.717	351.25
457.937	346.25
458.157	355.25
458.377	352.25
458.598	402.25
458.818	452.25
459.038	524.25
459.258	540.25
459.478	425.25
459.698	400.25
459.918	409.25
460.138	382.25
460.358	379.25
460.578	403.25
460.798	412.25
461.018	383.25
461.238	397.25
461.458	394.25
461.678	377.25
461.898	381.25
462.118	382.25
462.338	387.25
462.558	403.25
462.777	407.25
462.997	391.25
463.217	402.25
463.437	411.25
463.657	402.25
463.876	409.25
464.096	416.25
464.316	420.25
464.536	423.25
464.755	423.25
464.975	418.25
465.195	468.25
465.414	533.25
465.634	474.25
465.854	436.25
466.073	411.25
466.293	385.25
466.512	383.25
466.732	388.25
466.951	395.25
467.171	371.25
467.391	392.25
467.61	395.25
467.829	401.25
468.049	426.25
468.268	395.25
468.488	380.25
468.707	359.25
468.927	366.25
469.146	366.25
469.365	365.25
469.585	358.25
469.804	393.25
470.023	383.25
470.243	385.25
470.462	391.25
470.681	420.25
470.901	396.25
471.12	387.25
471.339	398.25
471.558	387.25
471.777	412.25
471.997	399.25
472.216	369.25
472.435	417.25
472.654	396.25
472.873	379.25
473.092	377.25
473.311	372.25
473.53	377.25
473.749	405.25
473.968	445.25
474.187	546.25
474.406	552.25
474.625	459.25
474.844	409.25
475.063	389.25
475.282	389.25
475.501	407.25
475.72	385.25
475.939	400.25
476.158	407.25
476.377	401.25
476.596	387.25
476.814	415.25
477.033	410.25
477.252	410.25
477.471	403.25
477.69	412.25
477.908	413.25
478.127	432.25
478.346	405.25
478.564	421.25
478.783	426.25
479.002	425.25
479.22	436.25
479.439	447.25
479.658	446.25
479.876	467.25
480.095	473.25
480.313	494.25
480.532	482.25
480.751	469.25
480.969	470.25
481.188	515.25
481.406	541.25
481.624	501.25
481.843	479.25
482.061	467.25
482.28	455.25
482.498	441.25
482.717	445.25
482.935	462.25
483.153	449.25
483.372	469.25
483.59	462.25
483.808	447.25
484.027	466.25
484.245	471.25
484.463	476.25
484.681	459.25
484.9	439.25
485.118	481.25
485.336	471.25
485.554	473.25
485.772	488.25
485.99	478.25
486.209	483.25
486.427	477.25
486.645	479.25
486.863	504.25
487.081	519.25
487.299	501.25
487.517	478.25
487.735	466.25
487.953	492.25
488.171	483.25
488.389	499.25
488.607	481.25
488.825	491.25
489.043	499.25
489.261	502.25
489.479	497.25
489.696	490.25
489.914	495.25
490.132	488.25
490.35	505.25
490.568	513.25
490.786	511.25
491.003	528.25
491.221	521.25
491.439	541.25
491.657	567.25
491.874	554.25
492.092	570.25
492.31	565.25
492.527	550.25
492.745	557.25
492.963	565.25
493.18	567.25
493.398	591.25
493.615	567.25
493.833	589.25
494.05	573.25
494.268	585.25
494.485	568.25
494.703	577.25
494.92	592.25
495.138	572.25
495.355	579.25
495.573	590.25
495.79	563.25
496.008	576.25
496.225	573.25
496.442	597.25
496.66	571.25
496.877	573.25
497.094	597.25
497.312	584.25
497.529	602.25
497.746	579.25
497.963	579.25
498.181	597.25
498.398	633.25
498.615	636.25
498.832	628.25
499.049	639.25
499.267	627.25
499.484	651.25
499.701	672.25
499.918	686.25
500.135	687.25
500.352	723.25
500.569	724.25
500.786	712.25
501.003	717.25
501.22	718.25
501.437	719.25
501.654	693.25
501.871	701.25
