Data from 1981.PennyLincolnUp.Lamp.En5.5.200Scan.071819.P1_HRD10591_16-41-12-959.txt Node
Date: Thu Jul 18 16:41:12 EDT 2019
User: cochatt
Spectrometer: HR+D1059
Trigger mode: 1
Integration Time (sec): 1.000000E-1
Scans to average: 1
Electric dark correction enabled: true
Nonlinearity correction enabled: false
Boxcar width: 0
XAxis mode: Wavelengths
Number of Pixels in Spectrum: 2048
>>>>>Begin Spectral Data<<<<<
223.165	-4
223.4	-4
223.635	-4
223.869	-9
224.104	-14
224.338	-10
224.573	-32
224.808	-29
225.042	-9
225.277	-5
225.511	2
225.746	-5
225.98	15
226.215	-1
226.449	24
226.683	20
226.918	26
227.152	31
227.387	30
227.621	28
227.856	23
228.09	44
228.324	44
228.559	57
228.793	68
229.027	93
229.262	106
229.496	110
229.73	120
229.964	147
230.199	128
230.433	119
230.667	101
230.901	100
231.136	104
231.37	100
231.604	105
231.838	106
232.072	112
232.306	104
232.541	108
232.775	94
233.009	102
233.243	114
233.477	108
233.711	107
233.945	116
234.179	116
234.413	118
234.647	113
234.881	116
235.115	105
235.349	119
235.583	116
235.817	132
236.051	122
236.285	134
236.519	126
236.753	117
236.987	147
237.221	169
237.455	209
237.689	171
237.922	136
238.156	139
238.39	141
238.624	130
238.858	124
239.091	117
239.325	126
239.559	130
239.793	103
240.027	123
240.26	132
240.494	162
240.728	144
240.961	146
241.195	138
241.429	123
241.662	116
241.896	117
242.13	118
242.363	126
242.597	138
242.83	125
243.064	118
243.298	145
243.531	111
243.765	125
243.998	128
244.232	128
244.465	136
244.699	140
244.932	131
245.166	134
245.399	141
245.633	152
245.866	141
246.099	135
246.333	146
246.566	139
246.8	140
247.033	150
247.266	150
247.5	165
247.733	145
247.966	172
248.2	170
248.433	158
248.666	174
248.899	173
249.133	186
249.366	196
249.599	192
249.832	161
250.066	170
250.299	163
250.532	180
250.765	196
250.998	187
251.231	206
251.465	215
251.698	201
251.931	187
252.164	203
252.397	178
252.63	192
252.863	204
253.096	212
253.329	216
253.562	240
253.795	201
254.028	200
254.261	222
254.494	224
254.727	246
254.96	276
255.193	258
255.426	260
255.659	245
255.892	248
256.124	216
256.357	244
256.59	216
256.823	219
257.056	221
257.289	205
257.521	210
257.754	227
257.987	213
258.22	203
258.452	211
258.685	210
258.918	218
259.151	207
259.383	220
259.616	226
259.849	236
260.081	235
260.314	247
260.547	254
260.779	246
261.012	231
261.244	219
261.477	225
261.71	212
261.942	249
262.175	215
262.407	233
262.64	220
262.872	209
263.105	225
263.337	217
263.57	224
263.802	195
264.035	203
264.267	215
264.499	200
264.732	198
264.964	213
265.197	212
265.429	215
265.661	212
265.894	211
266.126	203
266.358	234
266.591	216
266.823	209
267.055	210
267.287	208
267.52	214
267.752	217
267.984	203
268.216	217
268.448	229
268.681	232
268.913	257
269.145	243
269.377	269
269.609	267
269.841	276
270.073	268
270.306	286
270.538	304
270.77	312
271.002	301
271.234	286
271.466	271
271.698	307
271.93	300
272.162	331
272.394	323
272.626	292
272.858	296
273.09	284
273.322	281
273.553	249
273.785	260
274.017	262
274.249	273
274.481	260
274.713	254
274.945	277
275.176	245
275.408	266
275.64	240
275.872	249
276.104	249
276.335	256
276.567	256
276.799	284
277.031	292
277.262	297
277.494	316
277.726	306
277.957	288
278.189	279
278.421	271
278.652	257
278.884	262
279.115	267
279.347	261
279.579	254
279.81	248
280.042	250
280.273	260
280.505	231
280.736	246
280.968	261
281.199	254
281.431	260
281.662	254
281.894	266
282.125	263
282.356	278
282.588	296
282.819	296
283.051	258
283.282	260
283.513	265
283.745	270
283.976	272
284.207	270
284.439	262
284.67	261
284.901	281
285.132	262
285.364	250
285.595	249
285.826	257
286.057	261
286.288	264
286.52	274
286.751	261
286.982	266
287.213	264
287.444	273
287.675	259
287.906	284
288.138	290
288.369	268
288.6	273
288.831	262
289.062	280
289.293	269
289.524	274
289.755	267
289.986	262
290.217	266
290.448	282
290.679	274
290.91	281
291.141	289
291.371	270
291.602	273
291.833	283
292.064	259
292.295	272
292.526	275
292.757	260
292.987	283
293.218	284
293.449	304
293.68	286
293.91	260
294.141	271
294.372	261
294.603	277
294.833	290
295.064	272
295.295	278
295.525	265
295.756	295
295.987	305
296.217	310
296.448	308
296.679	270
296.909	283
297.14	282
297.37	289
297.601	281
297.831	276
298.062	287
298.292	285
298.523	284
298.753	288
298.984	278
299.214	272
299.445	297
299.675	285
299.905	313
300.136	311
300.366	261
300.597	280
300.827	296
301.057	294
301.288	318
301.518	316
301.748	286
301.979	291
302.209	315
302.439	293
302.669	308
302.9	295
303.13	297
303.36	307
303.59	318
303.82	304
304.051	299
304.281	303
304.511	304
304.741	300
304.971	308
305.201	306
305.431	319
305.661	308
305.891	313
306.121	300
306.352	320
306.582	330
306.812	320
307.042	301
307.272	334
307.502	309
307.731	303
307.961	309
308.191	326
308.421	318
308.651	322
308.881	308
309.111	338
309.341	309
309.571	331
309.8	334
310.03	352
310.26	344
310.49	338
310.72	378
310.949	362
311.179	378
311.409	348
311.639	377
311.868	366
312.098	366
312.328	350
312.557	365
312.787	380
313.017	380
313.246	365
313.476	341
313.706	343
313.935	388
314.165	372
314.394	379
314.624	377
314.853	376
315.083	354
315.312	355
315.542	352
315.771	342
316.001	354
316.23	358
316.46	342
316.689	376
316.919	370
317.148	373
317.377	371
317.607	353
317.836	347
318.065	360
318.295	333
318.524	353
318.753	355
318.983	341
319.212	361
319.441	352
319.67	371
319.9	355
320.129	360
320.358	363
320.587	355
320.816	377
321.046	372
321.275	378
321.504	402
321.733	389
321.962	383
322.191	411
322.42	424
322.649	434
322.878	442
323.108	426
323.337	472
323.566	499
323.795	524
324.024	581
324.253	712
324.482	1056
324.71	1555
324.939	2180
325.168	1866
325.397	962
325.626	664
325.855	576
326.084	501
326.313	503
326.542	520
326.77	569
326.999	656
327.228	904
327.457	1331
327.686	1561
327.914	1079
328.143	727
328.372	643
328.6	578
328.829	553
329.058	587
329.287	574
329.515	525
329.744	501
329.972	510
330.201	502
330.43	550
330.658	561
330.887	602
331.115	569
331.344	516
331.572	482
331.801	470
332.03	468
332.258	441
332.486	430
332.715	422
332.943	417
333.172	414
333.4	414
333.629	441
333.857	426
334.085	444
334.314	434
334.542	462
334.771	476
334.999	447
335.227	434
335.455	411
335.684	420
335.912	417
336.14	382
336.369	383
336.597	412
336.825	422
337.053	417
337.281	389
337.51	392
337.738	406
337.966	422
338.194	392
338.422	406
338.65	413
338.878	402
339.106	378
339.334	391
339.562	396
339.79	376
340.018	385
340.246	396
340.474	397
340.702	378
340.93	376
341.158	390
341.386	381
341.614	398
341.842	390
342.07	377
342.298	386
342.526	388
342.754	386
342.981	372
343.209	363
343.437	380
343.665	376
343.893	378
344.12	410
344.348	401
344.576	387
344.804	408
345.031	402
345.259	401
345.487	404
345.714	402
345.942	404
346.17	365
346.397	386
346.625	382
346.853	378
347.08	402
347.308	385
347.535	374
347.763	394
347.99	402
348.218	404
348.445	404
348.673	390
348.9	384
349.128	359
349.355	366
349.583	358
349.81	373
350.037	375
350.265	361
350.492	359
350.72	365
350.947	377
351.174	353
351.402	380
351.629	388
351.856	411
352.083	390
352.311	385
352.538	381
352.765	398
352.992	377
353.22	387
353.447	365
353.674	360
353.901	371
354.128	350
354.355	352
354.583	348
354.81	355
355.037	349
355.264	339
355.491	332
355.718	339
355.945	347
356.172	329
356.399	334
356.626	336
356.853	338
357.08	332
357.307	360
357.534	348
357.761	330
357.988	349
358.215	338
358.441	350
358.668	361
358.895	351
359.122	366
359.349	356
359.576	362
359.802	392
360.029	412
360.256	429
360.483	413
360.709	374
360.936	382
361.163	368
361.39	383
361.616	402
361.843	373
362.07	380
362.296	367
362.523	382
362.749	382
362.976	363
363.203	344
363.429	341
363.656	356
363.882	356
364.109	360
364.335	357
364.562	337
364.788	340
365.015	345
365.241	344
365.468	343
365.694	342
365.92	354
366.147	333
366.373	345
366.599	332
366.826	335
367.052	362
367.278	316
367.505	339
367.731	344
367.957	338
368.184	353
368.41	356
368.636	370
368.862	353
369.089	337
369.315	354
369.541	373
369.767	334
369.993	334
370.219	333
370.445	332
370.672	345
370.898	349
371.124	321
371.35	351
371.576	343
371.802	335
372.028	308
372.254	337
372.48	347
372.706	336
372.932	346
373.158	337
373.384	337
373.61	351
373.835	350
374.061	320
374.287	336
374.513	317
374.739	334
374.965	339
375.191	336
375.416	352
375.642	344
375.868	357
376.094	309
376.319	318
376.545	350
376.771	309
376.997	341
377.222	330
377.448	317
377.674	321
377.899	331
378.125	333
378.35	341
378.576	325
378.802	319
379.027	321
379.253	312
379.478	341
379.704	339
379.929	335
380.155	342
380.38	332
380.606	332
380.831	326
381.057	340
381.282	333
381.507	330
381.733	345
381.958	332
382.184	328
382.409	341
382.634	334
382.86	329
383.085	330
383.31	322
383.535	337
383.761	323
383.986	342
384.211	356
384.436	346
384.662	335
384.887	354
385.112	346
385.337	348
385.562	353
385.787	358
386.013	368
386.238	348
386.463	363
386.688	350
386.913	354
387.138	360
387.363	346
387.588	327
387.813	358
388.038	332
388.263	355
388.488	349
388.713	344
388.938	362
389.163	345
389.387	342
389.612	348
389.837	334
390.062	345
390.287	327
390.512	345
390.736	361
390.961	333
391.186	338
391.411	347
391.636	363
391.86	346
392.085	333
392.31	339
392.534	334
392.759	366
392.984	329
393.208	328
393.433	364
393.658	349
393.882	356
394.107	359
394.331	342
394.556	340
394.78	343
395.005	355
395.229	351
395.454	360
395.678	354
395.903	349
396.127	368
396.352	372
396.576	373
396.801	351
397.025	336
397.249	371
397.474	378
397.698	350
397.922	387
398.147	372
398.371	377
398.595	396
398.82	394
399.044	389
399.268	404
399.492	405
399.717	422
399.941	451
400.165	460
400.389	468
400.613	420
400.837	401
401.062	384
401.286	392
401.51	397
401.734	366
401.958	400
402.182	417
402.406	408
402.63	390
402.854	399
403.078	390
403.302	402
403.526	388
403.75	396
403.974	405
404.198	393
404.422	385
404.645	397
404.869	401
405.093	432
405.317	447
405.541	488
405.765	441
405.988	417
406.212	450
406.436	440
406.66	448
406.883	436
407.107	446
407.331	471
407.555	536
407.778	499
408.002	492
408.226	436
408.449	432
408.673	445
408.896	441
409.12	485
409.344	489
409.567	402
409.791	413
410.014	403
410.238	378
410.461	393
410.685	397
410.908	436
411.132	446
411.355	461
411.578	464
411.802	402
412.025	410
412.249	413
412.472	415
412.695	434
412.919	434
413.142	394
413.365	390
413.589	377
413.812	378
414.035	379
414.258	369
414.482	366
414.705	386
414.928	380
415.151	366
415.374	379
415.597	373
415.821	365
416.044	370
416.267	384
416.49	381
416.713	365
416.936	372
417.159	380
417.382	394
417.605	375
417.828	377
418.051	376
418.274	390
418.497	391
418.72	382
418.943	375
419.166	390
419.389	398
419.611	397
419.834	383
420.057	414
420.28	404
420.503	402
420.726	396
420.948	411
421.171	444
421.394	464
421.617	420
421.839	406
422.062	414
422.285	413
422.507	453
422.73	534
422.953	516
423.175	436
423.398	423
423.621	426
423.843	450
424.066	436
424.288	434
424.511	437
424.733	516
424.956	566
425.178	530
425.401	536
425.623	536
425.846	469
426.068	445
426.291	444
426.513	434
426.735	444
426.958	487
427.18	540
427.402	634
427.625	721
427.847	636
428.069	544
428.292	476
428.514	426
428.736	440
428.958	400
429.181	392
429.403	408
429.625	402
429.847	430
430.069	511
430.292	483
430.514	434
430.736	402
430.958	402
431.18	372
431.402	363
431.624	379
431.846	358
432.068	380
432.29	404
432.512	386
432.734	381
432.956	392
433.178	392
433.4	407
433.622	385
433.844	381
434.066	360
434.287	362
434.509	369
434.731	388
434.953	395
435.175	412
435.397	432
435.618	434
435.84	469
436.062	520
436.284	617
436.505	485
436.727	436
436.949	414
437.17	408
437.392	412
437.614	435
437.835	458
438.057	549
438.278	612
438.5	614
438.721	678
438.943	630
439.165	510
439.386	475
439.608	467
439.829	486
440.05	489
440.272	510
440.493	479
440.715	448
440.936	403
441.158	404
441.379	408
441.6	421
441.822	423
442.043	465
442.264	513
442.486	564
442.707	480
442.928	454
443.149	439
443.371	479
443.592	496
443.813	577
444.034	600
444.255	532
444.476	460
444.698	445
444.919	407
445.14	514
445.361	484
445.582	482
445.803	542
446.024	618
446.245	603
446.466	549
446.687	495
446.908	465
447.129	411
447.35	408
447.571	431
447.792	417
448.013	418
448.234	420
448.455	478
448.675	570
448.896	654
449.117	544
449.338	525
449.559	619
449.779	680
450	544
450.221	461
450.442	409
450.662	396
450.883	436
451.104	428
451.324	415
451.545	388
451.766	390
451.986	370
452.207	365
452.428	374
452.648	352
452.869	372
453.089	383
453.31	368
453.53	378
453.751	361
453.971	384
454.192	376
454.412	374
454.633	338
454.853	359
455.073	366
455.294	402
455.514	445
455.734	435
455.955	378
456.175	338
456.395	343
456.616	336
456.836	335
457.056	317
457.276	324
457.497	332
457.717	331
457.937	344
458.157	344
458.377	361
458.598	384
458.818	412
459.038	497
459.258	514
459.478	424
459.698	404
459.918	383
460.138	375
460.358	370
460.578	362
460.798	361
461.018	382
461.238	378
461.458	371
461.678	357
461.898	394
462.118	363
462.338	382
462.558	380
462.777	378
462.997	382
463.217	377
463.437	382
463.657	374
463.876	394
464.096	384
464.316	410
464.536	388
464.755	380
464.975	409
465.195	440
465.414	503
465.634	441
465.854	420
466.073	390
466.293	369
466.512	343
466.732	352
466.951	365
467.171	363
467.391	345
467.61	373
467.829	391
468.049	369
468.268	376
468.488	356
468.707	362
468.927	363
469.146	336
469.365	347
469.585	331
469.804	375
470.023	392
470.243	372
470.462	370
470.681	377
470.901	382
471.12	377
471.339	381
471.558	377
471.777	387
471.997	384
472.216	381
472.435	392
472.654	381
472.873	368
473.092	375
473.311	384
473.53	352
473.749	380
473.968	416
474.187	501
474.406	525
474.625	429
474.844	399
475.063	382
475.282	373
475.501	365
475.72	381
475.939	379
476.158	378
476.377	378
476.596	371
476.814	397
477.033	397
477.252	394
477.471	390
477.69	400
477.908	422
478.127	385
478.346	402
478.564	414
478.783	412
479.002	385
479.22	398
479.439	417
479.658	452
479.876	452
480.095	446
480.313	497
480.532	448
480.751	462
480.969	469
481.188	499
481.406	528
481.624	473
481.843	430
482.061	436
482.28	451
482.498	429
482.717	421
482.935	418
483.153	431
483.372	444
483.59	436
483.808	425
484.027	430
484.245	423
484.463	436
484.681	444
484.9	436
485.118	431
485.336	426
485.554	436
485.772	447
485.99	448
486.209	459
486.427	438
486.645	452
486.863	454
487.081	475
487.299	464
487.517	459
487.735	455
487.953	460
488.171	444
488.389	452
488.607	473
488.825	463
489.043	475
489.261	468
489.479	472
489.696	489
489.914	474
490.132	485
490.35	486
490.568	481
490.786	467
491.003	475
491.221	490
491.439	522
491.657	510
491.874	519
492.092	508
492.31	539
492.527	536
492.745	520
492.963	525
493.18	522
493.398	532
493.615	540
493.833	549
494.05	552
494.268	545
494.485	547
494.703	544
494.92	552
495.138	554
495.355	539
495.573	554
495.79	531
496.008	566
496.225	547
496.442	542
496.66	568
496.877	553
497.094	541
497.312	557
497.529	541
497.746	587
497.963	594
498.181	601
498.398	581
498.615	598
498.832	621
499.049	611
499.267	611
499.484	623
499.701	633
499.918	647
500.135	666
500.352	674
500.569	677
500.786	659
501.003	678
501.22	681
501.437	681
501.654	650
501.871	668
502.088	638
502.305	641
502.522	626
502.739	612
502.956	596
503.172	584
503.389	598
503.606	562
503.823	575
504.04	557
504.256	564
504.473	556
504.69	548
504.907	557
505.123	546
505.34	530
505.557	540
505.773	521
505.99	517
506.207	541
506.423	499
506.64	512
506.856	535
507.073	536
507.289	539
507.506	538
507.722	524
507.939	568
508.155	541
508.372	537
508.588	527
508.805	523
509.021	516
509.238	542
509.454	558
509.67	519
509.887	540
510.103	518
510.319	525
510.536	630
510.752	1032
510.968	859
511.184	572
511.401	523
511.617	505
511.833	478
512.049	468
512.265	493
512.481	511
512.698	512
512.914	508
513.13	474
513.346	481
513.562	497
513.778	512
513.994	510
514.21	526
514.426	530
514.642	569
514.858	597
515.074	662
515.29	767
515.506	1117
515.721	940
515.937	602
516.153	553
516.369	529
516.585	512
516.801	503
517.016	494
517.232	508
517.448	486
517.664	521
517.879	499
518.095	476
518.311	478
518.527	488
518.742	487
518.958	477
519.173	477
519.389	509
519.605	496
519.82	494
520.036	510
520.251	542
520.467	556
520.682	539
520.898	546
521.113	566
521.329	619
521.544	740
521.76	908
521.975	1511
522.19	1483
522.406	806
522.621	578
522.836	518
523.052	508
523.267	490
523.482	476
523.698	474
523.913	461
524.128	458
524.343	435
524.559	428
524.774	451
524.989	432
525.204	460
525.419	432
525.634	440
525.849	448
526.064	397
526.28	413
526.495	395
526.71	399
526.925	416
527.14	403
527.355	395
527.57	420
527.785	393
527.999	404
528.214	394
528.429	396
528.644	398
528.859	402
529.074	418
529.289	418
529.503	501
529.718	475
529.933	428
530.148	417
530.363	413
530.577	410
530.792	401
531.007	400
531.221	388
531.436	391
531.651	371
531.865	378
532.08	398
532.295	376
532.509	396
532.724	387
532.938	396
533.153	364
533.367	381
533.582	381
533.796	365
534.011	376
534.225	361
534.44	380
534.654	385
534.868	363
535.083	372
535.297	364
535.511	372
535.726	394
535.94	381
536.154	393
536.369	361
536.583	354
536.797	368
537.011	357
537.225	361
537.44	371
537.654	349
537.868	360
538.082	348
538.296	347
538.51	374
538.724	372
538.938	370
539.153	385
539.367	381
539.581	385
539.795	363
540.009	353
540.222	372
540.436	371
540.65	349
540.864	371
541.078	381
541.292	377
541.506	372
541.72	369
541.934	379
542.147	354
542.361	368
542.575	369
542.789	347
543.002	368
543.216	346
543.43	378
543.644	368
543.857	387
544.071	345
544.285	361
544.498	359
544.712	347
544.925	347
545.139	336
545.352	352
545.566	348
545.779	358
545.993	362
546.206	351
546.42	349
546.633	355
546.847	349
547.06	340
547.274	340
547.487	334
547.7	320
547.914	323
548.127	339
548.34	325
548.554	361
548.767	341
548.98	345
549.193	346
549.407	333
549.62	359
549.833	339
550.046	337
550.259	326
550.473	336
550.686	338
550.899	328
551.112	332
551.325	323
551.538	313
551.751	335
551.964	319
552.177	328
552.39	342
552.603	346
552.816	344
553.029	320
553.242	330
553.455	335
553.667	332
553.88	353
554.093	338
554.306	322
554.519	326
554.732	328
554.944	336
555.157	316
555.37	325
555.583	324
555.795	338
556.008	315
556.221	316
556.433	317
556.646	312
556.859	290
557.071	302
557.284	312
557.496	304
557.709	314
557.921	315
558.134	299
558.346	309
558.559	310
558.771	287
558.984	278
559.196	306
559.409	298
559.621	289
559.833	288
560.046	283
560.258	296
560.47	306
560.683	315
560.895	308
561.107	283
561.32	278
561.532	299
561.744	287
561.956	282
562.168	301
562.381	290
562.593	304
562.805	305
563.017	310
563.229	289
563.441	291
563.653	279
