Data from 1981.PennyLincolnUp.Lamp.En5.5.200Scan.071819.P1_HRD10591_16-40-52-959.txt Node
Date: Thu Jul 18 16:40:52 EDT 2019
User: cochatt
Spectrometer: HR+D1059
Trigger mode: 1
Integration Time (sec): 1.000000E-1
Scans to average: 1
Electric dark correction enabled: true
Nonlinearity correction enabled: false
Boxcar width: 0
XAxis mode: Wavelengths
Number of Pixels in Spectrum: 2048
>>>>>Begin Spectral Data<<<<<
223.165	-3.81
223.4	-3.81
223.635	-3.81
223.869	-31.81
224.104	-25.81
224.338	-19.81
224.573	-8.81
224.808	-10.81
225.042	-15.81
225.277	-3.81
225.511	3.19
225.746	6.19
225.98	6.19
226.215	17.19
226.449	14.19
226.683	10.19
226.918	19.19
227.152	44.19
227.387	40.19
227.621	38.19
227.856	38.19
228.09	44.19
228.324	42.19
228.559	49.19
228.793	65.19
229.027	89.19
229.262	88.19
229.496	84.19
229.73	107.19
229.964	137.19
230.199	110.19
230.433	106.19
230.667	112.19
230.901	104.19
231.136	116.19
231.37	116.19
231.604	108.19
231.838	104.19
232.072	102.19
232.306	108.19
232.541	113.19
232.775	101.19
233.009	116.19
233.243	107.19
233.477	108.19
233.711	107.19
233.945	121.19
234.179	104.19
234.413	123.19
234.647	128.19
234.881	100.19
235.115	97.19
235.349	123.19
235.583	99.19
235.817	119.19
236.051	120.19
236.285	101.19
236.519	105.19
236.753	125.19
236.987	138.19
237.221	164.19
237.455	209.19
237.689	177.19
237.922	130.19
238.156	130.19
238.39	117.19
238.624	132.19
238.858	124.19
239.091	116.19
239.325	135.19
239.559	118.19
239.793	116.19
240.027	122.19
240.26	124.19
240.494	143.19
240.728	135.19
240.961	137.19
241.195	138.19
241.429	139.19
241.662	130.19
241.896	128.19
242.13	120.19
242.363	117.19
242.597	129.19
242.83	138.19
243.064	135.19
243.298	117.19
243.531	128.19
243.765	132.19
243.998	132.19
244.232	113.19
244.465	146.19
244.699	133.19
244.932	155.19
245.166	142.19
245.399	147.19
245.633	123.19
245.866	137.19
246.099	141.19
246.333	139.19
246.566	147.19
246.8	137.19
247.033	161.19
247.266	157.19
247.5	169.19
247.733	153.19
247.966	166.19
248.2	154.19
248.433	161.19
248.666	158.19
248.899	191.19
249.133	197.19
249.366	207.19
249.599	184.19
249.832	177.19
250.066	180.19
250.299	184.19
250.532	186.19
250.765	205.19
250.998	192.19
251.231	212.19
251.465	209.19
251.698	188.19
251.931	199.19
252.164	196.19
252.397	192.19
252.63	199.19
252.863	189.19
253.096	211.19
253.329	216.19
253.562	220.19
253.795	203.19
254.028	225.19
254.261	222.19
254.494	203.19
254.727	241.19
254.96	254.19
255.193	257.19
255.426	237.19
255.659	210.19
255.892	212.19
256.124	221.19
256.357	205.19
256.59	205.19
256.823	215.19
257.056	220.19
257.289	216.19
257.521	198.19
257.754	195.19
257.987	202.19
258.22	202.19
258.452	197.19
258.685	209.19
258.918	204.19
259.151	208.19
259.383	216.19
259.616	214.19
259.849	221.19
260.081	240.19
260.314	237.19
260.547	238.19
260.779	234.19
261.012	219.19
261.244	205.19
261.477	236.19
261.71	221.19
261.942	218.19
262.175	219.19
262.407	200.19
262.64	218.19
262.872	196.19
263.105	186.19
263.337	216.19
263.57	200.19
263.802	197.19
264.035	206.19
264.267	195.19
264.499	191.19
264.732	208.19
264.964	204.19
265.197	201.19
265.429	209.19
265.661	190.19
265.894	202.19
266.126	197.19
266.358	204.19
266.591	211.19
266.823	204.19
267.055	202.19
267.287	215.19
267.52	209.19
267.752	219.19
267.984	225.19
268.216	209.19
268.448	226.19
268.681	227.19
268.913	216.19
269.145	254.19
269.377	255.19
269.609	243.19
269.841	253.19
270.073	250.19
270.306	257.19
270.538	283.19
270.77	288.19
271.002	287.19
271.234	270.19
271.466	280.19
271.698	287.19
271.93	304.19
272.162	289.19
272.394	294.19
272.626	286.19
272.858	268.19
273.09	273.19
273.322	260.19
273.553	239.19
273.785	261.19
274.017	244.19
274.249	265.19
274.481	268.19
274.713	258.19
274.945	239.19
275.176	269.19
275.408	244.19
275.64	234.19
275.872	244.19
276.104	260.19
276.335	256.19
276.567	264.19
276.799	245.19
277.031	277.19
277.262	293.19
277.494	301.19
277.726	272.19
277.957	271.19
278.189	258.19
278.421	264.19
278.652	270.19
278.884	231.19
279.115	246.19
279.347	260.19
279.579	242.19
279.81	250.19
280.042	241.19
280.273	263.19
280.505	245.19
280.736	260.19
280.968	258.19
281.199	260.19
281.431	261.19
281.662	248.19
281.894	247.19
282.125	242.19
282.356	270.19
282.588	307.19
282.819	280.19
283.051	267.19
283.282	260.19
283.513	249.19
283.745	255.19
283.976	248.19
284.207	257.19
284.439	257.19
284.67	264.19
284.901	266.19
285.132	278.19
285.364	267.19
285.595	248.19
285.826	256.19
286.057	253.19
286.288	260.19
286.52	274.19
286.751	262.19
286.982	259.19
287.213	262.19
287.444	267.19
287.675	274.19
287.906	285.19
288.138	293.19
288.369	285.19
288.6	276.19
288.831	274.19
289.062	264.19
289.293	260.19
289.524	282.19
289.755	262.19
289.986	284.19
290.217	277.19
290.448	276.19
290.679	251.19
290.91	252.19
291.141	273.19
291.371	278.19
291.602	258.19
291.833	274.19
292.064	259.19
292.295	242.19
292.526	264.19
292.757	275.19
292.987	256.19
293.218	261.19
293.449	269.19
293.68	264.19
293.91	263.19
294.141	259.19
294.372	254.19
294.603	266.19
294.833	268.19
295.064	273.19
295.295	272.19
295.525	281.19
295.756	285.19
295.987	277.19
296.217	302.19
296.448	315.19
296.679	280.19
296.909	292.19
297.14	274.19
297.37	271.19
297.601	272.19
297.831	270.19
298.062	280.19
298.292	288.19
298.523	270.19
298.753	278.19
298.984	298.19
299.214	273.19
299.445	289.19
299.675	281.19
299.905	268.19
300.136	257.19
300.366	271.19
300.597	282.19
300.827	301.19
301.057	289.19
301.288	301.19
301.518	296.19
301.748	297.19
301.979	292.19
302.209	292.19
302.439	292.19
302.669	273.19
302.9	297.19
303.13	297.19
303.36	305.19
303.59	295.19
303.82	306.19
304.051	305.19
304.281	304.19
304.511	308.19
304.741	293.19
304.971	298.19
305.201	289.19
305.431	308.19
305.661	302.19
305.891	279.19
306.121	310.19
306.352	311.19
306.582	317.19
306.812	309.19
307.042	320.19
307.272	312.19
307.502	317.19
307.731	311.19
307.961	296.19
308.191	310.19
308.421	299.19
308.651	322.19
308.881	317.19
309.111	326.19
309.341	320.19
309.571	319.19
309.8	317.19
310.03	334.19
310.26	334.19
310.49	355.19
310.72	344.19
310.949	344.19
311.179	373.19
311.409	344.19
311.639	342.19
311.868	331.19
312.098	355.19
312.328	360.19
312.557	382.19
312.787	373.19
313.017	369.19
313.246	352.19
313.476	344.19
313.706	331.19
313.935	342.19
314.165	338.19
314.394	356.19
314.624	360.19
314.853	354.19
315.083	345.19
315.312	348.19
315.542	352.19
315.771	345.19
316.001	333.19
316.23	340.19
316.46	359.19
316.689	352.19
316.919	360.19
317.148	350.19
317.377	370.19
317.607	365.19
317.836	366.19
318.065	356.19
318.295	345.19
318.524	347.19
318.753	336.19
318.983	341.19
319.212	344.19
319.441	356.19
319.67	368.19
319.9	364.19
320.129	368.19
320.358	369.19
320.587	333.19
320.816	379.19
321.046	372.19
321.275	375.19
321.504	365.19
321.733	364.19
321.962	364.19
322.191	382.19
322.42	396.19
322.649	401.19
322.878	414.19
323.108	428.19
323.337	445.19
323.566	448.19
323.795	486.19
324.024	546.19
324.253	662.19
324.482	946.19
324.71	1382.19
324.939	1886.19
325.168	1620.19
325.397	857.19
325.626	606.19
325.855	524.19
326.084	476.19
326.313	472.19
326.542	467.19
326.77	533.19
326.999	617.19
327.228	813.19
327.457	1216.19
327.686	1400.19
327.914	962.19
328.143	652.19
328.372	572.19
328.6	540.19
328.829	518.19
329.058	515.19
329.287	541.19
329.515	510.19
329.744	451.19
329.972	446.19
330.201	475.19
330.43	482.19
330.658	516.19
330.887	555.19
331.115	520.19
331.344	454.19
331.572	428.19
331.801	465.19
332.03	441.19
332.258	413.19
332.486	423.19
332.715	421.19
332.943	420.19
333.172	412.19
333.4	408.19
333.629	412.19
333.857	406.19
334.085	420.19
334.314	404.19
334.542	448.19
334.771	448.19
334.999	437.19
335.227	422.19
335.455	396.19
335.684	415.19
335.912	386.19
336.14	389.19
336.369	401.19
336.597	416.19
336.825	403.19
337.053	406.19
337.281	404.19
337.51	377.19
337.738	411.19
337.966	390.19
338.194	378.19
338.422	391.19
338.65	395.19
338.878	389.19
339.106	395.19
339.334	375.19
339.562	372.19
339.79	370.19
340.018	393.19
340.246	406.19
340.474	384.19
340.702	354.19
340.93	386.19
341.158	374.19
341.386	394.19
341.614	387.19
341.842	394.19
342.07	382.19
342.298	373.19
342.526	352.19
342.754	363.19
342.981	372.19
343.209	362.19
343.437	372.19
343.665	356.19
343.893	374.19
344.12	380.19
344.348	369.19
344.576	377.19
344.804	384.19
345.031	377.19
345.259	389.19
345.487	373.19
345.714	393.19
345.942	392.19
346.17	363.19
346.397	392.19
346.625	367.19
346.853	368.19
347.08	357.19
347.308	399.19
347.535	379.19
347.763	387.19
347.99	399.19
348.218	378.19
348.445	384.19
348.673	372.19
348.9	385.19
349.128	370.19
349.355	361.19
349.583	359.19
349.81	364.19
350.037	362.19
350.265	364.19
350.492	353.19
350.72	345.19
350.947	366.19
351.174	373.19
351.402	365.19
351.629	374.19
351.856	374.19
352.083	387.19
352.311	384.19
352.538	384.19
352.765	380.19
352.992	376.19
353.22	363.19
353.447	371.19
353.674	358.19
353.901	361.19
354.128	359.19
354.355	333.19
354.583	347.19
354.81	341.19
355.037	340.19
355.264	332.19
355.491	321.19
355.718	334.19
355.945	331.19
356.172	346.19
356.399	330.19
356.626	326.19
356.853	344.19
357.08	325.19
357.307	346.19
357.534	338.19
357.761	333.19
357.988	323.19
358.215	346.19
358.441	331.19
358.668	326.19
358.895	354.19
359.122	338.19
359.349	355.19
359.576	354.19
359.802	390.19
360.029	394.19
360.256	394.19
360.483	399.19
360.709	378.19
360.936	354.19
361.163	342.19
361.39	344.19
361.616	364.19
361.843	369.19
362.07	354.19
362.296	328.19
362.523	371.19
362.749	368.19
362.976	353.19
363.203	338.19
363.429	332.19
363.656	350.19
363.882	356.19
364.109	345.19
364.335	325.19
364.562	328.19
364.788	334.19
365.015	340.19
365.241	360.19
365.468	350.19
365.694	328.19
365.92	340.19
366.147	312.19
366.373	359.19
366.599	339.19
366.826	331.19
367.052	331.19
367.278	323.19
367.505	333.19
367.731	360.19
367.957	331.19
368.184	325.19
368.41	340.19
368.636	354.19
368.862	354.19
369.089	330.19
369.315	345.19
369.541	346.19
369.767	320.19
369.993	341.19
370.219	333.19
370.445	334.19
370.672	334.19
370.898	336.19
371.124	342.19
371.35	334.19
371.576	328.19
371.802	337.19
372.028	325.19
372.254	329.19
372.48	322.19
372.706	335.19
372.932	338.19
373.158	333.19
373.384	328.19
373.61	331.19
373.835	345.19
374.061	333.19
374.287	339.19
374.513	329.19
374.739	356.19
374.965	342.19
375.191	337.19
375.416	340.19
375.642	336.19
375.868	334.19
376.094	348.19
376.319	332.19
376.545	330.19
376.771	326.19
376.997	322.19
377.222	332.19
377.448	340.19
377.674	330.19
377.899	346.19
378.125	345.19
378.35	331.19
378.576	312.19
378.802	330.19
379.027	334.19
379.253	323.19
379.478	319.19
379.704	311.19
379.929	333.19
380.155	345.19
380.38	335.19
380.606	327.19
380.831	323.19
381.057	331.19
381.282	340.19
381.507	331.19
381.733	337.19
381.958	334.19
382.184	326.19
382.409	323.19
382.634	330.19
382.86	316.19
383.085	345.19
383.31	334.19
383.535	325.19
383.761	335.19
383.986	331.19
384.211	340.19
384.436	352.19
384.662	327.19
384.887	336.19
385.112	325.19
385.337	346.19
385.562	349.19
385.787	352.19
386.013	339.19
386.238	342.19
386.463	334.19
386.688	341.19
386.913	343.19
387.138	352.19
387.363	351.19
387.588	340.19
387.813	355.19
388.038	348.19
388.263	337.19
388.488	350.19
388.713	359.19
388.938	338.19
389.163	347.19
389.387	355.19
389.612	349.19
389.837	352.19
390.062	339.19
390.287	319.19
390.512	339.19
390.736	329.19
390.961	338.19
391.186	352.19
391.411	347.19
391.636	336.19
391.86	342.19
392.085	361.19
392.31	333.19
392.534	358.19
392.759	352.19
392.984	349.19
393.208	346.19
393.433	359.19
393.658	354.19
393.882	368.19
394.107	354.19
394.331	346.19
394.556	341.19
394.78	338.19
395.005	345.19
395.229	342.19
395.454	339.19
395.678	366.19
395.903	363.19
396.127	374.19
396.352	361.19
396.576	360.19
396.801	344.19
397.025	357.19
397.249	350.19
397.474	361.19
397.698	370.19
397.922	370.19
398.147	380.19
398.371	392.19
398.595	365.19
398.82	384.19
399.044	382.19
399.268	397.19
399.492	405.19
399.717	424.19
399.941	425.19
400.165	467.19
400.389	459.19
400.613	440.19
400.837	407.19
401.062	394.19
401.286	384.19
401.51	381.19
401.734	357.19
401.958	387.19
402.182	369.19
402.406	382.19
402.63	383.19
402.854	388.19
403.078	382.19
403.302	376.19
403.526	408.19
403.75	385.19
403.974	390.19
404.198	387.19
404.422	381.19
404.645	386.19
404.869	392.19
405.093	419.19
405.317	422.19
405.541	469.19
405.765	421.19
405.988	423.19
406.212	415.19
406.436	449.19
406.66	452.19
406.883	426.19
407.107	446.19
407.331	493.19
407.555	546.19
407.778	525.19
408.002	485.19
408.226	451.19
408.449	450.19
408.673	432.19
408.896	458.19
409.12	491.19
409.344	465.19
409.567	410.19
409.791	411.19
410.014	399.19
410.238	404.19
410.461	428.19
410.685	394.19
410.908	409.19
411.132	430.19
411.355	455.19
411.578	429.19
411.802	410.19
412.025	389.19
412.249	408.19
412.472	402.19
412.695	411.19
412.919	432.19
413.142	370.19
413.365	382.19
413.589	374.19
413.812	346.19
414.035	397.19
414.258	385.19
414.482	357.19
414.705	374.19
414.928	358.19
415.151	373.19
415.374	368.19
415.597	389.19
415.821	369.19
416.044	393.19
416.267	359.19
416.49	381.19
416.713	373.19
416.936	371.19
417.159	384.19
417.382	366.19
417.605	369.19
417.828	360.19
418.051	390.19
418.274	374.19
418.497	376.19
418.72	377.19
418.943	360.19
419.166	370.19
419.389	379.19
419.611	393.19
419.834	390.19
420.057	381.19
420.28	388.19
420.503	379.19
420.726	392.19
420.948	403.19
421.171	436.19
421.394	422.19
421.617	417.19
421.839	394.19
422.062	398.19
422.285	388.19
422.507	444.19
422.73	484.19
422.953	500.19
423.175	435.19
423.398	423.19
423.621	391.19
423.843	419.19
424.066	410.19
424.288	418.19
424.511	446.19
424.733	479.19
424.956	530.19
425.178	534.19
425.401	517.19
425.623	537.19
425.846	468.19
426.068	434.19
426.291	410.19
426.513	418.19
426.735	448.19
426.958	476.19
427.18	528.19
427.402	606.19
427.625	697.19
427.847	589.19
428.069	504.19
428.292	468.19
428.514	444.19
428.736	418.19
428.958	420.19
429.181	384.19
429.403	381.19
429.625	390.19
429.847	440.19
430.069	483.19
430.292	471.19
430.514	405.19
430.736	393.19
430.958	386.19
431.18	382.19
431.402	381.19
431.624	376.19
431.846	371.19
432.068	345.19
432.29	363.19
432.512	356.19
432.734	360.19
432.956	358.19
433.178	379.19
433.4	380.19
433.622	387.19
433.844	376.19
434.066	366.19
434.287	344.19
434.509	369.19
434.731	390.19
434.953	378.19
435.175	395.19
435.397	400.19
435.618	438.19
435.84	448.19
436.062	541.19
436.284	604.19
436.505	489.19
436.727	428.19
436.949	399.19
437.17	413.19
437.392	415.19
437.614	405.19
437.835	452.19
438.057	514.19
438.278	582.19
438.5	598.19
438.721	644.19
438.943	574.19
439.165	480.19
439.386	457.19
439.608	464.19
439.829	447.19
440.05	472.19
440.272	498.19
440.493	474.19
440.715	436.19
440.936	412.19
441.158	412.19
441.379	382.19
441.6	425.19
441.822	414.19
442.043	465.19
442.264	520.19
442.486	572.19
442.707	462.19
442.928	422.19
443.149	456.19
443.371	445.19
443.592	482.19
443.813	553.19
444.034	612.19
444.255	501.19
444.476	452.19
444.698	441.19
444.919	436.19
445.14	522.19
445.361	466.19
445.582	465.19
445.803	517.19
446.024	576.19
446.245	580.19
446.466	566.19
446.687	469.19
446.908	430.19
447.129	423.19
447.35	392.19
447.571	379.19
447.792	434.19
448.013	402.19
448.234	419.19
448.455	477.19
448.675	545.19
448.896	617.19
449.117	534.19
449.338	527.19
449.559	588.19
449.779	672.19
450	534.19
450.221	433.19
450.442	408.19
450.662	427.19
450.883	397.19
451.104	412.19
451.324	396.19
451.545	380.19
451.766	358.19
451.986	363.19
452.207	364.19
452.428	350.19
452.648	353.19
452.869	346.19
453.089	373.19
453.31	392.19
453.53	352.19
453.751	376.19
453.971	366.19
454.192	380.19
454.412	380.19
454.633	359.19
454.853	350.19
455.073	356.19
455.294	382.19
455.514	427.19
455.734	424.19
455.955	371.19
456.175	339.19
456.395	339.19
456.616	333.19
456.836	333.19
457.056	349.19
457.276	328.19
457.497	339.19
457.717	335.19
457.937	340.19
458.157	341.19
458.377	341.19
458.598	375.19
458.818	418.19
459.038	454.19
459.258	478.19
459.478	413.19
459.698	367.19
459.918	369.19
460.138	357.19
460.358	376.19
460.578	374.19
460.798	371.19
461.018	356.19
461.238	360.19
461.458	380.19
461.678	354.19
461.898	376.19
462.118	377.19
462.338	361.19
462.558	365.19
462.777	379.19
462.997	378.19
463.217	380.19
463.437	384.19
463.657	388.19
463.876	384.19
464.096	378.19
464.316	390.19
464.536	396.19
464.755	374.19
464.975	395.19
465.195	443.19
465.414	486.19
465.634	438.19
465.854	385.19
466.073	380.19
466.293	370.19
466.512	358.19
466.732	346.19
466.951	348.19
467.171	338.19
467.391	359.19
467.61	354.19
467.829	373.19
468.049	375.19
468.268	350.19
468.488	358.19
468.707	353.19
468.927	345.19
469.146	345.19
469.365	370.19
469.585	368.19
469.804	357.19
470.023	372.19
470.243	368.19
470.462	383.19
470.681	385.19
470.901	365.19
471.12	368.19
471.339	361.19
471.558	358.19
471.777	364.19
471.997	360.19
472.216	381.19
472.435	398.19
472.654	357.19
472.873	374.19
473.092	360.19
473.311	378.19
473.53	380.19
473.749	360.19
473.968	414.19
474.187	484.19
474.406	505.19
474.625	418.19
474.844	388.19
475.063	385.19
475.282	352.19
475.501	386.19
475.72	380.19
475.939	382.19
476.158	365.19
476.377	379.19
476.596	363.19
476.814	388.19
477.033	394.19
477.252	397.19
477.471	395.19
477.69	382.19
477.908	408.19
478.127	395.19
478.346	395.19
478.564	400.19
478.783	388.19
479.002	407.19
479.22	376.19
479.439	407.19
479.658	411.19
479.876	428.19
480.095	443.19
480.313	462.19
480.532	427.19
480.751	434.19
480.969	449.19
481.188	485.19
481.406	481.19
481.624	456.19
481.843	448.19
482.061	438.19
482.28	439.19
482.498	433.19
482.717	407.19
482.935	399.19
483.153	424.19
483.372	418.19
483.59	436.19
483.808	430.19
484.027	445.19
484.245	434.19
484.463	440.19
484.681	442.19
484.9	455.19
485.118	429.19
485.336	444.19
485.554	432.19
485.772	444.19
485.99	458.19
486.209	476.19
486.427	442.19
486.645	455.19
486.863	454.19
487.081	473.19
487.299	446.19
487.517	467.19
487.735	446.19
487.953	440.19
488.171	453.19
488.389	460.19
488.607	480.19
488.825	460.19
489.043	471.19
489.261	447.19
489.479	461.19
489.696	448.19
489.914	445.19
490.132	482.19
490.35	479.19
490.568	469.19
490.786	482.19
491.003	480.19
491.221	481.19
491.439	516.19
491.657	512.19
491.874	512.19
492.092	518.19
492.31	504.19
492.527	524.19
492.745	516.19
492.963	514.19
493.18	511.19
493.398	503.19
493.615	514.19
493.833	536.19
494.05	513.19
494.268	525.19
494.485	541.19
494.703	540.19
494.92	525.19
495.138	540.19
495.355	547.19
495.573	528.19
495.79	540.19
496.008	535.19
496.225	548.19
496.442	530.19
496.66	532.19
496.877	556.19
497.094	531.19
497.312	556.19
497.529	536.19
497.746	570.19
497.963	551.19
498.181	577.19
498.398	558.19
498.615	555.19
498.832	583.19
499.049	606.19
499.267	610.19
499.484	596.19
499.701	618.19
499.918	643.19
500.135	663.19
500.352	661.19
500.569	668.19
500.786	661.19
501.003	676.19
501.22	646.19
501.437	647.19
501.654	650.19
501.871	656.19
502.088	612.19
