Data from 1981.PennyLincolnUp.Lamp.En5.5.200Scan.071819.P1_HRD10591_16-43-13-959.txt Node
Date: Thu Jul 18 16:43:13 EDT 2019
User: cochatt
Spectrometer: HR+D1059
Trigger mode: 1
Integration Time (sec): 1.000000E-1
Scans to average: 1
Electric dark correction enabled: true
Nonlinearity correction enabled: false
Boxcar width: 0
XAxis mode: Wavelengths
Number of Pixels in Spectrum: 2048
>>>>>Begin Spectral Data<<<<<
223.165	-6.81
223.4	-6.81
223.635	-6.81
223.869	-16.81
224.104	-10.81
224.338	-17.81
224.573	-15.81
224.808	-18.81
225.042	-2.81
225.277	-10.81
225.511	3.19
225.746	10.19
225.98	12.19
226.215	11.19
226.449	13.19
226.683	9.19
226.918	12.19
227.152	29.19
227.387	36.19
227.621	36.19
227.856	34.19
228.09	35.19
228.324	42.19
228.559	52.19
228.793	73.19
229.027	101.19
229.262	119.19
229.496	122.19
229.73	126.19
229.964	164.19
230.199	131.19
230.433	125.19
230.667	112.19
230.901	98.19
231.136	115.19
231.37	114.19
231.604	108.19
231.838	104.19
232.072	122.19
232.306	120.19
232.541	132.19
232.775	113.19
233.009	109.19
233.243	110.19
233.477	101.19
233.711	108.19
233.945	122.19
234.179	117.19
234.413	117.19
234.647	119.19
234.881	121.19
235.115	106.19
235.349	104.19
235.583	108.19
235.817	129.19
236.051	142.19
236.285	133.19
236.519	135.19
236.753	122.19
236.987	150.19
237.221	193.19
237.455	245.19
237.689	200.19
237.922	144.19
238.156	126.19
238.39	137.19
238.624	135.19
238.858	126.19
239.091	132.19
239.325	135.19
239.559	126.19
239.793	136.19
240.027	141.19
240.26	140.19
240.494	172.19
240.728	159.19
240.961	150.19
241.195	143.19
241.429	150.19
241.662	153.19
241.896	137.19
242.13	147.19
242.363	137.19
242.597	122.19
242.83	142.19
243.064	141.19
243.298	150.19
243.531	141.19
243.765	139.19
243.998	155.19
244.232	139.19
244.465	141.19
244.699	136.19
244.932	149.19
245.166	154.19
245.399	138.19
245.633	143.19
245.866	156.19
246.099	155.19
246.333	164.19
246.566	157.19
246.8	155.19
247.033	157.19
247.266	158.19
247.5	162.19
247.733	173.19
247.966	176.19
248.2	179.19
248.433	183.19
248.666	193.19
248.899	192.19
249.133	227.19
249.366	223.19
249.599	206.19
249.832	188.19
250.066	203.19
250.299	205.19
250.532	212.19
250.765	213.19
250.998	232.19
251.231	250.19
251.465	228.19
251.698	210.19
251.931	217.19
252.164	217.19
252.397	193.19
252.63	205.19
252.863	217.19
253.096	226.19
253.329	257.19
253.562	250.19
253.795	221.19
254.028	242.19
254.261	249.19
254.494	255.19
254.727	275.19
254.96	285.19
255.193	307.19
255.426	266.19
255.659	262.19
255.892	262.19
256.124	237.19
256.357	273.19
256.59	221.19
256.823	223.19
257.056	230.19
257.289	238.19
257.521	217.19
257.754	207.19
257.987	252.19
258.22	214.19
258.452	220.19
258.685	221.19
258.918	223.19
259.151	236.19
259.383	249.19
259.616	245.19
259.849	235.19
260.081	250.19
260.314	271.19
260.547	280.19
260.779	290.19
261.012	249.19
261.244	238.19
261.477	247.19
261.71	229.19
261.942	246.19
262.175	259.19
262.407	264.19
262.64	232.19
262.872	230.19
263.105	241.19
263.337	236.19
263.57	230.19
263.802	229.19
264.035	230.19
264.267	218.19
264.499	233.19
264.732	224.19
264.964	226.19
265.197	236.19
265.429	238.19
265.661	231.19
265.894	216.19
266.126	230.19
266.358	225.19
266.591	221.19
266.823	217.19
267.055	226.19
267.287	236.19
267.52	242.19
267.752	228.19
267.984	217.19
268.216	248.19
268.448	248.19
268.681	268.19
268.913	264.19
269.145	266.19
269.377	309.19
269.609	297.19
269.841	291.19
270.073	297.19
270.306	326.19
270.538	346.19
270.77	339.19
271.002	329.19
271.234	321.19
271.466	330.19
271.698	342.19
271.93	355.19
272.162	369.19
272.394	349.19
272.626	329.19
272.858	316.19
273.09	306.19
273.322	301.19
273.553	295.19
273.785	293.19
274.017	289.19
274.249	317.19
274.481	298.19
274.713	279.19
274.945	299.19
275.176	283.19
275.408	275.19
275.64	290.19
275.872	269.19
276.104	296.19
276.335	293.19
276.567	285.19
276.799	303.19
277.031	330.19
277.262	352.19
277.494	341.19
277.726	344.19
277.957	319.19
278.189	301.19
278.421	308.19
278.652	309.19
278.884	285.19
279.115	283.19
279.347	290.19
279.579	287.19
279.81	262.19
280.042	297.19
280.273	273.19
280.505	283.19
280.736	291.19
280.968	279.19
281.199	277.19
281.431	270.19
281.662	295.19
281.894	282.19
282.125	277.19
282.356	302.19
282.588	330.19
282.819	337.19
283.051	296.19
283.282	291.19
283.513	307.19
283.745	282.19
283.976	301.19
284.207	285.19
284.439	295.19
284.67	294.19
284.901	293.19
285.132	286.19
285.364	279.19
285.595	298.19
285.826	285.19
286.057	282.19
286.288	297.19
286.52	292.19
286.751	271.19
286.982	294.19
287.213	286.19
287.444	280.19
287.675	300.19
287.906	315.19
288.138	311.19
288.369	313.19
288.6	307.19
288.831	316.19
289.062	300.19
289.293	303.19
289.524	309.19
289.755	280.19
289.986	289.19
290.217	275.19
290.448	298.19
290.679	293.19
290.91	307.19
291.141	302.19
291.371	279.19
291.602	312.19
291.833	313.19
292.064	271.19
292.295	305.19
292.526	289.19
292.757	294.19
292.987	291.19
293.218	308.19
293.449	293.19
293.68	287.19
293.91	297.19
294.141	304.19
294.372	303.19
294.603	281.19
294.833	297.19
295.064	293.19
295.295	313.19
295.525	297.19
295.756	307.19
295.987	311.19
296.217	335.19
296.448	376.19
296.679	325.19
296.909	301.19
297.14	311.19
297.37	299.19
297.601	302.19
297.831	313.19
298.062	302.19
298.292	311.19
298.523	317.19
298.753	305.19
298.984	287.19
299.214	295.19
299.445	315.19
299.675	298.19
299.905	327.19
300.136	309.19
300.366	316.19
300.597	309.19
300.827	323.19
301.057	338.19
301.288	334.19
301.518	346.19
301.748	332.19
301.979	338.19
302.209	330.19
302.439	321.19
302.669	343.19
302.9	333.19
303.13	326.19
303.36	354.19
303.59	362.19
303.82	346.19
304.051	350.19
304.281	337.19
304.511	335.19
304.741	340.19
304.971	324.19
305.201	323.19
305.431	335.19
305.661	347.19
305.891	338.19
306.121	351.19
306.352	349.19
306.582	367.19
306.812	327.19
307.042	323.19
307.272	319.19
307.502	360.19
307.731	337.19
307.961	333.19
308.191	346.19
308.421	357.19
308.651	358.19
308.881	340.19
309.111	353.19
309.341	358.19
309.571	378.19
309.8	382.19
310.03	376.19
310.26	408.19
310.49	403.19
310.72	414.19
310.949	401.19
311.179	441.19
311.409	397.19
311.639	398.19
311.868	411.19
312.098	390.19
312.328	414.19
312.557	441.19
312.787	438.19
313.017	433.19
313.246	422.19
313.476	399.19
313.706	401.19
313.935	388.19
314.165	427.19
314.394	429.19
314.624	423.19
314.853	412.19
315.083	411.19
315.312	388.19
315.542	391.19
315.771	395.19
316.001	400.19
316.23	395.19
316.46	370.19
316.689	393.19
316.919	403.19
317.148	415.19
317.377	420.19
317.607	410.19
317.836	405.19
318.065	387.19
318.295	383.19
318.524	407.19
318.753	399.19
318.983	394.19
319.212	392.19
319.441	425.19
319.67	404.19
319.9	393.19
320.129	378.19
320.358	405.19
320.587	400.19
320.816	414.19
321.046	428.19
321.275	403.19
321.504	395.19
321.733	427.19
321.962	432.19
322.191	462.19
322.42	474.19
322.649	492.19
322.878	505.19
323.108	494.19
323.337	549.19
323.566	593.19
323.795	639.19
324.024	703.19
324.253	822.19
324.482	1221.19
324.71	1876.19
324.939	2585.19
325.168	2225.19
325.397	1120.19
325.626	766.19
325.855	615.19
326.084	581.19
326.313	587.19
326.542	587.19
326.77	633.19
326.999	758.19
327.228	1091.19
327.457	1635.19
327.686	1921.19
327.914	1309.19
328.143	819.19
328.372	738.19
328.6	690.19
328.829	654.19
329.058	663.19
329.287	687.19
329.515	600.19
329.744	583.19
329.972	565.19
330.201	589.19
330.43	617.19
330.658	654.19
330.887	702.19
331.115	689.19
331.344	574.19
331.572	538.19
331.801	512.19
332.03	506.19
332.258	489.19
332.486	477.19
332.715	487.19
332.943	444.19
333.172	477.19
333.4	467.19
333.629	482.19
333.857	496.19
334.085	509.19
334.314	508.19
334.542	566.19
334.771	571.19
334.999	519.19
335.227	485.19
335.455	476.19
335.684	446.19
335.912	450.19
336.14	478.19
336.369	431.19
336.597	456.19
336.825	454.19
337.053	443.19
337.281	433.19
337.51	429.19
337.738	453.19
337.966	443.19
338.194	444.19
338.422	438.19
338.65	437.19
338.878	424.19
339.106	432.19
339.334	450.19
339.562	433.19
339.79	427.19
340.018	451.19
340.246	428.19
340.474	432.19
340.702	458.19
340.93	444.19
341.158	433.19
341.386	437.19
341.614	417.19
341.842	425.19
342.07	419.19
342.298	430.19
342.526	414.19
342.754	418.19
342.981	419.19
343.209	414.19
343.437	413.19
343.665	437.19
343.893	430.19
344.12	408.19
344.348	422.19
344.576	426.19
344.804	434.19
345.031	445.19
345.259	469.19
345.487	444.19
345.714	458.19
345.942	431.19
346.17	408.19
346.397	421.19
346.625	407.19
346.853	425.19
347.08	417.19
347.308	425.19
347.535	420.19
347.763	437.19
347.99	442.19
348.218	425.19
348.445	451.19
348.673	449.19
348.9	432.19
349.128	427.19
349.355	430.19
349.583	430.19
349.81	400.19
350.037	413.19
350.265	395.19
350.492	421.19
350.72	403.19
350.947	420.19
351.174	419.19
351.402	431.19
351.629	434.19
351.856	443.19
352.083	408.19
352.311	418.19
352.538	426.19
352.765	435.19
352.992	417.19
353.22	430.19
353.447	418.19
353.674	405.19
353.901	394.19
354.128	387.19
354.355	385.19
354.583	374.19
354.81	395.19
355.037	370.19
355.264	357.19
355.491	365.19
355.718	362.19
355.945	366.19
356.172	371.19
356.399	356.19
356.626	363.19
356.853	372.19
357.08	371.19
357.307	375.19
357.534	375.19
357.761	383.19
357.988	371.19
358.215	387.19
358.441	364.19
358.668	393.19
358.895	391.19
359.122	392.19
359.349	393.19
359.576	406.19
359.802	443.19
360.029	457.19
360.256	487.19
360.483	452.19
360.709	413.19
360.936	402.19
361.163	425.19
361.39	405.19
361.616	425.19
361.843	418.19
362.07	411.19
362.296	406.19
362.523	410.19
362.749	417.19
362.976	409.19
363.203	395.19
363.429	379.19
363.656	382.19
363.882	379.19
364.109	398.19
364.335	379.19
364.562	381.19
364.788	379.19
365.015	400.19
365.241	371.19
365.468	398.19
365.694	377.19
365.92	395.19
366.147	397.19
366.373	372.19
366.599	381.19
366.826	366.19
367.052	371.19
367.278	375.19
367.505	374.19
367.731	381.19
367.957	386.19
368.184	375.19
368.41	377.19
368.636	412.19
368.862	377.19
369.089	383.19
369.315	383.19
369.541	377.19
369.767	374.19
369.993	376.19
370.219	358.19
370.445	373.19
370.672	358.19
370.898	346.19
371.124	366.19
371.35	355.19
371.576	375.19
371.802	377.19
372.028	362.19
372.254	363.19
372.48	379.19
372.706	365.19
372.932	347.19
373.158	353.19
373.384	366.19
373.61	369.19
373.835	371.19
374.061	373.19
374.287	383.19
374.513	356.19
374.739	373.19
374.965	383.19
375.191	360.19
375.416	363.19
375.642	365.19
375.868	377.19
376.094	361.19
376.319	344.19
376.545	369.19
376.771	359.19
376.997	353.19
377.222	365.19
377.448	353.19
377.674	342.19
377.899	365.19
378.125	355.19
378.35	350.19
378.576	353.19
378.802	337.19
379.027	363.19
379.253	354.19
379.478	363.19
379.704	357.19
379.929	358.19
380.155	365.19
380.38	346.19
380.606	349.19
380.831	369.19
381.057	375.19
381.282	347.19
381.507	358.19
381.733	365.19
381.958	352.19
382.184	364.19
382.409	361.19
382.634	360.19
382.86	359.19
383.085	369.19
383.31	377.19
383.535	371.19
383.761	371.19
383.986	363.19
384.211	369.19
384.436	378.19
384.662	342.19
384.887	371.19
385.112	363.19
385.337	359.19
385.562	356.19
385.787	394.19
386.013	401.19
386.238	381.19
386.463	366.19
386.688	379.19
386.913	375.19
387.138	371.19
387.363	373.19
387.588	379.19
387.813	372.19
388.038	381.19
388.263	396.19
388.488	373.19
388.713	372.19
388.938	371.19
389.163	379.19
389.387	363.19
389.612	361.19
389.837	381.19
390.062	352.19
390.287	363.19
390.512	369.19
390.736	367.19
390.961	343.19
391.186	363.19
391.411	380.19
391.636	376.19
391.86	372.19
392.085	363.19
392.31	363.19
392.534	371.19
392.759	387.19
392.984	362.19
393.208	355.19
393.433	372.19
393.658	366.19
393.882	381.19
394.107	378.19
394.331	385.19
394.556	374.19
394.78	372.19
395.005	372.19
395.229	372.19
395.454	358.19
395.678	373.19
395.903	388.19
396.127	400.19
396.352	430.19
396.576	390.19
396.801	366.19
397.025	385.19
397.249	381.19
397.474	383.19
397.698	396.19
397.922	418.19
398.147	407.19
398.371	409.19
398.595	393.19
398.82	396.19
399.044	407.19
399.268	414.19
399.492	436.19
399.717	448.19
399.941	489.19
400.165	484.19
400.389	518.19
400.613	473.19
400.837	439.19
401.062	431.19
401.286	429.19
401.51	421.19
401.734	435.19
401.958	419.19
402.182	412.19
402.406	439.19
402.63	418.19
402.854	398.19
403.078	413.19
403.302	427.19
403.526	430.19
403.75	440.19
403.974	421.19
404.198	424.19
404.422	419.19
404.645	450.19
404.869	459.19
405.093	507.19
405.317	527.19
405.541	537.19
405.765	466.19
405.988	439.19
406.212	458.19
406.436	488.19
406.66	492.19
406.883	475.19
407.107	510.19
407.331	544.19
407.555	584.19
407.778	592.19
408.002	522.19
408.226	474.19
408.449	463.19
408.673	482.19
408.896	494.19
409.12	523.19
409.344	522.19
409.567	468.19
409.791	465.19
410.014	456.19
410.238	411.19
410.461	421.19
410.685	416.19
410.908	447.19
411.132	469.19
411.355	513.19
411.578	468.19
411.802	438.19
412.025	436.19
412.249	440.19
412.472	454.19
412.695	500.19
412.919	506.19
413.142	435.19
413.365	428.19
413.589	398.19
413.812	421.19
414.035	414.19
414.258	418.19
414.482	407.19
414.705	417.19
414.928	398.19
415.151	425.19
415.374	401.19
415.597	400.19
415.821	411.19
416.044	392.19
416.267	420.19
416.49	423.19
416.713	415.19
416.936	416.19
417.159	387.19
417.382	413.19
417.605	427.19
417.828	414.19
418.051	429.19
418.274	448.19
418.497	409.19
418.72	411.19
418.943	415.19
419.166	423.19
419.389	416.19
419.611	418.19
419.834	424.19
420.057	411.19
420.28	418.19
420.503	428.19
420.726	423.19
420.948	442.19
421.171	487.19
421.394	529.19
421.617	473.19
421.839	426.19
422.062	429.19
422.285	451.19
422.507	515.19
422.73	577.19
422.953	553.19
423.175	473.19
423.398	477.19
423.621	460.19
423.843	478.19
424.066	460.19
424.288	470.19
424.511	494.19
424.733	548.19
424.956	629.19
425.178	586.19
425.401	595.19
425.623	625.19
425.846	512.19
426.068	473.19
426.291	472.19
426.513	467.19
426.735	486.19
426.958	523.19
427.18	625.19
427.402	714.19
427.625	796.19
427.847	699.19
428.069	604.19
428.292	561.19
428.514	474.19
428.736	450.19
428.958	460.19
429.181	447.19
429.403	444.19
429.625	447.19
429.847	492.19
430.069	552.19
430.292	543.19
430.514	487.19
430.736	451.19
430.958	450.19
431.18	419.19
431.402	410.19
431.624	409.19
431.846	400.19
432.068	383.19
432.29	412.19
432.512	387.19
432.734	417.19
432.956	410.19
433.178	419.19
433.4	422.19
433.622	413.19
433.844	419.19
434.066	391.19
434.287	390.19
434.509	397.19
434.731	424.19
434.953	426.19
435.175	434.19
435.397	456.19
435.618	470.19
435.84	540.19
436.062	620.19
436.284	643.19
436.505	549.19
436.727	499.19
436.949	474.19
437.17	445.19
437.392	472.19
437.614	477.19
437.835	477.19
438.057	601.19
438.278	687.19
438.5	683.19
438.721	706.19
438.943	683.19
439.165	569.19
439.386	535.19
439.608	515.19
439.829	501.19
440.05	511.19
440.272	583.19
440.493	545.19
440.715	481.19
440.936	465.19
441.158	470.19
441.379	441.19
441.6	454.19
441.822	460.19
442.043	539.19
442.264	604.19
442.486	622.19
442.707	522.19
442.928	507.19
443.149	488.19
443.371	503.19
443.592	587.19
443.813	648.19
444.034	691.19
444.255	572.19
444.476	498.19
444.698	473.19
444.919	495.19
445.14	551.19
445.361	522.19
445.582	525.19
445.803	605.19
446.024	697.19
446.245	699.19
446.466	635.19
446.687	553.19
446.908	495.19
447.129	454.19
447.35	447.19
447.571	450.19
447.792	454.19
448.013	461.19
448.234	475.19
448.455	529.19
448.675	630.19
448.896	716.19
449.117	585.19
449.338	596.19
449.559	698.19
449.779	743.19
450	617.19
450.221	485.19
450.442	466.19
450.662	423.19
450.883	458.19
451.104	473.19
451.324	470.19
451.545	445.19
451.766	423.19
451.986	405.19
452.207	393.19
452.428	399.19
452.648	386.19
452.869	393.19
453.089	400.19
453.31	423.19
453.53	397.19
453.751	406.19
453.971	409.19
454.192	431.19
454.412	399.19
454.633	395.19
454.853	391.19
455.073	398.19
455.294	422.19
455.514	499.19
455.734	494.19
455.955	407.19
456.175	379.19
456.395	378.19
456.616	366.19
456.836	377.19
457.056	375.19
457.276	355.19
457.497	373.19
457.717	375.19
457.937	375.19
458.157	381.19
458.377	390.19
458.598	423.19
458.818	461.19
459.038	556.19
459.258	563.19
459.478	480.19
459.698	417.19
459.918	405.19
460.138	423.19
460.358	408.19
460.578	377.19
460.798	423.19
461.018	409.19
461.238	392.19
461.458	405.19
461.678	387.19
461.898	411.19
462.118	397.19
462.338	427.19
462.558	427.19
462.777	408.19
462.997	410.19
463.217	417.19
463.437	423.19
463.657	389.19
463.876	421.19
464.096	433.19
464.316	403.19
464.536	425.19
464.755	435.19
464.975	434.19
465.195	491.19
465.414	582.19
465.634	491.19
465.854	451.19
466.073	406.19
466.293	410.19
466.512	393.19
466.732	399.19
466.951	405.19
467.171	391.19
467.391	413.19
467.61	405.19
467.829	405.19
468.049	391.19
468.268	396.19
468.488	395.19
468.707	379.19
468.927	391.19
469.146	393.19
469.365	387.19
469.585	364.19
469.804	380.19
470.023	401.19
470.243	406.19
470.462	416.19
470.681	440.19
470.901	418.19
471.12	411.19
471.339	405.19
471.558	409.19
471.777	409.19
471.997	413.19
472.216	395.19
472.435	438.19
472.654	420.19
472.873	405.19
473.092	389.19
473.311	396.19
473.53	408.19
473.749	395.19
473.968	472.19
474.187	570.19
474.406	572.19
474.625	465.19
474.844	435.19
475.063	404.19
475.282	413.19
475.501	402.19
475.72	416.19
475.939	426.19
476.158	409.19
476.377	422.19
476.596	412.19
476.814	425.19
477.033	433.19
477.252	446.19
477.471	441.19
477.69	419.19
477.908	437.19
478.127	440.19
478.346	449.19
478.564	450.19
478.783	443.19
479.002	456.19
479.22	427.19
479.439	452.19
479.658	493.19
479.876	474.19
480.095	479.19
480.313	524.19
480.532	509.19
480.751	487.19
480.969	493.19
481.188	557.19
481.406	608.19
481.624	513.19
481.843	504.19
482.061	482.19
482.28	481.19
482.498	478.19
482.717	471.19
482.935	460.19
483.153	489.19
483.372	475.19
483.59	465.19
483.808	464.19
484.027	495.19
484.245	488.19
484.463	482.19
484.681	462.19
484.9	470.19
485.118	487.19
485.336	478.19
485.554	466.19
485.772	498.19
485.99	489.19
486.209	490.19
486.427	493.19
486.645	489.19
486.863	509.19
487.081	528.19
487.299	499.19
487.517	535.19
487.735	507.19
487.953	503.19
488.171	511.19
488.389	484.19
488.607	522.19
488.825	502.19
489.043	528.19
489.261	511.19
489.479	509.19
489.696	500.19
489.914	527.19
490.132	533.19
490.35	523.19
490.568	509.19
490.786	539.19
491.003	564.19
491.221	576.19
491.439	563.19
491.657	557.19
491.874	587.19
492.092	587.19
492.31	594.19
492.527	587.19
492.745	602.19
492.963	579.19
493.18	597.19
493.398	615.19
493.615	607.19
493.833	615.19
494.05	594.19
494.268	602.19
494.485	595.19
494.703	584.19
494.92	605.19
495.138	622.19
495.355	592.19
495.573	611.19
495.79	606.19
496.008	603.19
496.225	594.19
496.442	609.19
496.66	622.19
496.877	614.19
497.094	622.19
497.312	606.19
497.529	627.19
497.746	617.19
497.963	635.19
498.181	659.19
498.398	642.19
498.615	663.19
498.832	666.19
499.049	665.19
499.267	649.19
499.484	670.19
499.701	698.19
499.918	683.19
500.135	696.19
500.352	723.19
500.569	730.19
500.786	755.19
501.003	736.19
501.22	740.19
501.437	733.19
501.654	719.19
501.871	707.19
