Data from 1981.PennyLincolnUp.Lamp.En5.5.200Scan.071819.P1_HRD10591_16-41-21-958.txt Node
Date: Thu Jul 18 16:41:21 EDT 2019
User: cochatt
Spectrometer: HR+D1059
Trigger mode: 1
Integration Time (sec): 1.000000E-1
Scans to average: 1
Electric dark correction enabled: true
Nonlinearity correction enabled: false
Boxcar width: 0
XAxis mode: Wavelengths
Number of Pixels in Spectrum: 2048
>>>>>Begin Spectral Data<<<<<
223.165	-14.06
223.4	-14.06
223.635	-14.06
223.869	-18.06
224.104	-16.06
224.338	-18.06
224.573	-3.06
224.808	-14.06
225.042	-14.06
225.277	-7.06
225.511	-7.06
225.746	-0.06
225.98	10.94
226.215	18.94
226.449	8.94
226.683	18.94
226.918	22.94
227.152	30.94
227.387	22.94
227.621	21.94
227.856	29.94
228.09	48.94
228.324	46.94
228.559	55.94
228.793	74.94
229.027	96.94
229.262	113.94
229.496	118.94
229.73	146.94
229.964	145.94
230.199	123.94
230.433	100.94
230.667	108.94
230.901	124.94
231.136	100.94
231.37	117.94
231.604	95.94
231.838	101.94
232.072	118.94
232.306	111.94
232.541	109.94
232.775	109.94
233.009	112.94
233.243	118.94
233.477	105.94
233.711	129.94
233.945	115.94
234.179	106.94
234.413	114.94
234.647	119.94
234.881	120.94
235.115	121.94
235.349	129.94
235.583	104.94
235.817	106.94
236.051	114.94
236.285	115.94
236.519	116.94
236.753	119.94
236.987	151.94
237.221	176.94
237.455	221.94
237.689	180.94
237.922	134.94
238.156	135.94
238.39	134.94
238.624	135.94
238.858	120.94
239.091	111.94
239.325	104.94
239.559	114.94
239.793	132.94
240.027	123.94
240.26	145.94
240.494	155.94
240.728	150.94
240.961	149.94
241.195	153.94
241.429	129.94
241.662	132.94
241.896	138.94
242.13	145.94
242.363	119.94
242.597	140.94
242.83	130.94
243.064	147.94
243.298	135.94
243.531	130.94
243.765	127.94
243.998	113.94
244.232	142.94
244.465	143.94
244.699	142.94
244.932	141.94
245.166	139.94
245.399	140.94
245.633	146.94
245.866	135.94
246.099	139.94
246.333	141.94
246.566	138.94
246.8	145.94
247.033	155.94
247.266	157.94
247.5	145.94
247.733	170.94
247.966	157.94
248.2	170.94
248.433	153.94
248.666	192.94
248.899	193.94
249.133	178.94
249.366	205.94
249.599	181.94
249.832	194.94
250.066	179.94
250.299	184.94
250.532	194.94
250.765	210.94
250.998	211.94
251.231	229.94
251.465	226.94
251.698	207.94
251.931	215.94
252.164	209.94
252.397	209.94
252.63	210.94
252.863	198.94
253.096	202.94
253.329	224.94
253.562	232.94
253.795	247.94
254.028	221.94
254.261	197.94
254.494	228.94
254.727	256.94
254.96	283.94
255.193	282.94
255.426	250.94
255.659	248.94
255.892	224.94
256.124	234.94
256.357	248.94
256.59	237.94
256.823	218.94
257.056	205.94
257.289	215.94
257.521	218.94
257.754	222.94
257.987	193.94
258.22	207.94
258.452	210.94
258.685	229.94
258.918	214.94
259.151	229.94
259.383	231.94
259.616	231.94
259.849	231.94
260.081	226.94
260.314	255.94
260.547	271.94
260.779	246.94
261.012	230.94
261.244	226.94
261.477	238.94
261.71	241.94
261.942	226.94
262.175	231.94
262.407	238.94
262.64	222.94
262.872	240.94
263.105	211.94
263.337	207.94
263.57	235.94
263.802	216.94
264.035	214.94
264.267	209.94
264.499	197.94
264.732	203.94
264.964	203.94
265.197	199.94
265.429	207.94
265.661	215.94
265.894	217.94
266.126	220.94
266.358	205.94
266.591	232.94
266.823	224.94
267.055	219.94
267.287	232.94
267.52	229.94
267.752	222.94
267.984	220.94
268.216	221.94
268.448	239.94
268.681	238.94
268.913	252.94
269.145	270.94
269.377	273.94
269.609	286.94
269.841	277.94
270.073	300.94
270.306	291.94
270.538	311.94
270.77	310.94
271.002	306.94
271.234	303.94
271.466	315.94
271.698	323.94
271.93	322.94
272.162	312.94
272.394	318.94
272.626	327.94
272.858	322.94
273.09	288.94
273.322	285.94
273.553	271.94
273.785	267.94
274.017	286.94
274.249	270.94
274.481	277.94
274.713	263.94
274.945	279.94
275.176	274.94
275.408	263.94
275.64	265.94
275.872	266.94
276.104	271.94
276.335	294.94
276.567	281.94
276.799	301.94
277.031	312.94
277.262	315.94
277.494	304.94
277.726	305.94
277.957	289.94
278.189	288.94
278.421	287.94
278.652	272.94
278.884	282.94
279.115	275.94
279.347	273.94
279.579	272.94
279.81	268.94
280.042	271.94
280.273	285.94
280.505	266.94
280.736	278.94
280.968	271.94
281.199	259.94
281.431	285.94
281.662	285.94
281.894	273.94
282.125	279.94
282.356	297.94
282.588	294.94
282.819	295.94
283.051	290.94
283.282	262.94
283.513	291.94
283.745	282.94
283.976	271.94
284.207	272.94
284.439	291.94
284.67	284.94
284.901	296.94
285.132	268.94
285.364	266.94
285.595	271.94
285.826	280.94
286.057	265.94
286.288	265.94
286.52	286.94
286.751	282.94
286.982	269.94
287.213	276.94
287.444	280.94
287.675	279.94
287.906	290.94
288.138	294.94
288.369	305.94
288.6	285.94
288.831	306.94
289.062	290.94
289.293	278.94
289.524	293.94
289.755	286.94
289.986	280.94
290.217	291.94
290.448	293.94
290.679	289.94
290.91	277.94
291.141	270.94
291.371	290.94
291.602	282.94
291.833	279.94
292.064	263.94
292.295	276.94
292.526	271.94
292.757	283.94
292.987	278.94
293.218	286.94
293.449	272.94
293.68	293.94
293.91	291.94
294.141	285.94
294.372	301.94
294.603	289.94
294.833	288.94
295.064	282.94
295.295	272.94
295.525	311.94
295.756	287.94
295.987	305.94
296.217	312.94
296.448	339.94
296.679	303.94
296.909	305.94
297.14	286.94
297.37	293.94
297.601	289.94
297.831	287.94
298.062	314.94
298.292	319.94
298.523	295.94
298.753	321.94
298.984	290.94
299.214	279.94
299.445	295.94
299.675	288.94
299.905	299.94
300.136	306.94
300.366	310.94
300.597	320.94
300.827	309.94
301.057	306.94
301.288	328.94
301.518	319.94
301.748	314.94
301.979	319.94
302.209	313.94
302.439	308.94
302.669	303.94
302.9	306.94
303.13	322.94
303.36	315.94
303.59	315.94
303.82	319.94
304.051	339.94
304.281	319.94
304.511	311.94
304.741	315.94
304.971	303.94
305.201	315.94
305.431	319.94
305.661	325.94
305.891	323.94
306.121	332.94
306.352	336.94
306.582	340.94
306.812	334.94
307.042	322.94
307.272	337.94
307.502	314.94
307.731	337.94
307.961	324.94
308.191	327.94
308.421	333.94
308.651	328.94
308.881	338.94
309.111	337.94
309.341	329.94
309.571	353.94
309.8	359.94
310.03	350.94
310.26	371.94
310.49	349.94
310.72	366.94
310.949	403.94
311.179	395.94
311.409	378.94
311.639	365.94
311.868	381.94
312.098	385.94
312.328	390.94
312.557	414.94
312.787	418.94
313.017	399.94
313.246	382.94
313.476	369.94
313.706	384.94
313.935	395.94
314.165	411.94
314.394	406.94
314.624	394.94
314.853	371.94
315.083	376.94
315.312	369.94
315.542	377.94
315.771	388.94
316.001	377.94
316.23	387.94
316.46	359.94
316.689	369.94
316.919	376.94
317.148	385.94
317.377	408.94
317.607	381.94
317.836	391.94
318.065	379.94
318.295	374.94
318.524	365.94
318.753	375.94
318.983	372.94
319.212	383.94
319.441	384.94
319.67	400.94
319.9	386.94
320.129	363.94
320.358	377.94
320.587	395.94
320.816	398.94
321.046	392.94
321.275	388.94
321.504	391.94
321.733	414.94
321.962	407.94
322.191	431.94
322.42	442.94
322.649	465.94
322.878	473.94
323.108	468.94
323.337	509.94
323.566	527.94
323.795	570.94
324.024	633.94
324.253	765.94
324.482	1102.94
324.71	1685.94
324.939	2322.94
325.168	1969.94
325.397	1033.94
325.626	692.94
325.855	597.94
326.084	557.94
326.313	514.94
326.542	509.94
326.77	587.94
326.999	703.94
327.228	971.94
327.457	1431.94
327.686	1685.94
327.914	1149.94
328.143	753.94
328.372	666.94
328.6	593.94
328.829	569.94
329.058	620.94
329.287	597.94
329.515	576.94
329.744	530.94
329.972	514.94
330.201	538.94
330.43	551.94
330.658	593.94
330.887	623.94
331.115	609.94
331.344	544.94
331.572	488.94
331.801	487.94
332.03	490.94
332.258	470.94
332.486	453.94
332.715	441.94
332.943	440.94
333.172	452.94
333.4	446.94
333.629	464.94
333.857	468.94
334.085	449.94
334.314	486.94
334.542	501.94
334.771	511.94
334.999	486.94
335.227	437.94
335.455	431.94
335.684	410.94
335.912	444.94
336.14	432.94
336.369	431.94
336.597	445.94
336.825	440.94
337.053	424.94
337.281	404.94
337.51	430.94
337.738	433.94
337.966	403.94
338.194	431.94
338.422	406.94
338.65	433.94
338.878	413.94
339.106	419.94
339.334	390.94
339.562	409.94
339.79	417.94
340.018	428.94
340.246	415.94
340.474	433.94
340.702	411.94
340.93	412.94
341.158	402.94
341.386	426.94
341.614	405.94
341.842	411.94
342.07	404.94
342.298	402.94
342.526	383.94
342.754	406.94
342.981	369.94
343.209	379.94
343.437	403.94
343.665	400.94
343.893	409.94
344.12	388.94
344.348	381.94
344.576	394.94
344.804	425.94
345.031	429.94
345.259	446.94
345.487	411.94
345.714	402.94
345.942	412.94
346.17	422.94
346.397	393.94
346.625	409.94
346.853	395.94
347.08	410.94
347.308	388.94
347.535	416.94
347.763	414.94
347.99	423.94
348.218	430.94
348.445	403.94
348.673	416.94
348.9	418.94
349.128	395.94
349.355	396.94
349.583	381.94
349.81	379.94
350.037	384.94
350.265	397.94
350.492	385.94
350.72	392.94
350.947	383.94
351.174	400.94
351.402	408.94
351.629	406.94
351.856	400.94
352.083	405.94
352.311	418.94
352.538	406.94
352.765	410.94
352.992	401.94
353.22	382.94
353.447	403.94
353.674	394.94
353.901	369.94
354.128	368.94
354.355	357.94
354.583	374.94
354.81	365.94
355.037	365.94
355.264	366.94
355.491	353.94
355.718	342.94
355.945	352.94
356.172	365.94
356.399	344.94
356.626	350.94
356.853	370.94
357.08	347.94
357.307	355.94
357.534	366.94
357.761	360.94
357.988	365.94
358.215	363.94
358.441	351.94
358.668	368.94
358.895	393.94
359.122	371.94
359.349	391.94
359.576	401.94
359.802	424.94
360.029	427.94
360.256	453.94
360.483	446.94
360.709	400.94
360.936	411.94
361.163	393.94
361.39	405.94
361.616	398.94
361.843	382.94
362.07	385.94
362.296	401.94
362.523	385.94
362.749	387.94
362.976	410.94
363.203	373.94
363.429	372.94
363.656	372.94
363.882	362.94
364.109	373.94
364.335	361.94
364.562	361.94
364.788	363.94
365.015	363.94
365.241	375.94
365.468	381.94
365.694	375.94
365.92	374.94
366.147	386.94
366.373	359.94
366.599	377.94
366.826	389.94
367.052	342.94
367.278	361.94
367.505	361.94
367.731	375.94
367.957	365.94
368.184	353.94
368.41	383.94
368.636	372.94
368.862	366.94
369.089	379.94
369.315	362.94
369.541	340.94
369.767	364.94
369.993	360.94
370.219	358.94
370.445	368.94
370.672	382.94
370.898	361.94
371.124	364.94
371.35	362.94
371.576	347.94
371.802	360.94
372.028	353.94
372.254	360.94
372.48	361.94
372.706	348.94
372.932	340.94
373.158	347.94
373.384	349.94
373.61	377.94
373.835	363.94
374.061	345.94
374.287	345.94
374.513	367.94
374.739	360.94
374.965	346.94
375.191	363.94
375.416	358.94
375.642	330.94
375.868	344.94
376.094	351.94
376.319	341.94
376.545	349.94
376.771	345.94
376.997	326.94
377.222	347.94
377.448	338.94
377.674	342.94
377.899	353.94
378.125	352.94
378.35	344.94
378.576	346.94
378.802	340.94
379.027	357.94
379.253	343.94
379.478	338.94
379.704	349.94
379.929	335.94
380.155	344.94
380.38	358.94
380.606	353.94
380.831	351.94
381.057	345.94
381.282	351.94
381.507	343.94
381.733	348.94
381.958	335.94
382.184	328.94
382.409	349.94
382.634	356.94
382.86	350.94
383.085	346.94
383.31	345.94
383.535	375.94
383.761	351.94
383.986	352.94
384.211	341.94
384.436	359.94
384.662	357.94
384.887	350.94
385.112	353.94
385.337	358.94
385.562	361.94
385.787	359.94
386.013	389.94
386.238	368.94
386.463	357.94
386.688	391.94
386.913	357.94
387.138	368.94
387.363	367.94
387.588	352.94
387.813	351.94
388.038	351.94
388.263	371.94
388.488	370.94
388.713	359.94
388.938	375.94
389.163	359.94
389.387	366.94
389.612	337.94
389.837	361.94
390.062	367.94
390.287	361.94
390.512	362.94
390.736	350.94
390.961	342.94
391.186	352.94
391.411	355.94
391.636	360.94
391.86	379.94
392.085	360.94
392.31	363.94
392.534	361.94
392.759	358.94
392.984	367.94
393.208	360.94
393.433	355.94
393.658	355.94
393.882	337.94
394.107	361.94
394.331	337.94
394.556	362.94
394.78	371.94
395.005	357.94
395.229	374.94
395.454	375.94
395.678	366.94
395.903	378.94
396.127	388.94
396.352	383.94
396.576	387.94
396.801	381.94
397.025	373.94
397.249	363.94
397.474	367.94
397.698	377.94
397.922	374.94
398.147	417.94
398.371	417.94
398.595	403.94
398.82	393.94
399.044	407.94
399.268	404.94
399.492	438.94
399.717	439.94
399.941	468.94
400.165	478.94
400.389	468.94
400.613	479.94
400.837	419.94
401.062	418.94
401.286	392.94
401.51	432.94
401.734	404.94
401.958	406.94
402.182	408.94
402.406	426.94
402.63	423.94
402.854	406.94
403.078	423.94
403.302	408.94
403.526	411.94
403.75	418.94
403.974	413.94
404.198	381.94
404.422	415.94
404.645	414.94
404.869	426.94
405.093	437.94
405.317	481.94
405.541	503.94
405.765	477.94
405.988	427.94
406.212	470.94
406.436	455.94
406.66	473.94
406.883	450.94
407.107	462.94
407.331	523.94
407.555	546.94
407.778	555.94
408.002	521.94
408.226	484.94
408.449	450.94
408.673	470.94
408.896	496.94
409.12	529.94
409.344	482.94
409.567	439.94
409.791	424.94
410.014	443.94
410.238	422.94
410.461	407.94
410.685	430.94
410.908	445.94
411.132	451.94
411.355	499.94
411.578	470.94
411.802	432.94
412.025	398.94
412.249	414.94
412.472	448.94
412.695	469.94
412.919	458.94
413.142	429.94
413.365	415.94
413.589	430.94
413.812	393.94
414.035	391.94
414.258	402.94
414.482	413.94
414.705	378.94
414.928	397.94
415.151	395.94
415.374	385.94
415.597	395.94
415.821	389.94
416.044	370.94
416.267	382.94
416.49	395.94
416.713	396.94
416.936	419.94
417.159	384.94
417.382	386.94
417.605	399.94
417.828	412.94
418.051	400.94
418.274	414.94
418.497	396.94
418.72	386.94
418.943	388.94
419.166	384.94
419.389	407.94
419.611	393.94
419.834	413.94
420.057	431.94
420.28	410.94
420.503	391.94
420.726	404.94
420.948	427.94
421.171	471.94
421.394	493.94
421.617	429.94
421.839	415.94
422.062	415.94
422.285	442.94
422.507	482.94
422.73	547.94
422.953	541.94
423.175	458.94
423.398	449.94
423.621	446.94
423.843	454.94
424.066	459.94
424.288	445.94
424.511	469.94
424.733	507.94
424.956	584.94
425.178	559.94
425.401	552.94
425.623	561.94
425.846	489.94
426.068	462.94
426.291	441.94
426.513	458.94
426.735	450.94
426.958	515.94
427.18	562.94
427.402	676.94
427.625	739.94
427.847	682.94
428.069	568.94
428.292	495.94
428.514	458.94
428.736	418.94
428.958	424.94
429.181	420.94
429.403	430.94
429.625	441.94
429.847	465.94
430.069	541.94
430.292	546.94
430.514	438.94
430.736	405.94
430.958	423.94
431.18	423.94
431.402	394.94
431.624	403.94
431.846	393.94
432.068	395.94
432.29	386.94
432.512	417.94
432.734	405.94
432.956	402.94
433.178	406.94
433.4	406.94
433.622	407.94
433.844	403.94
434.066	391.94
434.287	407.94
434.509	404.94
434.731	400.94
434.953	418.94
435.175	420.94
435.397	469.94
435.618	472.94
435.84	487.94
436.062	598.94
436.284	631.94
436.505	521.94
436.727	474.94
436.949	434.94
437.17	455.94
437.392	426.94
437.614	438.94
437.835	487.94
438.057	562.94
438.278	647.94
438.5	655.94
438.721	702.94
438.943	673.94
439.165	545.94
439.386	509.94
439.608	485.94
439.829	476.94
440.05	505.94
440.272	555.94
440.493	499.94
440.715	450.94
440.936	430.94
441.158	426.94
441.379	411.94
441.6	436.94
441.822	445.94
442.043	482.94
442.264	577.94
442.486	610.94
442.707	534.94
442.928	470.94
443.149	470.94
443.371	491.94
443.592	545.94
443.813	615.94
444.034	645.94
444.255	545.94
444.476	486.94
444.698	469.94
444.919	452.94
445.14	539.94
445.361	509.94
445.582	488.94
445.803	576.94
446.024	660.94
446.245	647.94
446.466	626.94
446.687	512.94
446.908	462.94
447.129	433.94
447.35	445.94
447.571	409.94
447.792	435.94
448.013	429.94
448.234	442.94
448.455	511.94
448.675	601.94
448.896	655.94
449.117	570.94
449.338	543.94
449.559	626.94
449.779	715.94
450	590.94
450.221	482.94
450.442	445.94
450.662	438.94
450.883	442.94
451.104	432.94
451.324	433.94
451.545	413.94
451.766	388.94
451.986	377.94
452.207	377.94
452.428	383.94
452.648	376.94
452.869	385.94
453.089	387.94
453.31	405.94
453.53	385.94
453.751	374.94
453.971	370.94
454.192	395.94
454.412	383.94
454.633	366.94
454.853	371.94
455.073	398.94
455.294	397.94
455.514	484.94
455.734	469.94
455.955	403.94
456.175	381.94
456.395	347.94
456.616	341.94
456.836	374.94
457.056	339.94
457.276	336.94
457.497	357.94
457.717	343.94
457.937	359.94
458.157	370.94
458.377	359.94
458.598	394.94
458.818	465.94
459.038	507.94
459.258	514.94
459.478	439.94
459.698	417.94
459.918	381.94
460.138	402.94
460.358	386.94
460.578	377.94
460.798	387.94
461.018	404.94
461.238	385.94
461.458	375.94
461.678	382.94
461.898	399.94
462.118	384.94
462.338	388.94
462.558	385.94
462.777	373.94
462.997	418.94
463.217	410.94
463.437	415.94
463.657	392.94
463.876	401.94
464.096	395.94
464.316	393.94
464.536	417.94
464.755	421.94
464.975	415.94
465.195	472.94
465.414	543.94
465.634	468.94
465.854	429.94
466.073	404.94
466.293	402.94
466.512	391.94
466.732	372.94
466.951	389.94
467.171	373.94
467.391	386.94
467.61	381.94
467.829	406.94
468.049	391.94
468.268	395.94
468.488	375.94
468.707	369.94
468.927	386.94
469.146	342.94
469.365	369.94
469.585	373.94
469.804	393.94
470.023	400.94
470.243	396.94
470.462	391.94
470.681	418.94
470.901	401.94
471.12	379.94
471.339	377.94
471.558	388.94
471.777	375.94
471.997	387.94
472.216	379.94
472.435	416.94
472.654	422.94
472.873	386.94
473.092	394.94
473.311	385.94
473.53	393.94
473.749	399.94
473.968	451.94
474.187	522.94
474.406	560.94
474.625	461.94
474.844	380.94
475.063	386.94
475.282	390.94
475.501	400.94
475.72	410.94
475.939	408.94
476.158	401.94
476.377	412.94
476.596	400.94
476.814	410.94
477.033	417.94
477.252	398.94
477.471	405.94
477.69	407.94
477.908	422.94
478.127	447.94
478.346	413.94
478.564	429.94
478.783	441.94
479.002	414.94
479.22	424.94
479.439	447.94
479.658	468.94
479.876	467.94
480.095	498.94
480.313	497.94
480.532	468.94
480.751	456.94
480.969	493.94
481.188	527.94
481.406	547.94
481.624	494.94
481.843	477.94
482.061	463.94
482.28	459.94
482.498	461.94
482.717	455.94
482.935	442.94
483.153	444.94
483.372	467.94
483.59	448.94
483.808	458.94
484.027	449.94
484.245	443.94
484.463	462.94
484.681	458.94
484.9	453.94
485.118	481.94
485.336	470.94
485.554	470.94
485.772	465.94
485.99	471.94
486.209	480.94
486.427	470.94
486.645	456.94
486.863	486.94
487.081	508.94
487.299	496.94
487.517	495.94
487.735	479.94
487.953	472.94
488.171	490.94
488.389	501.94
488.607	493.94
488.825	485.94
489.043	487.94
489.261	506.94
489.479	497.94
489.696	495.94
489.914	496.94
490.132	519.94
490.35	526.94
490.568	513.94
490.786	541.94
491.003	523.94
491.221	522.94
491.439	539.94
491.657	538.94
491.874	567.94
492.092	562.94
492.31	553.94
492.527	559.94
492.745	550.94
492.963	552.94
493.18	545.94
493.398	568.94
493.615	592.94
493.833	593.94
494.05	566.94
494.268	594.94
494.485	582.94
494.703	584.94
494.92	561.94
495.138	576.94
495.355	575.94
495.573	575.94
495.79	573.94
496.008	581.94
496.225	590.94
496.442	578.94
496.66	551.94
496.877	560.94
497.094	576.94
497.312	566.94
497.529	586.94
497.746	621.94
497.963	617.94
498.181	643.94
498.398	629.94
498.615	634.94
498.832	616.94
499.049	615.94
499.267	638.94
499.484	635.94
499.701	663.94
499.918	669.94
500.135	705.94
500.352	703.94
500.569	733.94
500.786	729.94
501.003	719.94
501.22	702.94
501.437	700.94
501.654	677.94
501.871	694.94
