Data from 1981.PennyLincolnUp.Lamp.En5.5.200Scan.071819.P1_HRD10591_16-41-30-959.txt Node
Date: Thu Jul 18 16:41:30 EDT 2019
User: cochatt
Spectrometer: HR+D1059
Trigger mode: 1
Integration Time (sec): 1.000000E-1
Scans to average: 1
Electric dark correction enabled: true
Nonlinearity correction enabled: false
Boxcar width: 0
XAxis mode: Wavelengths
Number of Pixels in Spectrum: 2048
>>>>>Begin Spectral Data<<<<<
223.165	-19.06
223.4	-19.06
223.635	-19.06
223.869	-11.06
224.104	-20.06
224.338	-26.06
224.573	-24.06
224.808	-12.06
225.042	-11.06
225.277	6.94
225.511	8.94
225.746	3.94
225.98	3.94
226.215	8.94
226.449	10.94
226.683	27.94
226.918	17.94
227.152	33.94
227.387	27.94
227.621	45.94
227.856	42.94
228.09	37.94
228.324	55.94
228.559	72.94
228.793	69.94
229.027	93.94
229.262	110.94
229.496	122.94
229.73	122.94
229.964	148.94
230.199	125.94
230.433	110.94
230.667	100.94
230.901	109.94
231.136	115.94
231.37	122.94
231.604	96.94
231.838	116.94
232.072	110.94
232.306	109.94
232.541	96.94
232.775	104.94
233.009	107.94
233.243	109.94
233.477	113.94
233.711	110.94
233.945	112.94
234.179	109.94
234.413	118.94
234.647	113.94
234.881	123.94
235.115	129.94
235.349	119.94
235.583	127.94
235.817	123.94
236.051	130.94
236.285	113.94
236.519	132.94
236.753	138.94
236.987	147.94
237.221	167.94
237.455	209.94
237.689	189.94
237.922	131.94
238.156	123.94
238.39	127.94
238.624	122.94
238.858	116.94
239.091	121.94
239.325	119.94
239.559	126.94
239.793	132.94
240.027	145.94
240.26	143.94
240.494	164.94
240.728	150.94
240.961	142.94
241.195	134.94
241.429	129.94
241.662	128.94
241.896	125.94
242.13	138.94
242.363	145.94
242.597	138.94
242.83	125.94
243.064	148.94
243.298	147.94
243.531	151.94
243.765	141.94
243.998	128.94
244.232	126.94
244.465	129.94
244.699	140.94
244.932	146.94
245.166	142.94
245.399	146.94
245.633	140.94
245.866	142.94
246.099	142.94
246.333	155.94
246.566	140.94
246.8	134.94
247.033	140.94
247.266	136.94
247.5	145.94
247.733	161.94
247.966	180.94
248.2	181.94
248.433	180.94
248.666	174.94
248.899	170.94
249.133	202.94
249.366	199.94
249.599	198.94
249.832	178.94
250.066	190.94
250.299	172.94
250.532	191.94
250.765	202.94
250.998	225.94
251.231	217.94
251.465	202.94
251.698	206.94
251.931	210.94
252.164	201.94
252.397	202.94
252.63	193.94
252.863	212.94
253.096	217.94
253.329	222.94
253.562	227.94
253.795	237.94
254.028	237.94
254.261	227.94
254.494	231.94
254.727	256.94
254.96	288.94
255.193	282.94
255.426	244.94
255.659	226.94
255.892	226.94
256.124	233.94
256.357	238.94
256.59	230.94
256.823	227.94
257.056	206.94
257.289	209.94
257.521	211.94
257.754	214.94
257.987	200.94
258.22	210.94
258.452	210.94
258.685	206.94
258.918	220.94
259.151	215.94
259.383	228.94
259.616	214.94
259.849	234.94
260.081	233.94
260.314	254.94
260.547	261.94
260.779	249.94
261.012	237.94
261.244	226.94
261.477	229.94
261.71	234.94
261.942	227.94
262.175	231.94
262.407	233.94
262.64	229.94
262.872	207.94
263.105	217.94
263.337	202.94
263.57	209.94
263.802	206.94
264.035	201.94
264.267	193.94
264.499	197.94
264.732	232.94
264.964	206.94
265.197	220.94
265.429	213.94
265.661	217.94
265.894	213.94
266.126	221.94
266.358	206.94
266.591	226.94
266.823	224.94
267.055	225.94
267.287	237.94
267.52	231.94
267.752	222.94
267.984	232.94
268.216	246.94
268.448	241.94
268.681	238.94
268.913	252.94
269.145	253.94
269.377	271.94
269.609	279.94
269.841	288.94
270.073	262.94
270.306	302.94
270.538	312.94
270.77	320.94
271.002	302.94
271.234	303.94
271.466	288.94
271.698	310.94
271.93	323.94
272.162	317.94
272.394	328.94
272.626	308.94
272.858	298.94
273.09	307.94
273.322	289.94
273.553	264.94
273.785	268.94
274.017	269.94
274.249	262.94
274.481	276.94
274.713	257.94
274.945	252.94
275.176	275.94
275.408	270.94
275.64	260.94
275.872	258.94
276.104	249.94
276.335	258.94
276.567	281.94
276.799	298.94
277.031	298.94
277.262	313.94
277.494	296.94
277.726	281.94
277.957	297.94
278.189	280.94
278.421	283.94
278.652	262.94
278.884	265.94
279.115	270.94
279.347	268.94
279.579	267.94
279.81	263.94
280.042	288.94
280.273	263.94
280.505	266.94
280.736	252.94
280.968	258.94
281.199	267.94
281.431	252.94
281.662	252.94
281.894	257.94
282.125	260.94
282.356	280.94
282.588	321.94
282.819	322.94
283.051	265.94
283.282	253.94
283.513	252.94
283.745	260.94
283.976	265.94
284.207	280.94
284.439	283.94
284.67	261.94
284.901	271.94
285.132	256.94
285.364	283.94
285.595	269.94
285.826	274.94
286.057	268.94
286.288	264.94
286.52	275.94
286.751	270.94
286.982	248.94
287.213	265.94
287.444	277.94
287.675	268.94
287.906	273.94
288.138	271.94
288.369	274.94
288.6	292.94
288.831	280.94
289.062	292.94
289.293	274.94
289.524	284.94
289.755	280.94
289.986	268.94
290.217	260.94
290.448	269.94
290.679	291.94
290.91	283.94
291.141	279.94
291.371	280.94
291.602	282.94
291.833	270.94
292.064	293.94
292.295	269.94
292.526	281.94
292.757	266.94
292.987	292.94
293.218	268.94
293.449	284.94
293.68	293.94
293.91	288.94
294.141	251.94
294.372	285.94
294.603	277.94
294.833	276.94
295.064	294.94
295.295	268.94
295.525	284.94
295.756	270.94
295.987	289.94
296.217	330.94
296.448	321.94
296.679	287.94
296.909	277.94
297.14	273.94
297.37	277.94
297.601	285.94
297.831	284.94
298.062	296.94
298.292	287.94
298.523	285.94
298.753	286.94
298.984	291.94
299.214	300.94
299.445	285.94
299.675	258.94
299.905	297.94
300.136	289.94
300.366	301.94
300.597	288.94
300.827	288.94
301.057	305.94
301.288	311.94
301.518	307.94
301.748	293.94
301.979	302.94
302.209	303.94
302.439	304.94
302.669	318.94
302.9	310.94
303.13	316.94
303.36	331.94
303.59	310.94
303.82	321.94
304.051	319.94
304.281	309.94
304.511	309.94
304.741	296.94
304.971	296.94
305.201	305.94
305.431	303.94
305.661	321.94
305.891	323.94
306.121	309.94
306.352	321.94
306.582	313.94
306.812	324.94
307.042	303.94
307.272	306.94
307.502	312.94
307.731	331.94
307.961	308.94
308.191	321.94
308.421	312.94
308.651	311.94
308.881	325.94
309.111	320.94
309.341	346.94
309.571	336.94
309.8	347.94
310.03	352.94
310.26	349.94
310.49	347.94
310.72	362.94
310.949	388.94
311.179	378.94
311.409	353.94
311.639	361.94
311.868	359.94
312.098	365.94
312.328	375.94
312.557	392.94
312.787	386.94
313.017	394.94
313.246	368.94
313.476	378.94
313.706	358.94
313.935	369.94
314.165	388.94
314.394	390.94
314.624	366.94
314.853	383.94
315.083	355.94
315.312	385.94
315.542	360.94
315.771	349.94
316.001	344.94
316.23	368.94
316.46	366.94
316.689	374.94
316.919	376.94
317.148	393.94
317.377	372.94
317.607	380.94
317.836	370.94
318.065	376.94
318.295	364.94
318.524	355.94
318.753	360.94
318.983	360.94
319.212	384.94
319.441	380.94
319.67	372.94
319.9	364.94
320.129	357.94
320.358	353.94
320.587	386.94
320.816	366.94
321.046	376.94
321.275	398.94
321.504	377.94
321.733	385.94
321.962	392.94
322.191	414.94
322.42	416.94
322.649	417.94
322.878	445.94
323.108	459.94
323.337	508.94
323.566	502.94
323.795	532.94
324.024	625.94
324.253	744.94
324.482	1063.94
324.71	1621.94
324.939	2191.94
325.168	1887.94
325.397	1008.94
325.626	684.94
325.855	555.94
326.084	529.94
326.313	512.94
326.542	508.94
326.77	562.94
326.999	689.94
327.228	941.94
327.457	1416.94
327.686	1622.94
327.914	1114.94
328.143	742.94
328.372	650.94
328.6	607.94
328.829	583.94
329.058	576.94
329.287	572.94
329.515	552.94
329.744	525.94
329.972	497.94
330.201	533.94
330.43	559.94
330.658	579.94
330.887	614.94
331.115	610.94
331.344	509.94
331.572	477.94
331.801	475.94
332.03	463.94
332.258	435.94
332.486	444.94
332.715	436.94
332.943	436.94
333.172	416.94
333.4	419.94
333.629	414.94
333.857	444.94
334.085	446.94
334.314	473.94
334.542	482.94
334.771	460.94
334.999	452.94
335.227	419.94
335.455	425.94
335.684	404.94
335.912	401.94
336.14	410.94
336.369	398.94
336.597	419.94
336.825	411.94
337.053	420.94
337.281	399.94
337.51	421.94
337.738	398.94
337.966	394.94
338.194	397.94
338.422	419.94
338.65	403.94
338.878	395.94
339.106	376.94
339.334	390.94
339.562	396.94
339.79	408.94
340.018	416.94
340.246	389.94
340.474	394.94
340.702	390.94
340.93	405.94
341.158	392.94
341.386	396.94
341.614	404.94
341.842	420.94
342.07	387.94
342.298	395.94
342.526	383.94
342.754	368.94
342.981	377.94
343.209	373.94
343.437	395.94
343.665	402.94
343.893	397.94
344.12	366.94
344.348	391.94
344.576	400.94
344.804	393.94
345.031	408.94
345.259	404.94
345.487	411.94
345.714	395.94
345.942	398.94
346.17	406.94
346.397	385.94
346.625	412.94
346.853	396.94
347.08	374.94
347.308	378.94
347.535	384.94
347.763	411.94
347.99	406.94
348.218	407.94
348.445	401.94
348.673	400.94
348.9	392.94
349.128	380.94
349.355	371.94
349.583	376.94
349.81	356.94
350.037	368.94
350.265	365.94
350.492	375.94
350.72	368.94
350.947	378.94
351.174	388.94
351.402	399.94
351.629	386.94
351.856	386.94
352.083	375.94
352.311	390.94
352.538	409.94
352.765	398.94
352.992	380.94
353.22	371.94
353.447	383.94
353.674	397.94
353.901	351.94
354.128	370.94
354.355	336.94
354.583	364.94
354.81	348.94
355.037	338.94
355.264	334.94
355.491	353.94
355.718	357.94
355.945	345.94
356.172	331.94
356.399	341.94
356.626	341.94
356.853	342.94
357.08	346.94
357.307	348.94
357.534	343.94
357.761	329.94
357.988	352.94
358.215	346.94
358.441	350.94
358.668	359.94
358.895	356.94
359.122	362.94
359.349	371.94
359.576	391.94
359.802	380.94
360.029	394.94
360.256	429.94
360.483	423.94
360.709	398.94
360.936	384.94
361.163	373.94
361.39	373.94
361.616	386.94
361.843	391.94
362.07	378.94
362.296	384.94
362.523	358.94
362.749	384.94
362.976	332.94
363.203	351.94
363.429	362.94
363.656	360.94
363.882	353.94
364.109	354.94
364.335	350.94
364.562	348.94
364.788	353.94
365.015	357.94
365.241	361.94
365.468	376.94
365.694	354.94
365.92	351.94
366.147	352.94
366.373	340.94
366.599	353.94
366.826	332.94
367.052	340.94
367.278	351.94
367.505	368.94
367.731	336.94
367.957	340.94
368.184	350.94
368.41	362.94
368.636	359.94
368.862	363.94
369.089	357.94
369.315	353.94
369.541	352.94
369.767	336.94
369.993	337.94
370.219	358.94
370.445	343.94
370.672	313.94
370.898	336.94
371.124	343.94
371.35	340.94
371.576	359.94
371.802	344.94
372.028	335.94
372.254	332.94
372.48	327.94
372.706	338.94
372.932	345.94
373.158	346.94
373.384	352.94
373.61	345.94
373.835	339.94
374.061	317.94
374.287	357.94
374.513	337.94
374.739	337.94
374.965	348.94
375.191	335.94
375.416	330.94
375.642	330.94
375.868	313.94
376.094	331.94
376.319	321.94
376.545	326.94
376.771	340.94
376.997	341.94
377.222	352.94
377.448	338.94
377.674	339.94
377.899	326.94
378.125	332.94
378.35	319.94
378.576	328.94
378.802	333.94
379.027	334.94
379.253	329.94
379.478	343.94
379.704	340.94
379.929	326.94
380.155	326.94
380.38	338.94
380.606	322.94
380.831	330.94
381.057	339.94
381.282	330.94
381.507	326.94
381.733	327.94
381.958	334.94
382.184	348.94
382.409	334.94
382.634	338.94
382.86	320.94
383.085	336.94
383.31	349.94
383.535	338.94
383.761	343.94
383.986	370.94
384.211	352.94
384.436	339.94
384.662	345.94
384.887	338.94
385.112	328.94
385.337	344.94
385.562	344.94
385.787	327.94
386.013	328.94
386.238	347.94
386.463	363.94
386.688	351.94
386.913	341.94
387.138	327.94
387.363	351.94
387.588	345.94
387.813	325.94
388.038	345.94
388.263	354.94
388.488	352.94
388.713	340.94
388.938	343.94
389.163	350.94
389.387	350.94
389.612	341.94
389.837	342.94
390.062	336.94
390.287	340.94
390.512	361.94
390.736	352.94
390.961	329.94
391.186	345.94
391.411	337.94
391.636	353.94
391.86	362.94
392.085	354.94
392.31	354.94
392.534	368.94
392.759	351.94
392.984	335.94
393.208	336.94
393.433	346.94
393.658	358.94
393.882	340.94
394.107	332.94
394.331	345.94
394.556	354.94
394.78	349.94
395.005	348.94
395.229	341.94
395.454	350.94
395.678	356.94
395.903	373.94
396.127	382.94
396.352	382.94
396.576	357.94
396.801	331.94
397.025	328.94
397.249	350.94
397.474	376.94
397.698	378.94
397.922	364.94
398.147	394.94
398.371	388.94
398.595	361.94
398.82	383.94
399.044	374.94
399.268	375.94
399.492	395.94
399.717	420.94
399.941	445.94
400.165	470.94
400.389	494.94
400.613	448.94
400.837	408.94
401.062	388.94
401.286	386.94
401.51	386.94
401.734	363.94
401.958	384.94
402.182	404.94
402.406	383.94
402.63	389.94
402.854	399.94
403.078	392.94
403.302	404.94
403.526	399.94
403.75	404.94
403.974	398.94
404.198	405.94
404.422	392.94
404.645	392.94
404.869	427.94
405.093	422.94
405.317	456.94
405.541	452.94
405.765	463.94
405.988	432.94
406.212	434.94
406.436	445.94
406.66	467.94
406.883	433.94
407.107	443.94
407.331	500.94
407.555	544.94
407.778	546.94
408.002	471.94
408.226	454.94
408.449	429.94
408.673	439.94
408.896	485.94
409.12	498.94
409.344	479.94
409.567	400.94
409.791	389.94
410.014	403.94
410.238	388.94
410.461	399.94
410.685	387.94
410.908	414.94
411.132	458.94
411.355	473.94
411.578	451.94
411.802	424.94
412.025	402.94
412.249	409.94
412.472	405.94
412.695	443.94
412.919	446.94
413.142	403.94
413.365	399.94
413.589	405.94
413.812	389.94
414.035	386.94
414.258	377.94
414.482	352.94
414.705	360.94
414.928	363.94
415.151	372.94
415.374	375.94
415.597	368.94
415.821	369.94
416.044	374.94
416.267	383.94
416.49	357.94
416.713	371.94
416.936	373.94
417.159	358.94
417.382	373.94
417.605	385.94
417.828	386.94
418.051	421.94
418.274	367.94
418.497	383.94
418.72	384.94
418.943	369.94
419.166	377.94
419.389	410.94
419.611	363.94
419.834	400.94
420.057	401.94
420.28	388.94
420.503	395.94
420.726	400.94
420.948	398.94
421.171	451.94
421.394	462.94
421.617	419.94
421.839	409.94
422.062	412.94
422.285	414.94
422.507	458.94
422.73	516.94
422.953	501.94
423.175	443.94
423.398	418.94
423.621	407.94
423.843	417.94
424.066	443.94
424.288	428.94
424.511	459.94
424.733	501.94
424.956	561.94
425.178	535.94
425.401	545.94
425.623	552.94
425.846	501.94
426.068	460.94
426.291	459.94
426.513	432.94
426.735	449.94
426.958	488.94
427.18	535.94
427.402	628.94
427.625	707.94
427.847	631.94
428.069	580.94
428.292	488.94
428.514	442.94
428.736	413.94
428.958	428.94
429.181	405.94
429.403	398.94
429.625	413.94
429.847	450.94
430.069	530.94
430.292	489.94
430.514	438.94
430.736	415.94
430.958	378.94
431.18	382.94
431.402	378.94
431.624	373.94
431.846	363.94
432.068	384.94
432.29	382.94
432.512	396.94
432.734	405.94
432.956	392.94
433.178	394.94
433.4	419.94
433.622	402.94
433.844	385.94
434.066	386.94
434.287	362.94
434.509	372.94
434.731	384.94
434.953	385.94
435.175	384.94
435.397	425.94
435.618	446.94
435.84	484.94
436.062	542.94
436.284	602.94
436.505	523.94
436.727	472.94
436.949	432.94
437.17	408.94
437.392	422.94
437.614	412.94
437.835	461.94
438.057	539.94
438.278	617.94
438.5	603.94
438.721	664.94
438.943	632.94
439.165	501.94
439.386	456.94
439.608	460.94
439.829	451.94
440.05	479.94
440.272	521.94
440.493	460.94
440.715	437.94
440.936	417.94
441.158	416.94
441.379	395.94
441.6	424.94
441.822	428.94
442.043	473.94
442.264	544.94
442.486	580.94
442.707	487.94
442.928	457.94
443.149	444.94
443.371	460.94
443.592	506.94
443.813	580.94
444.034	636.94
444.255	520.94
444.476	455.94
444.698	441.94
444.919	423.94
445.14	561.94
445.361	483.94
445.582	474.94
445.803	533.94
446.024	644.94
446.245	619.94
446.466	549.94
446.687	477.94
446.908	434.94
447.129	425.94
447.35	422.94
447.571	411.94
447.792	409.94
448.013	432.94
448.234	430.94
448.455	475.94
448.675	571.94
448.896	665.94
449.117	550.94
449.338	540.94
449.559	630.94
449.779	678.94
450	550.94
450.221	461.94
450.442	417.94
450.662	414.94
450.883	417.94
451.104	425.94
451.324	436.94
451.545	407.94
451.766	413.94
451.986	361.94
452.207	361.94
452.428	360.94
452.648	356.94
452.869	379.94
453.089	380.94
453.31	388.94
453.53	352.94
453.751	376.94
453.971	355.94
454.192	408.94
454.412	385.94
454.633	384.94
454.853	365.94
455.073	382.94
455.294	375.94
455.514	457.94
455.734	452.94
455.955	375.94
456.175	346.94
456.395	342.94
456.616	353.94
456.836	341.94
457.056	350.94
457.276	339.94
457.497	341.94
457.717	351.94
457.937	354.94
458.157	344.94
458.377	351.94
458.598	371.94
458.818	414.94
459.038	500.94
459.258	513.94
459.478	440.94
459.698	384.94
459.918	375.94
460.138	371.94
460.358	387.94
460.578	396.94
460.798	380.94
461.018	378.94
461.238	346.94
461.458	355.94
461.678	344.94
461.898	359.94
462.118	382.94
462.338	376.94
462.558	373.94
462.777	388.94
462.997	375.94
463.217	397.94
463.437	394.94
463.657	396.94
463.876	375.94
464.096	386.94
464.316	371.94
464.536	397.94
464.755	379.94
464.975	417.94
465.195	449.94
465.414	500.94
465.634	432.94
465.854	413.94
466.073	402.94
466.293	374.94
466.512	364.94
466.732	348.94
466.951	347.94
467.171	353.94
467.391	369.94
467.61	384.94
467.829	373.94
468.049	378.94
468.268	367.94
468.488	355.94
468.707	376.94
468.927	352.94
469.146	346.94
469.365	330.94
469.585	360.94
469.804	361.94
470.023	372.94
470.243	374.94
470.462	369.94
470.681	396.94
470.901	380.94
471.12	379.94
471.339	381.94
471.558	368.94
471.777	378.94
471.997	364.94
472.216	384.94
472.435	393.94
472.654	391.94
472.873	368.94
473.092	387.94
473.311	379.94
473.53	348.94
473.749	370.94
473.968	424.94
474.187	532.94
474.406	519.94
474.625	432.94
474.844	404.94
475.063	371.94
475.282	363.94
475.501	368.94
475.72	384.94
475.939	388.94
476.158	398.94
476.377	374.94
476.596	395.94
476.814	397.94
477.033	393.94
477.252	378.94
477.471	394.94
477.69	411.94
477.908	390.94
478.127	404.94
478.346	405.94
478.564	418.94
478.783	402.94
479.002	416.94
479.22	406.94
479.439	429.94
479.658	438.94
479.876	444.94
480.095	457.94
480.313	484.94
480.532	481.94
480.751	464.94
480.969	450.94
481.188	514.94
481.406	522.94
481.624	473.94
481.843	466.94
482.061	456.94
482.28	448.94
482.498	429.94
482.717	426.94
482.935	449.94
483.153	441.94
483.372	444.94
483.59	426.94
483.808	426.94
484.027	448.94
484.245	444.94
484.463	446.94
484.681	462.94
484.9	441.94
485.118	444.94
485.336	457.94
485.554	420.94
485.772	446.94
485.99	461.94
486.209	420.94
486.427	464.94
486.645	480.94
486.863	455.94
487.081	488.94
487.299	464.94
487.517	481.94
487.735	454.94
487.953	454.94
488.171	475.94
488.389	476.94
488.607	460.94
488.825	485.94
489.043	481.94
489.261	472.94
489.479	467.94
489.696	477.94
489.914	498.94
490.132	472.94
490.35	470.94
490.568	483.94
490.786	490.94
491.003	518.94
491.221	520.94
491.439	500.94
491.657	500.94
491.874	532.94
492.092	521.94
492.31	548.94
492.527	527.94
492.745	518.94
492.963	531.94
493.18	544.94
493.398	589.94
493.615	553.94
493.833	544.94
494.05	537.94
494.268	551.94
494.485	542.94
494.703	536.94
494.92	555.94
495.138	572.94
495.355	549.94
495.573	553.94
495.79	574.94
496.008	558.94
496.225	555.94
496.442	569.94
496.66	565.94
496.877	555.94
497.094	567.94
497.312	561.94
497.529	566.94
497.746	592.94
497.963	588.94
498.181	582.94
498.398	572.94
498.615	590.94
498.832	595.94
499.049	599.94
499.267	612.94
499.484	642.94
499.701	636.94
499.918	637.94
500.135	659.94
500.352	651.94
500.569	682.94
500.786	674.94
501.003	691.94
501.22	698.94
501.437	662.94
501.654	652.94
501.871	635.94
