Data from 1981.PennyLincolnUp.Lamp.En5.5.200Scan.071819.P1_HRD10591_16-43-30-962.txt Node
Date: Thu Jul 18 16:43:30 EDT 2019
User: cochatt
Spectrometer: HR+D1059
Trigger mode: 1
Integration Time (sec): 1.000000E-1
Scans to average: 1
Electric dark correction enabled: true
Nonlinearity correction enabled: false
Boxcar width: 0
XAxis mode: Wavelengths
Number of Pixels in Spectrum: 2048
>>>>>Begin Spectral Data<<<<<
223.165	-11.81
223.4	-11.81
223.635	-11.81
223.869	-16.81
224.104	-24.81
224.338	-4.81
224.573	-7.81
224.808	-15.81
225.042	-10.81
225.277	-11.81
225.511	-3.81
225.746	-4.81
225.98	13.19
226.215	13.19
226.449	7.19
226.683	21.19
226.918	32.19
227.152	26.19
227.387	38.19
227.621	50.19
227.856	51.19
228.09	40.19
228.324	52.19
228.559	53.19
228.793	66.19
229.027	95.19
229.262	103.19
229.496	113.19
229.73	144.19
229.964	164.19
230.199	131.19
230.433	115.19
230.667	128.19
230.901	108.19
231.136	123.19
231.37	99.19
231.604	104.19
231.838	119.19
232.072	98.19
232.306	107.19
232.541	102.19
232.775	112.19
233.009	103.19
233.243	117.19
233.477	112.19
233.711	102.19
233.945	115.19
234.179	120.19
234.413	124.19
234.647	101.19
234.881	106.19
235.115	112.19
235.349	121.19
235.583	129.19
235.817	132.19
236.051	118.19
236.285	111.19
236.519	125.19
236.753	131.19
236.987	150.19
237.221	196.19
237.455	242.19
237.689	192.19
237.922	150.19
238.156	136.19
238.39	118.19
238.624	123.19
238.858	134.19
239.091	127.19
239.325	140.19
239.559	122.19
239.793	126.19
240.027	127.19
240.26	143.19
240.494	162.19
240.728	174.19
240.961	155.19
241.195	144.19
241.429	141.19
241.662	131.19
241.896	142.19
242.13	142.19
242.363	126.19
242.597	149.19
242.83	138.19
243.064	142.19
243.298	145.19
243.531	139.19
243.765	140.19
243.998	130.19
244.232	137.19
244.465	125.19
244.699	142.19
244.932	135.19
245.166	164.19
245.399	147.19
245.633	155.19
245.866	138.19
246.099	146.19
246.333	152.19
246.566	154.19
246.8	154.19
247.033	156.19
247.266	154.19
247.5	152.19
247.733	162.19
247.966	170.19
248.2	170.19
248.433	173.19
248.666	183.19
248.899	187.19
249.133	201.19
249.366	219.19
249.599	227.19
249.832	188.19
250.066	204.19
250.299	198.19
250.532	203.19
250.765	233.19
250.998	234.19
251.231	239.19
251.465	228.19
251.698	206.19
251.931	199.19
252.164	200.19
252.397	200.19
252.63	215.19
252.863	214.19
253.096	217.19
253.329	225.19
253.562	243.19
253.795	245.19
254.028	227.19
254.261	218.19
254.494	238.19
254.727	270.19
254.96	315.19
255.193	270.19
255.426	270.19
255.659	260.19
255.892	247.19
256.124	254.19
256.357	247.19
256.59	224.19
256.823	233.19
257.056	222.19
257.289	224.19
257.521	232.19
257.754	227.19
257.987	230.19
258.22	217.19
258.452	210.19
258.685	216.19
258.918	220.19
259.151	237.19
259.383	236.19
259.616	226.19
259.849	240.19
260.081	260.19
260.314	267.19
260.547	277.19
260.779	261.19
261.012	248.19
261.244	246.19
261.477	231.19
261.71	246.19
261.942	242.19
262.175	244.19
262.407	236.19
262.64	216.19
262.872	224.19
263.105	228.19
263.337	211.19
263.57	220.19
263.802	218.19
264.035	217.19
264.267	208.19
264.499	220.19
264.732	217.19
264.964	216.19
265.197	216.19
265.429	229.19
265.661	216.19
265.894	224.19
266.126	239.19
266.358	234.19
266.591	229.19
266.823	228.19
267.055	239.19
267.287	237.19
267.52	220.19
267.752	210.19
267.984	234.19
268.216	232.19
268.448	238.19
268.681	226.19
268.913	259.19
269.145	270.19
269.377	283.19
269.609	292.19
269.841	279.19
270.073	314.19
270.306	292.19
270.538	328.19
270.77	336.19
271.002	326.19
271.234	315.19
271.466	319.19
271.698	325.19
271.93	349.19
272.162	335.19
272.394	343.19
272.626	324.19
272.858	320.19
273.09	309.19
273.322	294.19
273.553	296.19
273.785	271.19
274.017	271.19
274.249	283.19
274.481	270.19
274.713	272.19
274.945	285.19
275.176	281.19
275.408	273.19
275.64	262.19
275.872	295.19
276.104	271.19
276.335	279.19
276.567	263.19
276.799	299.19
277.031	322.19
277.262	331.19
277.494	343.19
277.726	309.19
277.957	312.19
278.189	302.19
278.421	283.19
278.652	295.19
278.884	284.19
279.115	286.19
279.347	284.19
279.579	265.19
279.81	260.19
280.042	266.19
280.273	282.19
280.505	281.19
280.736	283.19
280.968	275.19
281.199	269.19
281.431	278.19
281.662	293.19
281.894	266.19
282.125	287.19
282.356	295.19
282.588	315.19
282.819	316.19
283.051	285.19
283.282	276.19
283.513	278.19
283.745	281.19
283.976	281.19
284.207	267.19
284.439	274.19
284.67	306.19
284.901	289.19
285.132	284.19
285.364	260.19
285.595	276.19
285.826	300.19
286.057	287.19
286.288	272.19
286.52	268.19
286.751	295.19
286.982	263.19
287.213	291.19
287.444	304.19
287.675	291.19
287.906	309.19
288.138	304.19
288.369	312.19
288.6	324.19
288.831	295.19
289.062	278.19
289.293	302.19
289.524	303.19
289.755	278.19
289.986	280.19
290.217	289.19
290.448	286.19
290.679	292.19
290.91	294.19
291.141	288.19
291.371	299.19
291.602	289.19
291.833	294.19
292.064	277.19
292.295	276.19
292.526	296.19
292.757	279.19
292.987	297.19
293.218	267.19
293.449	295.19
293.68	302.19
293.91	288.19
294.141	289.19
294.372	288.19
294.603	278.19
294.833	291.19
295.064	284.19
295.295	290.19
295.525	278.19
295.756	310.19
295.987	306.19
296.217	334.19
296.448	350.19
296.679	333.19
296.909	285.19
297.14	310.19
297.37	294.19
297.601	291.19
297.831	308.19
298.062	304.19
298.292	287.19
298.523	305.19
298.753	316.19
298.984	296.19
299.214	279.19
299.445	283.19
299.675	288.19
299.905	308.19
300.136	321.19
300.366	314.19
300.597	297.19
300.827	297.19
301.057	318.19
301.288	335.19
301.518	310.19
301.748	315.19
301.979	326.19
302.209	332.19
302.439	316.19
302.669	331.19
302.9	308.19
303.13	310.19
303.36	327.19
303.59	335.19
303.82	341.19
304.051	336.19
304.281	323.19
304.511	322.19
304.741	334.19
304.971	308.19
305.201	338.19
305.431	324.19
305.661	314.19
305.891	318.19
306.121	317.19
306.352	327.19
306.582	345.19
306.812	348.19
307.042	334.19
307.272	340.19
307.502	335.19
307.731	328.19
307.961	345.19
308.191	336.19
308.421	336.19
308.651	350.19
308.881	343.19
309.111	354.19
309.341	342.19
309.571	371.19
309.8	376.19
310.03	382.19
310.26	374.19
310.49	383.19
310.72	406.19
310.949	403.19
311.179	420.19
311.409	395.19
311.639	381.19
311.868	385.19
312.098	369.19
312.328	407.19
312.557	418.19
312.787	438.19
313.017	419.19
313.246	410.19
313.476	388.19
313.706	384.19
313.935	386.19
314.165	399.19
314.394	412.19
314.624	416.19
314.853	408.19
315.083	410.19
315.312	386.19
315.542	389.19
315.771	377.19
316.001	368.19
316.23	372.19
316.46	379.19
316.689	380.19
316.919	387.19
317.148	392.19
317.377	395.19
317.607	410.19
317.836	410.19
318.065	387.19
318.295	363.19
318.524	386.19
318.753	378.19
318.983	367.19
319.212	388.19
319.441	403.19
319.67	406.19
319.9	389.19
320.129	387.19
320.358	387.19
320.587	408.19
320.816	408.19
321.046	414.19
321.275	432.19
321.504	428.19
321.733	422.19
321.962	444.19
322.191	454.19
322.42	466.19
322.649	475.19
322.878	488.19
323.108	505.19
323.337	522.19
323.566	560.19
323.795	580.19
324.024	678.19
324.253	819.19
324.482	1227.19
324.71	1879.19
324.939	2528.19
325.168	2125.19
325.397	1117.19
325.626	755.19
325.855	628.19
326.084	565.19
326.313	554.19
326.542	552.19
326.77	617.19
326.999	766.19
327.228	1059.19
327.457	1578.19
327.686	1868.19
327.914	1237.19
328.143	824.19
328.372	722.19
328.6	674.19
328.829	617.19
329.058	634.19
329.287	628.19
329.515	604.19
329.744	555.19
329.972	551.19
330.201	595.19
330.43	601.19
330.658	634.19
330.887	638.19
331.115	630.19
331.344	564.19
331.572	528.19
331.801	515.19
332.03	510.19
332.258	480.19
332.486	452.19
332.715	486.19
332.943	441.19
333.172	455.19
333.4	473.19
333.629	476.19
333.857	483.19
334.085	504.19
334.314	510.19
334.542	531.19
334.771	530.19
334.999	510.19
335.227	481.19
335.455	455.19
335.684	446.19
335.912	466.19
336.14	426.19
336.369	426.19
336.597	437.19
336.825	430.19
337.053	438.19
337.281	434.19
337.51	419.19
337.738	432.19
337.966	426.19
338.194	421.19
338.422	435.19
338.65	441.19
338.878	444.19
339.106	400.19
339.334	416.19
339.562	432.19
339.79	423.19
340.018	433.19
340.246	427.19
340.474	422.19
340.702	436.19
340.93	420.19
341.158	396.19
341.386	424.19
341.614	426.19
341.842	426.19
342.07	411.19
342.298	411.19
342.526	420.19
342.754	394.19
342.981	377.19
343.209	380.19
343.437	403.19
343.665	419.19
343.893	430.19
344.12	426.19
344.348	410.19
344.576	423.19
344.804	433.19
345.031	426.19
345.259	450.19
345.487	438.19
345.714	408.19
345.942	414.19
346.17	403.19
346.397	408.19
346.625	414.19
346.853	418.19
347.08	415.19
347.308	416.19
347.535	426.19
347.763	413.19
347.99	401.19
348.218	412.19
348.445	447.19
348.673	432.19
348.9	413.19
349.128	384.19
349.355	410.19
349.583	375.19
349.81	391.19
350.037	411.19
350.265	390.19
350.492	381.19
350.72	376.19
350.947	420.19
351.174	407.19
351.402	444.19
351.629	420.19
351.856	393.19
352.083	434.19
352.311	436.19
352.538	411.19
352.765	436.19
352.992	416.19
353.22	387.19
353.447	407.19
353.674	396.19
353.901	383.19
354.128	375.19
354.355	380.19
354.583	356.19
354.81	368.19
355.037	382.19
355.264	370.19
355.491	366.19
355.718	355.19
355.945	368.19
356.172	346.19
356.399	362.19
356.626	354.19
356.853	345.19
357.08	363.19
357.307	347.19
357.534	368.19
357.761	379.19
357.988	390.19
358.215	370.19
358.441	361.19
358.668	361.19
358.895	394.19
359.122	379.19
359.349	385.19
359.576	402.19
359.802	426.19
360.029	439.19
360.256	459.19
360.483	431.19
360.709	384.19
360.936	395.19
361.163	410.19
361.39	392.19
361.616	399.19
361.843	408.19
362.07	401.19
362.296	381.19
362.523	416.19
362.749	384.19
362.976	379.19
363.203	378.19
363.429	375.19
363.656	387.19
363.882	358.19
364.109	376.19
364.335	372.19
364.562	382.19
364.788	372.19
365.015	362.19
365.241	373.19
365.468	375.19
365.694	372.19
365.92	392.19
366.147	364.19
366.373	360.19
366.599	378.19
366.826	347.19
367.052	358.19
367.278	372.19
367.505	366.19
367.731	358.19
367.957	367.19
368.184	378.19
368.41	384.19
368.636	387.19
368.862	407.19
369.089	376.19
369.315	375.19
369.541	363.19
369.767	368.19
369.993	368.19
370.219	364.19
370.445	365.19
370.672	366.19
370.898	358.19
371.124	358.19
371.35	358.19
371.576	347.19
371.802	356.19
372.028	362.19
372.254	355.19
372.48	337.19
372.706	359.19
372.932	357.19
373.158	363.19
373.384	379.19
373.61	370.19
373.835	353.19
374.061	359.19
374.287	361.19
374.513	355.19
374.739	368.19
374.965	353.19
375.191	343.19
375.416	338.19
375.642	344.19
375.868	362.19
376.094	343.19
376.319	348.19
376.545	339.19
376.771	327.19
376.997	348.19
377.222	338.19
377.448	351.19
377.674	331.19
377.899	354.19
378.125	342.19
378.35	326.19
378.576	338.19
378.802	336.19
379.027	336.19
379.253	361.19
379.478	339.19
379.704	358.19
379.929	350.19
380.155	358.19
380.38	341.19
380.606	358.19
380.831	344.19
381.057	356.19
381.282	346.19
381.507	345.19
381.733	369.19
381.958	335.19
382.184	338.19
382.409	340.19
382.634	353.19
382.86	350.19
383.085	366.19
383.31	366.19
383.535	345.19
383.761	368.19
383.986	358.19
384.211	373.19
384.436	370.19
384.662	344.19
384.887	374.19
385.112	365.19
385.337	369.19
385.562	359.19
385.787	340.19
386.013	359.19
386.238	377.19
386.463	356.19
386.688	352.19
386.913	366.19
387.138	363.19
387.363	369.19
387.588	360.19
387.813	356.19
388.038	360.19
388.263	368.19
388.488	353.19
388.713	349.19
388.938	369.19
389.163	352.19
389.387	372.19
389.612	356.19
389.837	358.19
390.062	360.19
390.287	378.19
390.512	354.19
390.736	367.19
390.961	370.19
391.186	364.19
391.411	371.19
391.636	375.19
391.86	371.19
392.085	364.19
392.31	361.19
392.534	364.19
392.759	364.19
392.984	360.19
393.208	374.19
393.433	360.19
393.658	346.19
393.882	363.19
394.107	371.19
394.331	346.19
394.556	380.19
394.78	368.19
395.005	374.19
395.229	368.19
395.454	354.19
395.678	390.19
395.903	361.19
396.127	418.19
396.352	396.19
396.576	370.19
396.801	374.19
397.025	378.19
397.249	387.19
397.474	378.19
397.698	366.19
397.922	374.19
398.147	410.19
398.371	424.19
398.595	408.19
398.82	388.19
399.044	404.19
399.268	393.19
399.492	422.19
399.717	444.19
399.941	463.19
400.165	490.19
400.389	495.19
400.613	481.19
400.837	417.19
401.062	408.19
401.286	406.19
401.51	403.19
401.734	402.19
401.958	395.19
402.182	400.19
402.406	410.19
402.63	420.19
402.854	417.19
403.078	411.19
403.302	417.19
403.526	422.19
403.75	431.19
403.974	404.19
404.198	394.19
404.422	406.19
404.645	434.19
404.869	424.19
405.093	443.19
405.317	511.19
405.541	515.19
405.765	466.19
405.988	448.19
406.212	465.19
406.436	464.19
406.66	457.19
406.883	451.19
407.107	478.19
407.331	499.19
407.555	584.19
407.778	553.19
408.002	519.19
408.226	483.19
408.449	476.19
408.673	468.19
408.896	476.19
409.12	529.19
409.344	491.19
409.567	442.19
409.791	443.19
410.014	418.19
410.238	419.19
410.461	433.19
410.685	422.19
410.908	435.19
411.132	454.19
411.355	492.19
411.578	475.19
411.802	432.19
412.025	434.19
412.249	435.19
412.472	449.19
412.695	475.19
412.919	466.19
413.142	440.19
413.365	399.19
413.589	417.19
413.812	411.19
414.035	397.19
414.258	386.19
414.482	412.19
414.705	405.19
414.928	378.19
415.151	370.19
415.374	372.19
415.597	385.19
415.821	392.19
416.044	389.19
416.267	384.19
416.49	395.19
416.713	390.19
416.936	395.19
417.159	392.19
417.382	393.19
417.605	408.19
417.828	406.19
418.051	421.19
418.274	423.19
418.497	410.19
418.72	401.19
418.943	390.19
419.166	376.19
419.389	422.19
419.611	402.19
419.834	412.19
420.057	424.19
420.28	410.19
420.503	409.19
420.726	413.19
420.948	443.19
421.171	467.19
421.394	490.19
421.617	424.19
421.839	400.19
422.062	437.19
422.285	448.19
422.507	501.19
422.73	559.19
422.953	544.19
423.175	459.19
423.398	441.19
423.621	437.19
423.843	446.19
424.066	476.19
424.288	454.19
424.511	480.19
424.733	516.19
424.956	579.19
425.178	602.19
425.401	578.19
425.623	582.19
425.846	504.19
426.068	472.19
426.291	450.19
426.513	475.19
426.735	489.19
426.958	512.19
427.18	615.19
427.402	698.19
427.625	772.19
427.847	661.19
428.069	586.19
428.292	510.19
428.514	490.19
428.736	451.19
428.958	451.19
429.181	437.19
429.403	429.19
429.625	457.19
429.847	457.19
430.069	542.19
430.292	507.19
430.514	438.19
430.736	440.19
430.958	412.19
431.18	401.19
431.402	408.19
431.624	397.19
431.846	391.19
432.068	393.19
432.29	399.19
432.512	404.19
432.734	409.19
432.956	398.19
433.178	427.19
433.4	410.19
433.622	433.19
433.844	416.19
434.066	402.19
434.287	398.19
434.509	393.19
434.731	416.19
434.953	396.19
435.175	403.19
435.397	450.19
435.618	460.19
435.84	519.19
436.062	589.19
436.284	642.19
436.505	543.19
436.727	506.19
436.949	455.19
437.17	442.19
437.392	434.19
437.614	460.19
437.835	494.19
438.057	562.19
438.278	663.19
438.5	654.19
438.721	692.19
438.943	668.19
439.165	567.19
439.386	495.19
439.608	471.19
439.829	470.19
440.05	534.19
440.272	561.19
440.493	542.19
440.715	477.19
440.936	456.19
441.158	424.19
441.379	443.19
441.6	426.19
441.822	464.19
442.043	522.19
442.264	592.19
442.486	609.19
442.707	530.19
442.928	484.19
443.149	500.19
443.371	511.19
443.592	561.19
443.813	624.19
444.034	694.19
444.255	554.19
444.476	485.19
444.698	484.19
444.919	444.19
445.14	543.19
445.361	507.19
445.582	499.19
445.803	566.19
446.024	654.19
446.245	671.19
446.466	600.19
446.687	535.19
446.908	476.19
447.129	446.19
447.35	454.19
447.571	430.19
447.792	459.19
448.013	445.19
448.234	462.19
448.455	516.19
448.675	628.19
448.896	729.19
449.117	594.19
449.338	564.19
449.559	629.19
449.779	718.19
450	605.19
450.221	506.19
450.442	440.19
450.662	427.19
450.883	450.19
451.104	491.19
451.324	435.19
451.545	392.19
451.766	412.19
451.986	390.19
452.207	389.19
452.428	376.19
452.648	391.19
452.869	391.19
453.089	406.19
453.31	404.19
453.53	407.19
453.751	402.19
453.971	397.19
454.192	413.19
454.412	395.19
454.633	398.19
454.853	363.19
455.073	378.19
455.294	417.19
455.514	478.19
455.734	464.19
455.955	405.19
456.175	345.19
456.395	364.19
456.616	362.19
456.836	348.19
457.056	353.19
457.276	347.19
457.497	359.19
457.717	380.19
457.937	357.19
458.157	348.19
458.377	367.19
458.598	391.19
458.818	455.19
459.038	525.19
459.258	528.19
459.478	438.19
459.698	421.19
459.918	392.19
460.138	382.19
460.358	398.19
460.578	394.19
460.798	388.19
461.018	387.19
461.238	375.19
461.458	359.19
461.678	370.19
461.898	394.19
462.118	393.19
462.338	390.19
462.558	414.19
462.777	400.19
462.997	406.19
463.217	410.19
463.437	413.19
463.657	416.19
463.876	387.19
464.096	391.19
464.316	394.19
464.536	415.19
464.755	424.19
464.975	423.19
465.195	483.19
465.414	539.19
465.634	473.19
465.854	445.19
466.073	404.19
466.293	396.19
466.512	392.19
466.732	383.19
466.951	393.19
467.171	388.19
467.391	408.19
467.61	399.19
467.829	397.19
468.049	391.19
468.268	409.19
468.488	384.19
468.707	378.19
468.927	372.19
469.146	377.19
469.365	373.19
469.585	372.19
469.804	399.19
470.023	383.19
470.243	405.19
470.462	408.19
470.681	421.19
470.901	403.19
471.12	378.19
471.339	385.19
471.558	395.19
471.777	410.19
471.997	379.19
472.216	393.19
472.435	454.19
472.654	425.19
472.873	389.19
473.092	374.19
473.311	388.19
473.53	404.19
473.749	395.19
473.968	447.19
474.187	550.19
474.406	568.19
474.625	457.19
474.844	417.19
475.063	410.19
475.282	397.19
475.501	413.19
475.72	407.19
475.939	398.19
476.158	408.19
476.377	396.19
476.596	401.19
476.814	413.19
477.033	393.19
477.252	419.19
477.471	400.19
477.69	412.19
477.908	411.19
478.127	416.19
478.346	399.19
478.564	433.19
478.783	434.19
479.002	439.19
479.22	439.19
479.439	459.19
479.658	486.19
479.876	496.19
480.095	484.19
480.313	476.19
480.532	499.19
480.751	462.19
480.969	490.19
481.188	544.19
481.406	593.19
481.624	528.19
481.843	485.19
482.061	470.19
482.28	470.19
482.498	463.19
482.717	456.19
482.935	465.19
483.153	456.19
483.372	471.19
483.59	467.19
483.808	449.19
484.027	462.19
484.245	460.19
484.463	498.19
484.681	460.19
484.9	466.19
485.118	474.19
485.336	475.19
485.554	480.19
485.772	465.19
485.99	463.19
486.209	480.19
486.427	494.19
486.645	483.19
486.863	524.19
487.081	476.19
487.299	495.19
487.517	474.19
487.735	489.19
487.953	505.19
488.171	491.19
488.389	505.19
488.607	506.19
488.825	487.19
489.043	505.19
489.261	521.19
489.479	493.19
489.696	497.19
489.914	517.19
490.132	534.19
490.35	523.19
490.568	517.19
490.786	540.19
491.003	545.19
491.221	535.19
491.439	560.19
491.657	544.19
491.874	544.19
492.092	568.19
492.31	576.19
492.527	563.19
492.745	571.19
492.963	589.19
493.18	595.19
493.398	560.19
493.615	606.19
493.833	583.19
494.05	600.19
494.268	578.19
494.485	598.19
494.703	581.19
494.92	610.19
495.138	598.19
495.355	601.19
495.573	575.19
495.79	588.19
496.008	577.19
496.225	571.19
496.442	575.19
496.66	599.19
496.877	605.19
497.094	571.19
497.312	589.19
497.529	611.19
497.746	601.19
497.963	624.19
498.181	644.19
498.398	633.19
498.615	644.19
498.832	647.19
499.049	617.19
499.267	643.19
499.484	664.19
499.701	679.19
499.918	680.19
500.135	687.19
500.352	697.19
500.569	722.19
500.786	714.19
501.003	730.19
501.22	706.19
501.437	710.19
501.654	715.19
501.871	697.19
