Data from 1981.PennyLincolnUp.Lamp.En5.5.200Scan.071819.P1_HRD10591_16-42-31-961.txt Node
Date: Thu Jul 18 16:42:31 EDT 2019
User: cochatt
Spectrometer: HR+D1059
Trigger mode: 1
Integration Time (sec): 1.000000E-1
Scans to average: 1
Electric dark correction enabled: true
Nonlinearity correction enabled: false
Boxcar width: 0
XAxis mode: Wavelengths
Number of Pixels in Spectrum: 2048
>>>>>Begin Spectral Data<<<<<
223.165	-1.31
223.4	-1.31
223.635	-1.31
223.869	-21.31
224.104	-16.31
224.338	-6.31
224.573	-23.31
224.808	-14.31
225.042	-9.31
225.277	-14.31
225.511	0.69
225.746	8.69
225.98	3.69
226.215	8.69
226.449	19.69
226.683	9.69
226.918	24.69
227.152	30.69
227.387	20.69
227.621	32.69
227.856	37.69
228.09	42.69
228.324	56.69
228.559	51.69
228.793	58.69
229.027	107.69
229.262	94.69
229.496	134.69
229.73	112.69
229.964	139.69
230.199	132.69
230.433	111.69
230.667	102.69
230.901	113.69
231.136	104.69
231.37	110.69
231.604	99.69
231.838	118.69
232.072	101.69
232.306	110.69
232.541	98.69
232.775	102.69
233.009	111.69
233.243	114.69
233.477	112.69
233.711	120.69
233.945	104.69
234.179	115.69
234.413	124.69
234.647	111.69
234.881	126.69
235.115	106.69
235.349	106.69
235.583	123.69
235.817	126.69
236.051	122.69
236.285	113.69
236.519	131.69
236.753	132.69
236.987	146.69
237.221	179.69
237.455	238.69
237.689	186.69
237.922	140.69
238.156	140.69
238.39	144.69
238.624	126.69
238.858	105.69
239.091	122.69
239.325	131.69
239.559	124.69
239.793	129.69
240.027	137.69
240.26	145.69
240.494	141.69
240.728	165.69
240.961	157.69
241.195	144.69
241.429	136.69
241.662	135.69
241.896	129.69
242.13	141.69
242.363	128.69
242.597	128.69
242.83	141.69
243.064	130.69
243.298	142.69
243.531	130.69
243.765	131.69
243.998	131.69
244.232	135.69
244.465	138.69
244.699	122.69
244.932	137.69
245.166	154.69
245.399	147.69
245.633	148.69
245.866	135.69
246.099	145.69
246.333	148.69
246.566	156.69
246.8	147.69
247.033	150.69
247.266	158.69
247.5	163.69
247.733	178.69
247.966	167.69
248.2	161.69
248.433	168.69
248.666	178.69
248.899	198.69
249.133	221.69
249.366	203.69
249.599	189.69
249.832	200.69
250.066	190.69
250.299	193.69
250.532	211.69
250.765	218.69
250.998	214.69
251.231	248.69
251.465	223.69
251.698	206.69
251.931	210.69
252.164	210.69
252.397	218.69
252.63	212.69
252.863	225.69
253.096	215.69
253.329	219.69
253.562	230.69
253.795	212.69
254.028	238.69
254.261	241.69
254.494	244.69
254.727	274.69
254.96	296.69
255.193	273.69
255.426	265.69
255.659	266.69
255.892	252.69
256.124	239.69
256.357	244.69
256.59	243.69
256.823	227.69
257.056	227.69
257.289	220.69
257.521	224.69
257.754	208.69
257.987	229.69
258.22	222.69
258.452	222.69
258.685	211.69
258.918	223.69
259.151	216.69
259.383	238.69
259.616	225.69
259.849	235.69
260.081	239.69
260.314	271.69
260.547	267.69
260.779	241.69
261.012	247.69
261.244	243.69
261.477	239.69
261.71	241.69
261.942	220.69
262.175	233.69
262.407	229.69
262.64	230.69
262.872	231.69
263.105	224.69
263.337	230.69
263.57	203.69
263.802	238.69
264.035	221.69
264.267	227.69
264.499	217.69
264.732	215.69
264.964	215.69
265.197	209.69
265.429	209.69
265.661	230.69
265.894	221.69
266.126	228.69
266.358	224.69
266.591	217.69
266.823	240.69
267.055	236.69
267.287	227.69
267.52	239.69
267.752	242.69
267.984	245.69
268.216	246.69
268.448	234.69
268.681	232.69
268.913	268.69
269.145	274.69
269.377	305.69
269.609	275.69
269.841	283.69
270.073	282.69
270.306	318.69
270.538	321.69
270.77	344.69
271.002	322.69
271.234	315.69
271.466	329.69
271.698	335.69
271.93	342.69
272.162	351.69
272.394	345.69
272.626	308.69
272.858	306.69
273.09	311.69
273.322	279.69
273.553	295.69
273.785	294.69
274.017	275.69
274.249	279.69
274.481	293.69
274.713	272.69
274.945	276.69
275.176	276.69
275.408	290.69
275.64	274.69
275.872	291.69
276.104	268.69
276.335	296.69
276.567	283.69
276.799	295.69
277.031	336.69
277.262	336.69
277.494	329.69
277.726	310.69
277.957	313.69
278.189	317.69
278.421	290.69
278.652	286.69
278.884	270.69
279.115	279.69
279.347	283.69
279.579	278.69
279.81	273.69
280.042	268.69
280.273	291.69
280.505	267.69
280.736	263.69
280.968	268.69
281.199	264.69
281.431	259.69
281.662	260.69
281.894	268.69
282.125	294.69
282.356	318.69
282.588	317.69
282.819	332.69
283.051	290.69
283.282	263.69
283.513	267.69
283.745	269.69
283.976	262.69
284.207	269.69
284.439	284.69
284.67	294.69
284.901	293.69
285.132	289.69
285.364	271.69
285.595	272.69
285.826	286.69
286.057	260.69
286.288	274.69
286.52	281.69
286.751	286.69
286.982	285.69
287.213	286.69
287.444	291.69
287.675	300.69
287.906	309.69
288.138	304.69
288.369	297.69
288.6	284.69
288.831	315.69
289.062	310.69
289.293	299.69
289.524	297.69
289.755	285.69
289.986	280.69
290.217	292.69
290.448	283.69
290.679	287.69
290.91	292.69
291.141	286.69
291.371	277.69
291.602	292.69
291.833	298.69
292.064	272.69
292.295	299.69
292.526	294.69
292.757	282.69
292.987	276.69
293.218	275.69
293.449	297.69
293.68	290.69
293.91	279.69
294.141	282.69
294.372	294.69
294.603	297.69
294.833	293.69
295.064	291.69
295.295	284.69
295.525	294.69
295.756	299.69
295.987	312.69
296.217	320.69
296.448	346.69
296.679	298.69
296.909	297.69
297.14	302.69
297.37	302.69
297.601	283.69
297.831	284.69
298.062	308.69
298.292	290.69
298.523	297.69
298.753	294.69
298.984	320.69
299.214	314.69
299.445	291.69
299.675	308.69
299.905	296.69
300.136	319.69
300.366	302.69
300.597	294.69
300.827	311.69
301.057	328.69
301.288	334.69
301.518	325.69
301.748	319.69
301.979	333.69
302.209	328.69
302.439	326.69
302.669	323.69
302.9	328.69
303.13	321.69
303.36	315.69
303.59	328.69
303.82	339.69
304.051	346.69
304.281	326.69
304.511	327.69
304.741	330.69
304.971	315.69
305.201	321.69
305.431	329.69
305.661	321.69
305.891	343.69
306.121	340.69
306.352	336.69
306.582	323.69
306.812	324.69
307.042	343.69
307.272	328.69
307.502	339.69
307.731	343.69
307.961	331.69
308.191	338.69
308.421	321.69
308.651	322.69
308.881	366.69
309.111	368.69
309.341	354.69
309.571	363.69
309.8	366.69
310.03	377.69
310.26	390.69
310.49	390.69
310.72	408.69
310.949	409.69
311.179	420.69
311.409	402.69
311.639	397.69
311.868	387.69
312.098	407.69
312.328	403.69
312.557	408.69
312.787	449.69
313.017	411.69
313.246	414.69
313.476	401.69
313.706	403.69
313.935	389.69
314.165	423.69
314.394	420.69
314.624	419.69
314.853	395.69
315.083	397.69
315.312	398.69
315.542	367.69
315.771	400.69
316.001	393.69
316.23	391.69
316.46	372.69
316.689	382.69
316.919	390.69
317.148	407.69
317.377	407.69
317.607	399.69
317.836	386.69
318.065	396.69
318.295	382.69
318.524	368.69
318.753	386.69
318.983	396.69
319.212	362.69
319.441	392.69
319.67	392.69
319.9	389.69
320.129	388.69
320.358	381.69
320.587	396.69
320.816	402.69
321.046	418.69
321.275	408.69
321.504	426.69
321.733	414.69
321.962	408.69
322.191	431.69
322.42	444.69
322.649	458.69
322.878	475.69
323.108	490.69
323.337	522.69
323.566	552.69
323.795	598.69
324.024	674.69
324.253	819.69
324.482	1184.69
324.71	1766.69
324.939	2490.69
325.168	2074.69
325.397	1111.69
325.626	750.69
325.855	628.69
326.084	574.69
326.313	554.69
326.542	542.69
326.77	610.69
326.999	747.69
327.228	1074.69
327.457	1539.69
327.686	1808.69
327.914	1204.69
328.143	808.69
328.372	712.69
328.6	665.69
328.829	635.69
329.058	634.69
329.287	636.69
329.515	596.69
329.744	554.69
329.972	571.69
330.201	586.69
330.43	611.69
330.658	651.69
330.887	659.69
331.115	665.69
331.344	568.69
331.572	520.69
331.801	525.69
332.03	513.69
332.258	485.69
332.486	454.69
332.715	451.69
332.943	454.69
333.172	438.69
333.4	450.69
333.629	458.69
333.857	474.69
334.085	485.69
334.314	499.69
334.542	524.69
334.771	550.69
334.999	503.69
335.227	474.69
335.455	447.69
335.684	450.69
335.912	438.69
336.14	434.69
336.369	447.69
336.597	459.69
336.825	436.69
337.053	453.69
337.281	431.69
337.51	434.69
337.738	434.69
337.966	436.69
338.194	457.69
338.422	463.69
338.65	412.69
338.878	400.69
339.106	423.69
339.334	438.69
339.562	432.69
339.79	396.69
340.018	416.69
340.246	415.69
340.474	426.69
340.702	421.69
340.93	431.69
341.158	422.69
341.386	419.69
341.614	405.69
341.842	412.69
342.07	400.69
342.298	406.69
342.526	412.69
342.754	400.69
342.981	409.69
343.209	398.69
343.437	432.69
343.665	399.69
343.893	405.69
344.12	422.69
344.348	429.69
344.576	408.69
344.804	415.69
345.031	436.69
345.259	443.69
345.487	434.69
345.714	410.69
345.942	409.69
346.17	427.69
346.397	426.69
346.625	424.69
346.853	424.69
347.08	408.69
347.308	395.69
347.535	408.69
347.763	418.69
347.99	432.69
348.218	418.69
348.445	413.69
348.673	407.69
348.9	442.69
349.128	423.69
349.355	376.69
349.583	385.69
349.81	374.69
350.037	386.69
350.265	378.69
350.492	385.69
350.72	401.69
350.947	402.69
351.174	421.69
351.402	410.69
351.629	414.69
351.856	415.69
352.083	439.69
352.311	416.69
352.538	436.69
352.765	414.69
352.992	405.69
353.22	417.69
353.447	404.69
353.674	404.69
353.901	384.69
354.128	387.69
354.355	386.69
354.583	369.69
354.81	360.69
355.037	372.69
355.264	366.69
355.491	374.69
355.718	361.69
355.945	359.69
356.172	380.69
356.399	374.69
356.626	374.69
356.853	373.69
357.08	372.69
357.307	356.69
357.534	358.69
357.761	350.69
357.988	372.69
358.215	386.69
358.441	376.69
358.668	370.69
358.895	371.69
359.122	402.69
359.349	402.69
359.576	401.69
359.802	435.69
360.029	473.69
360.256	462.69
360.483	432.69
360.709	414.69
360.936	393.69
361.163	405.69
361.39	394.69
361.616	395.69
361.843	404.69
362.07	386.69
362.296	408.69
362.523	393.69
362.749	386.69
362.976	375.69
363.203	397.69
363.429	378.69
363.656	396.69
363.882	385.69
364.109	371.69
364.335	372.69
364.562	363.69
364.788	381.69
365.015	380.69
365.241	382.69
365.468	390.69
365.694	387.69
365.92	409.69
366.147	359.69
366.373	374.69
366.599	360.69
366.826	359.69
367.052	369.69
367.278	363.69
367.505	366.69
367.731	362.69
367.957	367.69
368.184	358.69
368.41	385.69
368.636	408.69
368.862	374.69
369.089	369.69
369.315	359.69
369.541	368.69
369.767	370.69
369.993	359.69
370.219	350.69
370.445	367.69
370.672	350.69
370.898	341.69
371.124	372.69
371.35	341.69
371.576	343.69
371.802	359.69
372.028	348.69
372.254	355.69
372.48	362.69
372.706	355.69
372.932	366.69
373.158	365.69
373.384	367.69
373.61	368.69
373.835	373.69
374.061	371.69
374.287	378.69
374.513	364.69
374.739	370.69
374.965	354.69
375.191	367.69
375.416	347.69
375.642	362.69
375.868	352.69
376.094	356.69
376.319	358.69
376.545	347.69
376.771	341.69
376.997	350.69
377.222	342.69
377.448	341.69
377.674	340.69
377.899	345.69
378.125	348.69
378.35	349.69
378.576	347.69
378.802	366.69
379.027	346.69
379.253	345.69
379.478	344.69
379.704	362.69
379.929	328.69
380.155	350.69
380.38	345.69
380.606	352.69
380.831	353.69
381.057	354.69
381.282	370.69
381.507	357.69
381.733	358.69
381.958	364.69
382.184	348.69
382.409	370.69
382.634	357.69
382.86	336.69
383.085	373.69
383.31	362.69
383.535	370.69
383.761	358.69
383.986	348.69
384.211	352.69
384.436	342.69
384.662	342.69
384.887	351.69
385.112	353.69
385.337	373.69
385.562	366.69
385.787	377.69
386.013	376.69
386.238	370.69
386.463	370.69
386.688	389.69
386.913	364.69
387.138	362.69
387.363	348.69
387.588	362.69
387.813	369.69
388.038	347.69
388.263	368.69
388.488	366.69
388.713	372.69
388.938	354.69
389.163	374.69
389.387	382.69
389.612	371.69
389.837	381.69
390.062	394.69
390.287	367.69
390.512	366.69
390.736	372.69
390.961	361.69
391.186	356.69
391.411	345.69
391.636	372.69
391.86	376.69
392.085	363.69
392.31	374.69
392.534	378.69
392.759	372.69
392.984	360.69
393.208	355.69
393.433	377.69
393.658	376.69
393.882	360.69
394.107	380.69
394.331	363.69
394.556	353.69
394.78	354.69
395.005	363.69
395.229	355.69
395.454	390.69
395.678	382.69
395.903	386.69
396.127	412.69
396.352	392.69
396.576	395.69
396.801	370.69
397.025	368.69
397.249	362.69
397.474	384.69
397.698	398.69
397.922	421.69
398.147	408.69
398.371	414.69
398.595	411.69
398.82	398.69
399.044	395.69
399.268	413.69
399.492	430.69
399.717	449.69
399.941	464.69
400.165	487.69
400.389	483.69
400.613	435.69
400.837	426.69
401.062	438.69
401.286	414.69
401.51	399.69
401.734	399.69
401.958	405.69
402.182	391.69
402.406	418.69
402.63	422.69
402.854	409.69
403.078	425.69
403.302	442.69
403.526	422.69
403.75	446.69
403.974	424.69
404.198	414.69
404.422	409.69
404.645	431.69
404.869	438.69
405.093	439.69
405.317	467.69
405.541	505.69
405.765	484.69
405.988	440.69
406.212	462.69
406.436	466.69
406.66	470.69
406.883	458.69
407.107	480.69
407.331	513.69
407.555	574.69
407.778	575.69
408.002	517.69
408.226	482.69
408.449	499.69
408.673	452.69
408.896	492.69
409.12	539.69
409.344	517.69
409.567	459.69
409.791	449.69
410.014	433.69
410.238	427.69
410.461	417.69
410.685	411.69
410.908	439.69
411.132	468.69
411.355	498.69
411.578	496.69
411.802	435.69
412.025	431.69
412.249	444.69
412.472	463.69
412.695	469.69
412.919	471.69
413.142	442.69
413.365	430.69
413.589	395.69
413.812	386.69
414.035	413.69
414.258	405.69
414.482	387.69
414.705	396.69
414.928	410.69
415.151	406.69
415.374	371.69
415.597	378.69
415.821	379.69
416.044	382.69
416.267	421.69
416.49	393.69
416.713	375.69
416.936	396.69
417.159	393.69
417.382	396.69
417.605	400.69
417.828	414.69
418.051	412.69
418.274	418.69
418.497	403.69
418.72	403.69
418.943	395.69
419.166	428.69
419.389	414.69
419.611	418.69
419.834	422.69
420.057	424.69
420.28	432.69
420.503	432.69
420.726	411.69
420.948	446.69
421.171	466.69
421.394	498.69
421.617	435.69
421.839	438.69
422.062	415.69
422.285	440.69
422.507	496.69
422.73	568.69
422.953	522.69
423.175	444.69
423.398	449.69
423.621	454.69
423.843	467.69
424.066	453.69
424.288	440.69
424.511	489.69
424.733	516.69
424.956	616.69
425.178	573.69
425.401	570.69
425.623	575.69
425.846	497.69
426.068	479.69
426.291	493.69
426.513	473.69
426.735	478.69
426.958	516.69
427.18	594.69
427.402	676.69
427.625	777.69
427.847	692.69
428.069	594.69
428.292	518.69
428.514	478.69
428.736	466.69
428.958	441.69
429.181	419.69
429.403	433.69
429.625	438.69
429.847	463.69
430.069	554.69
430.292	532.69
430.514	443.69
430.736	441.69
430.958	423.69
431.18	392.69
431.402	409.69
431.624	392.69
431.846	378.69
432.068	380.69
432.29	385.69
432.512	394.69
432.734	407.69
432.956	430.69
433.178	429.69
433.4	427.69
433.622	419.69
433.844	379.69
434.066	399.69
434.287	392.69
434.509	391.69
434.731	380.69
434.953	407.69
435.175	419.69
435.397	454.69
435.618	474.69
435.84	489.69
436.062	594.69
436.284	662.69
436.505	543.69
436.727	512.69
436.949	449.69
437.17	430.69
437.392	438.69
437.614	458.69
437.835	477.69
438.057	581.69
438.278	669.69
438.5	665.69
438.721	706.69
438.943	658.69
439.165	549.69
439.386	488.69
439.608	503.69
439.829	490.69
440.05	489.69
440.272	572.69
440.493	524.69
440.715	463.69
440.936	466.69
441.158	443.69
441.379	434.69
441.6	426.69
441.822	461.69
442.043	514.69
442.264	574.69
442.486	597.69
442.707	510.69
442.928	470.69
443.149	529.69
443.371	530.69
443.592	554.69
443.813	632.69
444.034	669.69
444.255	577.69
444.476	476.69
444.698	467.69
444.919	439.69
445.14	552.69
445.361	525.69
445.582	510.69
445.803	570.69
446.024	678.69
446.245	672.69
446.466	612.69
446.687	548.69
446.908	461.69
447.129	443.69
447.35	457.69
447.571	428.69
447.792	438.69
448.013	444.69
448.234	449.69
448.455	506.69
448.675	614.69
448.896	667.69
449.117	626.69
449.338	584.69
449.559	652.69
449.779	738.69
450	597.69
450.221	490.69
450.442	470.69
450.662	428.69
450.883	447.69
451.104	452.69
451.324	448.69
451.545	418.69
451.766	415.69
451.986	386.69
452.207	386.69
452.428	390.69
452.648	395.69
452.869	382.69
453.089	384.69
453.31	419.69
453.53	380.69
453.751	412.69
453.971	372.69
454.192	400.69
454.412	391.69
454.633	390.69
454.853	374.69
455.073	371.69
455.294	435.69
455.514	493.69
455.734	472.69
455.955	388.69
456.175	380.69
456.395	388.69
456.616	356.69
456.836	351.69
457.056	370.69
457.276	348.69
457.497	353.69
457.717	352.69
457.937	372.69
458.157	368.69
458.377	372.69
458.598	412.69
458.818	455.69
459.038	539.69
459.258	556.69
459.478	473.69
459.698	423.69
459.918	398.69
460.138	384.69
460.358	403.69
460.578	417.69
460.798	380.69
461.018	401.69
461.238	398.69
461.458	390.69
461.678	398.69
461.898	400.69
462.118	387.69
462.338	378.69
462.558	389.69
462.777	384.69
462.997	397.69
463.217	404.69
463.437	411.69
463.657	392.69
463.876	396.69
464.096	385.69
464.316	395.69
464.536	399.69
464.755	435.69
464.975	433.69
465.195	488.69
465.414	558.69
465.634	488.69
465.854	432.69
466.073	406.69
466.293	405.69
466.512	382.69
466.732	374.69
466.951	373.69
467.171	379.69
467.391	386.69
467.61	406.69
467.829	418.69
468.049	416.69
468.268	386.69
468.488	376.69
468.707	401.69
468.927	384.69
469.146	376.69
469.365	387.69
469.585	371.69
469.804	382.69
470.023	401.69
470.243	396.69
470.462	424.69
470.681	400.69
470.901	399.69
471.12	399.69
471.339	405.69
471.558	403.69
471.777	391.69
471.997	418.69
472.216	395.69
472.435	431.69
472.654	423.69
472.873	400.69
473.092	386.69
473.311	398.69
473.53	395.69
473.749	413.69
473.968	446.69
474.187	560.69
474.406	576.69
474.625	454.69
474.844	423.69
475.063	397.69
475.282	405.69
475.501	405.69
475.72	386.69
475.939	410.69
476.158	407.69
476.377	406.69
476.596	404.69
476.814	418.69
477.033	410.69
477.252	419.69
477.471	418.69
477.69	424.69
477.908	414.69
478.127	408.69
478.346	411.69
478.564	440.69
478.783	432.69
479.002	420.69
479.22	447.69
479.439	448.69
479.658	487.69
479.876	473.69
480.095	482.69
480.313	499.69
480.532	479.69
480.751	480.69
480.969	496.69
481.188	568.69
481.406	583.69
481.624	532.69
481.843	488.69
482.061	481.69
482.28	501.69
482.498	458.69
482.717	473.69
482.935	454.69
483.153	472.69
483.372	477.69
483.59	453.69
483.808	480.69
484.027	470.69
484.245	465.69
484.463	478.69
484.681	475.69
484.9	473.69
485.118	457.69
485.336	468.69
485.554	475.69
485.772	477.69
485.99	457.69
486.209	460.69
486.427	469.69
486.645	503.69
486.863	489.69
487.081	500.69
487.299	524.69
487.517	500.69
487.735	500.69
487.953	510.69
488.171	488.69
488.389	496.69
488.607	499.69
488.825	519.69
489.043	524.69
489.261	521.69
489.479	514.69
489.696	513.69
489.914	507.69
490.132	500.69
490.35	529.69
490.568	514.69
490.786	520.69
491.003	536.69
491.221	561.69
491.439	563.69
491.657	539.69
491.874	573.69
492.092	551.69
492.31	570.69
492.527	567.69
492.745	571.69
492.963	570.69
493.18	592.69
493.398	583.69
493.615	573.69
493.833	606.69
494.05	582.69
494.268	567.69
494.485	593.69
494.703	607.69
494.92	596.69
495.138	577.69
495.355	577.69
495.573	581.69
495.79	588.69
496.008	582.69
496.225	620.69
496.442	600.69
496.66	584.69
496.877	579.69
497.094	588.69
497.312	595.69
497.529	601.69
497.746	585.69
497.963	599.69
498.181	641.69
498.398	642.69
498.615	631.69
498.832	634.69
499.049	661.69
499.267	644.69
499.484	646.69
499.701	678.69
499.918	671.69
500.135	715.69
500.352	710.69
500.569	716.69
500.786	729.69
501.003	731.69
501.22	700.69
501.437	695.69
501.654	688.69
501.871	718.69
502.088	700.69
