Data from 1981.PennyLincolnUp.Lamp.En5.5.200Scan.071819.P1_HRD10591_16-42-55-960.txt Node
Date: Thu Jul 18 16:42:55 EDT 2019
User: cochatt
Spectrometer: HR+D1059
Trigger mode: 1
Integration Time (sec): 1.000000E-1
Scans to average: 1
Electric dark correction enabled: true
Nonlinearity correction enabled: false
Boxcar width: 0
XAxis mode: Wavelengths
Number of Pixels in Spectrum: 2048
>>>>>Begin Spectral Data<<<<<
223.165	-10.69
223.4	-10.69
223.635	-10.69
223.869	-30.69
224.104	-21.69
224.338	-14.69
224.573	-5.69
224.808	-22.69
225.042	-6.69
225.277	-5.69
225.511	1.31
225.746	12.31
225.98	0.31
226.215	14.31
226.449	-1.69
226.683	23.31
226.918	35.31
227.152	33.31
227.387	46.31
227.621	36.31
227.856	41.31
228.09	52.31
228.324	59.31
228.559	72.31
228.793	75.31
229.027	95.31
229.262	107.31
229.496	106.31
229.73	136.31
229.964	138.31
230.199	145.31
230.433	127.31
230.667	125.31
230.901	123.31
231.136	124.31
231.37	118.31
231.604	122.31
231.838	124.31
232.072	114.31
232.306	124.31
232.541	108.31
232.775	112.31
233.009	115.31
233.243	99.31
233.477	132.31
233.711	128.31
233.945	130.31
234.179	122.31
234.413	112.31
234.647	109.31
234.881	113.31
235.115	109.31
235.349	117.31
235.583	98.31
235.817	124.31
236.051	128.31
236.285	128.31
236.519	137.31
236.753	127.31
236.987	146.31
237.221	193.31
237.455	234.31
237.689	197.31
237.922	152.31
238.156	132.31
238.39	120.31
238.624	119.31
238.858	126.31
239.091	134.31
239.325	129.31
239.559	126.31
239.793	140.31
240.027	148.31
240.26	145.31
240.494	146.31
240.728	146.31
240.961	149.31
241.195	164.31
241.429	146.31
241.662	132.31
241.896	134.31
242.13	152.31
242.363	146.31
242.597	138.31
242.83	135.31
243.064	149.31
243.298	134.31
243.531	137.31
243.765	160.31
243.998	132.31
244.232	146.31
244.465	156.31
244.699	145.31
244.932	136.31
245.166	154.31
245.399	148.31
245.633	156.31
245.866	136.31
246.099	156.31
246.333	147.31
246.566	157.31
246.8	165.31
247.033	160.31
247.266	138.31
247.5	171.31
247.733	183.31
247.966	170.31
248.2	184.31
248.433	171.31
248.666	194.31
248.899	189.31
249.133	186.31
249.366	220.31
249.599	196.31
249.832	190.31
250.066	189.31
250.299	193.31
250.532	196.31
250.765	209.31
250.998	225.31
251.231	217.31
251.465	232.31
251.698	208.31
251.931	201.31
252.164	201.31
252.397	229.31
252.63	221.31
252.863	205.31
253.096	223.31
253.329	260.31
253.562	253.31
253.795	236.31
254.028	210.31
254.261	221.31
254.494	240.31
254.727	278.31
254.96	292.31
255.193	286.31
255.426	260.31
255.659	255.31
255.892	231.31
256.124	254.31
256.357	275.31
256.59	241.31
256.823	217.31
257.056	245.31
257.289	229.31
257.521	236.31
257.754	216.31
257.987	209.31
258.22	217.31
258.452	199.31
258.685	226.31
258.918	216.31
259.151	231.31
259.383	233.31
259.616	229.31
259.849	236.31
260.081	247.31
260.314	273.31
260.547	280.31
260.779	254.31
261.012	246.31
261.244	240.31
261.477	234.31
261.71	228.31
261.942	239.31
262.175	260.31
262.407	246.31
262.64	226.31
262.872	236.31
263.105	217.31
263.337	216.31
263.57	216.31
263.802	226.31
264.035	220.31
264.267	218.31
264.499	216.31
264.732	230.31
264.964	236.31
265.197	207.31
265.429	215.31
265.661	214.31
265.894	207.31
266.126	206.31
266.358	226.31
266.591	212.31
266.823	241.31
267.055	224.31
267.287	232.31
267.52	207.31
267.752	224.31
267.984	240.31
268.216	237.31
268.448	241.31
268.681	258.31
268.913	244.31
269.145	278.31
269.377	292.31
269.609	281.31
269.841	288.31
270.073	285.31
270.306	310.31
270.538	333.31
270.77	315.31
271.002	329.31
271.234	312.31
271.466	322.31
271.698	314.31
271.93	328.31
272.162	334.31
272.394	338.31
272.626	336.31
272.858	313.31
273.09	297.31
273.322	280.31
273.553	280.31
273.785	280.31
274.017	288.31
274.249	289.31
274.481	271.31
274.713	274.31
274.945	282.31
275.176	268.31
275.408	272.31
275.64	293.31
275.872	268.31
276.104	295.31
276.335	276.31
276.567	293.31
276.799	298.31
277.031	330.31
277.262	323.31
277.494	325.31
277.726	313.31
277.957	305.31
278.189	298.31
278.421	283.31
278.652	275.31
278.884	279.31
279.115	278.31
279.347	288.31
279.579	280.31
279.81	293.31
280.042	276.31
280.273	260.31
280.505	266.31
280.736	289.31
280.968	260.31
281.199	256.31
281.431	277.31
281.662	273.31
281.894	273.31
282.125	285.31
282.356	280.31
282.588	312.31
282.819	322.31
283.051	305.31
283.282	270.31
283.513	278.31
283.745	273.31
283.976	277.31
284.207	296.31
284.439	285.31
284.67	295.31
284.901	287.31
285.132	282.31
285.364	292.31
285.595	292.31
285.826	273.31
286.057	268.31
286.288	277.31
286.52	273.31
286.751	285.31
286.982	285.31
287.213	280.31
287.444	296.31
287.675	287.31
287.906	285.31
288.138	297.31
288.369	312.31
288.6	305.31
288.831	315.31
289.062	286.31
289.293	298.31
289.524	297.31
289.755	304.31
289.986	288.31
290.217	304.31
290.448	294.31
290.679	320.31
290.91	278.31
291.141	290.31
291.371	270.31
291.602	301.31
291.833	282.31
292.064	300.31
292.295	288.31
292.526	298.31
292.757	284.31
292.987	273.31
293.218	280.31
293.449	288.31
293.68	290.31
293.91	283.31
294.141	302.31
294.372	278.31
294.603	287.31
294.833	284.31
295.064	297.31
295.295	301.31
295.525	288.31
295.756	282.31
295.987	306.31
296.217	333.31
296.448	344.31
296.679	320.31
296.909	271.31
297.14	301.31
297.37	309.31
297.601	317.31
297.831	293.31
298.062	289.31
298.292	316.31
298.523	275.31
298.753	310.31
298.984	292.31
299.214	305.31
299.445	318.31
299.675	308.31
299.905	311.31
300.136	295.31
300.366	303.31
300.597	322.31
300.827	326.31
301.057	309.31
301.288	335.31
301.518	333.31
301.748	329.31
301.979	309.31
302.209	326.31
302.439	320.31
302.669	334.31
302.9	339.31
303.13	328.31
303.36	321.31
303.59	332.31
303.82	341.31
304.051	348.31
304.281	323.31
304.511	312.31
304.741	341.31
304.971	304.31
305.201	335.31
305.431	324.31
305.661	326.31
305.891	314.31
306.121	315.31
306.352	324.31
306.582	333.31
306.812	328.31
307.042	342.31
307.272	316.31
307.502	331.31
307.731	329.31
307.961	345.31
308.191	341.31
308.421	324.31
308.651	349.31
308.881	329.31
309.111	366.31
309.341	369.31
309.571	343.31
309.8	352.31
310.03	377.31
310.26	386.31
310.49	389.31
310.72	394.31
310.949	410.31
311.179	407.31
311.409	402.31
311.639	400.31
311.868	377.31
312.098	384.31
312.328	397.31
312.557	410.31
312.787	442.31
313.017	418.31
313.246	396.31
313.476	407.31
313.706	372.31
313.935	397.31
314.165	415.31
314.394	401.31
314.624	420.31
314.853	394.31
315.083	389.31
315.312	368.31
315.542	376.31
315.771	367.31
316.001	367.31
316.23	385.31
316.46	387.31
316.689	373.31
316.919	377.31
317.148	383.31
317.377	400.31
317.607	386.31
317.836	401.31
318.065	373.31
318.295	391.31
318.524	375.31
318.753	381.31
318.983	400.31
319.212	383.31
319.441	400.31
319.67	395.31
319.9	389.31
320.129	380.31
320.358	383.31
320.587	392.31
320.816	380.31
321.046	426.31
321.275	409.31
321.504	421.31
321.733	403.31
321.962	410.31
322.191	442.31
322.42	461.31
322.649	457.31
322.878	466.31
323.108	498.31
323.337	520.31
323.566	549.31
323.795	595.31
324.024	668.31
324.253	828.31
324.482	1181.31
324.71	1790.31
324.939	2414.31
325.168	2040.31
325.397	1072.31
325.626	734.31
325.855	616.31
326.084	572.31
326.313	555.31
326.542	564.31
326.77	598.31
326.999	708.31
327.228	1028.31
327.457	1520.31
327.686	1740.31
327.914	1208.31
328.143	804.31
328.372	692.31
328.6	666.31
328.829	620.31
329.058	628.31
329.287	639.31
329.515	594.31
329.744	535.31
329.972	537.31
330.201	562.31
330.43	607.31
330.658	651.31
330.887	692.31
331.115	621.31
331.344	559.31
331.572	518.31
331.801	526.31
332.03	502.31
332.258	472.31
332.486	450.31
332.715	469.31
332.943	451.31
333.172	460.31
333.4	457.31
333.629	459.31
333.857	492.31
334.085	504.31
334.314	506.31
334.542	520.31
334.771	520.31
334.999	474.31
335.227	466.31
335.455	458.31
335.684	441.31
335.912	429.31
336.14	458.31
336.369	440.31
336.597	454.31
336.825	436.31
337.053	449.31
337.281	430.31
337.51	436.31
337.738	439.31
337.966	425.31
338.194	446.31
338.422	443.31
338.65	444.31
338.878	453.31
339.106	448.31
339.334	425.31
339.562	414.31
339.79	405.31
340.018	424.31
340.246	423.31
340.474	432.31
340.702	440.31
340.93	433.31
341.158	414.31
341.386	430.31
341.614	428.31
341.842	414.31
342.07	439.31
342.298	388.31
342.526	396.31
342.754	385.31
342.981	408.31
343.209	392.31
343.437	408.31
343.665	408.31
343.893	403.31
344.12	420.31
344.348	416.31
344.576	423.31
344.804	421.31
345.031	431.31
345.259	442.31
345.487	424.31
345.714	422.31
345.942	418.31
346.17	410.31
346.397	405.31
346.625	394.31
346.853	414.31
347.08	400.31
347.308	411.31
347.535	417.31
347.763	398.31
347.99	437.31
348.218	424.31
348.445	413.31
348.673	402.31
348.9	411.31
349.128	386.31
349.355	388.31
349.583	388.31
349.81	383.31
350.037	399.31
350.265	381.31
350.492	389.31
350.72	403.31
350.947	386.31
351.174	409.31
351.402	411.31
351.629	415.31
351.856	394.31
352.083	413.31
352.311	429.31
352.538	440.31
352.765	422.31
352.992	422.31
353.22	395.31
353.447	385.31
353.674	383.31
353.901	397.31
354.128	375.31
354.355	358.31
354.583	372.31
354.81	361.31
355.037	369.31
355.264	358.31
355.491	367.31
355.718	355.31
355.945	366.31
356.172	362.31
356.399	377.31
356.626	355.31
356.853	371.31
357.08	381.31
357.307	355.31
357.534	340.31
357.761	390.31
357.988	376.31
358.215	367.31
358.441	366.31
358.668	378.31
358.895	364.31
359.122	361.31
359.349	356.31
359.576	398.31
359.802	436.31
360.029	434.31
360.256	436.31
360.483	433.31
360.709	418.31
360.936	404.31
361.163	385.31
361.39	362.31
361.616	384.31
361.843	384.31
362.07	389.31
362.296	397.31
362.523	399.31
362.749	395.31
362.976	396.31
363.203	363.31
363.429	385.31
363.656	367.31
363.882	376.31
364.109	384.31
364.335	384.31
364.562	376.31
364.788	360.31
365.015	359.31
365.241	362.31
365.468	372.31
365.694	379.31
365.92	373.31
366.147	356.31
366.373	376.31
366.599	359.31
366.826	373.31
367.052	357.31
367.278	372.31
367.505	360.31
367.731	365.31
367.957	359.31
368.184	366.31
368.41	369.31
368.636	406.31
368.862	382.31
369.089	381.31
369.315	365.31
369.541	362.31
369.767	368.31
369.993	337.31
370.219	364.31
370.445	326.31
370.672	352.31
370.898	378.31
371.124	363.31
371.35	339.31
371.576	337.31
371.802	365.31
372.028	367.31
372.254	358.31
372.48	340.31
372.706	369.31
372.932	351.31
373.158	365.31
373.384	343.31
373.61	376.31
373.835	370.31
374.061	346.31
374.287	364.31
374.513	365.31
374.739	347.31
374.965	347.31
375.191	335.31
375.416	368.31
375.642	329.31
375.868	340.31
376.094	345.31
376.319	351.31
376.545	356.31
376.771	338.31
376.997	348.31
377.222	348.31
377.448	344.31
377.674	357.31
377.899	349.31
378.125	337.31
378.35	337.31
378.576	341.31
378.802	343.31
379.027	338.31
379.253	353.31
379.478	337.31
379.704	314.31
379.929	346.31
380.155	350.31
380.38	348.31
380.606	347.31
380.831	354.31
381.057	346.31
381.282	347.31
381.507	354.31
381.733	346.31
381.958	352.31
382.184	346.31
382.409	349.31
382.634	354.31
382.86	349.31
383.085	342.31
383.31	337.31
383.535	337.31
383.761	341.31
383.986	364.31
384.211	350.31
384.436	388.31
384.662	372.31
384.887	366.31
385.112	346.31
385.337	380.31
385.562	346.31
385.787	366.31
386.013	380.31
386.238	374.31
386.463	352.31
386.688	349.31
386.913	353.31
387.138	352.31
387.363	355.31
387.588	363.31
387.813	344.31
388.038	356.31
388.263	339.31
388.488	348.31
388.713	374.31
388.938	366.31
389.163	352.31
389.387	363.31
389.612	361.31
389.837	378.31
390.062	365.31
390.287	355.31
390.512	344.31
390.736	366.31
390.961	366.31
391.186	379.31
391.411	351.31
391.636	384.31
391.86	374.31
392.085	374.31
392.31	376.31
392.534	354.31
392.759	378.31
392.984	369.31
393.208	349.31
393.433	349.31
393.658	365.31
393.882	344.31
394.107	364.31
394.331	371.31
394.556	361.31
394.78	366.31
395.005	352.31
395.229	368.31
395.454	355.31
395.678	372.31
395.903	397.31
396.127	386.31
396.352	428.31
396.576	374.31
396.801	378.31
397.025	396.31
397.249	357.31
397.474	374.31
397.698	388.31
397.922	396.31
398.147	415.31
398.371	398.31
398.595	390.31
398.82	406.31
399.044	397.31
399.268	412.31
399.492	419.31
399.717	440.31
399.941	470.31
400.165	486.31
400.389	479.31
400.613	458.31
400.837	439.31
401.062	420.31
401.286	415.31
401.51	395.31
401.734	401.31
401.958	414.31
402.182	390.31
402.406	404.31
402.63	416.31
402.854	427.31
403.078	398.31
403.302	419.31
403.526	420.31
403.75	441.31
403.974	410.31
404.198	434.31
404.422	405.31
404.645	413.31
404.869	420.31
405.093	464.31
405.317	469.31
405.541	512.31
405.765	465.31
405.988	446.31
406.212	453.31
406.436	454.31
406.66	460.31
406.883	453.31
407.107	485.31
407.331	501.31
407.555	558.31
407.778	553.31
408.002	499.31
408.226	474.31
408.449	468.31
408.673	463.31
408.896	499.31
409.12	526.31
409.344	474.31
409.567	434.31
409.791	422.31
410.014	436.31
410.238	420.31
410.461	440.31
410.685	402.31
410.908	429.31
411.132	480.31
411.355	490.31
411.578	469.31
411.802	417.31
412.025	415.31
412.249	436.31
412.472	425.31
412.695	464.31
412.919	440.31
413.142	420.31
413.365	420.31
413.589	419.31
413.812	399.31
414.035	418.31
414.258	379.31
414.482	372.31
414.705	395.31
414.928	413.31
415.151	371.31
415.374	420.31
415.597	376.31
415.821	382.31
416.044	392.31
416.267	394.31
416.49	405.31
416.713	402.31
416.936	406.31
417.159	406.31
417.382	399.31
417.605	398.31
417.828	412.31
418.051	408.31
418.274	391.31
418.497	384.31
418.72	395.31
418.943	389.31
419.166	387.31
419.389	423.31
419.611	406.31
419.834	416.31
420.057	421.31
420.28	425.31
420.503	422.31
420.726	425.31
420.948	429.31
421.171	466.31
421.394	478.31
421.617	438.31
421.839	430.31
422.062	433.31
422.285	408.31
422.507	475.31
422.73	568.31
422.953	542.31
423.175	463.31
423.398	450.31
423.621	429.31
423.843	461.31
424.066	453.31
424.288	468.31
424.511	480.31
424.733	518.31
424.956	581.31
425.178	569.31
425.401	583.31
425.623	583.31
425.846	516.31
426.068	470.31
426.291	448.31
426.513	464.31
426.735	504.31
426.958	514.31
427.18	601.31
427.402	694.31
427.625	746.31
427.847	663.31
428.069	601.31
428.292	502.31
428.514	450.31
428.736	440.31
428.958	434.31
429.181	423.31
429.403	428.31
429.625	429.31
429.847	462.31
430.069	534.31
430.292	529.31
430.514	443.31
430.736	430.31
430.958	417.31
431.18	412.31
431.402	414.31
431.624	399.31
431.846	406.31
432.068	393.31
432.29	394.31
432.512	404.31
432.734	405.31
432.956	389.31
433.178	417.31
433.4	408.31
433.622	403.31
433.844	404.31
434.066	400.31
434.287	421.31
434.509	397.31
434.731	383.31
434.953	421.31
435.175	421.31
435.397	453.31
435.618	472.31
435.84	509.31
436.062	584.31
436.284	619.31
436.505	546.31
436.727	491.31
436.949	453.31
437.17	430.31
437.392	419.31
437.614	458.31
437.835	458.31
438.057	573.31
438.278	652.31
438.5	636.31
438.721	725.31
438.943	694.31
439.165	548.31
439.386	508.31
439.608	473.31
439.829	494.31
440.05	510.31
440.272	553.31
440.493	505.31
440.715	461.31
440.936	432.31
441.158	422.31
441.379	436.31
441.6	420.31
441.822	460.31
442.043	497.31
442.264	560.31
442.486	605.31
442.707	525.31
442.928	486.31
443.149	456.31
443.371	488.31
443.592	537.31
443.813	609.31
444.034	669.31
444.255	551.31
444.476	485.31
444.698	476.31
444.919	455.31
445.14	534.31
445.361	528.31
445.582	519.31
445.803	575.31
446.024	653.31
446.245	677.31
446.466	618.31
446.687	521.31
446.908	469.31
447.129	457.31
447.35	427.31
447.571	442.31
447.792	433.31
448.013	441.31
448.234	448.31
448.455	514.31
448.675	617.31
448.896	689.31
449.117	575.31
449.338	561.31
449.559	666.31
449.779	724.31
450	573.31
450.221	481.31
450.442	446.31
450.662	450.31
450.883	453.31
451.104	449.31
451.324	438.31
451.545	418.31
451.766	427.31
451.986	384.31
452.207	388.31
452.428	379.31
452.648	397.31
452.869	384.31
453.089	377.31
453.31	405.31
453.53	409.31
453.751	374.31
453.971	388.31
454.192	408.31
454.412	414.31
454.633	385.31
454.853	375.31
455.073	377.31
455.294	402.31
455.514	483.31
455.734	452.31
455.955	396.31
456.175	363.31
456.395	344.31
456.616	345.31
456.836	359.31
457.056	350.31
457.276	352.31
457.497	349.31
457.717	365.31
457.937	375.31
458.157	366.31
458.377	374.31
458.598	374.31
458.818	460.31
459.038	531.31
459.258	526.31
459.478	445.31
459.698	444.31
459.918	415.31
460.138	391.31
460.358	381.31
460.578	388.31
460.798	393.31
461.018	389.31
461.238	374.31
461.458	388.31
461.678	382.31
461.898	380.31
462.118	372.31
462.338	378.31
462.558	384.31
462.777	395.31
462.997	401.31
463.217	405.31
463.437	421.31
463.657	399.31
463.876	392.31
464.096	406.31
464.316	389.31
464.536	418.31
464.755	407.31
464.975	426.31
465.195	482.31
465.414	553.31
465.634	457.31
465.854	426.31
466.073	432.31
466.293	396.31
466.512	403.31
466.732	379.31
466.951	384.31
467.171	384.31
467.391	393.31
467.61	394.31
467.829	408.31
468.049	374.31
468.268	418.31
468.488	390.31
468.707	353.31
468.927	367.31
469.146	373.31
469.365	356.31
469.585	382.31
469.804	407.31
470.023	402.31
470.243	384.31
470.462	393.31
470.681	426.31
470.901	407.31
471.12	396.31
471.339	381.31
471.558	406.31
471.777	392.31
471.997	366.31
472.216	396.31
472.435	437.31
472.654	392.31
472.873	401.31
473.092	399.31
473.311	394.31
473.53	415.31
473.749	427.31
473.968	471.31
474.187	560.31
474.406	570.31
474.625	453.31
474.844	412.31
475.063	385.31
475.282	396.31
475.501	402.31
475.72	396.31
475.939	418.31
476.158	394.31
476.377	382.31
476.596	389.31
476.814	396.31
477.033	405.31
477.252	422.31
477.471	405.31
477.69	395.31
477.908	432.31
478.127	418.31
478.346	398.31
478.564	417.31
478.783	427.31
479.002	429.31
479.22	426.31
479.439	438.31
479.658	476.31
479.876	492.31
480.095	444.31
480.313	489.31
480.532	502.31
480.751	474.31
480.969	472.31
481.188	560.31
481.406	555.31
481.624	498.31
481.843	485.31
482.061	502.31
482.28	465.31
482.498	475.31
482.717	455.31
482.935	452.31
483.153	453.31
483.372	459.31
483.59	449.31
483.808	454.31
484.027	469.31
484.245	472.31
484.463	457.31
484.681	459.31
484.9	455.31
485.118	471.31
485.336	467.31
485.554	504.31
485.772	484.31
485.99	479.31
486.209	478.31
486.427	486.31
486.645	505.31
486.863	518.31
487.081	497.31
487.299	502.31
487.517	496.31
487.735	474.31
487.953	488.31
488.171	516.31
488.389	482.31
488.607	502.31
488.825	497.31
489.043	478.31
489.261	493.31
489.479	510.31
489.696	482.31
489.914	479.31
490.132	513.31
490.35	505.31
490.568	490.31
490.786	531.31
491.003	516.31
491.221	543.31
491.439	526.31
491.657	556.31
491.874	553.31
492.092	546.31
492.31	570.31
492.527	560.31
492.745	580.31
492.963	551.31
493.18	577.31
493.398	588.31
493.615	580.31
493.833	557.31
494.05	581.31
494.268	572.31
494.485	590.31
494.703	574.31
494.92	600.31
495.138	581.31
495.355	564.31
495.573	581.31
495.79	581.31
496.008	622.31
496.225	581.31
496.442	562.31
496.66	598.31
496.877	582.31
497.094	580.31
497.312	580.31
497.529	599.31
497.746	598.31
497.963	610.31
498.181	635.31
498.398	620.31
498.615	618.31
498.832	636.31
499.049	637.31
499.267	637.31
499.484	648.31
499.701	686.31
499.918	658.31
500.135	669.31
500.352	712.31
500.569	686.31
500.786	718.31
501.003	729.31
501.22	701.31
501.437	674.31
501.654	700.31
501.871	696.31
