Data from 1981.PennyLincolnUp.Lamp.En5.5.200Scan.071819.P1_HRD10591_16-42-16-959.txt Node
Date: Thu Jul 18 16:42:16 EDT 2019
User: cochatt
Spectrometer: HR+D1059
Trigger mode: 1
Integration Time (sec): 1.000000E-1
Scans to average: 1
Electric dark correction enabled: true
Nonlinearity correction enabled: false
Boxcar width: 0
XAxis mode: Wavelengths
Number of Pixels in Spectrum: 2048
>>>>>Begin Spectral Data<<<<<
223.165	-14.38
223.4	-14.38
223.635	-14.38
223.869	-21.38
224.104	-5.38
224.338	-13.38
224.573	-14.38
224.808	-10.38
225.042	-14.38
225.277	-8.38
225.511	-0.38
225.746	20.62
225.98	10.62
226.215	2.62
226.449	14.62
226.683	7.62
226.918	14.62
227.152	31.62
227.387	26.62
227.621	43.62
227.856	38.62
228.09	30.62
228.324	43.62
228.559	60.62
228.793	55.62
229.027	102.62
229.262	102.62
229.496	120.62
229.73	128.62
229.964	147.62
230.199	125.62
230.433	108.62
230.667	108.62
230.901	129.62
231.136	123.62
231.37	122.62
231.604	114.62
231.838	112.62
232.072	102.62
232.306	106.62
232.541	109.62
232.775	121.62
233.009	112.62
233.243	94.62
233.477	122.62
233.711	108.62
233.945	122.62
234.179	114.62
234.413	117.62
234.647	117.62
234.881	106.62
235.115	126.62
235.349	121.62
235.583	120.62
235.817	128.62
236.051	122.62
236.285	129.62
236.519	128.62
236.753	132.62
236.987	150.62
237.221	181.62
237.455	212.62
237.689	183.62
237.922	145.62
238.156	145.62
238.39	128.62
238.624	118.62
238.858	125.62
239.091	121.62
239.325	121.62
239.559	132.62
239.793	118.62
240.027	136.62
240.26	141.62
240.494	152.62
240.728	146.62
240.961	157.62
241.195	146.62
241.429	132.62
241.662	129.62
241.896	136.62
242.13	131.62
242.363	139.62
242.597	127.62
242.83	138.62
243.064	128.62
243.298	124.62
243.531	141.62
243.765	127.62
243.998	134.62
244.232	139.62
244.465	145.62
244.699	149.62
244.932	152.62
245.166	139.62
245.399	148.62
245.633	146.62
245.866	128.62
246.099	146.62
246.333	122.62
246.566	152.62
246.8	152.62
247.033	141.62
247.266	164.62
247.5	171.62
247.733	165.62
247.966	164.62
248.2	178.62
248.433	171.62
248.666	176.62
248.899	182.62
249.133	194.62
249.366	209.62
249.599	210.62
249.832	198.62
250.066	190.62
250.299	190.62
250.532	210.62
250.765	200.62
250.998	209.62
251.231	232.62
251.465	219.62
251.698	214.62
251.931	214.62
252.164	203.62
252.397	212.62
252.63	220.62
252.863	203.62
253.096	198.62
253.329	226.62
253.562	222.62
253.795	228.62
254.028	226.62
254.261	230.62
254.494	242.62
254.727	266.62
254.96	297.62
255.193	281.62
255.426	260.62
255.659	229.62
255.892	237.62
256.124	229.62
256.357	230.62
256.59	247.62
256.823	225.62
257.056	228.62
257.289	210.62
257.521	214.62
257.754	223.62
257.987	209.62
258.22	215.62
258.452	205.62
258.685	202.62
258.918	222.62
259.151	233.62
259.383	221.62
259.616	235.62
259.849	233.62
260.081	241.62
260.314	258.62
260.547	270.62
260.779	258.62
261.012	244.62
261.244	239.62
261.477	237.62
261.71	232.62
261.942	219.62
262.175	244.62
262.407	227.62
262.64	226.62
262.872	208.62
263.105	227.62
263.337	198.62
263.57	213.62
263.802	217.62
264.035	208.62
264.267	204.62
264.499	229.62
264.732	198.62
264.964	202.62
265.197	220.62
265.429	212.62
265.661	210.62
265.894	208.62
266.126	204.62
266.358	204.62
266.591	225.62
266.823	232.62
267.055	219.62
267.287	227.62
267.52	225.62
267.752	240.62
267.984	248.62
268.216	232.62
268.448	233.62
268.681	268.62
268.913	266.62
269.145	262.62
269.377	299.62
269.609	284.62
269.841	280.62
270.073	276.62
270.306	317.62
270.538	342.62
270.77	327.62
271.002	316.62
271.234	313.62
271.466	287.62
271.698	304.62
271.93	316.62
272.162	338.62
272.394	331.62
272.626	343.62
272.858	295.62
273.09	291.62
273.322	277.62
273.553	270.62
273.785	286.62
274.017	265.62
274.249	244.62
274.481	273.62
274.713	284.62
274.945	280.62
275.176	270.62
275.408	258.62
275.64	274.62
275.872	267.62
276.104	276.62
276.335	242.62
276.567	272.62
276.799	278.62
277.031	333.62
277.262	323.62
277.494	321.62
277.726	320.62
277.957	285.62
278.189	295.62
278.421	278.62
278.652	281.62
278.884	264.62
279.115	262.62
279.347	264.62
279.579	266.62
279.81	259.62
280.042	248.62
280.273	266.62
280.505	275.62
280.736	244.62
280.968	270.62
281.199	284.62
281.431	260.62
281.662	272.62
281.894	268.62
282.125	258.62
282.356	286.62
282.588	297.62
282.819	309.62
283.051	269.62
283.282	273.62
283.513	265.62
283.745	262.62
283.976	279.62
284.207	282.62
284.439	294.62
284.67	286.62
284.901	266.62
285.132	263.62
285.364	254.62
285.595	268.62
285.826	267.62
286.057	296.62
286.288	287.62
286.52	280.62
286.751	268.62
286.982	293.62
287.213	277.62
287.444	265.62
287.675	296.62
287.906	290.62
288.138	294.62
288.369	296.62
288.6	283.62
288.831	292.62
289.062	293.62
289.293	286.62
289.524	297.62
289.755	281.62
289.986	285.62
290.217	274.62
290.448	278.62
290.679	274.62
290.91	289.62
291.141	270.62
291.371	289.62
291.602	286.62
291.833	273.62
292.064	285.62
292.295	278.62
292.526	285.62
292.757	282.62
292.987	279.62
293.218	283.62
293.449	272.62
293.68	279.62
293.91	292.62
294.141	282.62
294.372	290.62
294.603	300.62
294.833	273.62
295.064	272.62
295.295	283.62
295.525	283.62
295.756	295.62
295.987	301.62
296.217	320.62
296.448	325.62
296.679	317.62
296.909	291.62
297.14	276.62
297.37	299.62
297.601	288.62
297.831	284.62
298.062	294.62
298.292	294.62
298.523	293.62
298.753	285.62
298.984	295.62
299.214	310.62
299.445	306.62
299.675	293.62
299.905	295.62
300.136	310.62
300.366	299.62
300.597	306.62
300.827	317.62
301.057	310.62
301.288	320.62
301.518	308.62
301.748	305.62
301.979	311.62
302.209	320.62
302.439	321.62
302.669	315.62
302.9	311.62
303.13	324.62
303.36	327.62
303.59	324.62
303.82	343.62
304.051	312.62
304.281	329.62
304.511	309.62
304.741	297.62
304.971	308.62
305.201	320.62
305.431	326.62
305.661	322.62
305.891	314.62
306.121	311.62
306.352	337.62
306.582	321.62
306.812	320.62
307.042	308.62
307.272	330.62
307.502	314.62
307.731	322.62
307.961	322.62
308.191	321.62
308.421	318.62
308.651	338.62
308.881	334.62
309.111	334.62
309.341	342.62
309.571	359.62
309.8	356.62
310.03	372.62
310.26	372.62
310.49	363.62
310.72	388.62
310.949	387.62
311.179	403.62
311.409	391.62
311.639	403.62
311.868	392.62
312.098	376.62
312.328	386.62
312.557	389.62
312.787	417.62
313.017	408.62
313.246	371.62
313.476	368.62
313.706	377.62
313.935	380.62
314.165	371.62
314.394	420.62
314.624	409.62
314.853	382.62
315.083	380.62
315.312	388.62
315.542	379.62
315.771	376.62
316.001	359.62
316.23	358.62
316.46	372.62
316.689	349.62
316.919	355.62
317.148	384.62
317.377	404.62
317.607	392.62
317.836	371.62
318.065	363.62
318.295	379.62
318.524	363.62
318.753	351.62
318.983	381.62
319.212	391.62
319.441	404.62
319.67	379.62
319.9	380.62
320.129	385.62
320.358	378.62
320.587	380.62
320.816	381.62
321.046	382.62
321.275	391.62
321.504	390.62
321.733	414.62
321.962	399.62
322.191	426.62
322.42	442.62
322.649	451.62
322.878	457.62
323.108	484.62
323.337	502.62
323.566	536.62
323.795	560.62
324.024	611.62
324.253	774.62
324.482	1093.62
324.71	1725.62
324.939	2321.62
325.168	2001.62
325.397	1051.62
325.626	707.62
325.855	602.62
326.084	544.62
326.313	561.62
326.542	557.62
326.77	574.62
326.999	702.62
327.228	961.62
327.457	1491.62
327.686	1718.62
327.914	1134.62
328.143	790.62
328.372	690.62
328.6	606.62
328.829	606.62
329.058	595.62
329.287	598.62
329.515	543.62
329.744	525.62
329.972	513.62
330.201	566.62
330.43	602.62
330.658	634.62
330.887	638.62
331.115	589.62
331.344	523.62
331.572	509.62
331.801	482.62
332.03	497.62
332.258	482.62
332.486	443.62
332.715	429.62
332.943	457.62
333.172	432.62
333.4	447.62
333.629	438.62
333.857	470.62
334.085	470.62
334.314	499.62
334.542	532.62
334.771	516.62
334.999	463.62
335.227	435.62
335.455	425.62
335.684	436.62
335.912	437.62
336.14	428.62
336.369	424.62
336.597	422.62
336.825	438.62
337.053	426.62
337.281	426.62
337.51	423.62
337.738	412.62
337.966	435.62
338.194	421.62
338.422	433.62
338.65	409.62
338.878	397.62
339.106	425.62
339.334	397.62
339.562	401.62
339.79	397.62
340.018	390.62
340.246	408.62
340.474	402.62
340.702	429.62
340.93	412.62
341.158	398.62
341.386	405.62
341.614	406.62
341.842	406.62
342.07	395.62
342.298	385.62
342.526	406.62
342.754	399.62
342.981	396.62
343.209	382.62
343.437	389.62
343.665	416.62
343.893	395.62
344.12	421.62
344.348	397.62
344.576	391.62
344.804	407.62
345.031	416.62
345.259	460.62
345.487	440.62
345.714	422.62
345.942	397.62
346.17	388.62
346.397	396.62
346.625	395.62
346.853	393.62
347.08	391.62
347.308	396.62
347.535	398.62
347.763	419.62
347.99	422.62
348.218	396.62
348.445	416.62
348.673	431.62
348.9	413.62
349.128	403.62
349.355	377.62
349.583	383.62
349.81	380.62
350.037	384.62
350.265	390.62
350.492	382.62
350.72	405.62
350.947	378.62
351.174	406.62
351.402	420.62
351.629	406.62
351.856	392.62
352.083	429.62
352.311	415.62
352.538	428.62
352.765	412.62
352.992	405.62
353.22	385.62
353.447	374.62
353.674	388.62
353.901	370.62
354.128	352.62
354.355	358.62
354.583	372.62
354.81	358.62
355.037	376.62
355.264	361.62
355.491	363.62
355.718	340.62
355.945	344.62
356.172	353.62
356.399	352.62
356.626	353.62
356.853	362.62
357.08	350.62
357.307	359.62
357.534	365.62
357.761	352.62
357.988	353.62
358.215	368.62
358.441	374.62
358.668	357.62
358.895	384.62
359.122	352.62
359.349	378.62
359.576	381.62
359.802	387.62
360.029	445.62
360.256	450.62
360.483	419.62
360.709	389.62
360.936	398.62
361.163	382.62
361.39	381.62
361.616	382.62
361.843	373.62
362.07	380.62
362.296	363.62
362.523	394.62
362.749	368.62
362.976	371.62
363.203	368.62
363.429	369.62
363.656	364.62
363.882	366.62
364.109	378.62
364.335	368.62
364.562	358.62
364.788	378.62
365.015	352.62
365.241	356.62
365.468	373.62
365.694	376.62
365.92	365.62
366.147	381.62
366.373	356.62
366.599	346.62
366.826	346.62
367.052	360.62
367.278	365.62
367.505	336.62
367.731	353.62
367.957	345.62
368.184	349.62
368.41	340.62
368.636	398.62
368.862	384.62
369.089	364.62
369.315	360.62
369.541	356.62
369.767	361.62
369.993	349.62
370.219	350.62
370.445	356.62
370.672	352.62
370.898	342.62
371.124	348.62
371.35	350.62
371.576	356.62
371.802	349.62
372.028	334.62
372.254	355.62
372.48	334.62
372.706	339.62
372.932	352.62
373.158	346.62
373.384	353.62
373.61	354.62
373.835	349.62
374.061	348.62
374.287	363.62
374.513	357.62
374.739	364.62
374.965	352.62
375.191	362.62
375.416	333.62
375.642	343.62
375.868	356.62
376.094	337.62
376.319	340.62
376.545	361.62
376.771	357.62
376.997	356.62
377.222	351.62
377.448	358.62
377.674	340.62
377.899	343.62
378.125	342.62
378.35	340.62
378.576	347.62
378.802	348.62
379.027	309.62
379.253	354.62
379.478	339.62
379.704	341.62
379.929	324.62
380.155	346.62
380.38	362.62
380.606	343.62
380.831	346.62
381.057	349.62
381.282	352.62
381.507	332.62
381.733	356.62
381.958	342.62
382.184	340.62
382.409	344.62
382.634	342.62
382.86	335.62
383.085	345.62
383.31	329.62
383.535	354.62
383.761	365.62
383.986	360.62
384.211	357.62
384.436	349.62
384.662	346.62
384.887	353.62
385.112	340.62
385.337	341.62
385.562	370.62
385.787	360.62
386.013	367.62
386.238	349.62
386.463	368.62
386.688	368.62
386.913	363.62
387.138	365.62
387.363	350.62
387.588	345.62
387.813	356.62
388.038	357.62
388.263	376.62
388.488	356.62
388.713	380.62
388.938	342.62
389.163	364.62
389.387	364.62
389.612	334.62
389.837	351.62
390.062	349.62
390.287	346.62
390.512	330.62
390.736	341.62
390.961	337.62
391.186	361.62
391.411	362.62
391.636	371.62
391.86	336.62
392.085	362.62
392.31	356.62
392.534	365.62
392.759	383.62
392.984	347.62
393.208	353.62
393.433	349.62
393.658	360.62
393.882	370.62
394.107	361.62
394.331	358.62
394.556	345.62
394.78	347.62
395.005	369.62
395.229	347.62
395.454	362.62
395.678	366.62
395.903	367.62
396.127	390.62
396.352	401.62
396.576	352.62
396.801	356.62
397.025	372.62
397.249	361.62
397.474	378.62
397.698	390.62
397.922	378.62
398.147	404.62
398.371	405.62
398.595	386.62
398.82	398.62
399.044	392.62
399.268	403.62
399.492	432.62
399.717	424.62
399.941	460.62
400.165	469.62
400.389	471.62
400.613	455.62
400.837	432.62
401.062	425.62
401.286	429.62
401.51	397.62
401.734	406.62
401.958	386.62
402.182	409.62
402.406	405.62
402.63	410.62
402.854	417.62
403.078	399.62
403.302	406.62
403.526	406.62
403.75	412.62
403.974	408.62
404.198	422.62
404.422	425.62
404.645	417.62
404.869	430.62
405.093	463.62
405.317	467.62
405.541	516.62
405.765	444.62
405.988	418.62
406.212	435.62
406.436	462.62
406.66	482.62
406.883	460.62
407.107	465.62
407.331	490.62
407.555	521.62
407.778	532.62
408.002	513.62
408.226	476.62
408.449	457.62
408.673	450.62
408.896	474.62
409.12	514.62
409.344	496.62
409.567	416.62
409.791	408.62
410.014	420.62
410.238	397.62
410.461	385.62
410.685	414.62
410.908	435.62
411.132	452.62
411.355	498.62
411.578	458.62
411.802	426.62
412.025	397.62
412.249	417.62
412.472	444.62
412.695	468.62
412.919	454.62
413.142	443.62
413.365	407.62
413.589	382.62
413.812	387.62
414.035	400.62
414.258	393.62
414.482	376.62
414.705	393.62
414.928	393.62
415.151	387.62
415.374	379.62
415.597	385.62
415.821	376.62
416.044	403.62
416.267	388.62
416.49	376.62
416.713	372.62
416.936	381.62
417.159	399.62
417.382	387.62
417.605	385.62
417.828	413.62
418.051	402.62
418.274	406.62
418.497	396.62
418.72	388.62
418.943	399.62
419.166	386.62
419.389	404.62
419.611	395.62
419.834	415.62
420.057	405.62
420.28	416.62
420.503	392.62
420.726	403.62
420.948	440.62
421.171	450.62
421.394	490.62
421.617	432.62
421.839	412.62
422.062	412.62
422.285	414.62
422.507	470.62
422.73	519.62
422.953	494.62
423.175	445.62
423.398	422.62
423.621	429.62
423.843	440.62
424.066	448.62
424.288	454.62
424.511	452.62
424.733	522.62
424.956	586.62
425.178	566.62
425.401	549.62
425.623	580.62
425.846	505.62
426.068	440.62
426.291	447.62
426.513	441.62
426.735	452.62
426.958	500.62
427.18	556.62
427.402	672.62
427.625	732.62
427.847	660.62
428.069	574.62
428.292	494.62
428.514	458.62
428.736	433.62
428.958	426.62
429.181	416.62
429.403	413.62
429.625	407.62
429.847	453.62
430.069	513.62
430.292	498.62
430.514	435.62
430.736	398.62
430.958	404.62
431.18	396.62
431.402	387.62
431.624	404.62
431.846	376.62
432.068	393.62
432.29	375.62
432.512	390.62
432.734	410.62
432.956	381.62
433.178	405.62
433.4	416.62
433.622	382.62
433.844	389.62
434.066	403.62
434.287	382.62
434.509	396.62
434.731	409.62
434.953	398.62
435.175	427.62
435.397	445.62
435.618	477.62
435.84	500.62
436.062	572.62
436.284	635.62
436.505	508.62
436.727	492.62
436.949	418.62
437.17	401.62
437.392	436.62
437.614	426.62
437.835	461.62
438.057	555.62
438.278	642.62
438.5	612.62
438.721	650.62
438.943	660.62
439.165	536.62
439.386	476.62
439.608	458.62
439.829	472.62
440.05	485.62
440.272	545.62
440.493	516.62
440.715	448.62
440.936	458.62
441.158	420.62
441.379	417.62
441.6	443.62
441.822	447.62
442.043	488.62
442.264	549.62
442.486	619.62
442.707	503.62
442.928	488.62
443.149	472.62
443.371	497.62
443.592	542.62
443.813	612.62
444.034	645.62
444.255	529.62
444.476	460.62
444.698	461.62
444.919	435.62
445.14	579.62
445.361	534.62
445.582	498.62
445.803	555.62
446.024	663.62
446.245	662.62
446.466	600.62
446.687	507.62
446.908	483.62
447.129	451.62
447.35	413.62
447.571	425.62
447.792	411.62
448.013	426.62
448.234	438.62
448.455	505.62
448.675	577.62
448.896	648.62
449.117	587.62
449.338	540.62
449.559	639.62
449.779	691.62
450	549.62
450.221	481.62
450.442	429.62
450.662	429.62
450.883	437.62
451.104	440.62
451.324	393.62
451.545	408.62
451.766	400.62
451.986	395.62
452.207	378.62
452.428	374.62
452.648	396.62
452.869	381.62
453.089	393.62
453.31	394.62
453.53	371.62
453.751	372.62
453.971	406.62
454.192	399.62
454.412	400.62
454.633	373.62
454.853	334.62
455.073	370.62
455.294	389.62
455.514	453.62
455.734	438.62
455.955	378.62
456.175	371.62
456.395	368.62
456.616	352.62
456.836	331.62
457.056	355.62
457.276	329.62
457.497	365.62
457.717	348.62
457.937	375.62
458.157	353.62
458.377	364.62
458.598	396.62
458.818	433.62
459.038	523.62
459.258	530.62
459.478	448.62
459.698	392.62
459.918	380.62
460.138	382.62
460.358	374.62
460.578	375.62
460.798	391.62
461.018	375.62
461.238	380.62
461.458	368.62
461.678	389.62
461.898	372.62
462.118	374.62
462.338	375.62
462.558	377.62
462.777	394.62
462.997	393.62
463.217	393.62
463.437	401.62
463.657	388.62
463.876	376.62
464.096	402.62
464.316	386.62
464.536	391.62
464.755	402.62
464.975	416.62
465.195	469.62
465.414	542.62
465.634	462.62
465.854	420.62
466.073	409.62
466.293	368.62
466.512	378.62
466.732	380.62
466.951	378.62
467.171	376.62
467.391	374.62
467.61	373.62
467.829	400.62
468.049	382.62
468.268	396.62
468.488	384.62
468.707	349.62
468.927	374.62
469.146	364.62
469.365	372.62
469.585	352.62
469.804	369.62
470.023	367.62
470.243	388.62
470.462	390.62
470.681	402.62
470.901	389.62
471.12	378.62
471.339	372.62
471.558	376.62
471.777	383.62
471.997	391.62
472.216	399.62
472.435	419.62
472.654	425.62
472.873	399.62
473.092	378.62
473.311	390.62
473.53	388.62
473.749	411.62
473.968	447.62
474.187	520.62
474.406	566.62
474.625	443.62
474.844	401.62
475.063	398.62
475.282	394.62
475.501	372.62
475.72	384.62
475.939	402.62
476.158	392.62
476.377	405.62
476.596	408.62
476.814	400.62
477.033	417.62
477.252	421.62
477.471	392.62
477.69	396.62
477.908	412.62
478.127	413.62
478.346	392.62
478.564	395.62
478.783	430.62
479.002	425.62
479.22	425.62
479.439	439.62
479.658	461.62
479.876	456.62
480.095	437.62
480.313	478.62
480.532	456.62
480.751	477.62
480.969	467.62
481.188	511.62
481.406	576.62
481.624	491.62
481.843	446.62
482.061	469.62
482.28	457.62
482.498	448.62
482.717	447.62
482.935	454.62
483.153	450.62
483.372	448.62
483.59	440.62
483.808	438.62
484.027	456.62
484.245	462.62
484.463	444.62
484.681	463.62
484.9	454.62
485.118	442.62
485.336	416.62
485.554	452.62
485.772	482.62
485.99	472.62
486.209	469.62
486.427	466.62
486.645	480.62
486.863	532.62
487.081	491.62
487.299	467.62
487.517	498.62
487.735	460.62
487.953	481.62
488.171	479.62
488.389	478.62
488.607	461.62
488.825	488.62
489.043	490.62
489.261	489.62
489.479	492.62
489.696	516.62
489.914	494.62
490.132	505.62
490.35	511.62
490.568	473.62
490.786	506.62
491.003	518.62
491.221	530.62
491.439	554.62
491.657	530.62
491.874	539.62
492.092	545.62
492.31	549.62
492.527	540.62
492.745	566.62
492.963	558.62
493.18	568.62
493.398	580.62
493.615	554.62
493.833	555.62
494.05	573.62
494.268	567.62
494.485	539.62
494.703	546.62
494.92	560.62
495.138	579.62
495.355	564.62
495.573	596.62
495.79	590.62
496.008	581.62
496.225	586.62
496.442	562.62
496.66	560.62
496.877	563.62
497.094	571.62
497.312	562.62
497.529	578.62
497.746	586.62
497.963	593.62
498.181	616.62
498.398	617.62
498.615	626.62
498.832	636.62
499.049	608.62
499.267	651.62
499.484	665.62
499.701	651.62
499.918	684.62
500.135	675.62
500.352	681.62
500.569	691.62
500.786	705.62
501.003	706.62
501.22	674.62
501.437	669.62
501.654	671.62
501.871	680.62
