Data from 1981.PennyLincolnUp.Lamp.En5.5.200Scan.071819.P1_HRD10591_16-43-12-960.txt Node
Date: Thu Jul 18 16:43:12 EDT 2019
User: cochatt
Spectrometer: HR+D1059
Trigger mode: 1
Integration Time (sec): 1.000000E-1
Scans to average: 1
Electric dark correction enabled: true
Nonlinearity correction enabled: false
Boxcar width: 0
XAxis mode: Wavelengths
Number of Pixels in Spectrum: 2048
>>>>>Begin Spectral Data<<<<<
223.165	-10.69
223.4	-10.69
223.635	-10.69
223.869	-11.69
224.104	-3.69
224.338	-14.69
224.573	-8.69
224.808	-23.69
225.042	-16.69
225.277	-11.69
225.511	-7.69
225.746	-2.69
225.98	9.31
226.215	8.31
226.449	24.31
226.683	21.31
226.918	14.31
227.152	34.31
227.387	33.31
227.621	48.31
227.856	59.31
228.09	41.31
228.324	59.31
228.559	63.31
228.793	71.31
229.027	89.31
229.262	119.31
229.496	132.31
229.73	148.31
229.964	171.31
230.199	125.31
230.433	118.31
230.667	126.31
230.901	130.31
231.136	126.31
231.37	108.31
231.604	123.31
231.838	119.31
232.072	108.31
232.306	116.31
232.541	120.31
232.775	113.31
233.009	102.31
233.243	129.31
233.477	115.31
233.711	109.31
233.945	121.31
234.179	122.31
234.413	113.31
234.647	121.31
234.881	122.31
235.115	117.31
235.349	124.31
235.583	124.31
235.817	115.31
236.051	140.31
236.285	142.31
236.519	142.31
236.753	126.31
236.987	165.31
237.221	209.31
237.455	241.31
237.689	208.31
237.922	148.31
238.156	140.31
238.39	126.31
238.624	133.31
238.858	130.31
239.091	132.31
239.325	130.31
239.559	119.31
239.793	137.31
240.027	150.31
240.26	146.31
240.494	168.31
240.728	162.31
240.961	154.31
241.195	140.31
241.429	155.31
241.662	142.31
241.896	132.31
242.13	119.31
242.363	136.31
242.597	131.31
242.83	135.31
243.064	132.31
243.298	143.31
243.531	148.31
243.765	132.31
243.998	146.31
244.232	155.31
244.465	138.31
244.699	149.31
244.932	156.31
245.166	147.31
245.399	142.31
245.633	152.31
245.866	158.31
246.099	155.31
246.333	137.31
246.566	152.31
246.8	157.31
247.033	169.31
247.266	146.31
247.5	160.31
247.733	174.31
247.966	182.31
248.2	190.31
248.433	185.31
248.666	177.31
248.899	216.31
249.133	220.31
249.366	227.31
249.599	214.31
249.832	196.31
250.066	173.31
250.299	210.31
250.532	206.31
250.765	214.31
250.998	240.31
251.231	248.31
251.465	224.31
251.698	215.31
251.931	222.31
252.164	185.31
252.397	204.31
252.63	205.31
252.863	212.31
253.096	241.31
253.329	262.31
253.562	242.31
253.795	237.31
254.028	249.31
254.261	246.31
254.494	250.31
254.727	272.31
254.96	306.31
255.193	289.31
255.426	268.31
255.659	230.31
255.892	249.31
256.124	266.31
256.357	250.31
256.59	249.31
256.823	236.31
257.056	232.31
257.289	221.31
257.521	236.31
257.754	231.31
257.987	224.31
258.22	241.31
258.452	212.31
258.685	233.31
258.918	236.31
259.151	235.31
259.383	232.31
259.616	234.31
259.849	235.31
260.081	279.31
260.314	289.31
260.547	297.31
260.779	277.31
261.012	253.31
261.244	250.31
261.477	264.31
261.71	240.31
261.942	254.31
262.175	248.31
262.407	266.31
262.64	226.31
262.872	234.31
263.105	235.31
263.337	212.31
263.57	217.31
263.802	224.31
264.035	221.31
264.267	210.31
264.499	220.31
264.732	203.31
264.964	222.31
265.197	232.31
265.429	228.31
265.661	218.31
265.894	219.31
266.126	224.31
266.358	224.31
266.591	245.31
266.823	234.31
267.055	257.31
267.287	234.31
267.52	249.31
267.752	248.31
267.984	233.31
268.216	224.31
268.448	241.31
268.681	261.31
268.913	256.31
269.145	271.31
269.377	287.31
269.609	295.31
269.841	299.31
270.073	299.31
270.306	321.31
270.538	330.31
270.77	335.31
271.002	316.31
271.234	305.31
271.466	342.31
271.698	336.31
271.93	357.31
272.162	360.31
272.394	339.31
272.626	347.31
272.858	313.31
273.09	315.31
273.322	280.31
273.553	284.31
273.785	286.31
274.017	281.31
274.249	275.31
274.481	287.31
274.713	301.31
274.945	278.31
275.176	287.31
275.408	284.31
275.64	269.31
275.872	266.31
276.104	296.31
276.335	294.31
276.567	287.31
276.799	314.31
277.031	323.31
277.262	331.31
277.494	345.31
277.726	320.31
277.957	318.31
278.189	305.31
278.421	316.31
278.652	288.31
278.884	291.31
279.115	288.31
279.347	281.31
279.579	281.31
279.81	289.31
280.042	282.31
280.273	270.31
280.505	284.31
280.736	285.31
280.968	279.31
281.199	274.31
281.431	270.31
281.662	275.31
281.894	275.31
282.125	281.31
282.356	300.31
282.588	308.31
282.819	332.31
283.051	296.31
283.282	273.31
283.513	278.31
283.745	280.31
283.976	296.31
284.207	293.31
284.439	288.31
284.67	289.31
284.901	283.31
285.132	285.31
285.364	275.31
285.595	282.31
285.826	287.31
286.057	320.31
286.288	287.31
286.52	273.31
286.751	285.31
286.982	302.31
287.213	289.31
287.444	297.31
287.675	289.31
287.906	309.31
288.138	318.31
288.369	317.31
288.6	319.31
288.831	310.31
289.062	286.31
289.293	275.31
289.524	296.31
289.755	298.31
289.986	296.31
290.217	298.31
290.448	293.31
290.679	288.31
290.91	292.31
291.141	291.31
291.371	267.31
291.602	304.31
291.833	289.31
292.064	294.31
292.295	294.31
292.526	285.31
292.757	297.31
292.987	300.31
293.218	296.31
293.449	286.31
293.68	296.31
293.91	278.31
294.141	287.31
294.372	285.31
294.603	299.31
294.833	276.31
295.064	300.31
295.295	319.31
295.525	272.31
295.756	316.31
295.987	309.31
296.217	349.31
296.448	347.31
296.679	314.31
296.909	286.31
297.14	293.31
297.37	301.31
297.601	300.31
297.831	308.31
298.062	296.31
298.292	304.31
298.523	307.31
298.753	317.31
298.984	302.31
299.214	298.31
299.445	305.31
299.675	321.31
299.905	310.31
300.136	325.31
300.366	328.31
300.597	319.31
300.827	320.31
301.057	324.31
301.288	341.31
301.518	325.31
301.748	339.31
301.979	327.31
302.209	326.31
302.439	337.31
302.669	347.31
302.9	333.31
303.13	319.31
303.36	312.31
303.59	334.31
303.82	330.31
304.051	350.31
304.281	337.31
304.511	338.31
304.741	328.31
304.971	310.31
305.201	334.31
305.431	341.31
305.661	327.31
305.891	313.31
306.121	327.31
306.352	338.31
306.582	341.31
306.812	332.31
307.042	338.31
307.272	351.31
307.502	349.31
307.731	357.31
307.961	336.31
308.191	330.31
308.421	341.31
308.651	332.31
308.881	343.31
309.111	334.31
309.341	363.31
309.571	369.31
309.8	367.31
310.03	370.31
310.26	396.31
310.49	377.31
310.72	398.31
310.949	437.31
311.179	426.31
311.409	401.31
311.639	375.31
311.868	394.31
312.098	408.31
312.328	422.31
312.557	430.31
312.787	446.31
313.017	415.31
313.246	403.31
313.476	384.31
313.706	393.31
313.935	380.31
314.165	410.31
314.394	399.31
314.624	409.31
314.853	399.31
315.083	418.31
315.312	358.31
315.542	374.31
315.771	364.31
316.001	384.31
316.23	365.31
316.46	362.31
316.689	394.31
316.919	393.31
317.148	418.31
317.377	394.31
317.607	393.31
317.836	395.31
318.065	405.31
318.295	386.31
318.524	381.31
318.753	380.31
318.983	366.31
319.212	383.31
319.441	399.31
319.67	414.31
319.9	380.31
320.129	378.31
320.358	383.31
320.587	408.31
320.816	436.31
321.046	408.31
321.275	418.31
321.504	422.31
321.733	415.31
321.962	425.31
322.191	441.31
322.42	463.31
322.649	487.31
322.878	486.31
323.108	504.31
323.337	547.31
323.566	575.31
323.795	604.31
324.024	706.31
324.253	869.31
324.482	1214.31
324.71	1858.31
324.939	2535.31
325.168	2145.31
325.397	1141.31
325.626	772.31
325.855	639.31
326.084	585.31
326.313	580.31
326.542	575.31
326.77	626.31
326.999	776.31
327.228	1049.31
327.457	1631.31
327.686	1887.31
327.914	1264.31
328.143	844.31
328.372	707.31
328.6	668.31
328.829	638.31
329.058	640.31
329.287	664.31
329.515	630.31
329.744	571.31
329.972	542.31
330.201	577.31
330.43	621.31
330.658	649.31
330.887	654.31
331.115	664.31
331.344	563.31
331.572	526.31
331.801	544.31
332.03	520.31
332.258	486.31
332.486	482.31
332.715	457.31
332.943	471.31
333.172	456.31
333.4	457.31
333.629	465.31
333.857	485.31
334.085	502.31
334.314	507.31
334.542	541.31
334.771	560.31
334.999	477.31
335.227	476.31
335.455	453.31
335.684	449.31
335.912	429.31
336.14	431.31
336.369	436.31
336.597	420.31
336.825	442.31
337.053	430.31
337.281	418.31
337.51	438.31
337.738	436.31
337.966	438.31
338.194	441.31
338.422	438.31
338.65	453.31
338.878	428.31
339.106	421.31
339.334	426.31
339.562	408.31
339.79	415.31
340.018	417.31
340.246	422.31
340.474	442.31
340.702	445.31
340.93	440.31
341.158	406.31
341.386	417.31
341.614	421.31
341.842	417.31
342.07	426.31
342.298	418.31
342.526	419.31
342.754	400.31
342.981	410.31
343.209	392.31
343.437	403.31
343.665	412.31
343.893	400.31
344.12	428.31
344.348	410.31
344.576	441.31
344.804	446.31
345.031	427.31
345.259	444.31
345.487	421.31
345.714	400.31
345.942	422.31
346.17	414.31
346.397	411.31
346.625	404.31
346.853	397.31
347.08	407.31
347.308	405.31
347.535	426.31
347.763	400.31
347.99	399.31
348.218	427.31
348.445	426.31
348.673	415.31
348.9	410.31
349.128	411.31
349.355	396.31
349.583	397.31
349.81	380.31
350.037	386.31
350.265	397.31
350.492	399.31
350.72	387.31
350.947	410.31
351.174	427.31
351.402	430.31
351.629	428.31
351.856	431.31
352.083	403.31
352.311	433.31
352.538	434.31
352.765	422.31
352.992	421.31
353.22	409.31
353.447	414.31
353.674	405.31
353.901	407.31
354.128	394.31
354.355	365.31
354.583	389.31
354.81	347.31
355.037	379.31
355.264	367.31
355.491	365.31
355.718	367.31
355.945	357.31
356.172	365.31
356.399	358.31
356.626	371.31
356.853	360.31
357.08	361.31
357.307	366.31
357.534	374.31
357.761	372.31
357.988	368.31
358.215	371.31
358.441	372.31
358.668	380.31
358.895	379.31
359.122	397.31
359.349	381.31
359.576	417.31
359.802	430.31
360.029	444.31
360.256	456.31
360.483	448.31
360.709	423.31
360.936	414.31
361.163	399.31
361.39	397.31
361.616	400.31
361.843	377.31
362.07	390.31
362.296	416.31
362.523	419.31
362.749	413.31
362.976	400.31
363.203	394.31
363.429	375.31
363.656	381.31
363.882	376.31
364.109	405.31
364.335	379.31
364.562	357.31
364.788	383.31
365.015	389.31
365.241	386.31
365.468	392.31
365.694	378.31
365.92	396.31
366.147	406.31
366.373	377.31
366.599	368.31
366.826	375.31
367.052	374.31
367.278	376.31
367.505	378.31
367.731	358.31
367.957	369.31
368.184	362.31
368.41	365.31
368.636	381.31
368.862	380.31
369.089	386.31
369.315	376.31
369.541	376.31
369.767	368.31
369.993	376.31
370.219	365.31
370.445	363.31
370.672	365.31
370.898	363.31
371.124	375.31
371.35	354.31
371.576	365.31
371.802	378.31
372.028	377.31
372.254	364.31
372.48	344.31
372.706	360.31
372.932	365.31
373.158	364.31
373.384	368.31
373.61	341.31
373.835	344.31
374.061	355.31
374.287	374.31
374.513	356.31
374.739	378.31
374.965	350.31
375.191	365.31
375.416	378.31
375.642	362.31
375.868	350.31
376.094	365.31
376.319	365.31
376.545	351.31
376.771	360.31
376.997	375.31
377.222	365.31
377.448	356.31
377.674	353.31
377.899	332.31
378.125	356.31
378.35	348.31
378.576	345.31
378.802	352.31
379.027	349.31
379.253	358.31
379.478	345.31
379.704	327.31
379.929	343.31
380.155	336.31
380.38	340.31
380.606	344.31
380.831	350.31
381.057	336.31
381.282	369.31
381.507	359.31
381.733	347.31
381.958	345.31
382.184	333.31
382.409	356.31
382.634	372.31
382.86	344.31
383.085	345.31
383.31	376.31
383.535	362.31
383.761	346.31
383.986	376.31
384.211	373.31
384.436	360.31
384.662	347.31
384.887	365.31
385.112	370.31
385.337	359.31
385.562	356.31
385.787	399.31
386.013	376.31
386.238	384.31
386.463	372.31
386.688	361.31
386.913	354.31
387.138	386.31
387.363	353.31
387.588	361.31
387.813	379.31
388.038	373.31
388.263	357.31
388.488	368.31
388.713	382.31
388.938	349.31
389.163	376.31
389.387	362.31
389.612	366.31
389.837	380.31
390.062	374.31
390.287	375.31
390.512	356.31
390.736	343.31
390.961	370.31
391.186	350.31
391.411	358.31
391.636	381.31
391.86	370.31
392.085	360.31
392.31	360.31
392.534	358.31
392.759	362.31
392.984	358.31
393.208	365.31
393.433	359.31
393.658	365.31
393.882	366.31
394.107	373.31
394.331	359.31
394.556	364.31
394.78	352.31
395.005	375.31
395.229	342.31
395.454	372.31
395.678	384.31
395.903	376.31
396.127	415.31
396.352	415.31
396.576	388.31
396.801	380.31
397.025	377.31
397.249	382.31
397.474	377.31
397.698	376.31
397.922	410.31
398.147	407.31
398.371	408.31
398.595	388.31
398.82	403.31
399.044	400.31
399.268	417.31
399.492	439.31
399.717	430.31
399.941	453.31
400.165	481.31
400.389	488.31
400.613	464.31
400.837	459.31
401.062	420.31
401.286	417.31
401.51	410.31
401.734	400.31
401.958	437.31
402.182	414.31
402.406	427.31
402.63	428.31
402.854	409.31
403.078	418.31
403.302	418.31
403.526	417.31
403.75	424.31
403.974	428.31
404.198	420.31
404.422	421.31
404.645	438.31
404.869	437.31
405.093	452.31
405.317	508.31
405.541	536.31
405.765	495.31
405.988	444.31
406.212	455.31
406.436	474.31
406.66	506.31
406.883	473.31
407.107	474.31
407.331	502.31
407.555	580.31
407.778	553.31
408.002	534.31
408.226	519.31
408.449	460.31
408.673	456.31
408.896	481.31
409.12	546.31
409.344	521.31
409.567	448.31
409.791	442.31
410.014	407.31
410.238	419.31
410.461	415.31
410.685	441.31
410.908	448.31
411.132	477.31
411.355	492.31
411.578	466.31
411.802	445.31
412.025	416.31
412.249	413.31
412.472	456.31
412.695	468.31
412.919	492.31
413.142	431.31
413.365	427.31
413.589	408.31
413.812	387.31
414.035	397.31
414.258	410.31
414.482	390.31
414.705	401.31
414.928	392.31
415.151	387.31
415.374	382.31
415.597	395.31
415.821	390.31
416.044	394.31
416.267	436.31
416.49	392.31
416.713	368.31
416.936	350.31
417.159	372.31
417.382	417.31
417.605	402.31
417.828	412.31
418.051	418.31
418.274	436.31
418.497	418.31
418.72	391.31
418.943	416.31
419.166	403.31
419.389	414.31
419.611	400.31
419.834	447.31
420.057	422.31
420.28	409.31
420.503	424.31
420.726	435.31
420.948	418.31
421.171	466.31
421.394	515.31
421.617	430.31
421.839	422.31
422.062	423.31
422.285	422.31
422.507	503.31
422.73	563.31
422.953	534.31
423.175	457.31
423.398	462.31
423.621	449.31
423.843	450.31
424.066	441.31
424.288	460.31
424.511	483.31
424.733	516.31
424.956	621.31
425.178	572.31
425.401	588.31
425.623	615.31
425.846	507.31
426.068	479.31
426.291	466.31
426.513	465.31
426.735	471.31
426.958	521.31
427.18	572.31
427.402	708.31
427.625	744.31
427.847	692.31
428.069	596.31
428.292	522.31
428.514	495.31
428.736	464.31
428.958	449.31
429.181	447.31
429.403	439.31
429.625	432.31
429.847	488.31
430.069	509.31
430.292	540.31
430.514	450.31
430.736	438.31
430.958	413.31
431.18	413.31
431.402	449.31
431.624	392.31
431.846	395.31
432.068	400.31
432.29	407.31
432.512	385.31
432.734	417.31
432.956	401.31
433.178	422.31
433.4	406.31
433.622	405.31
433.844	410.31
434.066	398.31
434.287	386.31
434.509	406.31
434.731	406.31
434.953	413.31
435.175	417.31
435.397	452.31
435.618	469.31
435.84	504.31
436.062	572.31
436.284	647.31
436.505	542.31
436.727	484.31
436.949	476.31
437.17	441.31
437.392	454.31
437.614	447.31
437.835	487.31
438.057	591.31
438.278	668.31
438.5	651.31
438.721	743.31
438.943	691.31
439.165	572.31
439.386	509.31
439.608	507.31
439.829	496.31
440.05	539.31
440.272	570.31
440.493	528.31
440.715	480.31
440.936	456.31
441.158	452.31
441.379	444.31
441.6	473.31
441.822	473.31
442.043	500.31
442.264	577.31
442.486	634.31
442.707	534.31
442.928	501.31
443.149	497.31
443.371	523.31
443.592	557.31
443.813	630.31
444.034	690.31
444.255	550.31
444.476	485.31
444.698	469.31
444.919	471.31
445.14	538.31
445.361	539.31
445.582	525.31
445.803	588.31
446.024	680.31
446.245	678.31
446.466	630.31
446.687	530.31
446.908	503.31
447.129	474.31
447.35	460.31
447.571	447.31
447.792	423.31
448.013	451.31
448.234	458.31
448.455	512.31
448.675	611.31
448.896	698.31
449.117	606.31
449.338	569.31
449.559	657.31
449.779	738.31
450	614.31
450.221	494.31
450.442	448.31
450.662	434.31
450.883	457.31
451.104	471.31
451.324	469.31
451.545	428.31
451.766	413.31
451.986	391.31
452.207	403.31
452.428	388.31
452.648	384.31
452.869	393.31
453.089	383.31
453.31	410.31
453.53	405.31
453.751	390.31
453.971	406.31
454.192	439.31
454.412	426.31
454.633	388.31
454.853	383.31
455.073	386.31
455.294	448.31
455.514	473.31
455.734	472.31
455.955	393.31
456.175	390.31
456.395	387.31
456.616	368.31
456.836	378.31
457.056	374.31
457.276	360.31
457.497	347.31
457.717	343.31
457.937	349.31
458.157	357.31
458.377	364.31
458.598	420.31
458.818	480.31
459.038	552.31
459.258	553.31
459.478	445.31
459.698	415.31
459.918	408.31
460.138	406.31
460.358	376.31
460.578	390.31
460.798	376.31
461.018	401.31
461.238	390.31
461.458	396.31
461.678	397.31
461.898	389.31
462.118	377.31
462.338	390.31
462.558	418.31
462.777	405.31
462.997	410.31
463.217	400.31
463.437	414.31
463.657	396.31
463.876	414.31
464.096	412.31
464.316	404.31
464.536	428.31
464.755	428.31
464.975	433.31
465.195	476.31
465.414	561.31
465.634	493.31
465.854	418.31
466.073	408.31
466.293	399.31
466.512	400.31
466.732	388.31
466.951	400.31
467.171	369.31
467.391	404.31
467.61	400.31
467.829	414.31
468.049	415.31
468.268	416.31
468.488	394.31
468.707	390.31
468.927	376.31
469.146	380.31
469.365	366.31
469.585	364.31
469.804	386.31
470.023	390.31
470.243	392.31
470.462	397.31
470.681	416.31
470.901	402.31
471.12	389.31
471.339	389.31
471.558	400.31
471.777	406.31
471.997	380.31
472.216	401.31
472.435	420.31
472.654	406.31
472.873	385.31
473.092	401.31
473.311	400.31
473.53	412.31
473.749	416.31
473.968	477.31
474.187	570.31
474.406	574.31
474.625	464.31
474.844	409.31
475.063	410.31
475.282	412.31
475.501	385.31
475.72	395.31
475.939	414.31
476.158	419.31
476.377	409.31
476.596	416.31
476.814	405.31
477.033	429.31
477.252	413.31
477.471	431.31
477.69	418.31
477.908	425.31
478.127	442.31
478.346	432.31
478.564	426.31
478.783	436.31
479.002	448.31
479.22	432.31
479.439	450.31
479.658	465.31
479.876	478.31
480.095	484.31
480.313	497.31
480.532	474.31
480.751	490.31
480.969	487.31
481.188	555.31
481.406	600.31
481.624	526.31
481.843	487.31
482.061	486.31
482.28	470.31
482.498	479.31
482.717	446.31
482.935	462.31
483.153	474.31
483.372	459.31
483.59	470.31
483.808	461.31
484.027	478.31
484.245	466.31
484.463	464.31
484.681	470.31
484.9	480.31
485.118	467.31
485.336	479.31
485.554	484.31
485.772	497.31
485.99	480.31
486.209	486.31
486.427	478.31
486.645	482.31
486.863	524.31
487.081	503.31
487.299	516.31
487.517	489.31
487.735	505.31
487.953	483.31
488.171	508.31
488.389	505.31
488.607	486.31
488.825	491.31
489.043	492.31
489.261	500.31
489.479	503.31
489.696	513.31
489.914	508.31
490.132	523.31
490.35	504.31
490.568	514.31
490.786	526.31
491.003	530.31
491.221	542.31
491.439	551.31
491.657	551.31
491.874	573.31
492.092	575.31
492.31	566.31
492.527	597.31
492.745	573.31
492.963	571.31
493.18	606.31
493.398	588.31
493.615	593.31
493.833	586.31
494.05	600.31
494.268	593.31
494.485	590.31
494.703	583.31
494.92	599.31
495.138	593.31
495.355	595.31
495.573	609.31
495.79	589.31
496.008	615.31
496.225	612.31
496.442	599.31
496.66	582.31
496.877	593.31
497.094	588.31
497.312	603.31
497.529	612.31
497.746	612.31
497.963	622.31
498.181	628.31
498.398	623.31
498.615	615.31
498.832	648.31
499.049	664.31
499.267	633.31
499.484	659.31
499.701	673.31
499.918	689.31
500.135	719.31
500.352	694.31
500.569	718.31
500.786	709.31
501.003	744.31
501.22	722.31
501.437	720.31
501.654	717.31
501.871	685.31
