Data from 1981.PennyLincolnUp.Lamp.En5.5.200Scan.071819.P1_HRD10591_16-42-22-959.txt Node
Date: Thu Jul 18 16:42:22 EDT 2019
User: cochatt
Spectrometer: HR+D1059
Trigger mode: 1
Integration Time (sec): 1.000000E-1
Scans to average: 1
Electric dark correction enabled: true
Nonlinearity correction enabled: false
Boxcar width: 0
XAxis mode: Wavelengths
Number of Pixels in Spectrum: 2048
>>>>>Begin Spectral Data<<<<<
223.165	-20.5
223.4	-20.5
223.635	-20.5
223.869	-27.5
224.104	-23.5
224.338	-8.5
224.573	-28.5
224.808	-2.5
225.042	-4.5
225.277	-1.5
225.511	-0.5
225.746	3.5
225.98	-0.5
226.215	25.5
226.449	30.5
226.683	7.5
226.918	31.5
227.152	19.5
227.387	26.5
227.621	38.5
227.856	48.5
228.09	41.5
228.324	61.5
228.559	60.5
228.793	85.5
229.027	107.5
229.262	99.5
229.496	120.5
229.73	135.5
229.964	172.5
230.199	149.5
230.433	107.5
230.667	123.5
230.901	120.5
231.136	104.5
231.37	119.5
231.604	107.5
231.838	116.5
232.072	119.5
232.306	117.5
232.541	120.5
232.775	116.5
233.009	114.5
233.243	101.5
233.477	113.5
233.711	117.5
233.945	135.5
234.179	120.5
234.413	109.5
234.647	120.5
234.881	114.5
235.115	120.5
235.349	125.5
235.583	138.5
235.817	123.5
236.051	129.5
236.285	115.5
236.519	137.5
236.753	139.5
236.987	138.5
237.221	175.5
237.455	232.5
237.689	185.5
237.922	147.5
238.156	133.5
238.39	130.5
238.624	132.5
238.858	126.5
239.091	122.5
239.325	121.5
239.559	129.5
239.793	114.5
240.027	141.5
240.26	137.5
240.494	148.5
240.728	150.5
240.961	159.5
241.195	134.5
241.429	143.5
241.662	158.5
241.896	118.5
242.13	138.5
242.363	128.5
242.597	137.5
242.83	128.5
243.064	131.5
243.298	137.5
243.531	134.5
243.765	152.5
243.998	147.5
244.232	147.5
244.465	144.5
244.699	157.5
244.932	151.5
245.166	145.5
245.399	150.5
245.633	157.5
245.866	152.5
246.099	148.5
246.333	161.5
246.566	159.5
246.8	148.5
247.033	156.5
247.266	154.5
247.5	174.5
247.733	172.5
247.966	167.5
248.2	170.5
248.433	170.5
248.666	185.5
248.899	185.5
249.133	208.5
249.366	201.5
249.599	185.5
249.832	183.5
250.066	198.5
250.299	190.5
250.532	194.5
250.765	214.5
250.998	218.5
251.231	233.5
251.465	226.5
251.698	207.5
251.931	219.5
252.164	206.5
252.397	193.5
252.63	207.5
252.863	218.5
253.096	219.5
253.329	226.5
253.562	235.5
253.795	246.5
254.028	239.5
254.261	225.5
254.494	245.5
254.727	271.5
254.96	310.5
255.193	277.5
255.426	264.5
255.659	248.5
255.892	250.5
256.124	250.5
256.357	219.5
256.59	245.5
256.823	234.5
257.056	223.5
257.289	213.5
257.521	221.5
257.754	216.5
257.987	199.5
258.22	222.5
258.452	219.5
258.685	209.5
258.918	205.5
259.151	221.5
259.383	250.5
259.616	233.5
259.849	221.5
260.081	251.5
260.314	262.5
260.547	259.5
260.779	246.5
261.012	237.5
261.244	246.5
261.477	238.5
261.71	241.5
261.942	257.5
262.175	256.5
262.407	231.5
262.64	205.5
262.872	245.5
263.105	228.5
263.337	222.5
263.57	205.5
263.802	221.5
264.035	241.5
264.267	222.5
264.499	235.5
264.732	222.5
264.964	213.5
265.197	222.5
265.429	236.5
265.661	214.5
265.894	199.5
266.126	225.5
266.358	231.5
266.591	214.5
266.823	222.5
267.055	231.5
267.287	228.5
267.52	207.5
267.752	217.5
267.984	210.5
268.216	240.5
268.448	236.5
268.681	248.5
268.913	266.5
269.145	270.5
269.377	265.5
269.609	283.5
269.841	274.5
270.073	303.5
270.306	314.5
270.538	331.5
270.77	326.5
271.002	322.5
271.234	301.5
271.466	323.5
271.698	325.5
271.93	330.5
272.162	338.5
272.394	323.5
272.626	318.5
272.858	311.5
273.09	280.5
273.322	276.5
273.553	274.5
273.785	262.5
274.017	273.5
274.249	279.5
274.481	275.5
274.713	277.5
274.945	272.5
275.176	286.5
275.408	287.5
275.64	278.5
275.872	266.5
276.104	276.5
276.335	267.5
276.567	281.5
276.799	295.5
277.031	315.5
277.262	307.5
277.494	315.5
277.726	306.5
277.957	289.5
278.189	314.5
278.421	286.5
278.652	269.5
278.884	280.5
279.115	275.5
279.347	267.5
279.579	258.5
279.81	262.5
280.042	261.5
280.273	266.5
280.505	266.5
280.736	277.5
280.968	284.5
281.199	269.5
281.431	287.5
281.662	281.5
281.894	281.5
282.125	286.5
282.356	303.5
282.588	318.5
282.819	301.5
283.051	287.5
283.282	276.5
283.513	277.5
283.745	288.5
283.976	278.5
284.207	284.5
284.439	290.5
284.67	261.5
284.901	283.5
285.132	287.5
285.364	290.5
285.595	272.5
285.826	277.5
286.057	294.5
286.288	281.5
286.52	278.5
286.751	266.5
286.982	280.5
287.213	289.5
287.444	286.5
287.675	283.5
287.906	296.5
288.138	309.5
288.369	302.5
288.6	298.5
288.831	306.5
289.062	309.5
289.293	293.5
289.524	293.5
289.755	296.5
289.986	300.5
290.217	299.5
290.448	290.5
290.679	305.5
290.91	291.5
291.141	286.5
291.371	297.5
291.602	286.5
291.833	289.5
292.064	298.5
292.295	284.5
292.526	284.5
292.757	295.5
292.987	287.5
293.218	278.5
293.449	293.5
293.68	287.5
293.91	281.5
294.141	299.5
294.372	296.5
294.603	285.5
294.833	276.5
295.064	289.5
295.295	282.5
295.525	300.5
295.756	302.5
295.987	295.5
296.217	312.5
296.448	327.5
296.679	317.5
296.909	289.5
297.14	302.5
297.37	307.5
297.601	291.5
297.831	271.5
298.062	293.5
298.292	281.5
298.523	285.5
298.753	296.5
298.984	294.5
299.214	303.5
299.445	305.5
299.675	317.5
299.905	314.5
300.136	311.5
300.366	296.5
300.597	313.5
300.827	300.5
301.057	330.5
301.288	331.5
301.518	332.5
301.748	321.5
301.979	322.5
302.209	332.5
302.439	326.5
302.669	330.5
302.9	297.5
303.13	315.5
303.36	316.5
303.59	325.5
303.82	340.5
304.051	344.5
304.281	321.5
304.511	310.5
304.741	318.5
304.971	321.5
305.201	337.5
305.431	316.5
305.661	307.5
305.891	336.5
306.121	331.5
306.352	330.5
306.582	342.5
306.812	327.5
307.042	317.5
307.272	321.5
307.502	329.5
307.731	329.5
307.961	330.5
308.191	341.5
308.421	318.5
308.651	341.5
308.881	342.5
309.111	334.5
309.341	358.5
309.571	349.5
309.8	371.5
310.03	373.5
310.26	374.5
310.49	365.5
310.72	381.5
310.949	406.5
311.179	422.5
311.409	394.5
311.639	403.5
311.868	381.5
312.098	398.5
312.328	389.5
312.557	416.5
312.787	428.5
313.017	430.5
313.246	407.5
313.476	388.5
313.706	386.5
313.935	399.5
314.165	407.5
314.394	410.5
314.624	417.5
314.853	398.5
315.083	395.5
315.312	386.5
315.542	361.5
315.771	354.5
316.001	362.5
316.23	373.5
316.46	391.5
316.689	373.5
316.919	411.5
317.148	388.5
317.377	381.5
317.607	391.5
317.836	371.5
318.065	377.5
318.295	385.5
318.524	379.5
318.753	384.5
318.983	362.5
319.212	389.5
319.441	365.5
319.67	401.5
319.9	413.5
320.129	376.5
320.358	378.5
320.587	393.5
320.816	404.5
321.046	412.5
321.275	415.5
321.504	409.5
321.733	413.5
321.962	425.5
322.191	433.5
322.42	455.5
322.649	462.5
322.878	476.5
323.108	493.5
323.337	516.5
323.566	549.5
323.795	597.5
324.024	640.5
324.253	848.5
324.482	1198.5
324.71	1817.5
324.939	2490.5
325.168	2106.5
325.397	1110.5
325.626	743.5
325.855	633.5
326.084	574.5
326.313	537.5
326.542	554.5
326.77	598.5
326.999	765.5
327.228	1047.5
327.457	1527.5
327.686	1821.5
327.914	1235.5
328.143	807.5
328.372	699.5
328.6	665.5
328.829	614.5
329.058	645.5
329.287	656.5
329.515	587.5
329.744	555.5
329.972	528.5
330.201	550.5
330.43	619.5
330.658	637.5
330.887	679.5
331.115	655.5
331.344	559.5
331.572	519.5
331.801	522.5
332.03	474.5
332.258	481.5
332.486	481.5
332.715	431.5
332.943	446.5
333.172	451.5
333.4	437.5
333.629	461.5
333.857	458.5
334.085	467.5
334.314	506.5
334.542	529.5
334.771	531.5
334.999	477.5
335.227	451.5
335.455	438.5
335.684	435.5
335.912	434.5
336.14	433.5
336.369	420.5
336.597	433.5
336.825	461.5
337.053	457.5
337.281	423.5
337.51	406.5
337.738	459.5
337.966	403.5
338.194	433.5
338.422	427.5
338.65	411.5
338.878	405.5
339.106	409.5
339.334	417.5
339.562	427.5
339.79	408.5
340.018	430.5
340.246	421.5
340.474	419.5
340.702	417.5
340.93	400.5
341.158	412.5
341.386	432.5
341.614	411.5
341.842	420.5
342.07	398.5
342.298	399.5
342.526	423.5
342.754	383.5
342.981	397.5
343.209	392.5
343.437	400.5
343.665	385.5
343.893	408.5
344.12	423.5
344.348	405.5
344.576	410.5
344.804	411.5
345.031	418.5
345.259	441.5
345.487	435.5
345.714	437.5
345.942	411.5
346.17	422.5
346.397	406.5
346.625	413.5
346.853	400.5
347.08	394.5
347.308	409.5
347.535	411.5
347.763	414.5
347.99	407.5
348.218	407.5
348.445	403.5
348.673	425.5
348.9	420.5
349.128	391.5
349.355	367.5
349.583	387.5
349.81	377.5
350.037	389.5
350.265	391.5
350.492	414.5
350.72	395.5
350.947	381.5
351.174	393.5
351.402	422.5
351.629	418.5
351.856	412.5
352.083	388.5
352.311	410.5
352.538	428.5
352.765	435.5
352.992	417.5
353.22	407.5
353.447	396.5
353.674	391.5
353.901	385.5
354.128	369.5
354.355	365.5
354.583	367.5
354.81	358.5
355.037	351.5
355.264	355.5
355.491	359.5
355.718	360.5
355.945	334.5
356.172	354.5
356.399	359.5
356.626	361.5
356.853	375.5
357.08	347.5
357.307	361.5
357.534	358.5
357.761	366.5
357.988	373.5
358.215	367.5
358.441	373.5
358.668	359.5
358.895	379.5
359.122	376.5
359.349	381.5
359.576	413.5
359.802	449.5
360.029	435.5
360.256	441.5
360.483	436.5
360.709	390.5
360.936	401.5
361.163	375.5
361.39	383.5
361.616	399.5
361.843	406.5
362.07	391.5
362.296	405.5
362.523	392.5
362.749	385.5
362.976	390.5
363.203	375.5
363.429	387.5
363.656	362.5
363.882	385.5
364.109	381.5
364.335	371.5
364.562	365.5
364.788	347.5
365.015	351.5
365.241	379.5
365.468	374.5
365.694	413.5
365.92	373.5
366.147	364.5
366.373	359.5
366.599	369.5
366.826	360.5
367.052	346.5
367.278	366.5
367.505	353.5
367.731	372.5
367.957	347.5
368.184	369.5
368.41	379.5
368.636	379.5
368.862	388.5
369.089	371.5
369.315	373.5
369.541	362.5
369.767	359.5
369.993	369.5
370.219	357.5
370.445	358.5
370.672	369.5
370.898	352.5
371.124	341.5
371.35	349.5
371.576	333.5
371.802	341.5
372.028	356.5
372.254	352.5
372.48	369.5
372.706	337.5
372.932	344.5
373.158	347.5
373.384	357.5
373.61	343.5
373.835	338.5
374.061	329.5
374.287	350.5
374.513	351.5
374.739	351.5
374.965	359.5
375.191	351.5
375.416	360.5
375.642	356.5
375.868	333.5
376.094	372.5
376.319	334.5
376.545	320.5
376.771	341.5
376.997	338.5
377.222	349.5
377.448	354.5
377.674	339.5
377.899	338.5
378.125	339.5
378.35	347.5
378.576	342.5
378.802	349.5
379.027	321.5
379.253	343.5
379.478	335.5
379.704	338.5
379.929	342.5
380.155	353.5
380.38	349.5
380.606	344.5
380.831	346.5
381.057	347.5
381.282	355.5
381.507	343.5
381.733	358.5
381.958	357.5
382.184	338.5
382.409	361.5
382.634	360.5
382.86	345.5
383.085	347.5
383.31	354.5
383.535	385.5
383.761	341.5
383.986	345.5
384.211	347.5
384.436	344.5
384.662	353.5
384.887	353.5
385.112	351.5
385.337	355.5
385.562	356.5
385.787	360.5
386.013	373.5
386.238	385.5
386.463	365.5
386.688	356.5
386.913	344.5
387.138	340.5
387.363	350.5
387.588	374.5
387.813	357.5
388.038	350.5
388.263	348.5
388.488	351.5
388.713	363.5
388.938	372.5
389.163	349.5
389.387	362.5
389.612	349.5
389.837	350.5
390.062	348.5
390.287	360.5
390.512	357.5
390.736	370.5
390.961	353.5
391.186	363.5
391.411	365.5
391.636	370.5
391.86	353.5
392.085	357.5
392.31	354.5
392.534	351.5
392.759	352.5
392.984	367.5
393.208	343.5
393.433	344.5
393.658	357.5
393.882	356.5
394.107	370.5
394.331	344.5
394.556	359.5
394.78	363.5
395.005	372.5
395.229	318.5
395.454	369.5
395.678	364.5
395.903	381.5
396.127	393.5
396.352	394.5
396.576	367.5
396.801	355.5
397.025	372.5
397.249	372.5
397.474	363.5
397.698	373.5
397.922	399.5
398.147	411.5
398.371	388.5
398.595	388.5
398.82	391.5
399.044	406.5
399.268	397.5
399.492	413.5
399.717	430.5
399.941	439.5
400.165	478.5
400.389	484.5
400.613	456.5
400.837	424.5
401.062	416.5
401.286	435.5
401.51	419.5
401.734	412.5
401.958	412.5
402.182	390.5
402.406	404.5
402.63	407.5
402.854	411.5
403.078	403.5
403.302	416.5
403.526	408.5
403.75	425.5
403.974	396.5
404.198	404.5
404.422	412.5
404.645	414.5
404.869	439.5
405.093	442.5
405.317	477.5
405.541	527.5
405.765	462.5
405.988	426.5
406.212	453.5
406.436	463.5
406.66	487.5
406.883	468.5
407.107	465.5
407.331	507.5
407.555	559.5
407.778	555.5
408.002	489.5
408.226	479.5
408.449	430.5
408.673	452.5
408.896	474.5
409.12	515.5
409.344	490.5
409.567	457.5
409.791	435.5
410.014	424.5
410.238	403.5
410.461	425.5
410.685	418.5
410.908	441.5
411.132	441.5
411.355	487.5
411.578	490.5
411.802	413.5
412.025	413.5
412.249	425.5
412.472	442.5
412.695	467.5
412.919	467.5
413.142	419.5
413.365	389.5
413.589	397.5
413.812	389.5
414.035	392.5
414.258	391.5
414.482	394.5
414.705	397.5
414.928	398.5
415.151	395.5
415.374	395.5
415.597	369.5
415.821	391.5
416.044	376.5
416.267	404.5
416.49	388.5
416.713	378.5
416.936	384.5
417.159	395.5
417.382	385.5
417.605	391.5
417.828	391.5
418.051	418.5
418.274	394.5
418.497	399.5
418.72	381.5
418.943	393.5
419.166	404.5
419.389	406.5
419.611	414.5
419.834	406.5
420.057	413.5
420.28	413.5
420.503	408.5
420.726	409.5
420.948	454.5
421.171	460.5
421.394	483.5
421.617	448.5
421.839	421.5
422.062	398.5
422.285	428.5
422.507	486.5
422.73	536.5
422.953	526.5
423.175	455.5
423.398	444.5
423.621	452.5
423.843	454.5
424.066	414.5
424.288	465.5
424.511	468.5
424.733	541.5
424.956	582.5
425.178	554.5
425.401	543.5
425.623	586.5
425.846	487.5
426.068	454.5
426.291	448.5
426.513	464.5
426.735	489.5
426.958	531.5
427.18	585.5
427.402	707.5
427.625	792.5
427.847	687.5
428.069	591.5
428.292	526.5
428.514	475.5
428.736	428.5
428.958	431.5
429.181	416.5
429.403	396.5
429.625	435.5
429.847	471.5
430.069	511.5
430.292	535.5
430.514	438.5
430.736	427.5
430.958	418.5
431.18	411.5
431.402	390.5
431.624	390.5
431.846	382.5
432.068	374.5
432.29	384.5
432.512	393.5
432.734	391.5
432.956	417.5
433.178	416.5
433.4	421.5
433.622	393.5
433.844	379.5
434.066	390.5
434.287	404.5
434.509	380.5
434.731	386.5
434.953	404.5
435.175	411.5
435.397	451.5
435.618	467.5
435.84	470.5
436.062	590.5
436.284	653.5
436.505	517.5
436.727	476.5
436.949	440.5
437.17	442.5
437.392	428.5
437.614	442.5
437.835	494.5
438.057	571.5
438.278	646.5
438.5	649.5
438.721	713.5
438.943	663.5
439.165	542.5
439.386	500.5
439.608	482.5
439.829	483.5
440.05	508.5
440.272	539.5
440.493	519.5
440.715	477.5
440.936	439.5
441.158	420.5
441.379	421.5
441.6	429.5
441.822	455.5
442.043	516.5
442.264	555.5
442.486	605.5
442.707	506.5
442.928	479.5
443.149	486.5
443.371	489.5
443.592	537.5
443.813	656.5
444.034	647.5
444.255	558.5
444.476	481.5
444.698	459.5
444.919	463.5
445.14	561.5
445.361	526.5
445.582	515.5
445.803	565.5
446.024	639.5
446.245	677.5
446.466	607.5
446.687	510.5
446.908	486.5
447.129	460.5
447.35	431.5
447.571	454.5
447.792	429.5
448.013	443.5
448.234	449.5
448.455	501.5
448.675	601.5
448.896	668.5
449.117	599.5
449.338	574.5
449.559	634.5
449.779	712.5
450	564.5
450.221	485.5
450.442	458.5
450.662	439.5
450.883	435.5
451.104	461.5
451.324	417.5
451.545	412.5
451.766	413.5
451.986	381.5
452.207	396.5
452.428	387.5
452.648	391.5
452.869	375.5
453.089	393.5
453.31	414.5
453.53	395.5
453.751	379.5
453.971	400.5
454.192	390.5
454.412	399.5
454.633	383.5
454.853	385.5
455.073	385.5
455.294	423.5
455.514	471.5
455.734	464.5
455.955	410.5
456.175	365.5
456.395	362.5
456.616	348.5
456.836	355.5
457.056	357.5
457.276	348.5
457.497	360.5
457.717	355.5
457.937	359.5
458.157	374.5
458.377	367.5
458.598	400.5
458.818	441.5
459.038	535.5
459.258	533.5
459.478	466.5
459.698	404.5
459.918	392.5
460.138	374.5
460.358	373.5
460.578	377.5
460.798	408.5
461.018	399.5
461.238	387.5
461.458	398.5
461.678	363.5
461.898	388.5
462.118	375.5
462.338	397.5
462.558	380.5
462.777	400.5
462.997	392.5
463.217	391.5
463.437	393.5
463.657	403.5
463.876	387.5
464.096	389.5
464.316	406.5
464.536	393.5
464.755	418.5
464.975	403.5
465.195	467.5
465.414	554.5
465.634	470.5
465.854	421.5
466.073	406.5
466.293	395.5
466.512	391.5
466.732	392.5
466.951	389.5
467.171	373.5
467.391	371.5
467.61	388.5
467.829	404.5
468.049	384.5
468.268	385.5
468.488	372.5
468.707	367.5
468.927	355.5
469.146	346.5
469.365	360.5
469.585	344.5
469.804	364.5
470.023	384.5
470.243	397.5
470.462	400.5
470.681	417.5
470.901	380.5
471.12	397.5
471.339	372.5
471.558	381.5
471.777	390.5
471.997	376.5
472.216	388.5
472.435	435.5
472.654	416.5
472.873	412.5
473.092	389.5
473.311	381.5
473.53	391.5
473.749	410.5
473.968	433.5
474.187	539.5
474.406	547.5
474.625	443.5
474.844	413.5
475.063	387.5
475.282	383.5
475.501	380.5
475.72	387.5
475.939	403.5
476.158	411.5
476.377	410.5
476.596	421.5
476.814	422.5
477.033	417.5
477.252	413.5
477.471	409.5
477.69	442.5
477.908	423.5
478.127	418.5
478.346	420.5
478.564	409.5
478.783	429.5
479.002	405.5
479.22	427.5
479.439	439.5
479.658	451.5
479.876	446.5
480.095	476.5
480.313	508.5
480.532	483.5
480.751	441.5
480.969	490.5
481.188	545.5
481.406	571.5
481.624	491.5
481.843	476.5
482.061	464.5
482.28	461.5
482.498	446.5
482.717	424.5
482.935	457.5
483.153	444.5
483.372	456.5
483.59	450.5
483.808	455.5
484.027	448.5
484.245	449.5
484.463	458.5
484.681	453.5
484.9	462.5
485.118	449.5
485.336	452.5
485.554	474.5
485.772	458.5
485.99	474.5
486.209	475.5
486.427	473.5
486.645	469.5
486.863	502.5
487.081	477.5
487.299	499.5
487.517	522.5
487.735	493.5
487.953	460.5
488.171	470.5
488.389	495.5
488.607	494.5
488.825	477.5
489.043	476.5
489.261	501.5
489.479	487.5
489.696	515.5
489.914	517.5
490.132	515.5
490.35	502.5
490.568	493.5
490.786	504.5
491.003	513.5
491.221	541.5
491.439	542.5
491.657	556.5
491.874	552.5
492.092	549.5
492.31	571.5
492.527	556.5
492.745	580.5
492.963	579.5
493.18	598.5
493.398	574.5
493.615	585.5
493.833	556.5
494.05	590.5
494.268	581.5
494.485	580.5
494.703	594.5
494.92	612.5
495.138	571.5
495.355	581.5
495.573	579.5
495.79	589.5
496.008	577.5
496.225	566.5
496.442	574.5
496.66	582.5
496.877	569.5
497.094	589.5
497.312	579.5
497.529	582.5
497.746	589.5
497.963	603.5
498.181	628.5
498.398	605.5
498.615	626.5
498.832	633.5
499.049	619.5
499.267	633.5
499.484	643.5
499.701	662.5
499.918	681.5
500.135	673.5
500.352	680.5
500.569	717.5
500.786	724.5
501.003	695.5
501.22	698.5
501.437	702.5
501.654	677.5
501.871	711.5
502.088	679.5
502.305	656.5
502.522	623.5
502.739	617.5
502.956	587.5
503.172	603.5
503.389	601.5
503.606	602.5
503.823	596.5
504.04	581.5
504.256	580.5
504.473	571.5
504.69	583.5
504.907	558.5
505.123	562.5
505.34	548.5
505.557	561.5
505.773	557.5
505.99	547.5
506.207	563.5
506.423	546.5
506.64	567.5
506.856	541.5
507.073	547.5
507.289	566.5
507.506	550.5
507.722	542.5
507.939	611.5
508.155	564.5
508.372	551.5
508.588	556.5
508.805	531.5
509.021	558.5
509.238	566.5
509.454	567.5
509.67	556.5
509.887	551.5
510.103	563.5
510.319	580.5
510.536	675.5
510.752	1095.5
510.968	894.5
511.184	588.5
511.401	557.5
511.617	538.5
511.833	528.5
512.049	531.5
512.265	517.5
512.481	544.5
512.698	499.5
512.914	522.5
513.13	521.5
513.346	521.5
513.562	512.5
513.778	523.5
513.994	535.5
514.21	539.5
514.426	578.5
514.642	597.5
514.858	643.5
515.074	701.5
515.29	852.5
515.506	1250.5
515.721	991.5
515.937	663.5
516.153	625.5
516.369	572.5
516.585	549.5
516.801	553.5
517.016	552.5
517.232	531.5
517.448	521.5
517.664	516.5
517.879	510.5
518.095	518.5
518.311	530.5
518.527	498.5
518.742	505.5
518.958	509.5
519.173	515.5
519.389	534.5
519.605	510.5
519.82	540.5
