Data from 1981.PennyLincolnUp.Lamp.En5.5.200Scan.071819.P1_HRD10591_16-41-57-959.txt Node
Date: Thu Jul 18 16:41:57 EDT 2019
User: cochatt
Spectrometer: HR+D1059
Trigger mode: 1
Integration Time (sec): 1.000000E-1
Scans to average: 1
Electric dark correction enabled: true
Nonlinearity correction enabled: false
Boxcar width: 0
XAxis mode: Wavelengths
Number of Pixels in Spectrum: 2048
>>>>>Begin Spectral Data<<<<<
223.165	-15.94
223.4	-15.94
223.635	-15.94
223.869	-6.94
224.104	-9.94
224.338	-11.94
224.573	-4.94
224.808	-16.94
225.042	-19.94
225.277	-12.94
225.511	-5.94
225.746	11.06
225.98	3.06
226.215	-6.94
226.449	17.06
226.683	32.06
226.918	27.06
227.152	22.06
227.387	29.06
227.621	31.06
227.856	45.06
228.09	34.06
228.324	52.06
228.559	63.06
228.793	74.06
229.027	93.06
229.262	105.06
229.496	115.06
229.73	129.06
229.964	148.06
230.199	127.06
230.433	111.06
230.667	121.06
230.901	114.06
231.136	136.06
231.37	118.06
231.604	108.06
231.838	130.06
232.072	103.06
232.306	105.06
232.541	113.06
232.775	98.06
233.009	104.06
233.243	117.06
233.477	116.06
233.711	118.06
233.945	124.06
234.179	119.06
234.413	113.06
234.647	119.06
234.881	135.06
235.115	122.06
235.349	122.06
235.583	108.06
235.817	107.06
236.051	107.06
236.285	125.06
236.519	128.06
236.753	150.06
236.987	152.06
237.221	193.06
237.455	240.06
237.689	187.06
237.922	142.06
238.156	127.06
238.39	128.06
238.624	131.06
238.858	124.06
239.091	118.06
239.325	123.06
239.559	120.06
239.793	126.06
240.027	137.06
240.26	147.06
240.494	173.06
240.728	168.06
240.961	143.06
241.195	150.06
241.429	138.06
241.662	136.06
241.896	130.06
242.13	139.06
242.363	129.06
242.597	130.06
242.83	125.06
243.064	134.06
243.298	127.06
243.531	130.06
243.765	139.06
243.998	156.06
244.232	134.06
244.465	152.06
244.699	151.06
244.932	149.06
245.166	148.06
245.399	149.06
245.633	133.06
245.866	154.06
246.099	166.06
246.333	156.06
246.566	141.06
246.8	170.06
247.033	160.06
247.266	158.06
247.5	171.06
247.733	156.06
247.966	180.06
248.2	182.06
248.433	174.06
248.666	196.06
248.899	190.06
249.133	204.06
249.366	220.06
249.599	218.06
249.832	205.06
250.066	197.06
250.299	206.06
250.532	198.06
250.765	213.06
250.998	230.06
251.231	227.06
251.465	232.06
251.698	203.06
251.931	204.06
252.164	200.06
252.397	195.06
252.63	222.06
252.863	220.06
253.096	216.06
253.329	234.06
253.562	237.06
253.795	237.06
254.028	234.06
254.261	220.06
254.494	244.06
254.727	261.06
254.96	285.06
255.193	276.06
255.426	272.06
255.659	255.06
255.892	236.06
256.124	250.06
256.357	226.06
256.59	233.06
256.823	234.06
257.056	229.06
257.289	225.06
257.521	217.06
257.754	226.06
257.987	234.06
258.22	234.06
258.452	217.06
258.685	231.06
258.918	220.06
259.151	233.06
259.383	230.06
259.616	239.06
259.849	240.06
260.081	253.06
260.314	268.06
260.547	283.06
260.779	242.06
261.012	242.06
261.244	218.06
261.477	243.06
261.71	229.06
261.942	249.06
262.175	229.06
262.407	239.06
262.64	238.06
262.872	235.06
263.105	223.06
263.337	227.06
263.57	231.06
263.802	218.06
264.035	222.06
264.267	221.06
264.499	221.06
264.732	220.06
264.964	214.06
265.197	222.06
265.429	215.06
265.661	221.06
265.894	229.06
266.126	231.06
266.358	219.06
266.591	222.06
266.823	230.06
267.055	228.06
267.287	232.06
267.52	218.06
267.752	230.06
267.984	248.06
268.216	255.06
268.448	246.06
268.681	249.06
268.913	262.06
269.145	272.06
269.377	277.06
269.609	282.06
269.841	273.06
270.073	290.06
270.306	320.06
270.538	339.06
270.77	351.06
271.002	317.06
271.234	325.06
271.466	313.06
271.698	337.06
271.93	326.06
272.162	335.06
272.394	346.06
272.626	306.06
272.858	308.06
273.09	291.06
273.322	292.06
273.553	271.06
273.785	278.06
274.017	287.06
274.249	275.06
274.481	271.06
274.713	281.06
274.945	287.06
275.176	276.06
275.408	287.06
275.64	277.06
275.872	265.06
276.104	274.06
276.335	286.06
276.567	290.06
276.799	300.06
277.031	299.06
277.262	331.06
277.494	322.06
277.726	322.06
277.957	328.06
278.189	312.06
278.421	265.06
278.652	289.06
278.884	270.06
279.115	287.06
279.347	279.06
279.579	264.06
279.81	269.06
280.042	276.06
280.273	276.06
280.505	293.06
280.736	278.06
280.968	257.06
281.199	270.06
281.431	280.06
281.662	282.06
281.894	265.06
282.125	285.06
282.356	297.06
282.588	308.06
282.819	308.06
283.051	302.06
283.282	272.06
283.513	272.06
283.745	280.06
283.976	296.06
284.207	282.06
284.439	285.06
284.67	282.06
284.901	278.06
285.132	292.06
285.364	278.06
285.595	277.06
285.826	277.06
286.057	298.06
286.288	284.06
286.52	284.06
286.751	256.06
286.982	283.06
287.213	280.06
287.444	291.06
287.675	297.06
287.906	293.06
288.138	299.06
288.369	308.06
288.6	302.06
288.831	294.06
289.062	297.06
289.293	285.06
289.524	283.06
289.755	291.06
289.986	299.06
290.217	294.06
290.448	280.06
290.679	278.06
290.91	286.06
291.141	281.06
291.371	291.06
291.602	287.06
291.833	281.06
292.064	279.06
292.295	295.06
292.526	292.06
292.757	313.06
292.987	283.06
293.218	275.06
293.449	286.06
293.68	292.06
293.91	284.06
294.141	295.06
294.372	289.06
294.603	276.06
294.833	287.06
295.064	303.06
295.295	308.06
295.525	298.06
295.756	286.06
295.987	299.06
296.217	312.06
296.448	340.06
296.679	329.06
296.909	298.06
297.14	286.06
297.37	279.06
297.601	293.06
297.831	281.06
298.062	299.06
298.292	287.06
298.523	304.06
298.753	290.06
298.984	300.06
299.214	301.06
299.445	300.06
299.675	316.06
299.905	301.06
300.136	302.06
300.366	319.06
300.597	314.06
300.827	310.06
301.057	339.06
301.288	325.06
301.518	315.06
301.748	336.06
301.979	332.06
302.209	314.06
302.439	313.06
302.669	323.06
302.9	327.06
303.13	309.06
303.36	316.06
303.59	329.06
303.82	324.06
304.051	331.06
304.281	324.06
304.511	316.06
304.741	311.06
304.971	318.06
305.201	328.06
305.431	318.06
305.661	317.06
305.891	348.06
306.121	327.06
306.352	331.06
306.582	334.06
306.812	327.06
307.042	344.06
307.272	359.06
307.502	327.06
307.731	328.06
307.961	326.06
308.191	343.06
308.421	328.06
308.651	350.06
308.881	358.06
309.111	359.06
309.341	359.06
309.571	340.06
309.8	382.06
310.03	386.06
310.26	400.06
310.49	389.06
310.72	379.06
310.949	398.06
311.179	412.06
311.409	394.06
311.639	384.06
311.868	388.06
312.098	377.06
312.328	393.06
312.557	411.06
312.787	419.06
313.017	418.06
313.246	412.06
313.476	382.06
313.706	376.06
313.935	382.06
314.165	412.06
314.394	397.06
314.624	410.06
314.853	399.06
315.083	396.06
315.312	382.06
315.542	402.06
315.771	370.06
316.001	350.06
316.23	364.06
316.46	380.06
316.689	362.06
316.919	366.06
317.148	395.06
317.377	410.06
317.607	398.06
317.836	397.06
318.065	387.06
318.295	374.06
318.524	372.06
318.753	387.06
318.983	388.06
319.212	390.06
319.441	411.06
319.67	388.06
319.9	392.06
320.129	397.06
320.358	381.06
320.587	385.06
320.816	416.06
321.046	407.06
321.275	405.06
321.504	414.06
321.733	442.06
321.962	416.06
322.191	447.06
322.42	439.06
322.649	447.06
322.878	472.06
323.108	494.06
323.337	520.06
323.566	528.06
323.795	591.06
324.024	639.06
324.253	818.06
324.482	1152.06
324.71	1796.06
324.939	2477.06
325.168	2074.06
325.397	1090.06
325.626	719.06
325.855	607.06
326.084	562.06
326.313	560.06
326.542	557.06
326.77	626.06
326.999	730.06
327.228	1063.06
327.457	1515.06
327.686	1782.06
327.914	1186.06
328.143	806.06
328.372	691.06
328.6	668.06
328.829	611.06
329.058	637.06
329.287	639.06
329.515	577.06
329.744	539.06
329.972	533.06
330.201	560.06
330.43	591.06
330.658	626.06
330.887	651.06
331.115	648.06
331.344	526.06
331.572	502.06
331.801	504.06
332.03	491.06
332.258	502.06
332.486	466.06
332.715	466.06
332.943	463.06
333.172	457.06
333.4	450.06
333.629	459.06
333.857	487.06
334.085	485.06
334.314	487.06
334.542	505.06
334.771	527.06
334.999	483.06
335.227	474.06
335.455	460.06
335.684	455.06
335.912	446.06
336.14	434.06
336.369	427.06
336.597	442.06
336.825	446.06
337.053	442.06
337.281	429.06
337.51	420.06
337.738	422.06
337.966	429.06
338.194	450.06
338.422	453.06
338.65	430.06
338.878	424.06
339.106	408.06
339.334	391.06
339.562	393.06
339.79	391.06
340.018	423.06
340.246	437.06
340.474	422.06
340.702	427.06
340.93	432.06
341.158	429.06
341.386	424.06
341.614	405.06
341.842	409.06
342.07	390.06
342.298	409.06
342.526	415.06
342.754	407.06
342.981	392.06
343.209	378.06
343.437	396.06
343.665	418.06
343.893	415.06
344.12	420.06
344.348	436.06
344.576	413.06
344.804	447.06
345.031	434.06
345.259	427.06
345.487	419.06
345.714	433.06
345.942	411.06
346.17	398.06
346.397	416.06
346.625	399.06
346.853	409.06
347.08	404.06
347.308	415.06
347.535	420.06
347.763	418.06
347.99	443.06
348.218	415.06
348.445	428.06
348.673	444.06
348.9	398.06
349.128	390.06
349.355	403.06
349.583	380.06
349.81	400.06
350.037	383.06
350.265	376.06
350.492	401.06
350.72	385.06
350.947	393.06
351.174	420.06
351.402	412.06
351.629	398.06
351.856	414.06
352.083	419.06
352.311	438.06
352.538	434.06
352.765	411.06
352.992	395.06
353.22	413.06
353.447	389.06
353.674	395.06
353.901	397.06
354.128	377.06
354.355	378.06
354.583	378.06
354.81	382.06
355.037	388.06
355.264	357.06
355.491	376.06
355.718	382.06
355.945	369.06
356.172	357.06
356.399	350.06
356.626	366.06
356.853	349.06
357.08	359.06
357.307	372.06
357.534	372.06
357.761	379.06
357.988	371.06
358.215	363.06
358.441	378.06
358.668	363.06
358.895	363.06
359.122	357.06
359.349	378.06
359.576	414.06
359.802	431.06
360.029	458.06
360.256	471.06
360.483	411.06
360.709	386.06
360.936	377.06
361.163	390.06
361.39	399.06
361.616	395.06
361.843	403.06
362.07	378.06
362.296	414.06
362.523	397.06
362.749	377.06
362.976	383.06
363.203	396.06
363.429	372.06
363.656	379.06
363.882	378.06
364.109	361.06
364.335	356.06
364.562	365.06
364.788	377.06
365.015	358.06
365.241	356.06
365.468	382.06
365.694	373.06
365.92	371.06
366.147	379.06
366.373	347.06
366.599	351.06
366.826	365.06
367.052	375.06
367.278	357.06
367.505	363.06
367.731	372.06
367.957	340.06
368.184	373.06
368.41	355.06
368.636	366.06
368.862	381.06
369.089	387.06
369.315	366.06
369.541	356.06
369.767	390.06
369.993	372.06
370.219	354.06
370.445	348.06
370.672	340.06
370.898	378.06
371.124	365.06
371.35	362.06
371.576	347.06
371.802	364.06
372.028	370.06
372.254	357.06
372.48	349.06
372.706	340.06
372.932	330.06
373.158	359.06
373.384	354.06
373.61	360.06
373.835	372.06
374.061	357.06
374.287	358.06
374.513	360.06
374.739	367.06
374.965	365.06
375.191	342.06
375.416	358.06
375.642	363.06
375.868	342.06
376.094	345.06
376.319	363.06
376.545	368.06
376.771	322.06
376.997	351.06
377.222	341.06
377.448	355.06
377.674	344.06
377.899	335.06
378.125	362.06
378.35	357.06
378.576	339.06
378.802	335.06
379.027	358.06
379.253	343.06
379.478	335.06
379.704	343.06
379.929	356.06
380.155	365.06
380.38	367.06
380.606	358.06
380.831	354.06
381.057	352.06
381.282	348.06
381.507	347.06
381.733	347.06
381.958	349.06
382.184	353.06
382.409	365.06
382.634	343.06
382.86	362.06
383.085	350.06
383.31	335.06
383.535	371.06
383.761	350.06
383.986	351.06
384.211	358.06
384.436	376.06
384.662	368.06
384.887	358.06
385.112	350.06
385.337	372.06
385.562	367.06
385.787	374.06
386.013	376.06
386.238	373.06
386.463	380.06
386.688	377.06
386.913	367.06
387.138	350.06
387.363	360.06
387.588	387.06
387.813	378.06
388.038	342.06
388.263	356.06
388.488	363.06
388.713	356.06
388.938	351.06
389.163	372.06
389.387	381.06
389.612	356.06
389.837	352.06
390.062	343.06
390.287	354.06
390.512	356.06
390.736	356.06
390.961	347.06
391.186	362.06
391.411	371.06
391.636	352.06
391.86	374.06
392.085	371.06
392.31	363.06
392.534	382.06
392.759	376.06
392.984	351.06
393.208	346.06
393.433	362.06
393.658	354.06
393.882	362.06
394.107	362.06
394.331	365.06
394.556	355.06
394.78	376.06
395.005	374.06
395.229	357.06
395.454	352.06
395.678	364.06
395.903	392.06
396.127	382.06
396.352	390.06
396.576	370.06
396.801	359.06
397.025	376.06
397.249	366.06
397.474	366.06
397.698	387.06
397.922	388.06
398.147	420.06
398.371	401.06
398.595	395.06
398.82	393.06
399.044	395.06
399.268	400.06
399.492	429.06
399.717	438.06
399.941	461.06
400.165	459.06
400.389	488.06
400.613	451.06
400.837	434.06
401.062	404.06
401.286	411.06
401.51	388.06
401.734	392.06
401.958	410.06
402.182	418.06
402.406	427.06
402.63	410.06
402.854	387.06
403.078	400.06
403.302	434.06
403.526	447.06
403.75	419.06
403.974	419.06
404.198	420.06
404.422	409.06
404.645	419.06
404.869	412.06
405.093	436.06
405.317	478.06
405.541	525.06
405.765	472.06
405.988	453.06
406.212	457.06
406.436	468.06
406.66	484.06
406.883	463.06
407.107	484.06
407.331	503.06
407.555	545.06
407.778	549.06
408.002	522.06
408.226	484.06
408.449	470.06
408.673	463.06
408.896	488.06
409.12	498.06
409.344	503.06
409.567	436.06
409.791	432.06
410.014	431.06
410.238	410.06
410.461	399.06
410.685	420.06
410.908	423.06
411.132	447.06
411.355	480.06
411.578	484.06
411.802	450.06
412.025	427.06
412.249	424.06
412.472	428.06
412.695	474.06
412.919	456.06
413.142	432.06
413.365	405.06
413.589	399.06
413.812	392.06
414.035	379.06
414.258	403.06
414.482	393.06
414.705	388.06
414.928	377.06
415.151	408.06
415.374	386.06
415.597	389.06
415.821	386.06
416.044	373.06
416.267	390.06
416.49	398.06
416.713	388.06
416.936	390.06
417.159	374.06
417.382	394.06
417.605	385.06
417.828	413.06
418.051	432.06
418.274	400.06
418.497	390.06
418.72	393.06
418.943	397.06
419.166	400.06
419.389	423.06
419.611	425.06
419.834	425.06
420.057	413.06
420.28	423.06
420.503	419.06
420.726	423.06
420.948	435.06
421.171	458.06
421.394	486.06
421.617	443.06
421.839	414.06
422.062	420.06
422.285	407.06
422.507	488.06
422.73	553.06
422.953	535.06
423.175	484.06
423.398	429.06
423.621	432.06
423.843	460.06
424.066	477.06
424.288	450.06
424.511	442.06
424.733	534.06
424.956	625.06
425.178	593.06
425.401	571.06
425.623	568.06
425.846	514.06
426.068	452.06
426.291	458.06
426.513	470.06
426.735	461.06
426.958	528.06
427.18	598.06
427.402	709.06
427.625	754.06
427.847	676.06
428.069	591.06
428.292	522.06
428.514	460.06
428.736	472.06
428.958	447.06
429.181	457.06
429.403	399.06
429.625	434.06
429.847	464.06
430.069	536.06
430.292	529.06
430.514	451.06
430.736	407.06
430.958	412.06
431.18	403.06
431.402	419.06
431.624	397.06
431.846	390.06
432.068	406.06
432.29	383.06
432.512	375.06
432.734	402.06
432.956	416.06
433.178	395.06
433.4	418.06
433.622	420.06
433.844	407.06
434.066	395.06
434.287	392.06
434.509	396.06
434.731	411.06
434.953	415.06
435.175	413.06
435.397	444.06
435.618	454.06
435.84	519.06
436.062	571.06
436.284	648.06
436.505	548.06
436.727	474.06
436.949	439.06
437.17	426.06
437.392	427.06
437.614	453.06
437.835	502.06
438.057	587.06
438.278	703.06
438.5	656.06
438.721	698.06
438.943	668.06
439.165	558.06
439.386	494.06
439.608	480.06
439.829	480.06
440.05	536.06
440.272	564.06
440.493	532.06
440.715	456.06
440.936	446.06
441.158	431.06
441.379	422.06
441.6	445.06
441.822	469.06
442.043	481.06
442.264	576.06
442.486	591.06
442.707	513.06
442.928	478.06
443.149	464.06
443.371	497.06
443.592	554.06
443.813	611.06
444.034	648.06
444.255	546.06
444.476	505.06
444.698	456.06
444.919	461.06
445.14	589.06
445.361	544.06
445.582	505.06
445.803	574.06
446.024	655.06
446.245	675.06
446.466	626.06
446.687	515.06
446.908	470.06
447.129	444.06
447.35	448.06
447.571	435.06
447.792	422.06
448.013	417.06
448.234	452.06
448.455	506.06
448.675	614.06
448.896	694.06
449.117	610.06
449.338	582.06
449.559	646.06
449.779	746.06
450	586.06
450.221	478.06
450.442	451.06
450.662	453.06
450.883	430.06
451.104	462.06
451.324	418.06
451.545	420.06
451.766	410.06
451.986	388.06
452.207	392.06
452.428	388.06
452.648	383.06
452.869	386.06
453.089	395.06
453.31	406.06
453.53	397.06
453.751	390.06
453.971	396.06
454.192	414.06
454.412	385.06
454.633	382.06
454.853	378.06
455.073	375.06
455.294	402.06
455.514	474.06
455.734	467.06
455.955	410.06
456.175	355.06
456.395	362.06
456.616	344.06
456.836	367.06
457.056	356.06
457.276	349.06
457.497	368.06
457.717	371.06
457.937	378.06
458.157	384.06
458.377	378.06
458.598	379.06
458.818	470.06
459.038	525.06
459.258	548.06
459.478	463.06
459.698	394.06
459.918	407.06
460.138	373.06
460.358	410.06
460.578	397.06
460.798	398.06
461.018	390.06
461.238	382.06
461.458	374.06
461.678	367.06
461.898	379.06
462.118	392.06
462.338	382.06
462.558	395.06
462.777	386.06
462.997	389.06
463.217	412.06
463.437	406.06
463.657	396.06
463.876	390.06
464.096	423.06
464.316	407.06
464.536	411.06
464.755	409.06
464.975	438.06
465.195	486.06
465.414	580.06
465.634	459.06
465.854	429.06
466.073	401.06
466.293	389.06
466.512	395.06
466.732	412.06
466.951	383.06
467.171	399.06
467.391	373.06
467.61	393.06
467.829	409.06
468.049	387.06
468.268	412.06
468.488	390.06
468.707	383.06
468.927	359.06
469.146	384.06
469.365	364.06
469.585	363.06
469.804	391.06
470.023	378.06
470.243	388.06
470.462	407.06
470.681	412.06
470.901	406.06
471.12	394.06
471.339	377.06
471.558	382.06
471.777	383.06
471.997	367.06
472.216	386.06
472.435	428.06
472.654	393.06
472.873	411.06
473.092	401.06
473.311	381.06
473.53	398.06
473.749	415.06
473.968	436.06
474.187	567.06
474.406	576.06
474.625	471.06
474.844	429.06
475.063	407.06
475.282	393.06
475.501	398.06
475.72	395.06
475.939	401.06
476.158	404.06
476.377	415.06
476.596	397.06
476.814	412.06
477.033	414.06
477.252	426.06
477.471	416.06
477.69	407.06
477.908	399.06
478.127	431.06
478.346	432.06
478.564	417.06
478.783	438.06
479.002	434.06
479.22	457.06
479.439	440.06
479.658	461.06
479.876	463.06
480.095	462.06
480.313	494.06
480.532	494.06
480.751	475.06
480.969	488.06
481.188	530.06
481.406	559.06
481.624	495.06
481.843	468.06
482.061	470.06
482.28	458.06
482.498	477.06
482.717	454.06
482.935	475.06
483.153	448.06
483.372	432.06
483.59	450.06
483.808	459.06
484.027	470.06
484.245	472.06
484.463	451.06
484.681	467.06
484.9	447.06
485.118	484.06
485.336	456.06
485.554	470.06
485.772	454.06
485.99	475.06
486.209	472.06
486.427	460.06
486.645	504.06
486.863	514.06
487.081	490.06
487.299	482.06
487.517	523.06
487.735	485.06
487.953	480.06
488.171	481.06
488.389	469.06
488.607	496.06
488.825	501.06
489.043	506.06
489.261	480.06
489.479	493.06
489.696	511.06
489.914	504.06
490.132	479.06
490.35	521.06
490.568	501.06
490.786	523.06
491.003	536.06
491.221	533.06
491.439	549.06
491.657	565.06
491.874	552.06
492.092	570.06
492.31	570.06
492.527	570.06
492.745	575.06
492.963	565.06
493.18	575.06
493.398	571.06
493.615	564.06
493.833	551.06
494.05	575.06
494.268	588.06
494.485	584.06
494.703	576.06
494.92	608.06
495.138	584.06
495.355	611.06
495.573	597.06
495.79	577.06
496.008	600.06
496.225	600.06
496.442	591.06
496.66	589.06
496.877	581.06
497.094	594.06
497.312	608.06
497.529	584.06
497.746	620.06
497.963	583.06
498.181	602.06
498.398	605.06
498.615	618.06
498.832	642.06
499.049	633.06
499.267	647.06
499.484	642.06
499.701	669.06
499.918	663.06
500.135	696.06
500.352	721.06
500.569	703.06
500.786	711.06
501.003	710.06
501.22	725.06
501.437	699.06
501.654	691.06
501.871	714.06
