Data from 1981.PennyLincolnUp.Lamp.En5.5.200Scan.071819.P1_HRD10591_16-41-25-959.txt Node
Date: Thu Jul 18 16:41:25 EDT 2019
User: cochatt
Spectrometer: HR+D1059
Trigger mode: 1
Integration Time (sec): 1.000000E-1
Scans to average: 1
Electric dark correction enabled: true
Nonlinearity correction enabled: false
Boxcar width: 0
XAxis mode: Wavelengths
Number of Pixels in Spectrum: 2048
>>>>>Begin Spectral Data<<<<<
223.165	-11.38
223.4	-11.38
223.635	-11.38
223.869	-24.38
224.104	-15.38
224.338	-21.38
224.573	-20.38
224.808	-16.38
225.042	-11.38
225.277	3.62
225.511	-0.38
225.746	9.62
225.98	-1.38
226.215	-1.38
226.449	21.62
226.683	22.62
226.918	34.62
227.152	31.62
227.387	26.62
227.621	19.62
227.856	38.62
228.09	41.62
228.324	64.62
228.559	57.62
228.793	62.62
229.027	103.62
229.262	104.62
229.496	118.62
229.73	122.62
229.964	154.62
230.199	115.62
230.433	122.62
230.667	109.62
230.901	110.62
231.136	101.62
231.37	122.62
231.604	116.62
231.838	102.62
232.072	108.62
232.306	114.62
232.541	118.62
232.775	109.62
233.009	113.62
233.243	114.62
233.477	98.62
233.711	114.62
233.945	112.62
234.179	115.62
234.413	118.62
234.647	119.62
234.881	106.62
235.115	110.62
235.349	117.62
235.583	112.62
235.817	125.62
236.051	118.62
236.285	123.62
236.519	125.62
236.753	131.62
236.987	143.62
237.221	191.62
237.455	225.62
237.689	166.62
237.922	152.62
238.156	132.62
238.39	143.62
238.624	123.62
238.858	121.62
239.091	109.62
239.325	126.62
239.559	112.62
239.793	143.62
240.027	138.62
240.26	147.62
240.494	163.62
240.728	141.62
240.961	144.62
241.195	128.62
241.429	132.62
241.662	126.62
241.896	128.62
242.13	122.62
242.363	134.62
242.597	127.62
242.83	135.62
243.064	124.62
243.298	146.62
243.531	122.62
243.765	132.62
243.998	138.62
244.232	135.62
244.465	139.62
244.699	137.62
244.932	121.62
245.166	135.62
245.399	132.62
245.633	138.62
245.866	148.62
246.099	154.62
246.333	130.62
246.566	144.62
246.8	148.62
247.033	150.62
247.266	154.62
247.5	153.62
247.733	151.62
247.966	187.62
248.2	174.62
248.433	157.62
248.666	170.62
248.899	181.62
249.133	203.62
249.366	201.62
249.599	203.62
249.832	186.62
250.066	183.62
250.299	174.62
250.532	204.62
250.765	204.62
250.998	215.62
251.231	222.62
251.465	232.62
251.698	194.62
251.931	196.62
252.164	192.62
252.397	198.62
252.63	206.62
252.863	220.62
253.096	216.62
253.329	229.62
253.562	232.62
253.795	226.62
254.028	228.62
254.261	223.62
254.494	238.62
254.727	251.62
254.96	292.62
255.193	287.62
255.426	239.62
255.659	251.62
255.892	246.62
256.124	235.62
256.357	216.62
256.59	227.62
256.823	219.62
257.056	217.62
257.289	203.62
257.521	215.62
257.754	227.62
257.987	220.62
258.22	214.62
258.452	214.62
258.685	207.62
258.918	204.62
259.151	212.62
259.383	204.62
259.616	232.62
259.849	227.62
260.081	227.62
260.314	268.62
260.547	259.62
260.779	258.62
261.012	235.62
261.244	240.62
261.477	224.62
261.71	222.62
261.942	241.62
262.175	226.62
262.407	227.62
262.64	204.62
262.872	208.62
263.105	217.62
263.337	216.62
263.57	223.62
263.802	229.62
264.035	224.62
264.267	224.62
264.499	206.62
264.732	211.62
264.964	206.62
265.197	204.62
265.429	209.62
265.661	211.62
265.894	224.62
266.126	209.62
266.358	214.62
266.591	215.62
266.823	216.62
267.055	235.62
267.287	239.62
267.52	226.62
267.752	214.62
267.984	219.62
268.216	233.62
268.448	232.62
268.681	233.62
268.913	243.62
269.145	260.62
269.377	264.62
269.609	275.62
269.841	281.62
270.073	277.62
270.306	291.62
270.538	304.62
270.77	322.62
271.002	308.62
271.234	295.62
271.466	290.62
271.698	305.62
271.93	318.62
272.162	324.62
272.394	321.62
272.626	299.62
272.858	308.62
273.09	288.62
273.322	299.62
273.553	275.62
273.785	267.62
274.017	279.62
274.249	259.62
274.481	276.62
274.713	274.62
274.945	265.62
275.176	258.62
275.408	265.62
275.64	264.62
275.872	258.62
276.104	264.62
276.335	281.62
276.567	285.62
276.799	276.62
277.031	302.62
277.262	314.62
277.494	307.62
277.726	307.62
277.957	283.62
278.189	296.62
278.421	273.62
278.652	288.62
278.884	262.62
279.115	278.62
279.347	272.62
279.579	284.62
279.81	266.62
280.042	272.62
280.273	276.62
280.505	271.62
280.736	275.62
280.968	275.62
281.199	261.62
281.431	266.62
281.662	260.62
281.894	258.62
282.125	290.62
282.356	289.62
282.588	306.62
282.819	315.62
283.051	267.62
283.282	272.62
283.513	269.62
283.745	278.62
283.976	268.62
284.207	269.62
284.439	278.62
284.67	286.62
284.901	275.62
285.132	275.62
285.364	275.62
285.595	274.62
285.826	265.62
286.057	264.62
286.288	255.62
286.52	289.62
286.751	265.62
286.982	281.62
287.213	276.62
287.444	259.62
287.675	284.62
287.906	298.62
288.138	282.62
288.369	300.62
288.6	299.62
288.831	271.62
289.062	283.62
289.293	310.62
289.524	296.62
289.755	295.62
289.986	288.62
290.217	281.62
290.448	284.62
290.679	277.62
290.91	276.62
291.141	276.62
291.371	279.62
291.602	262.62
291.833	285.62
292.064	282.62
292.295	284.62
292.526	274.62
292.757	288.62
292.987	262.62
293.218	276.62
293.449	277.62
293.68	280.62
293.91	291.62
294.141	291.62
294.372	295.62
294.603	298.62
294.833	289.62
295.064	287.62
295.295	283.62
295.525	293.62
295.756	293.62
295.987	296.62
296.217	323.62
296.448	323.62
296.679	308.62
296.909	280.62
297.14	318.62
297.37	283.62
297.601	285.62
297.831	294.62
298.062	298.62
298.292	295.62
298.523	301.62
298.753	292.62
298.984	288.62
299.214	296.62
299.445	301.62
299.675	297.62
299.905	307.62
300.136	313.62
300.366	310.62
300.597	313.62
300.827	314.62
301.057	315.62
301.288	322.62
301.518	323.62
301.748	313.62
301.979	310.62
302.209	293.62
302.439	294.62
302.669	300.62
302.9	313.62
303.13	317.62
303.36	317.62
303.59	315.62
303.82	339.62
304.051	332.62
304.281	303.62
304.511	313.62
304.741	308.62
304.971	338.62
305.201	326.62
305.431	331.62
305.661	323.62
305.891	301.62
306.121	316.62
306.352	342.62
306.582	333.62
306.812	324.62
307.042	332.62
307.272	309.62
307.502	327.62
307.731	338.62
307.961	321.62
308.191	328.62
308.421	321.62
308.651	319.62
308.881	335.62
309.111	332.62
309.341	333.62
309.571	358.62
309.8	363.62
310.03	361.62
310.26	377.62
310.49	369.62
310.72	395.62
310.949	394.62
311.179	379.62
311.409	370.62
311.639	374.62
311.868	386.62
312.098	376.62
312.328	382.62
312.557	404.62
312.787	406.62
313.017	381.62
313.246	388.62
313.476	369.62
313.706	377.62
313.935	359.62
314.165	392.62
314.394	417.62
314.624	368.62
314.853	370.62
315.083	387.62
315.312	367.62
315.542	360.62
315.771	356.62
316.001	362.62
316.23	357.62
316.46	368.62
316.689	374.62
316.919	378.62
317.148	392.62
317.377	379.62
317.607	376.62
317.836	376.62
318.065	393.62
318.295	386.62
318.524	360.62
318.753	376.62
318.983	371.62
319.212	377.62
319.441	382.62
319.67	405.62
319.9	365.62
320.129	374.62
320.358	380.62
320.587	376.62
320.816	400.62
321.046	408.62
321.275	400.62
321.504	407.62
321.733	388.62
321.962	417.62
322.191	402.62
322.42	448.62
322.649	432.62
322.878	457.62
323.108	472.62
323.337	498.62
323.566	519.62
323.795	524.62
324.024	611.62
324.253	749.62
324.482	1084.62
324.71	1629.62
324.939	2276.62
325.168	1882.62
325.397	1050.62
325.626	697.62
325.855	578.62
326.084	536.62
326.313	545.62
326.542	532.62
326.77	594.62
326.999	687.62
327.228	977.62
327.457	1433.62
327.686	1656.62
327.914	1136.62
328.143	755.62
328.372	674.62
328.6	582.62
328.829	602.62
329.058	606.62
329.287	576.62
329.515	544.62
329.744	485.62
329.972	508.62
330.201	526.62
330.43	568.62
330.658	580.62
330.887	630.62
331.115	596.62
331.344	505.62
331.572	491.62
331.801	485.62
332.03	480.62
332.258	456.62
332.486	439.62
332.715	426.62
332.943	442.62
333.172	431.62
333.4	460.62
333.629	442.62
333.857	480.62
334.085	458.62
334.314	459.62
334.542	489.62
334.771	489.62
334.999	463.62
335.227	470.62
335.455	422.62
335.684	436.62
335.912	425.62
336.14	413.62
336.369	431.62
336.597	434.62
336.825	426.62
337.053	412.62
337.281	432.62
337.51	419.62
337.738	405.62
337.966	430.62
338.194	416.62
338.422	427.62
338.65	412.62
338.878	415.62
339.106	419.62
339.334	407.62
339.562	392.62
339.79	417.62
340.018	416.62
340.246	392.62
340.474	425.62
340.702	415.62
340.93	394.62
341.158	406.62
341.386	400.62
341.614	418.62
341.842	415.62
342.07	411.62
342.298	395.62
342.526	395.62
342.754	399.62
342.981	417.62
343.209	385.62
343.437	398.62
343.665	403.62
343.893	401.62
344.12	401.62
344.348	409.62
344.576	431.62
344.804	402.62
345.031	436.62
345.259	423.62
345.487	416.62
345.714	425.62
345.942	400.62
346.17	400.62
346.397	404.62
346.625	388.62
346.853	392.62
347.08	408.62
347.308	413.62
347.535	402.62
347.763	404.62
347.99	401.62
348.218	407.62
348.445	411.62
348.673	408.62
348.9	397.62
349.128	376.62
349.355	378.62
349.583	371.62
349.81	371.62
350.037	387.62
350.265	390.62
350.492	380.62
350.72	381.62
350.947	389.62
351.174	378.62
351.402	400.62
351.629	401.62
351.856	390.62
352.083	410.62
352.311	410.62
352.538	404.62
352.765	407.62
352.992	386.62
353.22	414.62
353.447	403.62
353.674	384.62
353.901	357.62
354.128	366.62
354.355	370.62
354.583	361.62
354.81	388.62
355.037	356.62
355.264	354.62
355.491	368.62
355.718	380.62
355.945	356.62
356.172	352.62
356.399	363.62
356.626	363.62
356.853	368.62
357.08	351.62
357.307	351.62
357.534	357.62
357.761	359.62
357.988	364.62
358.215	382.62
358.441	361.62
358.668	373.62
358.895	382.62
359.122	361.62
359.349	384.62
359.576	392.62
359.802	415.62
360.029	425.62
360.256	437.62
360.483	434.62
360.709	400.62
360.936	389.62
361.163	398.62
361.39	384.62
361.616	379.62
361.843	396.62
362.07	384.62
362.296	391.62
362.523	397.62
362.749	386.62
362.976	382.62
363.203	378.62
363.429	370.62
363.656	360.62
363.882	356.62
364.109	362.62
364.335	375.62
364.562	372.62
364.788	343.62
365.015	376.62
365.241	361.62
365.468	378.62
365.694	376.62
365.92	364.62
366.147	372.62
366.373	355.62
366.599	362.62
366.826	356.62
367.052	351.62
367.278	367.62
367.505	360.62
367.731	379.62
367.957	363.62
368.184	353.62
368.41	373.62
368.636	372.62
368.862	375.62
369.089	372.62
369.315	366.62
369.541	360.62
369.767	348.62
369.993	353.62
370.219	354.62
370.445	348.62
370.672	351.62
370.898	349.62
371.124	344.62
371.35	342.62
371.576	331.62
371.802	368.62
372.028	354.62
372.254	339.62
372.48	354.62
372.706	363.62
372.932	352.62
373.158	356.62
373.384	367.62
373.61	366.62
373.835	370.62
374.061	342.62
374.287	357.62
374.513	362.62
374.739	362.62
374.965	354.62
375.191	355.62
375.416	351.62
375.642	344.62
375.868	344.62
376.094	359.62
376.319	339.62
376.545	333.62
376.771	355.62
376.997	340.62
377.222	340.62
377.448	335.62
377.674	336.62
377.899	337.62
378.125	351.62
378.35	321.62
378.576	333.62
378.802	325.62
379.027	326.62
379.253	326.62
379.478	340.62
379.704	333.62
379.929	341.62
380.155	347.62
380.38	351.62
380.606	332.62
380.831	343.62
381.057	357.62
381.282	337.62
381.507	363.62
381.733	341.62
381.958	344.62
382.184	366.62
382.409	344.62
382.634	337.62
382.86	375.62
383.085	321.62
383.31	337.62
383.535	350.62
383.761	358.62
383.986	350.62
384.211	349.62
384.436	372.62
384.662	341.62
384.887	357.62
385.112	354.62
385.337	370.62
385.562	362.62
385.787	370.62
386.013	378.62
386.238	368.62
386.463	362.62
386.688	350.62
386.913	347.62
387.138	358.62
387.363	354.62
387.588	353.62
387.813	353.62
388.038	354.62
388.263	368.62
388.488	350.62
388.713	345.62
388.938	345.62
389.163	366.62
389.387	354.62
389.612	361.62
389.837	344.62
390.062	338.62
390.287	379.62
390.512	372.62
390.736	354.62
390.961	361.62
391.186	361.62
391.411	347.62
391.636	357.62
391.86	364.62
392.085	370.62
392.31	362.62
392.534	367.62
392.759	372.62
392.984	351.62
393.208	354.62
393.433	371.62
393.658	362.62
393.882	376.62
394.107	359.62
394.331	371.62
394.556	356.62
394.78	331.62
395.005	368.62
395.229	348.62
395.454	378.62
395.678	386.62
395.903	391.62
396.127	391.62
396.352	403.62
396.576	382.62
396.801	359.62
397.025	371.62
397.249	367.62
397.474	376.62
397.698	376.62
397.922	391.62
398.147	386.62
398.371	396.62
398.595	398.62
398.82	390.62
399.044	393.62
399.268	401.62
399.492	424.62
399.717	440.62
399.941	450.62
400.165	476.62
400.389	506.62
400.613	467.62
400.837	435.62
401.062	427.62
401.286	418.62
401.51	433.62
401.734	388.62
401.958	405.62
402.182	423.62
402.406	410.62
402.63	422.62
402.854	418.62
403.078	406.62
403.302	398.62
403.526	425.62
403.75	406.62
403.974	410.62
404.198	396.62
404.422	412.62
404.645	424.62
404.869	426.62
405.093	439.62
405.317	478.62
405.541	500.62
405.765	463.62
405.988	444.62
406.212	439.62
406.436	456.62
406.66	484.62
406.883	437.62
407.107	457.62
407.331	494.62
407.555	543.62
407.778	566.62
408.002	502.62
408.226	482.62
408.449	467.62
408.673	460.62
408.896	483.62
409.12	524.62
409.344	485.62
409.567	441.62
409.791	412.62
410.014	427.62
410.238	402.62
410.461	422.62
410.685	423.62
410.908	439.62
411.132	445.62
411.355	517.62
411.578	466.62
411.802	430.62
412.025	418.62
412.249	414.62
412.472	418.62
412.695	468.62
412.919	455.62
413.142	419.62
413.365	410.62
413.589	409.62
413.812	386.62
414.035	411.62
414.258	400.62
414.482	373.62
414.705	370.62
414.928	386.62
415.151	379.62
415.374	398.62
415.597	384.62
415.821	388.62
416.044	397.62
416.267	394.62
416.49	397.62
416.713	387.62
416.936	378.62
417.159	393.62
417.382	388.62
417.605	401.62
417.828	409.62
418.051	412.62
418.274	388.62
418.497	377.62
418.72	386.62
418.943	401.62
419.166	390.62
419.389	396.62
419.611	414.62
419.834	405.62
420.057	396.62
420.28	406.62
420.503	408.62
420.726	411.62
420.948	442.62
421.171	470.62
421.394	471.62
421.617	418.62
421.839	423.62
422.062	416.62
422.285	441.62
422.507	474.62
422.73	542.62
422.953	520.62
423.175	460.62
423.398	450.62
423.621	425.62
423.843	438.62
424.066	448.62
424.288	459.62
424.511	475.62
424.733	511.62
424.956	587.62
425.178	539.62
425.401	560.62
425.623	555.62
425.846	496.62
426.068	449.62
426.291	454.62
426.513	458.62
426.735	480.62
426.958	509.62
427.18	598.62
427.402	698.62
427.625	745.62
427.847	694.62
428.069	568.62
428.292	521.62
428.514	473.62
428.736	453.62
428.958	438.62
429.181	414.62
429.403	408.62
429.625	436.62
429.847	470.62
430.069	516.62
430.292	518.62
430.514	427.62
430.736	399.62
430.958	407.62
431.18	396.62
431.402	405.62
431.624	382.62
431.846	387.62
432.068	379.62
432.29	392.62
432.512	389.62
432.734	404.62
432.956	412.62
433.178	405.62
433.4	394.62
433.622	411.62
433.844	414.62
434.066	396.62
434.287	384.62
434.509	398.62
434.731	409.62
434.953	395.62
435.175	416.62
435.397	441.62
435.618	443.62
435.84	506.62
436.062	582.62
436.284	611.62
436.505	520.62
436.727	476.62
436.949	434.62
437.17	418.62
437.392	414.62
437.614	440.62
437.835	468.62
438.057	555.62
438.278	630.62
438.5	627.62
438.721	681.62
438.943	634.62
439.165	534.62
439.386	470.62
439.608	458.62
439.829	483.62
440.05	487.62
440.272	547.62
440.493	501.62
440.715	459.62
440.936	451.62
441.158	436.62
441.379	423.62
441.6	435.62
441.822	440.62
442.043	486.62
442.264	570.62
442.486	577.62
442.707	506.62
442.928	464.62
443.149	461.62
443.371	507.62
443.592	528.62
443.813	587.62
444.034	639.62
444.255	544.62
444.476	478.62
444.698	444.62
444.919	459.62
445.14	571.62
445.361	537.62
445.582	502.62
445.803	567.62
446.024	634.62
446.245	649.62
446.466	609.62
446.687	493.62
446.908	476.62
447.129	451.62
447.35	443.62
447.571	430.62
447.792	414.62
448.013	416.62
448.234	440.62
448.455	485.62
448.675	586.62
448.896	670.62
449.117	606.62
449.338	534.62
449.559	633.62
449.779	710.62
450	586.62
450.221	479.62
450.442	448.62
450.662	422.62
450.883	427.62
451.104	458.62
451.324	430.62
451.545	423.62
451.766	392.62
451.986	384.62
452.207	390.62
452.428	373.62
452.648	389.62
452.869	366.62
453.089	383.62
453.31	399.62
453.53	391.62
453.751	379.62
453.971	360.62
454.192	395.62
454.412	400.62
454.633	392.62
454.853	372.62
455.073	381.62
455.294	380.62
455.514	460.62
455.734	472.62
455.955	398.62
456.175	351.62
456.395	351.62
456.616	355.62
456.836	377.62
457.056	357.62
457.276	344.62
457.497	360.62
457.717	361.62
457.937	356.62
458.157	366.62
458.377	374.62
458.598	385.62
458.818	443.62
459.038	537.62
459.258	538.62
459.478	456.62
459.698	408.62
459.918	383.62
460.138	384.62
460.358	380.62
460.578	379.62
460.798	404.62
461.018	375.62
461.238	395.62
461.458	387.62
461.678	382.62
461.898	378.62
462.118	375.62
462.338	404.62
462.558	400.62
462.777	405.62
462.997	408.62
463.217	410.62
463.437	418.62
463.657	400.62
463.876	386.62
464.096	393.62
464.316	408.62
464.536	402.62
464.755	404.62
464.975	409.62
465.195	471.62
465.414	512.62
465.634	442.62
465.854	423.62
466.073	409.62
466.293	397.62
466.512	382.62
466.732	382.62
466.951	363.62
467.171	355.62
467.391	358.62
467.61	374.62
467.829	388.62
468.049	394.62
468.268	384.62
468.488	367.62
468.707	378.62
468.927	376.62
469.146	360.62
469.365	374.62
469.585	368.62
469.804	354.62
470.023	394.62
470.243	390.62
470.462	385.62
470.681	416.62
470.901	419.62
471.12	380.62
471.339	424.62
471.558	390.62
471.777	386.62
471.997	378.62
472.216	395.62
472.435	419.62
472.654	415.62
472.873	396.62
473.092	373.62
473.311	390.62
473.53	397.62
473.749	415.62
473.968	442.62
474.187	541.62
474.406	558.62
474.625	454.62
474.844	411.62
475.063	386.62
475.282	390.62
475.501	406.62
475.72	402.62
475.939	376.62
476.158	390.62
476.377	415.62
476.596	391.62
476.814	382.62
477.033	403.62
477.252	420.62
477.471	408.62
477.69	396.62
477.908	414.62
478.127	404.62
478.346	411.62
478.564	418.62
478.783	426.62
479.002	410.62
479.22	422.62
479.439	442.62
479.658	442.62
479.876	462.62
480.095	451.62
480.313	472.62
480.532	476.62
480.751	475.62
480.969	482.62
481.188	512.62
481.406	549.62
481.624	510.62
481.843	460.62
482.061	461.62
482.28	445.62
482.498	459.62
482.717	439.62
482.935	442.62
483.153	432.62
483.372	457.62
483.59	462.62
483.808	460.62
484.027	447.62
484.245	448.62
484.463	470.62
484.681	462.62
484.9	447.62
485.118	455.62
485.336	466.62
485.554	457.62
485.772	465.62
485.99	460.62
486.209	470.62
486.427	479.62
486.645	486.62
486.863	507.62
487.081	499.62
487.299	487.62
487.517	472.62
487.735	466.62
487.953	471.62
488.171	477.62
488.389	487.62
488.607	466.62
488.825	478.62
489.043	512.62
489.261	483.62
489.479	490.62
489.696	490.62
489.914	498.62
490.132	484.62
490.35	510.62
490.568	499.62
490.786	489.62
491.003	542.62
491.221	564.62
491.439	531.62
491.657	533.62
491.874	544.62
492.092	528.62
492.31	561.62
492.527	559.62
492.745	544.62
492.963	522.62
493.18	550.62
493.398	547.62
493.615	534.62
493.833	581.62
494.05	559.62
494.268	556.62
494.485	579.62
494.703	574.62
494.92	571.62
495.138	577.62
495.355	548.62
495.573	568.62
495.79	574.62
496.008	564.62
496.225	577.62
496.442	560.62
496.66	573.62
496.877	578.62
497.094	562.62
497.312	597.62
497.529	579.62
497.746	603.62
497.963	606.62
498.181	590.62
498.398	616.62
498.615	641.62
498.832	624.62
499.049	634.62
499.267	629.62
499.484	642.62
499.701	642.62
499.918	640.62
500.135	719.62
500.352	708.62
500.569	705.62
500.786	712.62
501.003	691.62
501.22	710.62
501.437	682.62
501.654	667.62
501.871	684.62
