Data from 1981.PennyLincolnUp.Lamp.En5.5.200Scan.071819.P1_HRD10591_16-42-04-959.txt Node
Date: Thu Jul 18 16:42:04 EDT 2019
User: cochatt
Spectrometer: HR+D1059
Trigger mode: 1
Integration Time (sec): 1.000000E-1
Scans to average: 1
Electric dark correction enabled: true
Nonlinearity correction enabled: false
Boxcar width: 0
XAxis mode: Wavelengths
Number of Pixels in Spectrum: 2048
>>>>>Begin Spectral Data<<<<<
223.165	-2.56
223.4	-2.56
223.635	-2.56
223.869	-5.56
224.104	-14.56
224.338	-18.56
224.573	-17.56
224.808	-11.56
225.042	-26.56
225.277	-8.56
225.511	2.44
225.746	2.44
225.98	-3.56
226.215	12.44
226.449	17.44
226.683	13.44
226.918	32.44
227.152	28.44
227.387	30.44
227.621	46.44
227.856	40.44
228.09	48.44
228.324	51.44
228.559	62.44
228.793	65.44
229.027	85.44
229.262	107.44
229.496	119.44
229.73	144.44
229.964	161.44
230.199	138.44
230.433	109.44
230.667	122.44
230.901	123.44
231.136	110.44
231.37	112.44
231.604	106.44
231.838	122.44
232.072	107.44
232.306	112.44
232.541	114.44
232.775	126.44
233.009	109.44
233.243	107.44
233.477	120.44
233.711	122.44
233.945	123.44
234.179	118.44
234.413	105.44
234.647	106.44
234.881	115.44
235.115	118.44
235.349	118.44
235.583	119.44
235.817	129.44
236.051	141.44
236.285	132.44
236.519	120.44
236.753	138.44
236.987	150.44
237.221	176.44
237.455	224.44
237.689	185.44
237.922	156.44
238.156	122.44
238.39	138.44
238.624	127.44
238.858	124.44
239.091	125.44
239.325	122.44
239.559	136.44
239.793	124.44
240.027	127.44
240.26	152.44
240.494	150.44
240.728	136.44
240.961	139.44
241.195	138.44
241.429	150.44
241.662	140.44
241.896	136.44
242.13	127.44
242.363	137.44
242.597	134.44
242.83	125.44
243.064	144.44
243.298	136.44
243.531	146.44
243.765	143.44
243.998	144.44
244.232	134.44
244.465	160.44
244.699	138.44
244.932	142.44
245.166	138.44
245.399	144.44
245.633	146.44
245.866	135.44
246.099	140.44
246.333	149.44
246.566	148.44
246.8	153.44
247.033	141.44
247.266	137.44
247.5	170.44
247.733	171.44
247.966	168.44
248.2	162.44
248.433	162.44
248.666	171.44
248.899	202.44
249.133	199.44
249.366	224.44
249.599	205.44
249.832	203.44
250.066	192.44
250.299	190.44
250.532	197.44
250.765	204.44
250.998	224.44
251.231	230.44
251.465	223.44
251.698	190.44
251.931	213.44
252.164	194.44
252.397	204.44
252.63	210.44
252.863	206.44
253.096	219.44
253.329	229.44
253.562	222.44
253.795	230.44
254.028	233.44
254.261	213.44
254.494	225.44
254.727	278.44
254.96	264.44
255.193	284.44
255.426	246.44
255.659	237.44
255.892	230.44
256.124	241.44
256.357	236.44
256.59	213.44
256.823	233.44
257.056	230.44
257.289	208.44
257.521	227.44
257.754	208.44
257.987	205.44
258.22	213.44
258.452	205.44
258.685	209.44
258.918	221.44
259.151	220.44
259.383	225.44
259.616	228.44
259.849	242.44
260.081	242.44
260.314	259.44
260.547	273.44
260.779	240.44
261.012	242.44
261.244	234.44
261.477	237.44
261.71	228.44
261.942	247.44
262.175	258.44
262.407	243.44
262.64	233.44
262.872	211.44
263.105	213.44
263.337	224.44
263.57	229.44
263.802	220.44
264.035	204.44
264.267	214.44
264.499	214.44
264.732	219.44
264.964	213.44
265.197	213.44
265.429	217.44
265.661	197.44
265.894	207.44
266.126	226.44
266.358	209.44
266.591	238.44
266.823	229.44
267.055	227.44
267.287	237.44
267.52	213.44
267.752	213.44
267.984	219.44
268.216	243.44
268.448	245.44
268.681	247.44
268.913	239.44
269.145	268.44
269.377	265.44
269.609	287.44
269.841	284.44
270.073	283.44
270.306	296.44
270.538	316.44
270.77	326.44
271.002	312.44
271.234	317.44
271.466	315.44
271.698	326.44
271.93	328.44
272.162	322.44
272.394	332.44
272.626	320.44
272.858	292.44
273.09	284.44
273.322	285.44
273.553	301.44
273.785	279.44
274.017	268.44
274.249	262.44
274.481	285.44
274.713	260.44
274.945	256.44
275.176	269.44
275.408	268.44
275.64	267.44
275.872	260.44
276.104	267.44
276.335	288.44
276.567	284.44
276.799	287.44
277.031	307.44
277.262	326.44
277.494	309.44
277.726	312.44
277.957	289.44
278.189	286.44
278.421	272.44
278.652	262.44
278.884	270.44
279.115	289.44
279.347	275.44
279.579	261.44
279.81	269.44
280.042	269.44
280.273	280.44
280.505	283.44
280.736	266.44
280.968	267.44
281.199	265.44
281.431	269.44
281.662	256.44
281.894	262.44
282.125	284.44
282.356	308.44
282.588	304.44
282.819	304.44
283.051	286.44
283.282	264.44
283.513	269.44
283.745	275.44
283.976	276.44
284.207	264.44
284.439	274.44
284.67	290.44
284.901	268.44
285.132	283.44
285.364	280.44
285.595	277.44
285.826	274.44
286.057	274.44
286.288	279.44
286.52	282.44
286.751	266.44
286.982	279.44
287.213	282.44
287.444	283.44
287.675	275.44
287.906	312.44
288.138	287.44
288.369	284.44
288.6	295.44
288.831	294.44
289.062	286.44
289.293	296.44
289.524	267.44
289.755	295.44
289.986	276.44
290.217	288.44
290.448	275.44
290.679	272.44
290.91	281.44
291.141	292.44
291.371	280.44
291.602	259.44
291.833	264.44
292.064	265.44
292.295	290.44
292.526	264.44
292.757	278.44
292.987	290.44
293.218	297.44
293.449	288.44
293.68	292.44
293.91	295.44
294.141	284.44
294.372	280.44
294.603	274.44
294.833	301.44
295.064	292.44
295.295	285.44
295.525	269.44
295.756	301.44
295.987	291.44
296.217	312.44
296.448	341.44
296.679	298.44
296.909	293.44
297.14	290.44
297.37	297.44
297.601	296.44
297.831	301.44
298.062	284.44
298.292	290.44
298.523	299.44
298.753	304.44
298.984	300.44
299.214	316.44
299.445	289.44
299.675	283.44
299.905	298.44
300.136	299.44
300.366	300.44
300.597	310.44
300.827	314.44
301.057	327.44
301.288	322.44
301.518	326.44
301.748	337.44
301.979	310.44
302.209	317.44
302.439	309.44
302.669	324.44
302.9	313.44
303.13	308.44
303.36	317.44
303.59	330.44
303.82	342.44
304.051	342.44
304.281	332.44
304.511	326.44
304.741	294.44
304.971	318.44
305.201	318.44
305.431	324.44
305.661	330.44
305.891	312.44
306.121	321.44
306.352	338.44
306.582	326.44
306.812	327.44
307.042	342.44
307.272	321.44
307.502	333.44
307.731	350.44
307.961	340.44
308.191	342.44
308.421	347.44
308.651	332.44
308.881	328.44
309.111	364.44
309.341	332.44
309.571	334.44
309.8	356.44
310.03	374.44
310.26	400.44
310.49	367.44
310.72	386.44
310.949	402.44
311.179	413.44
311.409	402.44
311.639	382.44
311.868	384.44
312.098	362.44
312.328	384.44
312.557	384.44
312.787	425.44
313.017	421.44
313.246	401.44
313.476	378.44
313.706	389.44
313.935	378.44
314.165	397.44
314.394	408.44
314.624	404.44
314.853	392.44
315.083	394.44
315.312	378.44
315.542	360.44
315.771	363.44
316.001	356.44
316.23	375.44
316.46	360.44
316.689	386.44
316.919	398.44
317.148	386.44
317.377	386.44
317.607	405.44
317.836	383.44
318.065	377.44
318.295	376.44
318.524	367.44
318.753	391.44
318.983	393.44
319.212	374.44
319.441	395.44
319.67	406.44
319.9	386.44
320.129	378.44
320.358	366.44
320.587	367.44
320.816	398.44
321.046	419.44
321.275	410.44
321.504	383.44
321.733	394.44
321.962	405.44
322.191	421.44
322.42	447.44
322.649	453.44
322.878	454.44
323.108	474.44
323.337	518.44
323.566	534.44
323.795	566.44
324.024	670.44
324.253	798.44
324.482	1123.44
324.71	1739.44
324.939	2426.44
325.168	2050.44
325.397	1080.44
325.626	714.44
325.855	600.44
326.084	575.44
326.313	545.44
326.542	559.44
326.77	624.44
326.999	739.44
327.228	1016.44
327.457	1538.44
327.686	1768.44
327.914	1202.44
328.143	804.44
328.372	692.44
328.6	631.44
328.829	611.44
329.058	624.44
329.287	627.44
329.515	578.44
329.744	543.44
329.972	525.44
330.201	538.44
330.43	590.44
330.658	620.44
330.887	646.44
331.115	612.44
331.344	555.44
331.572	539.44
331.801	500.44
332.03	480.44
332.258	460.44
332.486	445.44
332.715	444.44
332.943	449.44
333.172	448.44
333.4	452.44
333.629	454.44
333.857	466.44
334.085	483.44
334.314	493.44
334.542	518.44
334.771	522.44
334.999	486.44
335.227	445.44
335.455	440.44
335.684	443.44
335.912	416.44
336.14	425.44
336.369	427.44
336.597	437.44
336.825	436.44
337.053	412.44
337.281	409.44
337.51	423.44
337.738	411.44
337.966	419.44
338.194	425.44
338.422	427.44
338.65	399.44
338.878	389.44
339.106	429.44
339.334	426.44
339.562	403.44
339.79	391.44
340.018	413.44
340.246	402.44
340.474	413.44
340.702	430.44
340.93	410.44
341.158	395.44
341.386	398.44
341.614	425.44
341.842	406.44
342.07	413.44
342.298	400.44
342.526	408.44
342.754	383.44
342.981	385.44
343.209	387.44
343.437	413.44
343.665	388.44
343.893	412.44
344.12	412.44
344.348	410.44
344.576	399.44
344.804	411.44
345.031	416.44
345.259	425.44
345.487	431.44
345.714	436.44
345.942	409.44
346.17	402.44
346.397	386.44
346.625	401.44
346.853	405.44
347.08	413.44
347.308	418.44
347.535	411.44
347.763	410.44
347.99	412.44
348.218	411.44
348.445	429.44
348.673	416.44
348.9	388.44
349.128	398.44
349.355	382.44
349.583	395.44
349.81	381.44
350.037	380.44
350.265	362.44
350.492	368.44
350.72	396.44
350.947	393.44
351.174	408.44
351.402	400.44
351.629	398.44
351.856	404.44
352.083	390.44
352.311	397.44
352.538	403.44
352.765	406.44
352.992	407.44
353.22	401.44
353.447	392.44
353.674	386.44
353.901	382.44
354.128	362.44
354.355	353.44
354.583	364.44
354.81	357.44
355.037	352.44
355.264	351.44
355.491	360.44
355.718	365.44
355.945	369.44
356.172	340.44
356.399	358.44
356.626	346.44
356.853	380.44
357.08	350.44
357.307	350.44
357.534	361.44
357.761	348.44
357.988	350.44
358.215	364.44
358.441	354.44
358.668	364.44
358.895	372.44
359.122	366.44
359.349	370.44
359.576	403.44
359.802	411.44
360.029	460.44
360.256	464.44
360.483	418.44
360.709	407.44
360.936	385.44
361.163	398.44
361.39	407.44
361.616	399.44
361.843	369.44
362.07	388.44
362.296	399.44
362.523	388.44
362.749	377.44
362.976	387.44
363.203	396.44
363.429	372.44
363.656	348.44
363.882	373.44
364.109	362.44
364.335	372.44
364.562	358.44
364.788	350.44
365.015	344.44
365.241	359.44
365.468	373.44
365.694	380.44
365.92	377.44
366.147	363.44
366.373	353.44
366.599	345.44
366.826	344.44
367.052	363.44
367.278	333.44
367.505	364.44
367.731	368.44
367.957	359.44
368.184	356.44
368.41	365.44
368.636	381.44
368.862	373.44
369.089	373.44
369.315	373.44
369.541	353.44
369.767	362.44
369.993	348.44
370.219	336.44
370.445	355.44
370.672	365.44
370.898	326.44
371.124	345.44
371.35	338.44
371.576	347.44
371.802	359.44
372.028	356.44
372.254	341.44
372.48	327.44
372.706	346.44
372.932	344.44
373.158	351.44
373.384	365.44
373.61	353.44
373.835	350.44
374.061	351.44
374.287	359.44
374.513	339.44
374.739	357.44
374.965	361.44
375.191	366.44
375.416	361.44
375.642	355.44
375.868	353.44
376.094	354.44
376.319	358.44
376.545	357.44
376.771	343.44
376.997	348.44
377.222	357.44
377.448	328.44
377.674	342.44
377.899	329.44
378.125	342.44
378.35	338.44
378.576	351.44
378.802	335.44
379.027	326.44
379.253	341.44
379.478	327.44
379.704	333.44
379.929	333.44
380.155	352.44
380.38	345.44
380.606	351.44
380.831	332.44
381.057	364.44
381.282	344.44
381.507	342.44
381.733	340.44
381.958	353.44
382.184	333.44
382.409	330.44
382.634	369.44
382.86	336.44
383.085	349.44
383.31	347.44
383.535	328.44
383.761	346.44
383.986	329.44
384.211	359.44
384.436	357.44
384.662	331.44
384.887	350.44
385.112	356.44
385.337	345.44
385.562	358.44
385.787	355.44
386.013	377.44
386.238	350.44
386.463	369.44
386.688	366.44
386.913	346.44
387.138	381.44
387.363	365.44
387.588	363.44
387.813	382.44
388.038	373.44
388.263	340.44
388.488	338.44
388.713	355.44
388.938	346.44
389.163	372.44
389.387	362.44
389.612	348.44
389.837	363.44
390.062	369.44
390.287	343.44
390.512	364.44
390.736	371.44
390.961	358.44
391.186	358.44
391.411	361.44
391.636	364.44
391.86	374.44
392.085	352.44
392.31	361.44
392.534	372.44
392.759	382.44
392.984	358.44
393.208	347.44
393.433	370.44
393.658	342.44
393.882	362.44
394.107	359.44
394.331	373.44
394.556	348.44
394.78	363.44
395.005	360.44
395.229	347.44
395.454	355.44
395.678	359.44
395.903	376.44
396.127	372.44
396.352	393.44
396.576	365.44
396.801	364.44
397.025	381.44
397.249	394.44
397.474	361.44
397.698	359.44
397.922	375.44
398.147	410.44
398.371	397.44
398.595	375.44
398.82	386.44
399.044	394.44
399.268	415.44
399.492	428.44
399.717	429.44
399.941	441.44
400.165	489.44
400.389	482.44
400.613	445.44
400.837	444.44
401.062	397.44
401.286	403.44
401.51	404.44
401.734	395.44
401.958	388.44
402.182	394.44
402.406	421.44
402.63	413.44
402.854	401.44
403.078	400.44
403.302	419.44
403.526	413.44
403.75	416.44
403.974	403.44
404.198	400.44
404.422	434.44
404.645	440.44
404.869	405.44
405.093	445.44
405.317	478.44
405.541	508.44
405.765	479.44
405.988	444.44
406.212	466.44
406.436	469.44
406.66	461.44
406.883	440.44
407.107	482.44
407.331	491.44
407.555	556.44
407.778	556.44
408.002	503.44
408.226	483.44
408.449	460.44
408.673	468.44
408.896	463.44
409.12	524.44
409.344	469.44
409.567	426.44
409.791	421.44
410.014	414.44
410.238	415.44
410.461	397.44
410.685	433.44
410.908	441.44
411.132	475.44
411.355	481.44
411.578	476.44
411.802	425.44
412.025	423.44
412.249	404.44
412.472	422.44
412.695	472.44
412.919	463.44
413.142	444.44
413.365	399.44
413.589	417.44
413.812	415.44
414.035	380.44
414.258	384.44
414.482	376.44
414.705	373.44
414.928	370.44
415.151	390.44
415.374	365.44
415.597	364.44
415.821	395.44
416.044	394.44
416.267	390.44
416.49	389.44
416.713	406.44
416.936	384.44
417.159	393.44
417.382	378.44
417.605	388.44
417.828	408.44
418.051	416.44
418.274	407.44
418.497	388.44
418.72	393.44
418.943	357.44
419.166	394.44
419.389	418.44
419.611	410.44
419.834	413.44
420.057	409.44
420.28	413.44
420.503	405.44
420.726	406.44
420.948	443.44
421.171	473.44
421.394	482.44
421.617	429.44
421.839	429.44
422.062	414.44
422.285	424.44
422.507	484.44
422.73	529.44
422.953	529.44
423.175	453.44
423.398	439.44
423.621	442.44
423.843	454.44
424.066	444.44
424.288	448.44
424.511	452.44
424.733	498.44
424.956	596.44
425.178	562.44
425.401	564.44
425.623	597.44
425.846	483.44
426.068	458.44
426.291	455.44
426.513	451.44
426.735	469.44
426.958	490.44
427.18	576.44
427.402	670.44
427.625	760.44
427.847	660.44
428.069	556.44
428.292	511.44
428.514	453.44
428.736	450.44
428.958	434.44
429.181	412.44
429.403	406.44
429.625	437.44
429.847	477.44
430.069	517.44
430.292	515.44
430.514	438.44
430.736	420.44
430.958	410.44
431.18	383.44
431.402	387.44
431.624	398.44
431.846	374.44
432.068	390.44
432.29	365.44
432.512	382.44
432.734	398.44
432.956	395.44
433.178	408.44
433.4	412.44
433.622	390.44
433.844	395.44
434.066	392.44
434.287	382.44
434.509	400.44
434.731	396.44
434.953	396.44
435.175	415.44
435.397	431.44
435.618	459.44
435.84	525.44
436.062	589.44
436.284	619.44
436.505	542.44
436.727	483.44
436.949	436.44
437.17	426.44
437.392	404.44
437.614	454.44
437.835	471.44
438.057	593.44
438.278	648.44
438.5	665.44
438.721	688.44
438.943	670.44
439.165	524.44
439.386	483.44
439.608	473.44
439.829	460.44
440.05	504.44
440.272	540.44
440.493	528.44
440.715	469.44
440.936	439.44
441.158	434.44
441.379	448.44
441.6	432.44
441.822	435.44
442.043	477.44
442.264	598.44
442.486	601.44
442.707	508.44
442.928	494.44
443.149	472.44
443.371	506.44
443.592	548.44
443.813	596.44
444.034	655.44
444.255	548.44
444.476	470.44
444.698	473.44
444.919	444.44
445.14	599.44
445.361	497.44
445.582	502.44
445.803	555.44
446.024	656.44
446.245	659.44
446.466	595.44
446.687	523.44
446.908	462.44
447.129	448.44
447.35	433.44
447.571	425.44
447.792	427.44
448.013	439.44
448.234	442.44
448.455	485.44
448.675	614.44
448.896	680.44
449.117	597.44
449.338	564.44
449.559	644.44
449.779	697.44
450	556.44
450.221	489.44
450.442	434.44
450.662	414.44
450.883	449.44
451.104	445.44
451.324	439.44
451.545	424.44
451.766	383.44
451.986	382.44
452.207	390.44
452.428	371.44
452.648	372.44
452.869	399.44
453.089	374.44
453.31	381.44
453.53	377.44
453.751	382.44
453.971	385.44
454.192	395.44
454.412	400.44
454.633	376.44
454.853	380.44
455.073	382.44
455.294	410.44
455.514	461.44
455.734	461.44
455.955	401.44
456.175	379.44
456.395	366.44
456.616	357.44
456.836	346.44
457.056	361.44
457.276	354.44
457.497	347.44
457.717	368.44
457.937	375.44
458.157	373.44
458.377	368.44
458.598	386.44
458.818	454.44
459.038	518.44
459.258	530.44
459.478	458.44
459.698	415.44
459.918	395.44
460.138	366.44
460.358	391.44
460.578	377.44
460.798	386.44
461.018	380.44
461.238	372.44
461.458	374.44
461.678	366.44
461.898	380.44
462.118	371.44
462.338	404.44
462.558	386.44
462.777	390.44
462.997	392.44
463.217	399.44
463.437	396.44
463.657	381.44
463.876	370.44
464.096	404.44
464.316	392.44
464.536	428.44
464.755	414.44
464.975	420.44
465.195	471.44
465.414	541.44
465.634	470.44
465.854	434.44
466.073	403.44
466.293	414.44
466.512	377.44
466.732	372.44
466.951	377.44
467.171	389.44
467.391	372.44
467.61	380.44
467.829	393.44
468.049	396.44
468.268	378.44
468.488	372.44
468.707	368.44
468.927	357.44
469.146	372.44
469.365	372.44
469.585	366.44
469.804	376.44
470.023	384.44
470.243	386.44
470.462	396.44
470.681	401.44
470.901	411.44
471.12	408.44
471.339	380.44
471.558	402.44
471.777	384.44
471.997	391.44
472.216	378.44
472.435	413.44
472.654	394.44
472.873	391.44
473.092	402.44
473.311	392.44
473.53	395.44
473.749	387.44
473.968	445.44
474.187	527.44
474.406	573.44
474.625	447.44
474.844	421.44
475.063	398.44
475.282	409.44
475.501	395.44
475.72	406.44
475.939	410.44
476.158	408.44
476.377	412.44
476.596	402.44
476.814	415.44
477.033	430.44
477.252	406.44
477.471	401.44
477.69	396.44
477.908	411.44
478.127	436.44
478.346	402.44
478.564	392.44
478.783	405.44
479.002	429.44
479.22	441.44
479.439	448.44
479.658	458.44
479.876	458.44
480.095	499.44
480.313	483.44
480.532	466.44
480.751	471.44
480.969	480.44
481.188	545.44
481.406	553.44
481.624	531.44
481.843	474.44
482.061	450.44
482.28	469.44
482.498	459.44
482.717	440.44
482.935	459.44
483.153	456.44
483.372	455.44
483.59	459.44
483.808	444.44
484.027	450.44
484.245	454.44
484.463	481.44
484.681	483.44
484.9	444.44
485.118	443.44
485.336	458.44
485.554	456.44
485.772	455.44
485.99	462.44
486.209	462.44
486.427	466.44
486.645	477.44
486.863	509.44
487.081	504.44
487.299	475.44
487.517	493.44
487.735	482.44
487.953	491.44
488.171	509.44
488.389	493.44
488.607	487.44
488.825	495.44
489.043	497.44
489.261	510.44
489.479	478.44
489.696	458.44
489.914	492.44
490.132	507.44
490.35	484.44
490.568	501.44
490.786	523.44
491.003	520.44
491.221	538.44
491.439	534.44
491.657	517.44
491.874	555.44
492.092	552.44
492.31	551.44
492.527	552.44
492.745	557.44
492.963	576.44
493.18	551.44
493.398	573.44
493.615	570.44
493.833	594.44
494.05	572.44
494.268	572.44
494.485	550.44
494.703	554.44
494.92	583.44
495.138	562.44
495.355	585.44
495.573	601.44
495.79	578.44
496.008	568.44
496.225	579.44
496.442	574.44
496.66	560.44
496.877	568.44
497.094	582.44
497.312	579.44
497.529	587.44
497.746	601.44
497.963	591.44
498.181	642.44
498.398	612.44
498.615	627.44
498.832	638.44
499.049	633.44
499.267	658.44
499.484	648.44
499.701	621.44
499.918	683.44
500.135	697.44
500.352	678.44
500.569	698.44
500.786	712.44
501.003	690.44
501.22	716.44
501.437	698.44
501.654	706.44
501.871	711.44
