Data from 1981.PennyLincolnUp.Lamp.En5.5.200Scan.071819.P1_HRD10591_16-43-18-960.txt Node
Date: Thu Jul 18 16:43:18 EDT 2019
User: cochatt
Spectrometer: HR+D1059
Trigger mode: 1
Integration Time (sec): 1.000000E-1
Scans to average: 1
Electric dark correction enabled: true
Nonlinearity correction enabled: false
Boxcar width: 0
XAxis mode: Wavelengths
Number of Pixels in Spectrum: 2048
>>>>>Begin Spectral Data<<<<<
223.165	-11.44
223.4	-11.44
223.635	-11.44
223.869	-11.44
224.104	-17.44
224.338	4.56
224.573	-21.44
224.808	-7.44
225.042	-7.44
225.277	3.56
225.511	-0.44
225.746	-5.44
225.98	7.56
226.215	2.56
226.449	18.56
226.683	15.56
226.918	24.56
227.152	5.56
227.387	21.56
227.621	30.56
227.856	25.56
228.09	45.56
228.324	47.56
228.559	50.56
228.793	64.56
229.027	103.56
229.262	107.56
229.496	117.56
229.73	129.56
229.964	152.56
230.199	125.56
230.433	120.56
230.667	99.56
230.901	113.56
231.136	102.56
231.37	100.56
231.604	112.56
231.838	116.56
232.072	115.56
232.306	133.56
232.541	115.56
232.775	113.56
233.009	113.56
233.243	105.56
233.477	104.56
233.711	107.56
233.945	99.56
234.179	115.56
234.413	111.56
234.647	114.56
234.881	122.56
235.115	115.56
235.349	117.56
235.583	113.56
235.817	126.56
236.051	119.56
236.285	122.56
236.519	121.56
236.753	136.56
236.987	144.56
237.221	186.56
237.455	235.56
237.689	183.56
237.922	149.56
238.156	129.56
238.39	134.56
238.624	122.56
238.858	138.56
239.091	126.56
239.325	133.56
239.559	122.56
239.793	134.56
240.027	130.56
240.26	139.56
240.494	161.56
240.728	151.56
240.961	149.56
241.195	141.56
241.429	132.56
241.662	137.56
241.896	126.56
242.13	121.56
242.363	131.56
242.597	125.56
242.83	129.56
243.064	142.56
243.298	144.56
243.531	138.56
243.765	146.56
243.998	139.56
244.232	161.56
244.465	146.56
244.699	137.56
244.932	146.56
245.166	139.56
245.399	144.56
245.633	139.56
245.866	144.56
246.099	139.56
246.333	154.56
246.566	143.56
246.8	178.56
247.033	149.56
247.266	161.56
247.5	167.56
247.733	161.56
247.966	179.56
248.2	179.56
248.433	179.56
248.666	173.56
248.899	182.56
249.133	216.56
249.366	212.56
249.599	198.56
249.832	191.56
250.066	170.56
250.299	188.56
250.532	193.56
250.765	205.56
250.998	246.56
251.231	221.56
251.465	217.56
251.698	230.56
251.931	201.56
252.164	206.56
252.397	211.56
252.63	229.56
252.863	223.56
253.096	225.56
253.329	228.56
253.562	247.56
253.795	246.56
254.028	232.56
254.261	226.56
254.494	254.56
254.727	278.56
254.96	301.56
255.193	288.56
255.426	263.56
255.659	250.56
255.892	254.56
256.124	246.56
256.357	242.56
256.59	248.56
256.823	227.56
257.056	230.56
257.289	218.56
257.521	224.56
257.754	222.56
257.987	209.56
258.22	226.56
258.452	216.56
258.685	233.56
258.918	213.56
259.151	215.56
259.383	234.56
259.616	235.56
259.849	240.56
260.081	257.56
260.314	295.56
260.547	283.56
260.779	277.56
261.012	257.56
261.244	250.56
261.477	246.56
261.71	242.56
261.942	226.56
262.175	258.56
262.407	259.56
262.64	210.56
262.872	241.56
263.105	227.56
263.337	233.56
263.57	213.56
263.802	221.56
264.035	215.56
264.267	212.56
264.499	229.56
264.732	216.56
264.964	198.56
265.197	212.56
265.429	221.56
265.661	225.56
265.894	235.56
266.126	200.56
266.358	209.56
266.591	222.56
266.823	252.56
267.055	240.56
267.287	228.56
267.52	217.56
267.752	241.56
267.984	231.56
268.216	248.56
268.448	243.56
268.681	230.56
268.913	257.56
269.145	286.56
269.377	303.56
269.609	289.56
269.841	293.56
270.073	306.56
270.306	318.56
270.538	337.56
270.77	324.56
271.002	325.56
271.234	324.56
271.466	326.56
271.698	352.56
271.93	348.56
272.162	351.56
272.394	355.56
272.626	326.56
272.858	322.56
273.09	297.56
273.322	292.56
273.553	285.56
273.785	277.56
274.017	276.56
274.249	290.56
274.481	305.56
274.713	297.56
274.945	292.56
275.176	273.56
275.408	273.56
275.64	259.56
275.872	272.56
276.104	277.56
276.335	286.56
276.567	297.56
276.799	283.56
277.031	341.56
277.262	350.56
277.494	327.56
277.726	327.56
277.957	313.56
278.189	287.56
278.421	285.56
278.652	299.56
278.884	285.56
279.115	281.56
279.347	270.56
279.579	281.56
279.81	278.56
280.042	262.56
280.273	273.56
280.505	275.56
280.736	287.56
280.968	275.56
281.199	296.56
281.431	284.56
281.662	265.56
281.894	301.56
282.125	271.56
282.356	306.56
282.588	315.56
282.819	319.56
283.051	283.56
283.282	280.56
283.513	283.56
283.745	278.56
283.976	289.56
284.207	281.56
284.439	285.56
284.67	281.56
284.901	296.56
285.132	268.56
285.364	277.56
285.595	275.56
285.826	281.56
286.057	296.56
286.288	301.56
286.52	292.56
286.751	281.56
286.982	299.56
287.213	295.56
287.444	289.56
287.675	292.56
287.906	306.56
288.138	311.56
288.369	312.56
288.6	310.56
288.831	309.56
289.062	310.56
289.293	301.56
289.524	296.56
289.755	287.56
289.986	300.56
290.217	287.56
290.448	295.56
290.679	293.56
290.91	283.56
291.141	285.56
291.371	287.56
291.602	292.56
291.833	285.56
292.064	282.56
292.295	283.56
292.526	298.56
292.757	297.56
292.987	280.56
293.218	292.56
293.449	278.56
293.68	312.56
293.91	311.56
294.141	278.56
294.372	307.56
294.603	313.56
294.833	293.56
295.064	297.56
295.295	305.56
295.525	319.56
295.756	306.56
295.987	295.56
296.217	335.56
296.448	322.56
296.679	309.56
296.909	313.56
297.14	313.56
297.37	322.56
297.601	295.56
297.831	312.56
298.062	296.56
298.292	305.56
298.523	290.56
298.753	292.56
298.984	312.56
299.214	307.56
299.445	306.56
299.675	298.56
299.905	321.56
300.136	304.56
300.366	317.56
300.597	312.56
300.827	314.56
301.057	323.56
301.288	344.56
301.518	342.56
301.748	335.56
301.979	333.56
302.209	342.56
302.439	316.56
302.669	331.56
302.9	331.56
303.13	315.56
303.36	338.56
303.59	353.56
303.82	339.56
304.051	349.56
304.281	339.56
304.511	332.56
304.741	315.56
304.971	317.56
305.201	328.56
305.431	324.56
305.661	332.56
305.891	305.56
306.121	335.56
306.352	329.56
306.582	345.56
306.812	339.56
307.042	341.56
307.272	328.56
307.502	342.56
307.731	351.56
307.961	337.56
308.191	341.56
308.421	350.56
308.651	319.56
308.881	344.56
309.111	351.56
309.341	365.56
309.571	367.56
309.8	355.56
310.03	385.56
310.26	408.56
310.49	405.56
310.72	422.56
310.949	402.56
311.179	420.56
311.409	406.56
311.639	389.56
311.868	397.56
312.098	389.56
312.328	391.56
312.557	427.56
312.787	438.56
313.017	424.56
313.246	409.56
313.476	387.56
313.706	389.56
313.935	414.56
314.165	404.56
314.394	423.56
314.624	419.56
314.853	385.56
315.083	408.56
315.312	395.56
315.542	386.56
315.771	381.56
316.001	396.56
316.23	388.56
316.46	375.56
316.689	401.56
316.919	393.56
317.148	395.56
317.377	415.56
317.607	381.56
317.836	403.56
318.065	399.56
318.295	389.56
318.524	373.56
318.753	385.56
318.983	379.56
319.212	396.56
319.441	403.56
319.67	405.56
319.9	403.56
320.129	381.56
320.358	389.56
320.587	423.56
320.816	405.56
321.046	409.56
321.275	411.56
321.504	419.56
321.733	433.56
321.962	449.56
322.191	448.56
322.42	462.56
322.649	466.56
322.878	486.56
323.108	501.56
323.337	533.56
323.566	574.56
323.795	610.56
324.024	691.56
324.253	864.56
324.482	1218.56
324.71	1840.56
324.939	2595.56
325.168	2149.56
325.397	1133.56
325.626	745.56
325.855	622.56
326.084	600.56
326.313	579.56
326.542	582.56
326.77	652.56
326.999	763.56
327.228	1088.56
327.457	1618.56
327.686	1915.56
327.914	1291.56
328.143	845.56
328.372	762.56
328.6	689.56
328.829	650.56
329.058	669.56
329.287	635.56
329.515	592.56
329.744	578.56
329.972	562.56
330.201	603.56
330.43	619.56
330.658	656.56
330.887	700.56
331.115	666.56
331.344	565.56
331.572	513.56
331.801	521.56
332.03	530.56
332.258	487.56
332.486	482.56
332.715	469.56
332.943	464.56
333.172	474.56
333.4	471.56
333.629	484.56
333.857	474.56
334.085	514.56
334.314	510.56
334.542	555.56
334.771	536.56
334.999	507.56
335.227	479.56
335.455	469.56
335.684	459.56
335.912	437.56
336.14	463.56
336.369	441.56
336.597	434.56
336.825	427.56
337.053	465.56
337.281	428.56
337.51	445.56
337.738	459.56
337.966	436.56
338.194	449.56
338.422	457.56
338.65	437.56
338.878	433.56
339.106	403.56
339.334	423.56
339.562	415.56
339.79	415.56
340.018	426.56
340.246	433.56
340.474	464.56
340.702	431.56
340.93	429.56
341.158	441.56
341.386	406.56
341.614	444.56
341.842	429.56
342.07	439.56
342.298	428.56
342.526	418.56
342.754	406.56
342.981	429.56
343.209	389.56
343.437	400.56
343.665	423.56
343.893	408.56
344.12	413.56
344.348	421.56
344.576	440.56
344.804	453.56
345.031	435.56
345.259	446.56
345.487	432.56
345.714	433.56
345.942	417.56
346.17	416.56
346.397	410.56
346.625	402.56
346.853	422.56
347.08	416.56
347.308	420.56
347.535	411.56
347.763	425.56
347.99	424.56
348.218	417.56
348.445	417.56
348.673	427.56
348.9	405.56
349.128	411.56
349.355	379.56
349.583	387.56
349.81	410.56
350.037	407.56
350.265	403.56
350.492	417.56
350.72	394.56
350.947	415.56
351.174	431.56
351.402	425.56
351.629	435.56
351.856	414.56
352.083	425.56
352.311	441.56
352.538	439.56
352.765	421.56
352.992	408.56
353.22	412.56
353.447	402.56
353.674	394.56
353.901	409.56
354.128	390.56
354.355	369.56
354.583	378.56
354.81	357.56
355.037	377.56
355.264	385.56
355.491	362.56
355.718	360.56
355.945	393.56
356.172	359.56
356.399	369.56
356.626	356.56
356.853	366.56
357.08	367.56
357.307	358.56
357.534	349.56
357.761	371.56
357.988	371.56
358.215	375.56
358.441	371.56
358.668	374.56
358.895	376.56
359.122	377.56
359.349	406.56
359.576	413.56
359.802	456.56
360.029	488.56
360.256	477.56
360.483	434.56
360.709	421.56
360.936	409.56
361.163	423.56
361.39	397.56
361.616	408.56
361.843	397.56
362.07	405.56
362.296	415.56
362.523	401.56
362.749	402.56
362.976	390.56
363.203	404.56
363.429	377.56
363.656	393.56
363.882	378.56
364.109	359.56
364.335	383.56
364.562	360.56
364.788	385.56
365.015	377.56
365.241	389.56
365.468	380.56
365.694	386.56
365.92	378.56
366.147	375.56
366.373	377.56
366.599	393.56
366.826	374.56
367.052	375.56
367.278	367.56
367.505	375.56
367.731	379.56
367.957	367.56
368.184	374.56
368.41	375.56
368.636	390.56
368.862	378.56
369.089	382.56
369.315	385.56
369.541	366.56
369.767	371.56
369.993	371.56
370.219	367.56
370.445	356.56
370.672	371.56
370.898	360.56
371.124	349.56
371.35	361.56
371.576	342.56
371.802	352.56
372.028	349.56
372.254	353.56
372.48	352.56
372.706	345.56
372.932	360.56
373.158	353.56
373.384	348.56
373.61	382.56
373.835	381.56
374.061	367.56
374.287	380.56
374.513	359.56
374.739	365.56
374.965	375.56
375.191	346.56
375.416	345.56
375.642	359.56
375.868	355.56
376.094	375.56
376.319	357.56
376.545	355.56
376.771	353.56
376.997	359.56
377.222	353.56
377.448	360.56
377.674	353.56
377.899	346.56
378.125	348.56
378.35	352.56
378.576	329.56
378.802	339.56
379.027	341.56
379.253	366.56
379.478	353.56
379.704	362.56
379.929	372.56
380.155	323.56
380.38	373.56
380.606	366.56
380.831	345.56
381.057	368.56
381.282	338.56
381.507	370.56
381.733	346.56
381.958	359.56
382.184	354.56
382.409	358.56
382.634	392.56
382.86	349.56
383.085	356.56
383.31	365.56
383.535	339.56
383.761	363.56
383.986	370.56
384.211	371.56
384.436	375.56
384.662	380.56
384.887	362.56
385.112	368.56
385.337	375.56
385.562	385.56
385.787	369.56
386.013	368.56
386.238	378.56
386.463	382.56
386.688	377.56
386.913	375.56
387.138	377.56
387.363	371.56
387.588	385.56
387.813	360.56
388.038	349.56
388.263	384.56
388.488	357.56
388.713	374.56
388.938	386.56
389.163	385.56
389.387	378.56
389.612	371.56
389.837	371.56
390.062	359.56
390.287	383.56
390.512	355.56
390.736	374.56
390.961	377.56
391.186	359.56
391.411	381.56
391.636	391.56
391.86	373.56
392.085	361.56
392.31	383.56
392.534	374.56
392.759	363.56
392.984	369.56
393.208	349.56
393.433	377.56
393.658	371.56
393.882	376.56
394.107	360.56
394.331	383.56
394.556	365.56
394.78	346.56
395.005	375.56
395.229	369.56
395.454	385.56
395.678	381.56
395.903	401.56
396.127	415.56
396.352	401.56
396.576	376.56
396.801	385.56
397.025	384.56
397.249	386.56
397.474	395.56
397.698	388.56
397.922	383.56
398.147	409.56
398.371	426.56
398.595	423.56
398.82	412.56
399.044	436.56
399.268	414.56
399.492	451.56
399.717	441.56
399.941	483.56
400.165	495.56
400.389	515.56
400.613	462.56
400.837	411.56
401.062	422.56
401.286	413.56
401.51	405.56
401.734	407.56
401.958	417.56
402.182	421.56
402.406	406.56
402.63	446.56
402.854	431.56
403.078	429.56
403.302	407.56
403.526	430.56
403.75	425.56
403.974	425.56
404.198	436.56
404.422	429.56
404.645	444.56
404.869	456.56
405.093	470.56
405.317	505.56
405.541	545.56
405.765	484.56
405.988	473.56
406.212	459.56
406.436	495.56
406.66	495.56
406.883	495.56
407.107	503.56
407.331	519.56
407.555	590.56
407.778	575.56
408.002	536.56
408.226	477.56
408.449	477.56
408.673	482.56
408.896	487.56
409.12	529.56
409.344	509.56
409.567	459.56
409.791	444.56
410.014	438.56
410.238	407.56
410.461	432.56
410.685	433.56
410.908	447.56
411.132	484.56
411.355	520.56
411.578	494.56
411.802	463.56
412.025	431.56
412.249	423.56
412.472	467.56
412.695	504.56
412.919	495.56
413.142	457.56
413.365	431.56
413.589	403.56
413.812	418.56
414.035	402.56
414.258	403.56
414.482	405.56
414.705	402.56
414.928	406.56
415.151	394.56
415.374	391.56
415.597	400.56
415.821	402.56
416.044	407.56
416.267	383.56
416.49	426.56
416.713	413.56
416.936	401.56
417.159	390.56
417.382	407.56
417.605	381.56
417.828	409.56
418.051	421.56
418.274	431.56
418.497	408.56
418.72	408.56
418.943	404.56
419.166	391.56
419.389	415.56
419.611	418.56
419.834	425.56
420.057	418.56
420.28	430.56
420.503	429.56
420.726	422.56
420.948	462.56
421.171	479.56
421.394	508.56
421.617	459.56
421.839	420.56
422.062	437.56
422.285	422.56
422.507	471.56
422.73	570.56
422.953	547.56
423.175	455.56
423.398	444.56
423.621	448.56
423.843	471.56
424.066	475.56
424.288	446.56
424.511	463.56
424.733	545.56
424.956	635.56
425.178	601.56
425.401	576.56
425.623	621.56
425.846	520.56
426.068	471.56
426.291	478.56
426.513	452.56
426.735	505.56
426.958	529.56
427.18	628.56
427.402	718.56
427.625	778.56
427.847	707.56
428.069	630.56
428.292	558.56
428.514	497.56
428.736	471.56
428.958	457.56
429.181	425.56
429.403	441.56
429.625	458.56
429.847	481.56
430.069	533.56
430.292	523.56
430.514	443.56
430.736	453.56
430.958	422.56
431.18	431.56
431.402	419.56
431.624	406.56
431.846	409.56
432.068	396.56
432.29	399.56
432.512	413.56
432.734	422.56
432.956	400.56
433.178	420.56
433.4	417.56
433.622	418.56
433.844	420.56
434.066	420.56
434.287	403.56
434.509	417.56
434.731	408.56
434.953	421.56
435.175	431.56
435.397	476.56
435.618	471.56
435.84	506.56
436.062	584.56
436.284	657.56
436.505	550.56
436.727	484.56
436.949	440.56
437.17	440.56
437.392	447.56
437.614	453.56
437.835	495.56
438.057	600.56
438.278	667.56
438.5	660.56
438.721	745.56
438.943	675.56
439.165	555.56
439.386	521.56
439.608	487.56
439.829	479.56
440.05	529.56
440.272	558.56
440.493	515.56
440.715	452.56
440.936	449.56
441.158	438.56
441.379	422.56
441.6	439.56
441.822	473.56
442.043	528.56
442.264	573.56
442.486	613.56
442.707	533.56
442.928	504.56
443.149	490.56
443.371	525.56
443.592	580.56
443.813	639.56
444.034	703.56
444.255	561.56
444.476	494.56
444.698	474.56
444.919	473.56
445.14	599.56
445.361	541.56
445.582	520.56
445.803	590.56
446.024	716.56
446.245	708.56
446.466	625.56
446.687	515.56
446.908	493.56
447.129	465.56
447.35	477.56
447.571	455.56
447.792	442.56
448.013	452.56
448.234	470.56
448.455	509.56
448.675	625.56
448.896	711.56
449.117	614.56
449.338	586.56
449.559	668.56
449.779	743.56
450	606.56
450.221	517.56
450.442	449.56
450.662	448.56
450.883	465.56
451.104	486.56
451.324	450.56
451.545	441.56
451.766	413.56
451.986	407.56
452.207	396.56
452.428	391.56
452.648	396.56
452.869	406.56
453.089	407.56
453.31	428.56
453.53	402.56
453.751	402.56
453.971	404.56
454.192	431.56
454.412	407.56
454.633	383.56
454.853	392.56
455.073	385.56
455.294	431.56
455.514	487.56
455.734	479.56
455.955	405.56
456.175	374.56
456.395	368.56
456.616	378.56
456.836	353.56
457.056	360.56
457.276	356.56
457.497	379.56
457.717	375.56
457.937	371.56
458.157	370.56
458.377	377.56
458.598	408.56
458.818	467.56
459.038	529.56
459.258	580.56
459.478	472.56
459.698	443.56
459.918	417.56
460.138	393.56
460.358	383.56
460.578	403.56
460.798	405.56
461.018	407.56
461.238	391.56
461.458	383.56
461.678	385.56
461.898	393.56
462.118	410.56
462.338	420.56
462.558	402.56
462.777	416.56
462.997	430.56
463.217	425.56
463.437	429.56
463.657	396.56
463.876	399.56
464.096	438.56
464.316	398.56
464.536	433.56
464.755	424.56
464.975	431.56
465.195	489.56
465.414	545.56
465.634	484.56
465.854	445.56
466.073	437.56
466.293	407.56
466.512	409.56
466.732	395.56
466.951	402.56
467.171	397.56
467.391	407.56
467.61	413.56
467.829	411.56
468.049	411.56
468.268	373.56
468.488	391.56
468.707	384.56
468.927	382.56
469.146	382.56
469.365	377.56
469.585	379.56
469.804	392.56
470.023	424.56
470.243	397.56
470.462	409.56
470.681	443.56
470.901	409.56
471.12	397.56
471.339	424.56
471.558	418.56
471.777	399.56
471.997	401.56
472.216	402.56
472.435	463.56
472.654	435.56
472.873	403.56
473.092	379.56
473.311	406.56
473.53	401.56
473.749	400.56
473.968	480.56
474.187	554.56
474.406	605.56
474.625	478.56
474.844	427.56
475.063	401.56
475.282	405.56
475.501	410.56
475.72	419.56
475.939	406.56
476.158	440.56
476.377	436.56
476.596	427.56
476.814	421.56
477.033	448.56
477.252	421.56
477.471	415.56
477.69	426.56
477.908	445.56
478.127	441.56
478.346	435.56
478.564	435.56
478.783	437.56
479.002	439.56
479.22	456.56
479.439	458.56
479.658	469.56
479.876	483.56
480.095	475.56
480.313	519.56
480.532	498.56
480.751	481.56
480.969	497.56
481.188	569.56
481.406	604.56
481.624	516.56
481.843	516.56
482.061	486.56
482.28	481.56
482.498	473.56
482.717	478.56
482.935	476.56
483.153	461.56
483.372	477.56
483.59	469.56
483.808	480.56
484.027	461.56
484.245	452.56
484.463	475.56
484.681	486.56
484.9	462.56
485.118	473.56
485.336	474.56
485.554	495.56
485.772	472.56
485.99	472.56
486.209	500.56
486.427	503.56
486.645	489.56
486.863	517.56
487.081	521.56
487.299	484.56
487.517	487.56
487.735	488.56
487.953	488.56
488.171	506.56
488.389	519.56
488.607	511.56
488.825	501.56
489.043	506.56
489.261	506.56
489.479	538.56
489.696	484.56
489.914	515.56
490.132	536.56
490.35	517.56
490.568	531.56
490.786	538.56
491.003	559.56
491.221	576.56
491.439	551.56
491.657	587.56
491.874	577.56
492.092	569.56
492.31	581.56
492.527	600.56
492.745	588.56
492.963	587.56
493.18	593.56
493.398	595.56
493.615	597.56
493.833	615.56
494.05	594.56
494.268	596.56
494.485	605.56
494.703	601.56
494.92	602.56
495.138	598.56
495.355	597.56
495.573	599.56
495.79	607.56
496.008	618.56
496.225	604.56
496.442	603.56
496.66	595.56
496.877	590.56
497.094	609.56
497.312	616.56
497.529	607.56
497.746	626.56
497.963	617.56
498.181	655.56
498.398	647.56
498.615	665.56
498.832	669.56
499.049	652.56
499.267	676.56
499.484	671.56
499.701	691.56
499.918	699.56
500.135	712.56
500.352	725.56
500.569	761.56
500.786	755.56
501.003	719.56
501.22	719.56
501.437	728.56
501.654	711.56
501.871	715.56
