Data from 1981.PennyLincolnUp.Lamp.En5.5.200Scan.071819.P1_HRD10591_16-43-16-959.txt Node
Date: Thu Jul 18 16:43:16 EDT 2019
User: cochatt
Spectrometer: HR+D1059
Trigger mode: 1
Integration Time (sec): 1.000000E-1
Scans to average: 1
Electric dark correction enabled: true
Nonlinearity correction enabled: false
Boxcar width: 0
XAxis mode: Wavelengths
Number of Pixels in Spectrum: 2048
>>>>>Begin Spectral Data<<<<<
223.165	-23.38
223.4	-23.38
223.635	-23.38
223.869	-11.38
224.104	-26.38
224.338	-5.38
224.573	-14.38
224.808	-11.38
225.042	-10.38
225.277	-7.38
225.511	-10.38
225.746	0.62
225.98	17.62
226.215	20.62
226.449	15.62
226.683	28.62
226.918	17.62
227.152	19.62
227.387	47.62
227.621	33.62
227.856	47.62
228.09	33.62
228.324	40.62
228.559	46.62
228.793	70.62
229.027	93.62
229.262	120.62
229.496	108.62
229.73	113.62
229.964	156.62
230.199	120.62
230.433	114.62
230.667	102.62
230.901	104.62
231.136	116.62
231.37	107.62
231.604	113.62
231.838	122.62
232.072	127.62
232.306	105.62
232.541	108.62
232.775	113.62
233.009	104.62
233.243	107.62
233.477	116.62
233.711	106.62
233.945	112.62
234.179	110.62
234.413	121.62
234.647	94.62
234.881	112.62
235.115	105.62
235.349	107.62
235.583	128.62
235.817	122.62
236.051	126.62
236.285	117.62
236.519	125.62
236.753	132.62
236.987	145.62
237.221	196.62
237.455	226.62
237.689	194.62
237.922	146.62
238.156	126.62
238.39	131.62
238.624	134.62
238.858	114.62
239.091	126.62
239.325	130.62
239.559	133.62
239.793	126.62
240.027	138.62
240.26	155.62
240.494	161.62
240.728	157.62
240.961	145.62
241.195	132.62
241.429	120.62
241.662	126.62
241.896	136.62
242.13	130.62
242.363	125.62
242.597	130.62
242.83	136.62
243.064	128.62
243.298	142.62
243.531	137.62
243.765	136.62
243.998	139.62
244.232	138.62
244.465	134.62
244.699	152.62
244.932	144.62
245.166	153.62
245.399	144.62
245.633	157.62
245.866	148.62
246.099	148.62
246.333	149.62
246.566	152.62
246.8	148.62
247.033	155.62
247.266	178.62
247.5	161.62
247.733	174.62
247.966	168.62
248.2	163.62
248.433	170.62
248.666	165.62
248.899	178.62
249.133	199.62
249.366	209.62
249.599	208.62
249.832	200.62
250.066	190.62
250.299	199.62
250.532	190.62
250.765	209.62
250.998	213.62
251.231	225.62
251.465	210.62
251.698	211.62
251.931	202.62
252.164	194.62
252.397	219.62
252.63	203.62
252.863	207.62
253.096	250.62
253.329	258.62
253.562	239.62
253.795	232.62
254.028	226.62
254.261	225.62
254.494	227.62
254.727	242.62
254.96	287.62
255.193	274.62
255.426	261.62
255.659	249.62
255.892	247.62
256.124	263.62
256.357	232.62
256.59	227.62
256.823	221.62
257.056	230.62
257.289	221.62
257.521	198.62
257.754	225.62
257.987	218.62
258.22	202.62
258.452	223.62
258.685	220.62
258.918	207.62
259.151	216.62
259.383	199.62
259.616	242.62
259.849	238.62
260.081	264.62
260.314	258.62
260.547	269.62
260.779	257.62
261.012	245.62
261.244	253.62
261.477	228.62
261.71	242.62
261.942	227.62
262.175	239.62
262.407	254.62
262.64	227.62
262.872	220.62
263.105	222.62
263.337	223.62
263.57	221.62
263.802	215.62
264.035	221.62
264.267	217.62
264.499	227.62
264.732	229.62
264.964	219.62
265.197	212.62
265.429	242.62
265.661	229.62
265.894	219.62
266.126	206.62
266.358	217.62
266.591	228.62
266.823	202.62
267.055	229.62
267.287	235.62
267.52	229.62
267.752	246.62
267.984	226.62
268.216	228.62
268.448	242.62
268.681	227.62
268.913	241.62
269.145	262.62
269.377	302.62
269.609	276.62
269.841	275.62
270.073	284.62
270.306	292.62
270.538	319.62
270.77	344.62
271.002	306.62
271.234	310.62
271.466	321.62
271.698	337.62
271.93	356.62
272.162	334.62
272.394	348.62
272.626	329.62
272.858	311.62
273.09	298.62
273.322	280.62
273.553	272.62
273.785	276.62
274.017	286.62
274.249	273.62
274.481	304.62
274.713	284.62
274.945	297.62
275.176	258.62
275.408	273.62
275.64	267.62
275.872	266.62
276.104	267.62
276.335	243.62
276.567	262.62
276.799	299.62
277.031	329.62
277.262	322.62
277.494	341.62
277.726	309.62
277.957	321.62
278.189	290.62
278.421	292.62
278.652	278.62
278.884	277.62
279.115	266.62
279.347	256.62
279.579	273.62
279.81	294.62
280.042	285.62
280.273	268.62
280.505	274.62
280.736	255.62
280.968	278.62
281.199	254.62
281.431	276.62
281.662	268.62
281.894	264.62
282.125	268.62
282.356	284.62
282.588	310.62
282.819	305.62
283.051	284.62
283.282	274.62
283.513	280.62
283.745	289.62
283.976	286.62
284.207	267.62
284.439	294.62
284.67	286.62
284.901	274.62
285.132	271.62
285.364	287.62
285.595	295.62
285.826	283.62
286.057	280.62
286.288	284.62
286.52	286.62
286.751	305.62
286.982	299.62
287.213	278.62
287.444	291.62
287.675	288.62
287.906	298.62
288.138	300.62
288.369	288.62
288.6	291.62
288.831	292.62
289.062	307.62
289.293	286.62
289.524	280.62
289.755	288.62
289.986	288.62
290.217	306.62
290.448	283.62
290.679	294.62
290.91	295.62
291.141	273.62
291.371	263.62
291.602	293.62
291.833	288.62
292.064	294.62
292.295	280.62
292.526	267.62
292.757	294.62
292.987	287.62
293.218	292.62
293.449	291.62
293.68	311.62
293.91	287.62
294.141	293.62
294.372	300.62
294.603	287.62
294.833	288.62
295.064	289.62
295.295	280.62
295.525	284.62
295.756	302.62
295.987	314.62
296.217	319.62
296.448	329.62
296.679	325.62
296.909	303.62
297.14	290.62
297.37	285.62
297.601	287.62
297.831	305.62
298.062	296.62
298.292	302.62
298.523	308.62
298.753	292.62
298.984	295.62
299.214	305.62
299.445	294.62
299.675	306.62
299.905	325.62
300.136	318.62
300.366	302.62
300.597	313.62
300.827	325.62
301.057	349.62
301.288	329.62
301.518	315.62
301.748	299.62
301.979	323.62
302.209	329.62
302.439	321.62
302.669	306.62
302.9	335.62
303.13	315.62
303.36	315.62
303.59	335.62
303.82	353.62
304.051	344.62
304.281	323.62
304.511	327.62
304.741	330.62
304.971	315.62
305.201	329.62
305.431	340.62
305.661	325.62
305.891	339.62
306.121	337.62
306.352	340.62
306.582	338.62
306.812	312.62
307.042	336.62
307.272	324.62
307.502	338.62
307.731	341.62
307.961	332.62
308.191	345.62
308.421	348.62
308.651	348.62
308.881	338.62
309.111	339.62
309.341	339.62
309.571	350.62
309.8	377.62
310.03	375.62
310.26	388.62
310.49	379.62
310.72	380.62
310.949	420.62
311.179	414.62
311.409	386.62
311.639	376.62
311.868	394.62
312.098	397.62
312.328	390.62
312.557	430.62
312.787	430.62
313.017	427.62
313.246	401.62
313.476	387.62
313.706	388.62
313.935	372.62
314.165	404.62
314.394	419.62
314.624	400.62
314.853	390.62
315.083	390.62
315.312	379.62
315.542	374.62
315.771	394.62
316.001	372.62
316.23	374.62
316.46	371.62
316.689	390.62
316.919	397.62
317.148	390.62
317.377	393.62
317.607	388.62
317.836	388.62
318.065	401.62
318.295	397.62
318.524	362.62
318.753	384.62
318.983	383.62
319.212	378.62
319.441	392.62
319.67	413.62
319.9	396.62
320.129	408.62
320.358	410.62
320.587	387.62
320.816	411.62
321.046	416.62
321.275	426.62
321.504	395.62
321.733	412.62
321.962	439.62
322.191	455.62
322.42	470.62
322.649	467.62
322.878	473.62
323.108	488.62
323.337	523.62
323.566	540.62
323.795	603.62
324.024	651.62
324.253	829.62
324.482	1202.62
324.71	1840.62
324.939	2496.62
325.168	2132.62
325.397	1136.62
325.626	745.62
325.855	626.62
326.084	558.62
326.313	559.62
326.542	568.62
326.77	617.62
326.999	766.62
327.228	1061.62
327.457	1585.62
327.686	1830.62
327.914	1240.62
328.143	824.62
328.372	717.62
328.6	657.62
328.829	629.62
329.058	640.62
329.287	650.62
329.515	598.62
329.744	552.62
329.972	545.62
330.201	565.62
330.43	628.62
330.658	646.62
330.887	658.62
331.115	638.62
331.344	576.62
331.572	517.62
331.801	478.62
332.03	517.62
332.258	496.62
332.486	474.62
332.715	467.62
332.943	455.62
333.172	452.62
333.4	447.62
333.629	452.62
333.857	480.62
334.085	504.62
334.314	516.62
334.542	519.62
334.771	553.62
334.999	482.62
335.227	468.62
335.455	444.62
335.684	434.62
335.912	427.62
336.14	454.62
336.369	442.62
336.597	453.62
336.825	446.62
337.053	438.62
337.281	418.62
337.51	416.62
337.738	439.62
337.966	403.62
338.194	431.62
338.422	436.62
338.65	401.62
338.878	426.62
339.106	418.62
339.334	424.62
339.562	410.62
339.79	396.62
340.018	412.62
340.246	431.62
340.474	440.62
340.702	447.62
340.93	403.62
341.158	406.62
341.386	423.62
341.614	418.62
341.842	408.62
342.07	392.62
342.298	409.62
342.526	396.62
342.754	397.62
342.981	390.62
343.209	402.62
343.437	408.62
343.665	414.62
343.893	422.62
344.12	427.62
344.348	408.62
344.576	422.62
344.804	435.62
345.031	446.62
345.259	424.62
345.487	428.62
345.714	440.62
345.942	399.62
346.17	404.62
346.397	412.62
346.625	422.62
346.853	410.62
347.08	396.62
347.308	396.62
347.535	409.62
347.763	424.62
347.99	445.62
348.218	408.62
348.445	433.62
348.673	427.62
348.9	407.62
349.128	409.62
349.355	396.62
349.583	402.62
349.81	410.62
350.037	405.62
350.265	396.62
350.492	404.62
350.72	391.62
350.947	398.62
351.174	406.62
351.402	408.62
351.629	401.62
351.856	417.62
352.083	427.62
352.311	419.62
352.538	437.62
352.765	451.62
352.992	428.62
353.22	401.62
353.447	391.62
353.674	397.62
353.901	371.62
354.128	378.62
354.355	385.62
354.583	375.62
354.81	376.62
355.037	373.62
355.264	368.62
355.491	374.62
355.718	359.62
355.945	358.62
356.172	361.62
356.399	355.62
356.626	355.62
356.853	370.62
357.08	376.62
357.307	366.62
357.534	362.62
357.761	350.62
357.988	367.62
358.215	358.62
358.441	366.62
358.668	366.62
358.895	376.62
359.122	383.62
359.349	384.62
359.576	392.62
359.802	411.62
360.029	467.62
360.256	450.62
360.483	435.62
360.709	417.62
360.936	404.62
361.163	408.62
361.39	411.62
361.616	394.62
361.843	389.62
362.07	386.62
362.296	399.62
362.523	412.62
362.749	390.62
362.976	393.62
363.203	391.62
363.429	379.62
363.656	375.62
363.882	382.62
364.109	378.62
364.335	376.62
364.562	364.62
364.788	387.62
365.015	372.62
365.241	369.62
365.468	395.62
365.694	378.62
365.92	376.62
366.147	398.62
366.373	383.62
366.599	390.62
366.826	362.62
367.052	360.62
367.278	356.62
367.505	378.62
367.731	369.62
367.957	374.62
368.184	368.62
368.41	378.62
368.636	375.62
368.862	372.62
369.089	367.62
369.315	370.62
369.541	371.62
369.767	360.62
369.993	355.62
370.219	342.62
370.445	352.62
370.672	351.62
370.898	338.62
371.124	368.62
371.35	340.62
371.576	363.62
371.802	382.62
372.028	341.62
372.254	352.62
372.48	366.62
372.706	350.62
372.932	357.62
373.158	352.62
373.384	360.62
373.61	350.62
373.835	374.62
374.061	358.62
374.287	373.62
374.513	324.62
374.739	344.62
374.965	367.62
375.191	354.62
375.416	366.62
375.642	356.62
375.868	359.62
376.094	352.62
376.319	366.62
376.545	364.62
376.771	347.62
376.997	346.62
377.222	346.62
377.448	363.62
377.674	336.62
377.899	344.62
378.125	350.62
378.35	353.62
378.576	327.62
378.802	339.62
379.027	348.62
379.253	336.62
379.478	355.62
379.704	347.62
379.929	338.62
380.155	350.62
380.38	366.62
380.606	369.62
380.831	336.62
381.057	362.62
381.282	364.62
381.507	362.62
381.733	353.62
381.958	350.62
382.184	347.62
382.409	338.62
382.634	356.62
382.86	336.62
383.085	343.62
383.31	361.62
383.535	333.62
383.761	368.62
383.986	345.62
384.211	358.62
384.436	368.62
384.662	361.62
384.887	359.62
385.112	354.62
385.337	344.62
385.562	367.62
385.787	363.62
386.013	369.62
386.238	368.62
386.463	373.62
386.688	382.62
386.913	346.62
387.138	359.62
387.363	364.62
387.588	358.62
387.813	355.62
388.038	378.62
388.263	374.62
388.488	376.62
388.713	347.62
388.938	374.62
389.163	380.62
389.387	359.62
389.612	353.62
389.837	374.62
390.062	374.62
390.287	361.62
390.512	378.62
390.736	353.62
390.961	376.62
391.186	364.62
391.411	375.62
391.636	371.62
391.86	367.62
392.085	383.62
392.31	372.62
392.534	361.62
392.759	356.62
392.984	353.62
393.208	356.62
393.433	378.62
393.658	376.62
393.882	346.62
394.107	370.62
394.331	382.62
394.556	379.62
394.78	372.62
395.005	367.62
395.229	374.62
395.454	384.62
395.678	373.62
395.903	387.62
396.127	396.62
396.352	393.62
396.576	367.62
396.801	378.62
397.025	375.62
397.249	372.62
397.474	389.62
397.698	399.62
397.922	399.62
398.147	395.62
398.371	392.62
398.595	404.62
398.82	406.62
399.044	393.62
399.268	414.62
399.492	422.62
399.717	440.62
399.941	452.62
400.165	492.62
400.389	507.62
400.613	464.62
400.837	438.62
401.062	415.62
401.286	413.62
401.51	403.62
401.734	394.62
401.958	427.62
402.182	422.62
402.406	426.62
402.63	442.62
402.854	410.62
403.078	434.62
403.302	419.62
403.526	424.62
403.75	406.62
403.974	416.62
404.198	423.62
404.422	416.62
404.645	439.62
404.869	437.62
405.093	459.62
405.317	519.62
405.541	507.62
405.765	470.62
405.988	479.62
406.212	469.62
406.436	484.62
406.66	476.62
406.883	471.62
407.107	486.62
407.331	518.62
407.555	569.62
407.778	559.62
408.002	546.62
408.226	469.62
408.449	496.62
408.673	483.62
408.896	485.62
409.12	530.62
409.344	529.62
409.567	442.62
409.791	444.62
410.014	421.62
410.238	408.62
410.461	402.62
410.685	425.62
410.908	454.62
411.132	474.62
411.355	490.62
411.578	483.62
411.802	436.62
412.025	413.62
412.249	445.62
412.472	438.62
412.695	472.62
412.919	461.62
413.142	424.62
413.365	425.62
413.589	415.62
413.812	384.62
414.035	396.62
414.258	391.62
414.482	404.62
414.705	396.62
414.928	390.62
415.151	388.62
415.374	393.62
415.597	376.62
415.821	382.62
416.044	401.62
416.267	394.62
416.49	401.62
416.713	411.62
416.936	401.62
417.159	378.62
417.382	419.62
417.605	406.62
417.828	421.62
418.051	428.62
418.274	405.62
418.497	403.62
418.72	411.62
418.943	402.62
419.166	408.62
419.389	415.62
419.611	410.62
419.834	400.62
420.057	439.62
420.28	412.62
420.503	407.62
420.726	420.62
420.948	434.62
421.171	487.62
421.394	497.62
421.617	455.62
421.839	410.62
422.062	413.62
422.285	444.62
422.507	469.62
422.73	548.62
422.953	514.62
423.175	448.62
423.398	438.62
423.621	434.62
423.843	474.62
424.066	459.62
424.288	440.62
424.511	484.62
424.733	546.62
424.956	580.62
425.178	572.62
425.401	588.62
425.623	601.62
425.846	500.62
426.068	464.62
426.291	477.62
426.513	475.62
426.735	486.62
426.958	528.62
427.18	615.62
427.402	699.62
427.625	772.62
427.847	670.62
428.069	599.62
428.292	525.62
428.514	484.62
428.736	440.62
428.958	448.62
429.181	439.62
429.403	435.62
429.625	460.62
429.847	480.62
430.069	512.62
430.292	536.62
430.514	458.62
430.736	442.62
430.958	419.62
431.18	390.62
431.402	389.62
431.624	395.62
431.846	404.62
432.068	401.62
432.29	393.62
432.512	380.62
432.734	411.62
432.956	414.62
433.178	412.62
433.4	443.62
433.622	408.62
433.844	389.62
434.066	378.62
434.287	384.62
434.509	406.62
434.731	426.62
434.953	404.62
435.175	425.62
435.397	459.62
435.618	482.62
435.84	515.62
436.062	612.62
436.284	661.62
436.505	547.62
436.727	483.62
436.949	455.62
437.17	442.62
437.392	448.62
437.614	457.62
437.835	494.62
438.057	578.62
438.278	667.62
438.5	668.62
438.721	699.62
438.943	678.62
439.165	541.62
439.386	496.62
439.608	486.62
439.829	496.62
440.05	514.62
440.272	543.62
440.493	503.62
440.715	471.62
440.936	447.62
441.158	435.62
441.379	443.62
441.6	455.62
441.822	472.62
442.043	499.62
442.264	571.62
442.486	604.62
442.707	492.62
442.928	479.62
443.149	494.62
443.371	512.62
443.592	576.62
443.813	622.62
444.034	666.62
444.255	570.62
444.476	469.62
444.698	468.62
444.919	480.62
445.14	543.62
445.361	531.62
445.582	507.62
445.803	588.62
446.024	678.62
446.245	678.62
446.466	614.62
446.687	532.62
446.908	472.62
447.129	434.62
447.35	453.62
447.571	444.62
447.792	417.62
448.013	434.62
448.234	468.62
448.455	506.62
448.675	600.62
448.896	698.62
449.117	598.62
449.338	572.62
449.559	665.62
449.779	756.62
450	605.62
450.221	486.62
450.442	448.62
450.662	438.62
450.883	439.62
451.104	463.62
451.324	458.62
451.545	425.62
451.766	410.62
451.986	406.62
452.207	395.62
452.428	397.62
452.648	374.62
452.869	378.62
453.089	407.62
453.31	419.62
453.53	406.62
453.751	392.62
453.971	401.62
454.192	422.62
454.412	408.62
454.633	394.62
454.853	402.62
455.073	390.62
455.294	412.62
455.514	470.62
455.734	467.62
455.955	398.62
456.175	376.62
456.395	374.62
456.616	354.62
456.836	363.62
457.056	366.62
457.276	343.62
457.497	380.62
457.717	364.62
457.937	359.62
458.157	380.62
458.377	374.62
458.598	415.62
458.818	476.62
459.038	522.62
459.258	553.62
459.478	452.62
459.698	408.62
459.918	394.62
460.138	391.62
460.358	388.62
460.578	381.62
460.798	406.62
461.018	411.62
461.238	370.62
461.458	394.62
461.678	371.62
461.898	373.62
462.118	379.62
462.338	395.62
462.558	406.62
462.777	390.62
462.997	405.62
463.217	400.62
463.437	418.62
463.657	395.62
463.876	390.62
464.096	384.62
464.316	393.62
464.536	410.62
464.755	405.62
464.975	424.62
465.195	478.62
465.414	549.62
465.634	479.62
465.854	434.62
466.073	416.62
466.293	402.62
466.512	373.62
466.732	382.62
466.951	399.62
467.171	375.62
467.391	395.62
467.61	404.62
467.829	400.62
468.049	391.62
468.268	378.62
468.488	385.62
468.707	374.62
468.927	408.62
469.146	377.62
469.365	360.62
469.585	357.62
469.804	362.62
470.023	394.62
470.243	396.62
470.462	397.62
470.681	420.62
470.901	402.62
471.12	410.62
471.339	383.62
471.558	405.62
471.777	408.62
471.997	393.62
472.216	402.62
472.435	437.62
472.654	435.62
472.873	402.62
473.092	390.62
473.311	401.62
473.53	404.62
473.749	404.62
473.968	457.62
474.187	542.62
474.406	572.62
474.625	472.62
474.844	432.62
475.063	408.62
475.282	408.62
475.501	390.62
475.72	404.62
475.939	392.62
476.158	401.62
476.377	407.62
476.596	391.62
476.814	417.62
477.033	414.62
477.252	412.62
477.471	396.62
477.69	419.62
477.908	419.62
478.127	424.62
478.346	428.62
478.564	427.62
478.783	448.62
479.002	421.62
479.22	440.62
479.439	440.62
479.658	459.62
479.876	482.62
480.095	472.62
480.313	497.62
480.532	477.62
480.751	458.62
480.969	495.62
481.188	548.62
481.406	552.62
481.624	504.62
481.843	500.62
482.061	488.62
482.28	480.62
482.498	457.62
482.717	456.62
482.935	465.62
483.153	460.62
483.372	448.62
483.59	478.62
483.808	442.62
484.027	472.62
484.245	465.62
484.463	450.62
484.681	466.62
484.9	470.62
485.118	465.62
485.336	466.62
485.554	487.62
485.772	481.62
485.99	469.62
486.209	466.62
486.427	482.62
486.645	479.62
486.863	507.62
487.081	495.62
487.299	496.62
487.517	506.62
487.735	494.62
487.953	477.62
488.171	491.62
488.389	472.62
488.607	491.62
488.825	498.62
489.043	500.62
489.261	496.62
489.479	484.62
489.696	495.62
489.914	514.62
490.132	510.62
490.35	510.62
490.568	520.62
490.786	537.62
491.003	522.62
491.221	542.62
491.439	552.62
491.657	572.62
491.874	573.62
492.092	565.62
492.31	569.62
492.527	585.62
492.745	581.62
492.963	586.62
493.18	593.62
493.398	570.62
493.615	587.62
493.833	576.62
494.05	588.62
494.268	586.62
494.485	592.62
494.703	585.62
494.92	594.62
495.138	593.62
495.355	593.62
495.573	583.62
495.79	588.62
496.008	605.62
496.225	601.62
496.442	590.62
496.66	592.62
496.877	589.62
497.094	614.62
497.312	588.62
497.529	577.62
497.746	588.62
497.963	614.62
498.181	614.62
498.398	631.62
498.615	629.62
498.832	638.62
499.049	635.62
499.267	625.62
499.484	626.62
499.701	693.62
499.918	674.62
500.135	712.62
500.352	712.62
500.569	705.62
500.786	737.62
501.003	752.62
501.22	724.62
501.437	720.62
501.654	706.62
501.871	707.62
