Data from 1981.PennyLincolnUp.Lamp.En5.5.200Scan.071819.P1_HRD10591_16-42-41-960.txt Node
Date: Thu Jul 18 16:42:41 EDT 2019
User: cochatt
Spectrometer: HR+D1059
Trigger mode: 1
Integration Time (sec): 1.000000E-1
Scans to average: 1
Electric dark correction enabled: true
Nonlinearity correction enabled: false
Boxcar width: 0
XAxis mode: Wavelengths
Number of Pixels in Spectrum: 2048
>>>>>Begin Spectral Data<<<<<
223.165	-18.44
223.4	-18.44
223.635	-18.44
223.869	-15.44
224.104	-13.44
224.338	-2.44
224.573	-11.44
224.808	-3.44
225.042	3.56
225.277	3.56
225.511	-24.44
225.746	4.56
225.98	12.56
226.215	13.56
226.449	-16.44
226.683	7.56
226.918	28.56
227.152	31.56
227.387	46.56
227.621	45.56
227.856	38.56
228.09	52.56
228.324	40.56
228.559	55.56
228.793	66.56
229.027	90.56
229.262	104.56
229.496	119.56
229.73	135.56
229.964	158.56
230.199	134.56
230.433	127.56
230.667	131.56
230.901	120.56
231.136	103.56
231.37	98.56
231.604	115.56
231.838	120.56
232.072	110.56
232.306	118.56
232.541	97.56
232.775	116.56
233.009	123.56
233.243	119.56
233.477	102.56
233.711	117.56
233.945	120.56
234.179	118.56
234.413	110.56
234.647	123.56
234.881	119.56
235.115	127.56
235.349	117.56
235.583	116.56
235.817	109.56
236.051	122.56
236.285	135.56
236.519	129.56
236.753	127.56
236.987	152.56
237.221	189.56
237.455	228.56
237.689	183.56
237.922	145.56
238.156	134.56
238.39	126.56
238.624	136.56
238.858	133.56
239.091	128.56
239.325	120.56
239.559	135.56
239.793	128.56
240.027	132.56
240.26	141.56
240.494	156.56
240.728	150.56
240.961	164.56
241.195	143.56
241.429	136.56
241.662	121.56
241.896	124.56
242.13	130.56
242.363	139.56
242.597	126.56
242.83	158.56
243.064	131.56
243.298	141.56
243.531	139.56
243.765	147.56
243.998	136.56
244.232	123.56
244.465	141.56
244.699	139.56
244.932	132.56
245.166	136.56
245.399	152.56
245.633	141.56
245.866	142.56
246.099	146.56
246.333	141.56
246.566	160.56
246.8	151.56
247.033	152.56
247.266	139.56
247.5	162.56
247.733	174.56
247.966	185.56
248.2	166.56
248.433	172.56
248.666	181.56
248.899	187.56
249.133	192.56
249.366	220.56
249.599	196.56
249.832	190.56
250.066	186.56
250.299	180.56
250.532	187.56
250.765	211.56
250.998	215.56
251.231	226.56
251.465	221.56
251.698	204.56
251.931	195.56
252.164	185.56
252.397	179.56
252.63	209.56
252.863	196.56
253.096	215.56
253.329	215.56
253.562	220.56
253.795	232.56
254.028	222.56
254.261	229.56
254.494	231.56
254.727	283.56
254.96	282.56
255.193	282.56
255.426	265.56
255.659	240.56
255.892	246.56
256.124	250.56
256.357	237.56
256.59	244.56
256.823	220.56
257.056	221.56
257.289	221.56
257.521	239.56
257.754	217.56
257.987	213.56
258.22	219.56
258.452	219.56
258.685	207.56
258.918	226.56
259.151	232.56
259.383	224.56
259.616	220.56
259.849	227.56
260.081	243.56
260.314	257.56
260.547	258.56
260.779	263.56
261.012	258.56
261.244	237.56
261.477	211.56
261.71	238.56
261.942	232.56
262.175	242.56
262.407	236.56
262.64	223.56
262.872	233.56
263.105	234.56
263.337	224.56
263.57	205.56
263.802	231.56
264.035	216.56
264.267	206.56
264.499	226.56
264.732	225.56
264.964	223.56
265.197	214.56
265.429	223.56
265.661	220.56
265.894	197.56
266.126	230.56
266.358	202.56
266.591	229.56
266.823	226.56
267.055	228.56
267.287	240.56
267.52	230.56
267.752	230.56
267.984	213.56
268.216	220.56
268.448	240.56
268.681	246.56
268.913	258.56
269.145	267.56
269.377	286.56
269.609	287.56
269.841	290.56
270.073	278.56
270.306	295.56
270.538	297.56
270.77	328.56
271.002	300.56
271.234	310.56
271.466	312.56
271.698	332.56
271.93	327.56
272.162	343.56
272.394	317.56
272.626	310.56
272.858	301.56
273.09	280.56
273.322	277.56
273.553	259.56
273.785	272.56
274.017	278.56
274.249	285.56
274.481	256.56
274.713	279.56
274.945	281.56
275.176	273.56
275.408	271.56
275.64	258.56
275.872	257.56
276.104	276.56
276.335	285.56
276.567	268.56
276.799	288.56
277.031	334.56
277.262	319.56
277.494	313.56
277.726	299.56
277.957	304.56
278.189	291.56
278.421	264.56
278.652	285.56
278.884	276.56
279.115	267.56
279.347	273.56
279.579	267.56
279.81	270.56
280.042	257.56
280.273	268.56
280.505	264.56
280.736	230.56
280.968	247.56
281.199	274.56
281.431	262.56
281.662	262.56
281.894	260.56
282.125	267.56
282.356	294.56
282.588	306.56
282.819	310.56
283.051	284.56
283.282	264.56
283.513	280.56
283.745	286.56
283.976	266.56
284.207	282.56
284.439	283.56
284.67	288.56
284.901	274.56
285.132	299.56
285.364	272.56
285.595	250.56
285.826	267.56
286.057	272.56
286.288	278.56
286.52	271.56
286.751	279.56
286.982	264.56
287.213	290.56
287.444	278.56
287.675	282.56
287.906	279.56
288.138	309.56
288.369	306.56
288.6	283.56
288.831	280.56
289.062	292.56
289.293	286.56
289.524	281.56
289.755	266.56
289.986	284.56
290.217	284.56
290.448	272.56
290.679	271.56
290.91	276.56
291.141	283.56
291.371	274.56
291.602	279.56
291.833	295.56
292.064	299.56
292.295	292.56
292.526	293.56
292.757	271.56
292.987	294.56
293.218	284.56
293.449	287.56
293.68	300.56
293.91	284.56
294.141	285.56
294.372	292.56
294.603	283.56
294.833	294.56
295.064	288.56
295.295	266.56
295.525	278.56
295.756	296.56
295.987	292.56
296.217	309.56
296.448	336.56
296.679	306.56
296.909	292.56
297.14	276.56
297.37	296.56
297.601	283.56
297.831	287.56
298.062	305.56
298.292	291.56
298.523	299.56
298.753	275.56
298.984	269.56
299.214	299.56
299.445	310.56
299.675	311.56
299.905	302.56
300.136	298.56
300.366	302.56
300.597	282.56
300.827	311.56
301.057	301.56
301.288	323.56
301.518	324.56
301.748	322.56
301.979	295.56
302.209	326.56
302.439	326.56
302.669	333.56
302.9	298.56
303.13	325.56
303.36	304.56
303.59	320.56
303.82	336.56
304.051	336.56
304.281	315.56
304.511	325.56
304.741	316.56
304.971	330.56
305.201	321.56
305.431	318.56
305.661	325.56
305.891	324.56
306.121	325.56
306.352	327.56
306.582	315.56
306.812	317.56
307.042	328.56
307.272	333.56
307.502	328.56
307.731	330.56
307.961	329.56
308.191	339.56
308.421	334.56
308.651	319.56
308.881	319.56
309.111	343.56
309.341	336.56
309.571	360.56
309.8	349.56
310.03	372.56
310.26	358.56
310.49	365.56
310.72	376.56
310.949	406.56
311.179	397.56
311.409	375.56
311.639	382.56
311.868	385.56
312.098	382.56
312.328	394.56
312.557	387.56
312.787	402.56
313.017	395.56
313.246	395.56
313.476	366.56
313.706	390.56
313.935	377.56
314.165	379.56
314.394	386.56
314.624	386.56
314.853	383.56
315.083	382.56
315.312	370.56
315.542	385.56
315.771	374.56
316.001	378.56
316.23	377.56
316.46	378.56
316.689	358.56
316.919	358.56
317.148	398.56
317.377	378.56
317.607	398.56
317.836	372.56
318.065	359.56
318.295	356.56
318.524	390.56
318.753	378.56
318.983	382.56
319.212	377.56
319.441	368.56
319.67	394.56
319.9	379.56
320.129	382.56
320.358	372.56
320.587	374.56
320.816	403.56
321.046	411.56
321.275	395.56
321.504	393.56
321.733	398.56
321.962	416.56
322.191	424.56
322.42	439.56
322.649	457.56
322.878	490.56
323.108	475.56
323.337	525.56
323.566	544.56
323.795	560.56
324.024	635.56
324.253	774.56
324.482	1116.56
324.71	1734.56
324.939	2341.56
325.168	1950.56
325.397	1068.56
325.626	727.56
325.855	591.56
326.084	583.56
326.313	555.56
326.542	546.56
326.77	593.56
326.999	709.56
327.228	1001.56
327.457	1492.56
327.686	1754.56
327.914	1176.56
328.143	778.56
328.372	661.56
328.6	627.56
328.829	575.56
329.058	616.56
329.287	591.56
329.515	554.56
329.744	546.56
329.972	528.56
330.201	539.56
330.43	568.56
330.658	612.56
330.887	631.56
331.115	628.56
331.344	563.56
331.572	489.56
331.801	494.56
332.03	470.56
332.258	461.56
332.486	471.56
332.715	426.56
332.943	443.56
333.172	435.56
333.4	450.56
333.629	439.56
333.857	468.56
334.085	454.56
334.314	477.56
334.542	494.56
334.771	535.56
334.999	455.56
335.227	441.56
335.455	454.56
335.684	423.56
335.912	423.56
336.14	434.56
336.369	418.56
336.597	437.56
336.825	430.56
337.053	413.56
337.281	407.56
337.51	427.56
337.738	420.56
337.966	431.56
338.194	424.56
338.422	439.56
338.65	424.56
338.878	392.56
339.106	401.56
339.334	410.56
339.562	407.56
339.79	399.56
340.018	401.56
340.246	415.56
340.474	426.56
340.702	406.56
340.93	400.56
341.158	404.56
341.386	403.56
341.614	405.56
341.842	427.56
342.07	398.56
342.298	405.56
342.526	404.56
342.754	399.56
342.981	388.56
343.209	380.56
343.437	370.56
343.665	379.56
343.893	398.56
344.12	419.56
344.348	406.56
344.576	399.56
344.804	401.56
345.031	439.56
345.259	444.56
345.487	411.56
345.714	410.56
345.942	409.56
346.17	400.56
346.397	388.56
346.625	393.56
346.853	385.56
347.08	390.56
347.308	419.56
347.535	425.56
347.763	414.56
347.99	399.56
348.218	422.56
348.445	400.56
348.673	389.56
348.9	399.56
349.128	367.56
349.355	374.56
349.583	370.56
349.81	389.56
350.037	374.56
350.265	367.56
350.492	382.56
350.72	382.56
350.947	382.56
351.174	412.56
351.402	422.56
351.629	399.56
351.856	400.56
352.083	404.56
352.311	418.56
352.538	431.56
352.765	415.56
352.992	412.56
353.22	411.56
353.447	403.56
353.674	375.56
353.901	382.56
354.128	354.56
354.355	362.56
354.583	352.56
354.81	362.56
355.037	354.56
355.264	348.56
355.491	361.56
355.718	355.56
355.945	367.56
356.172	374.56
356.399	360.56
356.626	354.56
356.853	342.56
357.08	355.56
357.307	365.56
357.534	349.56
357.761	363.56
357.988	365.56
358.215	372.56
358.441	346.56
358.668	358.56
358.895	350.56
359.122	378.56
359.349	371.56
359.576	392.56
359.802	404.56
360.029	446.56
360.256	452.56
360.483	416.56
360.709	368.56
360.936	382.56
361.163	388.56
361.39	386.56
361.616	379.56
361.843	367.56
362.07	380.56
362.296	378.56
362.523	389.56
362.749	380.56
362.976	391.56
363.203	377.56
363.429	352.56
363.656	360.56
363.882	349.56
364.109	384.56
364.335	386.56
364.562	358.56
364.788	351.56
365.015	396.56
365.241	370.56
365.468	374.56
365.694	378.56
365.92	384.56
366.147	374.56
366.373	350.56
366.599	354.56
366.826	347.56
367.052	357.56
367.278	349.56
367.505	346.56
367.731	342.56
367.957	354.56
368.184	372.56
368.41	377.56
368.636	355.56
368.862	374.56
369.089	379.56
369.315	371.56
369.541	383.56
369.767	358.56
369.993	340.56
370.219	331.56
370.445	328.56
370.672	354.56
370.898	348.56
371.124	350.56
371.35	359.56
371.576	356.56
371.802	331.56
372.028	336.56
372.254	335.56
372.48	355.56
372.706	343.56
372.932	345.56
373.158	362.56
373.384	349.56
373.61	346.56
373.835	352.56
374.061	346.56
374.287	350.56
374.513	354.56
374.739	372.56
374.965	344.56
375.191	339.56
375.416	354.56
375.642	356.56
375.868	340.56
376.094	346.56
376.319	347.56
376.545	347.56
376.771	349.56
376.997	335.56
377.222	348.56
377.448	342.56
377.674	340.56
377.899	350.56
378.125	340.56
378.35	339.56
378.576	348.56
378.802	330.56
379.027	347.56
379.253	350.56
379.478	352.56
379.704	346.56
379.929	353.56
380.155	340.56
380.38	336.56
380.606	335.56
380.831	336.56
381.057	356.56
381.282	352.56
381.507	354.56
381.733	335.56
381.958	352.56
382.184	345.56
382.409	340.56
382.634	346.56
382.86	352.56
383.085	356.56
383.31	342.56
383.535	355.56
383.761	334.56
383.986	358.56
384.211	355.56
384.436	346.56
384.662	344.56
384.887	340.56
385.112	342.56
385.337	340.56
385.562	340.56
385.787	350.56
386.013	370.56
386.238	376.56
386.463	373.56
386.688	349.56
386.913	359.56
387.138	347.56
387.363	352.56
387.588	371.56
387.813	384.56
388.038	356.56
388.263	360.56
388.488	339.56
388.713	346.56
388.938	376.56
389.163	376.56
389.387	359.56
389.612	344.56
389.837	347.56
390.062	362.56
390.287	376.56
390.512	351.56
390.736	337.56
390.961	354.56
391.186	346.56
391.411	343.56
391.636	359.56
391.86	360.56
392.085	352.56
392.31	348.56
392.534	359.56
392.759	364.56
392.984	354.56
393.208	341.56
393.433	349.56
393.658	354.56
393.882	373.56
394.107	358.56
394.331	361.56
394.556	362.56
394.78	352.56
395.005	342.56
395.229	343.56
395.454	352.56
395.678	382.56
395.903	397.56
396.127	394.56
396.352	393.56
396.576	379.56
396.801	357.56
397.025	367.56
397.249	384.56
397.474	396.56
397.698	389.56
397.922	394.56
398.147	392.56
398.371	400.56
398.595	400.56
398.82	373.56
399.044	398.56
399.268	396.56
399.492	432.56
399.717	425.56
399.941	452.56
400.165	518.56
400.389	489.56
400.613	429.56
400.837	431.56
401.062	403.56
401.286	395.56
401.51	400.56
401.734	398.56
401.958	392.56
402.182	408.56
402.406	408.56
402.63	405.56
402.854	436.56
403.078	401.56
403.302	402.56
403.526	397.56
403.75	410.56
403.974	394.56
404.198	403.56
404.422	412.56
404.645	413.56
404.869	441.56
405.093	430.56
405.317	458.56
405.541	502.56
405.765	477.56
405.988	436.56
406.212	444.56
406.436	485.56
406.66	466.56
406.883	444.56
407.107	456.56
407.331	486.56
407.555	566.56
407.778	542.56
408.002	504.56
408.226	453.56
408.449	450.56
408.673	448.56
408.896	467.56
409.12	507.56
409.344	501.56
409.567	442.56
409.791	420.56
410.014	424.56
410.238	417.56
410.461	421.56
410.685	438.56
410.908	419.56
411.132	458.56
411.355	467.56
411.578	459.56
411.802	415.56
412.025	418.56
412.249	407.56
412.472	427.56
412.695	484.56
412.919	452.56
413.142	414.56
413.365	427.56
413.589	410.56
413.812	382.56
414.035	373.56
414.258	405.56
414.482	410.56
414.705	386.56
414.928	393.56
415.151	399.56
415.374	387.56
415.597	362.56
415.821	386.56
416.044	374.56
416.267	391.56
416.49	394.56
416.713	391.56
416.936	373.56
417.159	395.56
417.382	395.56
417.605	400.56
417.828	415.56
418.051	399.56
418.274	393.56
418.497	405.56
418.72	378.56
418.943	377.56
419.166	390.56
419.389	407.56
419.611	409.56
419.834	405.56
420.057	404.56
420.28	405.56
420.503	419.56
420.726	419.56
420.948	421.56
421.171	470.56
421.394	497.56
421.617	448.56
421.839	388.56
422.062	402.56
422.285	408.56
422.507	461.56
422.73	537.56
422.953	510.56
423.175	458.56
423.398	436.56
423.621	445.56
423.843	448.56
424.066	456.56
424.288	435.56
424.511	450.56
424.733	509.56
424.956	590.56
425.178	557.56
425.401	578.56
425.623	572.56
425.846	501.56
426.068	463.56
426.291	452.56
426.513	476.56
426.735	463.56
426.958	485.56
427.18	577.56
427.402	647.56
427.625	732.56
427.847	694.56
428.069	563.56
428.292	503.56
428.514	471.56
428.736	419.56
428.958	437.56
429.181	406.56
429.403	404.56
429.625	435.56
429.847	454.56
430.069	512.56
430.292	512.56
430.514	444.56
430.736	421.56
430.958	417.56
431.18	405.56
431.402	404.56
431.624	378.56
431.846	380.56
432.068	371.56
432.29	407.56
432.512	390.56
432.734	407.56
432.956	384.56
433.178	400.56
433.4	404.56
433.622	422.56
433.844	411.56
434.066	413.56
434.287	375.56
434.509	369.56
434.731	382.56
434.953	418.56
435.175	422.56
435.397	459.56
435.618	446.56
435.84	471.56
436.062	554.56
436.284	610.56
436.505	521.56
436.727	482.56
436.949	440.56
437.17	407.56
437.392	430.56
437.614	449.56
437.835	467.56
438.057	566.56
438.278	650.56
438.5	643.56
438.721	711.56
438.943	651.56
439.165	529.56
439.386	485.56
439.608	478.56
439.829	476.56
440.05	492.56
440.272	539.56
440.493	517.56
440.715	448.56
440.936	426.56
441.158	442.56
441.379	420.56
441.6	436.56
441.822	451.56
442.043	501.56
442.264	554.56
442.486	610.56
442.707	493.56
442.928	473.56
443.149	493.56
443.371	495.56
443.592	547.56
443.813	613.56
444.034	639.56
444.255	556.56
444.476	480.56
444.698	445.56
444.919	447.56
445.14	556.56
445.361	499.56
445.582	496.56
445.803	554.56
446.024	637.56
446.245	660.56
446.466	612.56
446.687	506.56
446.908	466.56
447.129	439.56
447.35	440.56
447.571	430.56
447.792	418.56
448.013	412.56
448.234	447.56
448.455	501.56
448.675	602.56
448.896	667.56
449.117	578.56
449.338	574.56
449.559	632.56
449.779	717.56
450	570.56
450.221	472.56
450.442	451.56
450.662	414.56
450.883	426.56
451.104	440.56
451.324	422.56
451.545	411.56
451.766	397.56
451.986	391.56
452.207	377.56
452.428	372.56
452.648	376.56
452.869	384.56
453.089	375.56
453.31	386.56
453.53	375.56
453.751	372.56
453.971	402.56
454.192	401.56
454.412	383.56
454.633	389.56
454.853	376.56
455.073	343.56
455.294	394.56
455.514	487.56
455.734	453.56
455.955	396.56
456.175	362.56
456.395	354.56
456.616	366.56
456.836	364.56
457.056	352.56
457.276	344.56
457.497	349.56
457.717	364.56
457.937	351.56
458.157	373.56
458.377	372.56
458.598	383.56
458.818	447.56
459.038	528.56
459.258	542.56
459.478	442.56
459.698	390.56
459.918	375.56
460.138	373.56
460.358	390.56
460.578	408.56
460.798	406.56
461.018	375.56
461.238	347.56
461.458	354.56
461.678	373.56
461.898	369.56
462.118	381.56
462.338	399.56
462.558	380.56
462.777	382.56
462.997	403.56
463.217	406.56
463.437	417.56
463.657	400.56
463.876	417.56
464.096	396.56
464.316	389.56
464.536	390.56
464.755	401.56
464.975	401.56
465.195	463.56
465.414	523.56
465.634	465.56
465.854	433.56
466.073	406.56
466.293	399.56
466.512	389.56
466.732	369.56
466.951	389.56
467.171	366.56
467.391	386.56
467.61	396.56
467.829	403.56
468.049	359.56
468.268	388.56
468.488	370.56
468.707	366.56
468.927	368.56
469.146	350.56
469.365	381.56
469.585	379.56
469.804	383.56
470.023	348.56
470.243	386.56
470.462	384.56
470.681	403.56
470.901	398.56
471.12	378.56
471.339	396.56
471.558	401.56
471.777	371.56
471.997	383.56
472.216	397.56
472.435	412.56
472.654	404.56
472.873	395.56
473.092	377.56
473.311	372.56
473.53	398.56
473.749	403.56
473.968	430.56
474.187	542.56
474.406	531.56
474.625	447.56
474.844	415.56
475.063	401.56
475.282	415.56
475.501	392.56
475.72	395.56
475.939	394.56
476.158	409.56
476.377	382.56
476.596	404.56
476.814	403.56
477.033	407.56
477.252	420.56
477.471	394.56
477.69	389.56
477.908	402.56
478.127	413.56
478.346	413.56
478.564	418.56
478.783	412.56
479.002	429.56
479.22	427.56
479.439	445.56
479.658	445.56
479.876	453.56
480.095	459.56
480.313	496.56
480.532	474.56
480.751	466.56
480.969	475.56
481.188	527.56
481.406	576.56
481.624	512.56
481.843	488.56
482.061	481.56
482.28	486.56
482.498	445.56
482.717	436.56
482.935	445.56
483.153	454.56
483.372	453.56
483.59	450.56
483.808	441.56
484.027	440.56
484.245	444.56
484.463	442.56
484.681	454.56
484.9	463.56
485.118	458.56
485.336	460.56
485.554	450.56
485.772	464.56
485.99	468.56
486.209	472.56
486.427	457.56
486.645	472.56
486.863	471.56
487.081	485.56
487.299	466.56
487.517	472.56
487.735	488.56
487.953	478.56
488.171	480.56
488.389	475.56
488.607	503.56
488.825	473.56
489.043	482.56
489.261	484.56
489.479	494.56
489.696	500.56
489.914	496.56
490.132	492.56
490.35	513.56
490.568	516.56
490.786	519.56
491.003	523.56
491.221	513.56
491.439	542.56
491.657	539.56
491.874	551.56
492.092	542.56
492.31	549.56
492.527	554.56
492.745	541.56
492.963	559.56
493.18	579.56
493.398	564.56
493.615	566.56
493.833	558.56
494.05	582.56
494.268	578.56
494.485	586.56
494.703	580.56
494.92	572.56
495.138	574.56
495.355	570.56
495.573	541.56
495.79	563.56
496.008	565.56
496.225	583.56
496.442	562.56
496.66	568.56
496.877	590.56
497.094	575.56
497.312	598.56
497.529	583.56
497.746	608.56
497.963	598.56
498.181	604.56
498.398	621.56
498.615	624.56
498.832	606.56
499.049	620.56
499.267	638.56
499.484	636.56
499.701	642.56
499.918	667.56
500.135	677.56
500.352	726.56
500.569	702.56
500.786	723.56
501.003	709.56
501.22	694.56
501.437	675.56
501.654	719.56
501.871	698.56
