Data from 1981.PennyLincolnUp.Lamp.En5.5.200Scan.071819.P1_HRD10591_16-41-49-960.txt Node
Date: Thu Jul 18 16:41:49 EDT 2019
User: cochatt
Spectrometer: HR+D1059
Trigger mode: 1
Integration Time (sec): 1.000000E-1
Scans to average: 1
Electric dark correction enabled: true
Nonlinearity correction enabled: false
Boxcar width: 0
XAxis mode: Wavelengths
Number of Pixels in Spectrum: 2048
>>>>>Begin Spectral Data<<<<<
223.165	-23.69
223.4	-23.69
223.635	-23.69
223.869	-17.69
224.104	-9.69
224.338	-9.69
224.573	-14.69
224.808	-16.69
225.042	-12.69
225.277	5.31
225.511	8.31
225.746	4.31
225.98	9.31
226.215	13.31
226.449	6.31
226.683	21.31
226.918	11.31
227.152	25.31
227.387	28.31
227.621	40.31
227.856	26.31
228.09	38.31
228.324	46.31
228.559	55.31
228.793	59.31
229.027	105.31
229.262	106.31
229.496	115.31
229.73	145.31
229.964	147.31
230.199	121.31
230.433	124.31
230.667	107.31
230.901	113.31
231.136	117.31
231.37	120.31
231.604	101.31
231.838	107.31
232.072	101.31
232.306	122.31
232.541	91.31
232.775	111.31
233.009	105.31
233.243	107.31
233.477	112.31
233.711	117.31
233.945	100.31
234.179	108.31
234.413	119.31
234.647	108.31
234.881	121.31
235.115	113.31
235.349	119.31
235.583	126.31
235.817	125.31
236.051	127.31
236.285	138.31
236.519	125.31
236.753	124.31
236.987	155.31
237.221	175.31
237.455	222.31
237.689	195.31
237.922	153.31
238.156	126.31
238.39	124.31
238.624	131.31
238.858	136.31
239.091	127.31
239.325	129.31
239.559	117.31
239.793	120.31
240.027	146.31
240.26	141.31
240.494	147.31
240.728	152.31
240.961	131.31
241.195	154.31
241.429	145.31
241.662	141.31
241.896	131.31
242.13	120.31
242.363	122.31
242.597	133.31
242.83	139.31
243.064	135.31
243.298	130.31
243.531	141.31
243.765	132.31
243.998	145.31
244.232	139.31
244.465	153.31
244.699	141.31
244.932	147.31
245.166	136.31
245.399	145.31
245.633	137.31
245.866	144.31
246.099	131.31
246.333	153.31
246.566	145.31
246.8	141.31
247.033	148.31
247.266	153.31
247.5	148.31
247.733	151.31
247.966	185.31
248.2	172.31
248.433	169.31
248.666	179.31
248.899	167.31
249.133	184.31
249.366	228.31
249.599	216.31
249.832	183.31
250.066	192.31
250.299	179.31
250.532	188.31
250.765	195.31
250.998	235.31
251.231	241.31
251.465	220.31
251.698	196.31
251.931	218.31
252.164	193.31
252.397	219.31
252.63	205.31
252.863	198.31
253.096	213.31
253.329	235.31
253.562	232.31
253.795	228.31
254.028	227.31
254.261	240.31
254.494	242.31
254.727	263.31
254.96	303.31
255.193	272.31
255.426	256.31
255.659	251.31
255.892	243.31
256.124	223.31
256.357	259.31
256.59	235.31
256.823	217.31
257.056	230.31
257.289	223.31
257.521	223.31
257.754	219.31
257.987	193.31
258.22	221.31
258.452	210.31
258.685	211.31
258.918	239.31
259.151	229.31
259.383	232.31
259.616	230.31
259.849	240.31
260.081	236.31
260.314	255.31
260.547	267.31
260.779	261.31
261.012	249.31
261.244	235.31
261.477	245.31
261.71	220.31
261.942	259.31
262.175	236.31
262.407	240.31
262.64	220.31
262.872	213.31
263.105	223.31
263.337	225.31
263.57	228.31
263.802	226.31
264.035	205.31
264.267	213.31
264.499	232.31
264.732	239.31
264.964	216.31
265.197	211.31
265.429	212.31
265.661	216.31
265.894	212.31
266.126	211.31
266.358	204.31
266.591	231.31
266.823	228.31
267.055	217.31
267.287	219.31
267.52	221.31
267.752	232.31
267.984	227.31
268.216	224.31
268.448	237.31
268.681	237.31
268.913	231.31
269.145	272.31
269.377	289.31
269.609	275.31
269.841	269.31
270.073	279.31
270.306	308.31
270.538	305.31
270.77	313.31
271.002	305.31
271.234	305.31
271.466	331.31
271.698	332.31
271.93	328.31
272.162	334.31
272.394	346.31
272.626	314.31
272.858	311.31
273.09	300.31
273.322	301.31
273.553	279.31
273.785	273.31
274.017	266.31
274.249	271.31
274.481	272.31
274.713	276.31
274.945	270.31
275.176	271.31
275.408	285.31
275.64	257.31
275.872	255.31
276.104	274.31
276.335	282.31
276.567	277.31
276.799	291.31
277.031	324.31
277.262	319.31
277.494	325.31
277.726	315.31
277.957	293.31
278.189	279.31
278.421	279.31
278.652	272.31
278.884	254.31
279.115	265.31
279.347	279.31
279.579	276.31
279.81	281.31
280.042	267.31
280.273	280.31
280.505	275.31
280.736	268.31
280.968	268.31
281.199	276.31
281.431	266.31
281.662	270.31
281.894	293.31
282.125	275.31
282.356	292.31
282.588	305.31
282.819	316.31
283.051	274.31
283.282	245.31
283.513	296.31
283.745	273.31
283.976	277.31
284.207	284.31
284.439	286.31
284.67	297.31
284.901	282.31
285.132	284.31
285.364	263.31
285.595	263.31
285.826	275.31
286.057	287.31
286.288	259.31
286.52	272.31
286.751	287.31
286.982	273.31
287.213	273.31
287.444	283.31
287.675	287.31
287.906	305.31
288.138	291.31
288.369	283.31
288.6	312.31
288.831	293.31
289.062	312.31
289.293	307.31
289.524	292.31
289.755	273.31
289.986	281.31
290.217	279.31
290.448	275.31
290.679	279.31
290.91	278.31
291.141	285.31
291.371	291.31
291.602	295.31
291.833	293.31
292.064	290.31
292.295	295.31
292.526	280.31
292.757	289.31
292.987	283.31
293.218	277.31
293.449	307.31
293.68	284.31
293.91	282.31
294.141	291.31
294.372	287.31
294.603	306.31
294.833	300.31
295.064	289.31
295.295	297.31
295.525	287.31
295.756	300.31
295.987	311.31
296.217	312.31
296.448	333.31
296.679	290.31
296.909	287.31
297.14	283.31
297.37	285.31
297.601	307.31
297.831	296.31
298.062	297.31
298.292	305.31
298.523	294.31
298.753	303.31
298.984	292.31
299.214	291.31
299.445	319.31
299.675	323.31
299.905	293.31
300.136	316.31
300.366	311.31
300.597	295.31
300.827	324.31
301.057	329.31
301.288	317.31
301.518	336.31
301.748	324.31
301.979	319.31
302.209	319.31
302.439	317.31
302.669	326.31
302.9	306.31
303.13	314.31
303.36	315.31
303.59	325.31
303.82	337.31
304.051	325.31
304.281	315.31
304.511	314.31
304.741	324.31
304.971	317.31
305.201	319.31
305.431	330.31
305.661	317.31
305.891	324.31
306.121	312.31
306.352	342.31
306.582	356.31
306.812	329.31
307.042	341.31
307.272	337.31
307.502	338.31
307.731	336.31
307.961	307.31
308.191	323.31
308.421	314.31
308.651	324.31
308.881	340.31
309.111	337.31
309.341	334.31
309.571	346.31
309.8	362.31
310.03	361.31
310.26	387.31
310.49	389.31
310.72	387.31
310.949	406.31
311.179	405.31
311.409	386.31
311.639	394.31
311.868	380.31
312.098	396.31
312.328	399.31
312.557	415.31
312.787	408.31
313.017	433.31
313.246	395.31
313.476	377.31
313.706	364.31
313.935	379.31
314.165	407.31
314.394	422.31
314.624	402.31
314.853	390.31
315.083	345.31
315.312	377.31
315.542	367.31
315.771	379.31
316.001	391.31
316.23	359.31
316.46	364.31
316.689	387.31
316.919	393.31
317.148	395.31
317.377	412.31
317.607	410.31
317.836	399.31
318.065	351.31
318.295	381.31
318.524	397.31
318.753	371.31
318.983	388.31
319.212	390.31
319.441	389.31
319.67	393.31
319.9	397.31
320.129	387.31
320.358	364.31
320.587	405.31
320.816	391.31
321.046	400.31
321.275	419.31
321.504	425.31
321.733	426.31
321.962	431.31
322.191	427.31
322.42	436.31
322.649	472.31
322.878	484.31
323.108	489.31
323.337	541.31
323.566	548.31
323.795	592.31
324.024	651.31
324.253	773.31
324.482	1149.31
324.71	1757.31
324.939	2468.31
325.168	2067.31
325.397	1088.31
325.626	731.31
325.855	604.31
326.084	552.31
326.313	544.31
326.542	545.31
326.77	612.31
326.999	740.31
327.228	1027.31
327.457	1539.31
327.686	1788.31
327.914	1217.31
328.143	812.31
328.372	687.31
328.6	641.31
328.829	607.31
329.058	611.31
329.287	617.31
329.515	610.31
329.744	533.31
329.972	521.31
330.201	548.31
330.43	604.31
330.658	634.31
330.887	643.31
331.115	651.31
331.344	564.31
331.572	499.31
331.801	511.31
332.03	496.31
332.258	465.31
332.486	438.31
332.715	461.31
332.943	453.31
333.172	459.31
333.4	427.31
333.629	453.31
333.857	477.31
334.085	480.31
334.314	491.31
334.542	519.31
334.771	535.31
334.999	476.31
335.227	476.31
335.455	441.31
335.684	442.31
335.912	438.31
336.14	416.31
336.369	433.31
336.597	436.31
336.825	448.31
337.053	445.31
337.281	411.31
337.51	425.31
337.738	434.31
337.966	423.31
338.194	430.31
338.422	438.31
338.65	448.31
338.878	438.31
339.106	423.31
339.334	423.31
339.562	432.31
339.79	427.31
340.018	411.31
340.246	425.31
340.474	415.31
340.702	410.31
340.93	405.31
341.158	402.31
341.386	419.31
341.614	411.31
341.842	401.31
342.07	401.31
342.298	409.31
342.526	412.31
342.754	390.31
342.981	419.31
343.209	387.31
343.437	391.31
343.665	410.31
343.893	407.31
344.12	421.31
344.348	405.31
344.576	417.31
344.804	427.31
345.031	441.31
345.259	450.31
345.487	438.31
345.714	427.31
345.942	411.31
346.17	406.31
346.397	408.31
346.625	404.31
346.853	407.31
347.08	408.31
347.308	433.31
347.535	423.31
347.763	409.31
347.99	408.31
348.218	413.31
348.445	416.31
348.673	439.31
348.9	415.31
349.128	389.31
349.355	396.31
349.583	380.31
349.81	383.31
350.037	392.31
350.265	379.31
350.492	385.31
350.72	387.31
350.947	387.31
351.174	425.31
351.402	415.31
351.629	403.31
351.856	417.31
352.083	411.31
352.311	408.31
352.538	412.31
352.765	416.31
352.992	407.31
353.22	406.31
353.447	420.31
353.674	392.31
353.901	394.31
354.128	384.31
354.355	378.31
354.583	375.31
354.81	379.31
355.037	363.31
355.264	339.31
355.491	357.31
355.718	339.31
355.945	339.31
356.172	368.31
356.399	368.31
356.626	353.31
356.853	355.31
357.08	380.31
357.307	375.31
357.534	369.31
357.761	367.31
357.988	377.31
358.215	357.31
358.441	363.31
358.668	365.31
358.895	351.31
359.122	364.31
359.349	401.31
359.576	411.31
359.802	437.31
360.029	457.31
360.256	447.31
360.483	445.31
360.709	403.31
360.936	373.31
361.163	379.31
361.39	381.31
361.616	387.31
361.843	413.31
362.07	387.31
362.296	409.31
362.523	379.31
362.749	393.31
362.976	371.31
363.203	369.31
363.429	379.31
363.656	397.31
363.882	376.31
364.109	360.31
364.335	374.31
364.562	371.31
364.788	377.31
365.015	371.31
365.241	374.31
365.468	378.31
365.694	388.31
365.92	368.31
366.147	370.31
366.373	345.31
366.599	367.31
366.826	361.31
367.052	360.31
367.278	357.31
367.505	372.31
367.731	364.31
367.957	353.31
368.184	369.31
368.41	353.31
368.636	379.31
368.862	394.31
369.089	379.31
369.315	351.31
369.541	363.31
369.767	353.31
369.993	367.31
370.219	353.31
370.445	361.31
370.672	359.31
370.898	339.31
371.124	346.31
371.35	358.31
371.576	348.31
371.802	333.31
372.028	351.31
372.254	356.31
372.48	333.31
372.706	342.31
372.932	347.31
373.158	347.31
373.384	346.31
373.61	356.31
373.835	348.31
374.061	362.31
374.287	354.31
374.513	345.31
374.739	367.31
374.965	360.31
375.191	353.31
375.416	345.31
375.642	371.31
375.868	354.31
376.094	352.31
376.319	329.31
376.545	348.31
376.771	342.31
376.997	344.31
377.222	378.31
377.448	347.31
377.674	356.31
377.899	324.31
378.125	342.31
378.35	332.31
378.576	331.31
378.802	332.31
379.027	348.31
379.253	348.31
379.478	327.31
379.704	335.31
379.929	344.31
380.155	356.31
380.38	332.31
380.606	344.31
380.831	362.31
381.057	368.31
381.282	341.31
381.507	333.31
381.733	350.31
381.958	359.31
382.184	355.31
382.409	352.31
382.634	341.31
382.86	347.31
383.085	349.31
383.31	348.31
383.535	347.31
383.761	349.31
383.986	352.31
384.211	360.31
384.436	367.31
384.662	355.31
384.887	359.31
385.112	354.31
385.337	337.31
385.562	348.31
385.787	377.31
386.013	382.31
386.238	381.31
386.463	382.31
386.688	355.31
386.913	375.31
387.138	365.31
387.363	358.31
387.588	359.31
387.813	357.31
388.038	343.31
388.263	332.31
388.488	371.31
388.713	349.31
388.938	358.31
389.163	380.31
389.387	357.31
389.612	351.31
389.837	356.31
390.062	338.31
390.287	360.31
390.512	355.31
390.736	338.31
390.961	361.31
391.186	354.31
391.411	360.31
391.636	380.31
391.86	380.31
392.085	359.31
392.31	379.31
392.534	351.31
392.759	357.31
392.984	349.31
393.208	364.31
393.433	360.31
393.658	378.31
393.882	369.31
394.107	358.31
394.331	359.31
394.556	346.31
394.78	347.31
395.005	373.31
395.229	362.31
395.454	363.31
395.678	381.31
395.903	400.31
396.127	393.31
396.352	387.31
396.576	362.31
396.801	369.31
397.025	359.31
397.249	373.31
397.474	385.31
397.698	361.31
397.922	403.31
398.147	405.31
398.371	412.31
398.595	382.31
398.82	386.31
399.044	412.31
399.268	412.31
399.492	424.31
399.717	444.31
399.941	447.31
400.165	480.31
400.389	476.31
400.613	450.31
400.837	424.31
401.062	395.31
401.286	415.31
401.51	407.31
401.734	417.31
401.958	394.31
402.182	389.31
402.406	409.31
402.63	407.31
402.854	397.31
403.078	405.31
403.302	409.31
403.526	429.31
403.75	413.31
403.974	389.31
404.198	405.31
404.422	409.31
404.645	409.31
404.869	427.31
405.093	449.31
405.317	488.31
405.541	516.31
405.765	461.31
405.988	461.31
406.212	459.31
406.436	459.31
406.66	479.31
406.883	441.31
407.107	461.31
407.331	498.31
407.555	554.31
407.778	552.31
408.002	513.31
408.226	474.31
408.449	457.31
408.673	469.31
408.896	481.31
409.12	511.31
409.344	509.31
409.567	441.31
409.791	419.31
410.014	431.31
410.238	412.31
410.461	427.31
410.685	429.31
410.908	434.31
411.132	458.31
411.355	499.31
411.578	479.31
411.802	436.31
412.025	425.31
412.249	440.31
412.472	409.31
412.695	472.31
412.919	475.31
413.142	435.31
413.365	412.31
413.589	389.31
413.812	398.31
414.035	383.31
414.258	382.31
414.482	379.31
414.705	388.31
414.928	376.31
415.151	385.31
415.374	400.31
415.597	389.31
415.821	409.31
416.044	389.31
416.267	403.31
416.49	403.31
416.713	383.31
416.936	400.31
417.159	401.31
417.382	400.31
417.605	394.31
417.828	411.31
418.051	432.31
418.274	408.31
418.497	400.31
418.72	404.31
418.943	382.31
419.166	398.31
419.389	395.31
419.611	415.31
419.834	413.31
420.057	421.31
420.28	403.31
420.503	420.31
420.726	413.31
420.948	453.31
421.171	480.31
421.394	476.31
421.617	442.31
421.839	409.31
422.062	420.31
422.285	407.31
422.507	483.31
422.73	535.31
422.953	500.31
423.175	476.31
423.398	447.31
423.621	435.31
423.843	453.31
424.066	461.31
424.288	440.31
424.511	466.31
424.733	539.31
424.956	609.31
425.178	569.31
425.401	579.31
425.623	595.31
425.846	517.31
426.068	465.31
426.291	469.31
426.513	468.31
426.735	478.31
426.958	519.31
427.18	602.31
427.402	699.31
427.625	785.31
427.847	673.31
428.069	579.31
428.292	515.31
428.514	488.31
428.736	452.31
428.958	432.31
429.181	423.31
429.403	408.31
429.625	425.31
429.847	458.31
430.069	538.31
430.292	492.31
430.514	442.31
430.736	431.31
430.958	434.31
431.18	418.31
431.402	406.31
431.624	381.31
431.846	384.31
432.068	375.31
432.29	411.31
432.512	412.31
432.734	417.31
432.956	409.31
433.178	405.31
433.4	428.31
433.622	390.31
433.844	402.31
434.066	395.31
434.287	389.31
434.509	397.31
434.731	398.31
434.953	395.31
435.175	431.31
435.397	465.31
435.618	456.31
435.84	530.31
436.062	571.31
436.284	626.31
436.505	525.31
436.727	488.31
436.949	437.31
437.17	431.31
437.392	437.31
437.614	451.31
437.835	480.31
438.057	553.31
438.278	668.31
438.5	660.31
438.721	714.31
438.943	675.31
439.165	552.31
439.386	492.31
439.608	494.31
439.829	458.31
440.05	489.31
440.272	523.31
440.493	518.31
440.715	451.31
440.936	444.31
441.158	428.31
441.379	433.31
441.6	437.31
441.822	452.31
442.043	491.31
442.264	577.31
442.486	603.31
442.707	515.31
442.928	483.31
443.149	497.31
443.371	515.31
443.592	521.31
443.813	614.31
444.034	649.31
444.255	531.31
444.476	473.31
444.698	484.31
444.919	461.31
445.14	607.31
445.361	523.31
445.582	481.31
445.803	577.31
446.024	675.31
446.245	650.31
446.466	623.31
446.687	532.31
446.908	464.31
447.129	439.31
447.35	428.31
447.571	453.31
447.792	419.31
448.013	436.31
448.234	471.31
448.455	516.31
448.675	604.31
448.896	693.31
449.117	604.31
449.338	568.31
449.559	654.31
449.779	718.31
450	555.31
450.221	477.31
450.442	424.31
450.662	441.31
450.883	444.31
451.104	451.31
451.324	413.31
451.545	417.31
451.766	405.31
451.986	383.31
452.207	374.31
452.428	383.31
452.648	388.31
452.869	393.31
453.089	394.31
453.31	424.31
453.53	402.31
453.751	387.31
453.971	397.31
454.192	398.31
454.412	381.31
454.633	382.31
454.853	389.31
455.073	381.31
455.294	414.31
455.514	471.31
455.734	433.31
455.955	369.31
456.175	360.31
456.395	349.31
456.616	346.31
456.836	356.31
457.056	354.31
457.276	345.31
457.497	358.31
457.717	355.31
457.937	370.31
458.157	371.31
458.377	375.31
458.598	402.31
458.818	458.31
459.038	541.31
459.258	570.31
459.478	447.31
459.698	392.31
459.918	409.31
460.138	401.31
460.358	393.31
460.578	385.31
460.798	389.31
461.018	381.31
461.238	375.31
461.458	395.31
461.678	390.31
461.898	378.31
462.118	395.31
462.338	394.31
462.558	393.31
462.777	400.31
462.997	396.31
463.217	397.31
463.437	423.31
463.657	398.31
463.876	402.31
464.096	417.31
464.316	426.31
464.536	425.31
464.755	421.31
464.975	427.31
465.195	460.31
465.414	539.31
465.634	488.31
465.854	429.31
466.073	395.31
466.293	402.31
466.512	387.31
466.732	378.31
466.951	391.31
467.171	369.31
467.391	391.31
467.61	385.31
467.829	389.31
468.049	402.31
468.268	378.31
468.488	369.31
468.707	369.31
468.927	384.31
469.146	382.31
469.365	382.31
469.585	364.31
469.804	398.31
470.023	411.31
470.243	376.31
470.462	391.31
470.681	424.31
470.901	398.31
471.12	387.31
471.339	400.31
471.558	401.31
471.777	399.31
471.997	366.31
472.216	394.31
472.435	435.31
472.654	413.31
472.873	391.31
473.092	379.31
473.311	378.31
473.53	403.31
473.749	411.31
473.968	451.31
474.187	536.31
474.406	575.31
474.625	448.31
474.844	407.31
475.063	405.31
475.282	403.31
475.501	411.31
475.72	405.31
475.939	423.31
476.158	407.31
476.377	419.31
476.596	392.31
476.814	411.31
477.033	413.31
477.252	417.31
477.471	408.31
477.69	425.31
477.908	388.31
478.127	421.31
478.346	427.31
478.564	441.31
478.783	441.31
479.002	424.31
479.22	446.31
479.439	457.31
479.658	465.31
479.876	474.31
480.095	482.31
480.313	495.31
480.532	479.31
480.751	503.31
480.969	488.31
481.188	519.31
481.406	562.31
481.624	489.31
481.843	471.31
482.061	475.31
482.28	469.31
482.498	460.31
482.717	457.31
482.935	469.31
483.153	448.31
483.372	456.31
483.59	463.31
483.808	468.31
484.027	461.31
484.245	455.31
484.463	458.31
484.681	467.31
484.9	460.31
485.118	460.31
485.336	455.31
485.554	480.31
485.772	453.31
485.99	481.31
486.209	477.31
486.427	472.31
486.645	493.31
486.863	507.31
487.081	507.31
487.299	500.31
487.517	485.31
487.735	476.31
487.953	490.31
488.171	478.31
488.389	482.31
488.607	500.31
488.825	471.31
489.043	495.31
489.261	484.31
489.479	517.31
489.696	507.31
489.914	509.31
490.132	506.31
490.35	509.31
490.568	524.31
490.786	517.31
491.003	530.31
491.221	543.31
491.439	583.31
491.657	549.31
491.874	559.31
492.092	535.31
492.31	555.31
492.527	564.31
492.745	572.31
492.963	573.31
493.18	569.31
493.398	581.31
493.615	562.31
493.833	572.31
494.05	576.31
494.268	582.31
494.485	591.31
494.703	572.31
494.92	552.31
495.138	580.31
495.355	587.31
495.573	600.31
495.79	595.31
496.008	584.31
496.225	573.31
496.442	590.31
496.66	575.31
496.877	580.31
497.094	597.31
497.312	596.31
497.529	597.31
497.746	609.31
497.963	612.31
498.181	638.31
498.398	620.31
498.615	627.31
498.832	636.31
499.049	641.31
499.267	645.31
499.484	666.31
499.701	692.31
499.918	665.31
500.135	689.31
500.352	697.31
500.569	720.31
500.786	723.31
501.003	714.31
501.22	715.31
501.437	724.31
501.654	710.31
501.871	675.31
