Data from 1981.PennyLincolnUp.Lamp.En5.5.200Scan.071819.P1_HRD10591_16-40-26-959.txt Node
Date: Thu Jul 18 16:40:26 EDT 2019
User: cochatt
Spectrometer: HR+D1059
Trigger mode: 1
Integration Time (sec): 1.000000E-1
Scans to average: 1
Electric dark correction enabled: true
Nonlinearity correction enabled: false
Boxcar width: 0
XAxis mode: Wavelengths
Number of Pixels in Spectrum: 2048
>>>>>Begin Spectral Data<<<<<
223.165	-4.94
223.4	-4.94
223.635	-4.94
223.869	-18.94
224.104	-15.94
224.338	-12.94
224.573	-11.94
224.808	-8.94
225.042	-11.94
225.277	-12.94
225.511	-5.94
225.746	11.06
225.98	3.06
226.215	8.06
226.449	12.06
226.683	12.06
226.918	18.06
227.152	40.06
227.387	13.06
227.621	22.06
227.856	33.06
228.09	47.06
228.324	54.06
228.559	44.06
228.793	55.06
229.027	81.06
229.262	96.06
229.496	107.06
229.73	119.06
229.964	125.06
230.199	105.06
230.433	85.06
230.667	96.06
230.901	91.06
231.136	89.06
231.37	107.06
231.604	105.06
231.838	87.06
232.072	102.06
232.306	103.06
232.541	103.06
232.775	102.06
233.009	99.06
233.243	98.06
233.477	102.06
233.711	111.06
233.945	99.06
234.179	106.06
234.413	112.06
234.647	109.06
234.881	104.06
235.115	116.06
235.349	99.06
235.583	99.06
235.817	99.06
236.051	95.06
236.285	97.06
236.519	98.06
236.753	119.06
236.987	122.06
237.221	135.06
237.455	167.06
237.689	143.06
237.922	116.06
238.156	109.06
238.39	107.06
238.624	113.06
238.858	105.06
239.091	107.06
239.325	103.06
239.559	101.06
239.793	93.06
240.027	105.06
240.26	129.06
240.494	129.06
240.728	121.06
240.961	116.06
241.195	123.06
241.429	102.06
241.662	102.06
241.896	116.06
242.13	117.06
242.363	121.06
242.597	120.06
242.83	121.06
243.064	121.06
243.298	122.06
243.531	114.06
243.765	115.06
243.998	113.06
244.232	119.06
244.465	125.06
244.699	122.06
244.932	104.06
245.166	125.06
245.399	129.06
245.633	121.06
245.866	129.06
246.099	134.06
246.333	122.06
246.566	127.06
246.8	124.06
247.033	137.06
247.266	133.06
247.5	123.06
247.733	139.06
247.966	147.06
248.2	147.06
248.433	149.06
248.666	145.06
248.899	152.06
249.133	175.06
249.366	157.06
249.599	149.06
249.832	148.06
250.066	145.06
250.299	137.06
250.532	152.06
250.765	170.06
250.998	170.06
251.231	186.06
251.465	181.06
251.698	171.06
251.931	153.06
252.164	170.06
252.397	163.06
252.63	153.06
252.863	175.06
253.096	177.06
253.329	168.06
253.562	171.06
253.795	185.06
254.028	169.06
254.261	181.06
254.494	182.06
254.727	197.06
254.96	208.06
255.193	183.06
255.426	199.06
255.659	188.06
255.892	187.06
256.124	176.06
256.357	184.06
256.59	188.06
256.823	154.06
257.056	167.06
257.289	154.06
257.521	175.06
257.754	170.06
257.987	164.06
258.22	192.06
258.452	186.06
258.685	156.06
258.918	167.06
259.151	173.06
259.383	171.06
259.616	181.06
259.849	187.06
260.081	185.06
260.314	181.06
260.547	214.06
260.779	185.06
261.012	160.06
261.244	181.06
261.477	190.06
261.71	186.06
261.942	186.06
262.175	201.06
262.407	182.06
262.64	156.06
262.872	159.06
263.105	184.06
263.337	167.06
263.57	187.06
263.802	175.06
264.035	173.06
264.267	159.06
264.499	186.06
264.732	168.06
264.964	185.06
265.197	176.06
265.429	161.06
265.661	171.06
265.894	173.06
266.126	188.06
266.358	188.06
266.591	193.06
266.823	180.06
267.055	187.06
267.287	197.06
267.52	167.06
267.752	185.06
267.984	175.06
268.216	172.06
268.448	188.06
268.681	192.06
268.913	225.06
269.145	211.06
269.377	214.06
269.609	199.06
269.841	205.06
270.073	229.06
270.306	237.06
270.538	246.06
270.77	241.06
271.002	227.06
271.234	233.06
271.466	226.06
271.698	233.06
271.93	238.06
272.162	243.06
272.394	238.06
272.626	220.06
272.858	218.06
273.09	218.06
273.322	226.06
273.553	196.06
273.785	213.06
274.017	228.06
274.249	215.06
274.481	215.06
274.713	219.06
274.945	229.06
275.176	207.06
275.408	209.06
275.64	209.06
275.872	225.06
276.104	218.06
276.335	217.06
276.567	202.06
276.799	234.06
277.031	239.06
277.262	233.06
277.494	249.06
277.726	240.06
277.957	247.06
278.189	226.06
278.421	207.06
278.652	209.06
278.884	209.06
279.115	229.06
279.347	200.06
279.579	228.06
279.81	233.06
280.042	228.06
280.273	200.06
280.505	230.06
280.736	217.06
280.968	212.06
281.199	217.06
281.431	206.06
281.662	221.06
281.894	219.06
282.125	225.06
282.356	227.06
282.588	230.06
282.819	232.06
283.051	220.06
283.282	217.06
283.513	220.06
283.745	231.06
283.976	199.06
284.207	227.06
284.439	219.06
284.67	200.06
284.901	225.06
285.132	219.06
285.364	221.06
285.595	218.06
285.826	213.06
286.057	223.06
286.288	214.06
286.52	232.06
286.751	212.06
286.982	218.06
287.213	206.06
287.444	223.06
287.675	223.06
287.906	234.06
288.138	247.06
288.369	245.06
288.6	217.06
288.831	230.06
289.062	239.06
289.293	231.06
289.524	238.06
289.755	229.06
289.986	243.06
290.217	219.06
290.448	224.06
290.679	219.06
290.91	213.06
291.141	234.06
291.371	209.06
291.602	231.06
291.833	220.06
292.064	220.06
292.295	224.06
292.526	235.06
292.757	213.06
292.987	225.06
293.218	234.06
293.449	224.06
293.68	236.06
293.91	226.06
294.141	218.06
294.372	216.06
294.603	235.06
294.833	221.06
295.064	243.06
295.295	211.06
295.525	228.06
295.756	240.06
295.987	247.06
296.217	231.06
296.448	274.06
296.679	244.06
296.909	229.06
297.14	237.06
297.37	215.06
297.601	223.06
297.831	228.06
298.062	231.06
298.292	233.06
298.523	253.06
298.753	239.06
298.984	233.06
299.214	219.06
299.445	261.06
299.675	260.06
299.905	260.06
300.136	231.06
300.366	234.06
300.597	241.06
300.827	252.06
301.057	269.06
301.288	254.06
301.518	260.06
301.748	256.06
301.979	257.06
302.209	243.06
302.439	263.06
302.669	263.06
302.9	255.06
303.13	248.06
303.36	247.06
303.59	257.06
303.82	252.06
304.051	265.06
304.281	273.06
304.511	243.06
304.741	244.06
304.971	252.06
305.201	258.06
305.431	252.06
305.661	252.06
305.891	269.06
306.121	252.06
306.352	264.06
306.582	261.06
306.812	243.06
307.042	250.06
307.272	253.06
307.502	249.06
307.731	251.06
307.961	259.06
308.191	261.06
308.421	263.06
308.651	273.06
308.881	252.06
309.111	253.06
309.341	275.06
309.571	275.06
309.8	289.06
310.03	288.06
310.26	273.06
310.49	280.06
310.72	285.06
310.949	291.06
311.179	302.06
311.409	299.06
311.639	298.06
311.868	269.06
312.098	300.06
312.328	292.06
312.557	307.06
312.787	312.06
313.017	292.06
313.246	291.06
313.476	285.06
313.706	307.06
313.935	305.06
314.165	299.06
314.394	303.06
314.624	304.06
314.853	298.06
315.083	289.06
315.312	295.06
315.542	303.06
315.771	275.06
316.001	287.06
316.23	276.06
316.46	288.06
316.689	269.06
316.919	283.06
317.148	315.06
317.377	312.06
317.607	306.06
317.836	293.06
318.065	291.06
318.295	283.06
318.524	277.06
318.753	299.06
318.983	282.06
319.212	302.06
319.441	293.06
319.67	299.06
319.9	279.06
320.129	279.06
320.358	288.06
320.587	307.06
320.816	307.06
321.046	321.06
321.275	306.06
321.504	294.06
321.733	315.06
321.962	298.06
322.191	314.06
322.42	311.06
322.649	346.06
322.878	346.06
323.108	337.06
323.337	360.06
323.566	372.06
323.795	372.06
324.024	418.06
324.253	508.06
324.482	697.06
324.71	1065.06
324.939	1414.06
325.168	1231.06
325.397	649.06
325.626	462.06
325.855	405.06
326.084	373.06
326.313	363.06
326.542	373.06
326.77	420.06
326.999	493.06
327.228	651.06
327.457	925.06
327.686	1061.06
327.914	714.06
328.143	480.06
328.372	447.06
328.6	419.06
328.829	395.06
329.058	392.06
329.287	401.06
329.515	376.06
329.744	374.06
329.972	371.06
330.201	351.06
330.43	403.06
330.658	411.06
330.887	425.06
331.115	409.06
331.344	385.06
331.572	355.06
331.801	358.06
332.03	353.06
332.258	339.06
332.486	337.06
332.715	341.06
332.943	327.06
333.172	335.06
333.4	332.06
333.629	347.06
333.857	357.06
334.085	360.06
334.314	345.06
334.542	355.06
334.771	348.06
334.999	337.06
335.227	359.06
335.455	325.06
335.684	325.06
335.912	321.06
336.14	321.06
336.369	343.06
336.597	324.06
336.825	337.06
337.053	339.06
337.281	333.06
337.51	334.06
337.738	325.06
337.966	339.06
338.194	333.06
338.422	341.06
338.65	338.06
338.878	335.06
339.106	319.06
339.334	322.06
339.562	327.06
339.79	317.06
340.018	320.06
340.246	314.06
340.474	321.06
340.702	310.06
340.93	321.06
341.158	323.06
341.386	313.06
341.614	330.06
341.842	335.06
342.07	330.06
342.298	317.06
342.526	319.06
342.754	332.06
342.981	330.06
343.209	307.06
343.437	310.06
343.665	316.06
343.893	316.06
344.12	320.06
344.348	340.06
344.576	311.06
344.804	335.06
345.031	335.06
345.259	327.06
345.487	329.06
345.714	320.06
345.942	333.06
346.17	328.06
346.397	312.06
346.625	321.06
346.853	307.06
347.08	305.06
347.308	317.06
347.535	317.06
347.763	309.06
347.99	316.06
348.218	332.06
348.445	320.06
348.673	317.06
348.9	297.06
349.128	315.06
349.355	289.06
349.583	295.06
349.81	309.06
350.037	311.06
350.265	299.06
350.492	303.06
350.72	314.06
350.947	315.06
351.174	300.06
351.402	321.06
351.629	309.06
351.856	298.06
352.083	290.06
352.311	323.06
352.538	313.06
352.765	328.06
352.992	325.06
353.22	317.06
353.447	312.06
353.674	310.06
353.901	292.06
354.128	277.06
354.355	291.06
354.583	306.06
354.81	283.06
355.037	277.06
355.264	292.06
355.491	286.06
355.718	277.06
355.945	288.06
356.172	292.06
356.399	278.06
356.626	303.06
356.853	299.06
357.08	291.06
357.307	286.06
357.534	279.06
357.761	300.06
357.988	289.06
358.215	297.06
358.441	297.06
358.668	304.06
358.895	289.06
359.122	297.06
359.349	292.06
359.576	296.06
359.802	321.06
360.029	345.06
360.256	359.06
360.483	328.06
360.709	315.06
360.936	311.06
361.163	316.06
361.39	306.06
361.616	317.06
361.843	295.06
362.07	306.06
362.296	310.06
362.523	298.06
362.749	292.06
362.976	292.06
363.203	300.06
363.429	294.06
363.656	285.06
363.882	299.06
364.109	302.06
364.335	283.06
364.562	290.06
364.788	294.06
365.015	295.06
365.241	305.06
365.468	287.06
365.694	293.06
365.92	299.06
366.147	277.06
366.373	289.06
366.599	299.06
366.826	300.06
367.052	293.06
367.278	294.06
367.505	280.06
367.731	297.06
367.957	283.06
368.184	293.06
368.41	317.06
368.636	306.06
368.862	311.06
369.089	293.06
369.315	309.06
369.541	284.06
369.767	308.06
369.993	293.06
370.219	295.06
370.445	272.06
370.672	283.06
370.898	288.06
371.124	314.06
371.35	278.06
371.576	279.06
371.802	300.06
372.028	295.06
372.254	288.06
372.48	282.06
372.706	285.06
372.932	292.06
373.158	292.06
373.384	283.06
373.61	297.06
373.835	303.06
374.061	295.06
374.287	293.06
374.513	291.06
374.739	300.06
374.965	280.06
375.191	291.06
375.416	289.06
375.642	288.06
375.868	281.06
376.094	295.06
376.319	281.06
376.545	278.06
376.771	296.06
376.997	294.06
377.222	292.06
377.448	296.06
377.674	283.06
377.899	281.06
378.125	297.06
378.35	300.06
378.576	285.06
378.802	279.06
379.027	287.06
379.253	294.06
379.478	289.06
379.704	285.06
379.929	295.06
380.155	299.06
380.38	295.06
380.606	295.06
380.831	302.06
381.057	279.06
381.282	282.06
381.507	299.06
381.733	281.06
381.958	290.06
382.184	281.06
382.409	276.06
382.634	314.06
382.86	290.06
383.085	300.06
383.31	288.06
383.535	305.06
383.761	294.06
383.986	295.06
384.211	297.06
384.436	308.06
384.662	284.06
384.887	295.06
385.112	298.06
385.337	308.06
385.562	293.06
385.787	321.06
386.013	307.06
386.238	308.06
386.463	306.06
386.688	298.06
386.913	315.06
387.138	298.06
387.363	292.06
387.588	295.06
387.813	307.06
388.038	303.06
388.263	304.06
388.488	291.06
388.713	304.06
388.938	289.06
389.163	287.06
389.387	306.06
389.612	301.06
389.837	310.06
390.062	296.06
390.287	282.06
390.512	308.06
390.736	291.06
390.961	292.06
391.186	300.06
391.411	281.06
391.636	311.06
391.86	327.06
392.085	310.06
392.31	304.06
392.534	311.06
392.759	320.06
392.984	298.06
393.208	308.06
393.433	308.06
393.658	313.06
393.882	320.06
394.107	308.06
394.331	321.06
394.556	302.06
394.78	300.06
395.005	305.06
395.229	298.06
395.454	303.06
395.678	313.06
395.903	316.06
396.127	329.06
396.352	331.06
396.576	315.06
396.801	321.06
397.025	321.06
397.249	317.06
397.474	325.06
397.698	302.06
397.922	321.06
398.147	339.06
398.371	337.06
398.595	316.06
398.82	320.06
399.044	317.06
399.268	341.06
399.492	356.06
399.717	379.06
399.941	373.06
400.165	395.06
400.389	425.06
400.613	364.06
400.837	375.06
401.062	337.06
401.286	345.06
401.51	351.06
401.734	345.06
401.958	326.06
402.182	327.06
402.406	323.06
402.63	328.06
402.854	339.06
403.078	322.06
403.302	342.06
403.526	345.06
403.75	346.06
403.974	336.06
404.198	333.06
404.422	342.06
404.645	333.06
404.869	349.06
405.093	368.06
405.317	373.06
405.541	384.06
405.765	355.06
405.988	348.06
406.212	363.06
406.436	357.06
406.66	372.06
406.883	362.06
407.107	389.06
407.331	387.06
407.555	439.06
407.778	427.06
408.002	409.06
408.226	391.06
408.449	380.06
408.673	394.06
408.896	401.06
409.12	413.06
409.344	399.06
409.567	376.06
409.791	349.06
410.014	331.06
410.238	333.06
410.461	361.06
410.685	336.06
410.908	361.06
411.132	385.06
411.355	399.06
411.578	381.06
411.802	368.06
412.025	333.06
412.249	312.06
412.472	327.06
412.695	349.06
412.919	340.06
413.142	338.06
413.365	310.06
413.589	319.06
413.812	320.06
414.035	314.06
414.258	327.06
414.482	323.06
414.705	326.06
414.928	333.06
415.151	320.06
415.374	336.06
415.597	320.06
415.821	321.06
416.044	330.06
416.267	315.06
416.49	316.06
416.713	326.06
416.936	323.06
417.159	304.06
417.382	330.06
417.605	313.06
417.828	331.06
418.051	328.06
418.274	325.06
418.497	306.06
418.72	323.06
418.943	319.06
419.166	354.06
419.389	349.06
419.611	339.06
419.834	331.06
420.057	338.06
420.28	336.06
420.503	346.06
420.726	346.06
420.948	348.06
421.171	360.06
421.394	387.06
421.617	346.06
421.839	332.06
422.062	330.06
422.285	352.06
422.507	378.06
422.73	433.06
422.953	416.06
423.175	359.06
423.398	367.06
423.621	325.06
423.843	359.06
424.066	355.06
424.288	353.06
424.511	372.06
424.733	406.06
424.956	454.06
425.178	451.06
425.401	417.06
425.623	434.06
425.846	389.06
426.068	379.06
426.291	363.06
426.513	345.06
426.735	371.06
426.958	387.06
427.18	421.06
427.402	523.06
427.625	575.06
427.847	505.06
428.069	440.06
428.292	401.06
428.514	379.06
428.736	352.06
428.958	340.06
429.181	327.06
429.403	346.06
429.625	324.06
429.847	372.06
430.069	411.06
430.292	414.06
430.514	349.06
430.736	335.06
430.958	314.06
431.18	321.06
431.402	300.06
431.624	316.06
431.846	328.06
432.068	314.06
432.29	307.06
432.512	315.06
432.734	343.06
432.956	308.06
433.178	328.06
433.4	343.06
433.622	316.06
433.844	339.06
434.066	326.06
434.287	313.06
434.509	331.06
434.731	339.06
434.953	343.06
435.175	325.06
435.397	332.06
435.618	342.06
435.84	380.06
436.062	457.06
436.284	483.06
436.505	429.06
436.727	373.06
436.949	375.06
437.17	341.06
437.392	345.06
437.614	351.06
437.835	356.06
438.057	428.06
438.278	487.06
438.5	487.06
438.721	509.06
438.943	499.06
439.165	402.06
439.386	364.06
439.608	371.06
439.829	368.06
440.05	375.06
440.272	414.06
440.493	379.06
440.715	360.06
440.936	351.06
441.158	348.06
441.379	357.06
441.6	343.06
441.822	369.06
442.043	381.06
442.264	433.06
442.486	459.06
442.707	392.06
442.928	387.06
443.149	367.06
443.371	391.06
443.592	400.06
443.813	485.06
444.034	518.06
444.255	421.06
444.476	372.06
444.698	361.06
444.919	343.06
445.14	456.06
445.361	411.06
445.582	388.06
445.803	449.06
446.024	496.06
446.245	506.06
446.466	450.06
446.687	385.06
446.908	364.06
447.129	334.06
447.35	336.06
447.571	352.06
447.792	323.06
448.013	341.06
448.234	351.06
448.455	394.06
448.675	473.06
448.896	545.06
449.117	465.06
449.338	436.06
449.559	492.06
449.779	541.06
450	428.06
450.221	380.06
450.442	341.06
450.662	329.06
450.883	333.06
451.104	365.06
451.324	335.06
451.545	322.06
451.766	309.06
451.986	305.06
452.207	297.06
452.428	285.06
452.648	315.06
452.869	290.06
453.089	299.06
453.31	314.06
453.53	322.06
453.751	306.06
453.971	306.06
454.192	326.06
454.412	300.06
454.633	287.06
454.853	319.06
455.073	290.06
455.294	337.06
455.514	361.06
455.734	376.06
455.955	311.06
456.175	297.06
456.395	263.06
456.616	285.06
456.836	284.06
457.056	301.06
457.276	291.06
457.497	281.06
457.717	291.06
457.937	299.06
458.157	289.06
458.377	290.06
458.598	325.06
458.818	345.06
459.038	401.06
459.258	387.06
459.478	350.06
459.698	315.06
459.918	315.06
460.138	312.06
460.358	297.06
460.578	305.06
460.798	303.06
461.018	337.06
461.238	312.06
461.458	323.06
461.678	326.06
461.898	321.06
462.118	309.06
462.338	330.06
462.558	325.06
462.777	329.06
462.997	329.06
463.217	344.06
463.437	337.06
463.657	332.06
463.876	352.06
464.096	339.06
464.316	331.06
464.536	348.06
464.755	336.06
464.975	348.06
465.195	371.06
465.414	394.06
465.634	364.06
465.854	341.06
466.073	331.06
466.293	323.06
466.512	306.06
466.732	313.06
466.951	304.06
467.171	298.06
467.391	319.06
467.61	319.06
467.829	328.06
468.049	300.06
468.268	303.06
468.488	296.06
468.707	296.06
468.927	301.06
469.146	304.06
469.365	299.06
469.585	314.06
469.804	313.06
470.023	289.06
470.243	294.06
470.462	327.06
470.681	315.06
470.901	304.06
471.12	310.06
471.339	283.06
471.558	300.06
471.777	326.06
471.997	302.06
472.216	318.06
472.435	322.06
472.654	317.06
472.873	312.06
473.092	308.06
473.311	304.06
473.53	291.06
473.749	327.06
473.968	358.06
474.187	424.06
474.406	418.06
474.625	356.06
474.844	323.06
475.063	309.06
475.282	304.06
475.501	319.06
475.72	338.06
475.939	308.06
476.158	330.06
476.377	328.06
476.596	321.06
476.814	321.06
477.033	316.06
477.252	323.06
477.471	326.06
477.69	320.06
477.908	325.06
478.127	356.06
478.346	329.06
478.564	331.06
478.783	361.06
479.002	337.06
479.22	359.06
479.439	353.06
479.658	367.06
479.876	362.06
480.095	345.06
480.313	358.06
480.532	378.06
480.751	385.06
480.969	371.06
481.188	366.06
481.406	379.06
481.624	375.06
481.843	371.06
482.061	358.06
482.28	367.06
482.498	357.06
482.717	357.06
482.935	364.06
483.153	364.06
483.372	373.06
483.59	369.06
483.808	368.06
484.027	357.06
484.245	381.06
484.463	384.06
484.681	375.06
484.9	378.06
485.118	364.06
485.336	374.06
485.554	375.06
485.772	379.06
485.99	362.06
486.209	397.06
486.427	375.06
486.645	376.06
486.863	397.06
487.081	393.06
487.299	380.06
487.517	381.06
487.735	391.06
487.953	390.06
488.171	370.06
488.389	379.06
488.607	387.06
488.825	391.06
489.043	385.06
489.261	402.06
489.479	409.06
489.696	391.06
489.914	393.06
490.132	421.06
490.35	398.06
490.568	401.06
490.786	404.06
491.003	402.06
491.221	422.06
491.439	413.06
491.657	415.06
491.874	445.06
492.092	419.06
492.31	432.06
492.527	421.06
492.745	418.06
492.963	427.06
493.18	431.06
493.398	447.06
493.615	450.06
493.833	449.06
494.05	447.06
494.268	444.06
494.485	453.06
494.703	456.06
494.92	450.06
495.138	462.06
495.355	471.06
495.573	474.06
495.79	452.06
496.008	458.06
496.225	485.06
496.442	468.06
496.66	457.06
496.877	460.06
497.094	453.06
497.312	450.06
497.529	462.06
497.746	465.06
497.963	493.06
498.181	487.06
498.398	495.06
498.615	501.06
498.832	509.06
499.049	489.06
499.267	508.06
499.484	529.06
499.701	531.06
499.918	563.06
500.135	567.06
500.352	584.06
500.569	604.06
500.786	616.06
501.003	612.06
501.22	597.06
501.437	582.06
501.654	561.06
501.871	556.06
502.088	546.06
502.305	537.06
