Data from 1981.PennyLincolnUp.Lamp.En5.5.200Scan.071819.P1_HRD10591_16-42-42-960.txt Node
Date: Thu Jul 18 16:42:42 EDT 2019
User: cochatt
Spectrometer: HR+D1059
Trigger mode: 1
Integration Time (sec): 1.000000E-1
Scans to average: 1
Electric dark correction enabled: true
Nonlinearity correction enabled: false
Boxcar width: 0
XAxis mode: Wavelengths
Number of Pixels in Spectrum: 2048
>>>>>Begin Spectral Data<<<<<
223.165	-22.56
223.4	-22.56
223.635	-22.56
223.869	-16.56
224.104	-20.56
224.338	-15.56
224.573	-15.56
224.808	-27.56
225.042	0.44
225.277	9.44
225.511	5.44
225.746	4.44
225.98	0.44
226.215	18.44
226.449	11.44
226.683	26.44
226.918	25.44
227.152	16.44
227.387	27.44
227.621	23.44
227.856	46.44
228.09	45.44
228.324	55.44
228.559	58.44
228.793	75.44
229.027	93.44
229.262	120.44
229.496	127.44
229.73	139.44
229.964	170.44
230.199	150.44
230.433	93.44
230.667	116.44
230.901	124.44
231.136	113.44
231.37	118.44
231.604	128.44
231.838	107.44
232.072	109.44
232.306	109.44
232.541	124.44
232.775	107.44
233.009	101.44
233.243	112.44
233.477	119.44
233.711	121.44
233.945	111.44
234.179	118.44
234.413	110.44
234.647	112.44
234.881	114.44
235.115	113.44
235.349	112.44
235.583	126.44
235.817	116.44
236.051	131.44
236.285	123.44
236.519	117.44
236.753	141.44
236.987	140.44
237.221	206.44
237.455	228.44
237.689	188.44
237.922	143.44
238.156	128.44
238.39	143.44
238.624	125.44
238.858	120.44
239.091	130.44
239.325	127.44
239.559	138.44
239.793	130.44
240.027	137.44
240.26	132.44
240.494	167.44
240.728	175.44
240.961	153.44
241.195	153.44
241.429	157.44
241.662	131.44
241.896	138.44
242.13	128.44
242.363	138.44
242.597	127.44
242.83	145.44
243.064	152.44
243.298	125.44
243.531	139.44
243.765	132.44
243.998	142.44
244.232	140.44
244.465	148.44
244.699	161.44
244.932	157.44
245.166	140.44
245.399	154.44
245.633	140.44
245.866	143.44
246.099	141.44
246.333	140.44
246.566	148.44
246.8	172.44
247.033	166.44
247.266	156.44
247.5	163.44
247.733	158.44
247.966	173.44
248.2	185.44
248.433	190.44
248.666	178.44
248.899	203.44
249.133	212.44
249.366	211.44
249.599	218.44
249.832	216.44
250.066	201.44
250.299	192.44
250.532	185.44
250.765	204.44
250.998	227.44
251.231	254.44
251.465	227.44
251.698	229.44
251.931	217.44
252.164	219.44
252.397	217.44
252.63	213.44
252.863	212.44
253.096	233.44
253.329	266.44
253.562	235.44
253.795	244.44
254.028	244.44
254.261	256.44
254.494	245.44
254.727	270.44
254.96	299.44
255.193	295.44
255.426	268.44
255.659	264.44
255.892	270.44
256.124	249.44
256.357	251.44
256.59	244.44
256.823	229.44
257.056	247.44
257.289	217.44
257.521	216.44
257.754	219.44
257.987	220.44
258.22	214.44
258.452	222.44
258.685	219.44
258.918	227.44
259.151	212.44
259.383	241.44
259.616	248.44
259.849	226.44
260.081	258.44
260.314	261.44
260.547	308.44
260.779	284.44
261.012	265.44
261.244	243.44
261.477	242.44
261.71	240.44
261.942	252.44
262.175	268.44
262.407	267.44
262.64	255.44
262.872	221.44
263.105	228.44
263.337	221.44
263.57	234.44
263.802	217.44
264.035	225.44
264.267	212.44
264.499	218.44
264.732	232.44
264.964	224.44
265.197	225.44
265.429	222.44
265.661	216.44
265.894	239.44
266.126	248.44
266.358	225.44
266.591	222.44
266.823	233.44
267.055	224.44
267.287	246.44
267.52	237.44
267.752	242.44
267.984	243.44
268.216	248.44
268.448	247.44
268.681	269.44
268.913	274.44
269.145	275.44
269.377	276.44
269.609	293.44
269.841	303.44
270.073	290.44
270.306	329.44
270.538	336.44
270.77	343.44
271.002	339.44
271.234	326.44
271.466	309.44
271.698	338.44
271.93	336.44
272.162	370.44
272.394	355.44
272.626	343.44
272.858	320.44
273.09	323.44
273.322	292.44
273.553	300.44
273.785	298.44
274.017	292.44
274.249	280.44
274.481	287.44
274.713	278.44
274.945	283.44
275.176	280.44
275.408	296.44
275.64	301.44
275.872	282.44
276.104	286.44
276.335	274.44
276.567	290.44
276.799	309.44
277.031	316.44
277.262	335.44
277.494	354.44
277.726	335.44
277.957	322.44
278.189	314.44
278.421	302.44
278.652	290.44
278.884	290.44
279.115	291.44
279.347	307.44
279.579	276.44
279.81	272.44
280.042	278.44
280.273	278.44
280.505	280.44
280.736	290.44
280.968	287.44
281.199	263.44
281.431	285.44
281.662	265.44
281.894	272.44
282.125	269.44
282.356	302.44
282.588	325.44
282.819	325.44
283.051	306.44
283.282	290.44
283.513	298.44
283.745	301.44
283.976	300.44
284.207	300.44
284.439	306.44
284.67	291.44
284.901	289.44
285.132	295.44
285.364	277.44
285.595	288.44
285.826	297.44
286.057	294.44
286.288	290.44
286.52	283.44
286.751	282.44
286.982	284.44
287.213	283.44
287.444	292.44
287.675	311.44
287.906	308.44
288.138	315.44
288.369	312.44
288.6	334.44
288.831	312.44
289.062	322.44
289.293	326.44
289.524	286.44
289.755	313.44
289.986	310.44
290.217	308.44
290.448	288.44
290.679	292.44
290.91	298.44
291.141	302.44
291.371	304.44
291.602	283.44
291.833	276.44
292.064	299.44
292.295	309.44
292.526	299.44
292.757	288.44
292.987	309.44
293.218	298.44
293.449	303.44
293.68	309.44
293.91	289.44
294.141	301.44
294.372	292.44
294.603	292.44
294.833	310.44
295.064	288.44
295.295	303.44
295.525	298.44
295.756	311.44
295.987	346.44
296.217	335.44
296.448	366.44
296.679	308.44
296.909	299.44
297.14	291.44
297.37	317.44
297.601	298.44
297.831	310.44
298.062	314.44
298.292	300.44
298.523	310.44
298.753	306.44
298.984	327.44
299.214	319.44
299.445	292.44
299.675	316.44
299.905	297.44
300.136	319.44
300.366	306.44
300.597	323.44
300.827	319.44
301.057	321.44
301.288	323.44
301.518	341.44
301.748	347.44
301.979	344.44
302.209	318.44
302.439	323.44
302.669	325.44
302.9	333.44
303.13	330.44
303.36	359.44
303.59	346.44
303.82	334.44
304.051	340.44
304.281	350.44
304.511	348.44
304.741	338.44
304.971	327.44
305.201	336.44
305.431	345.44
305.661	355.44
305.891	334.44
306.121	349.44
306.352	355.44
306.582	372.44
306.812	363.44
307.042	330.44
307.272	355.44
307.502	340.44
307.731	330.44
307.961	340.44
308.191	336.44
308.421	332.44
308.651	357.44
308.881	352.44
309.111	360.44
309.341	350.44
309.571	383.44
309.8	375.44
310.03	385.44
310.26	401.44
310.49	410.44
310.72	412.44
310.949	441.44
311.179	415.44
311.409	412.44
311.639	386.44
311.868	386.44
312.098	412.44
312.328	433.44
312.557	438.44
312.787	448.44
313.017	439.44
313.246	398.44
313.476	413.44
313.706	399.44
313.935	387.44
314.165	417.44
314.394	414.44
314.624	422.44
314.853	396.44
315.083	418.44
315.312	391.44
315.542	379.44
315.771	397.44
316.001	404.44
316.23	397.44
316.46	412.44
316.689	391.44
316.919	408.44
317.148	410.44
317.377	397.44
317.607	412.44
317.836	404.44
318.065	411.44
318.295	379.44
318.524	407.44
318.753	391.44
318.983	405.44
319.212	425.44
319.441	407.44
319.67	417.44
319.9	410.44
320.129	405.44
320.358	432.44
320.587	395.44
320.816	414.44
321.046	436.44
321.275	425.44
321.504	431.44
321.733	425.44
321.962	449.44
322.191	460.44
322.42	459.44
322.649	489.44
322.878	488.44
323.108	508.44
323.337	536.44
323.566	576.44
323.795	607.44
324.024	712.44
324.253	833.44
324.482	1275.44
324.71	1898.44
324.939	2564.44
325.168	2186.44
325.397	1168.44
325.626	791.44
325.855	625.44
326.084	569.44
326.313	560.44
326.542	580.44
326.77	629.44
326.999	783.44
327.228	1060.44
327.457	1618.44
327.686	1899.44
327.914	1299.44
328.143	854.44
328.372	719.44
328.6	674.44
328.829	654.44
329.058	665.44
329.287	670.44
329.515	619.44
329.744	576.44
329.972	579.44
330.201	599.44
330.43	647.44
330.658	660.44
330.887	684.44
331.115	666.44
331.344	581.44
331.572	532.44
331.801	526.44
332.03	522.44
332.258	494.44
332.486	476.44
332.715	460.44
332.943	479.44
333.172	458.44
333.4	464.44
333.629	502.44
333.857	489.44
334.085	491.44
334.314	518.44
334.542	538.44
334.771	554.44
334.999	497.44
335.227	468.44
335.455	473.44
335.684	455.44
335.912	454.44
336.14	452.44
336.369	439.44
336.597	483.44
336.825	462.44
337.053	462.44
337.281	446.44
337.51	441.44
337.738	447.44
337.966	444.44
338.194	463.44
338.422	454.44
338.65	451.44
338.878	436.44
339.106	435.44
339.334	431.44
339.562	440.44
339.79	425.44
340.018	410.44
340.246	431.44
340.474	438.44
340.702	429.44
340.93	423.44
341.158	449.44
341.386	438.44
341.614	425.44
341.842	412.44
342.07	427.44
342.298	414.44
342.526	434.44
342.754	416.44
342.981	420.44
343.209	418.44
343.437	428.44
343.665	412.44
343.893	420.44
344.12	420.44
344.348	440.44
344.576	461.44
344.804	434.44
345.031	454.44
345.259	467.44
345.487	446.44
345.714	448.44
345.942	434.44
346.17	417.44
346.397	422.44
346.625	409.44
346.853	419.44
347.08	431.44
347.308	423.44
347.535	431.44
347.763	460.44
347.99	431.44
348.218	429.44
348.445	435.44
348.673	425.44
348.9	421.44
349.128	427.44
349.355	408.44
349.583	388.44
349.81	403.44
350.037	412.44
350.265	394.44
350.492	399.44
350.72	396.44
350.947	416.44
351.174	415.44
351.402	432.44
351.629	451.44
351.856	417.44
352.083	431.44
352.311	434.44
352.538	420.44
352.765	445.44
352.992	420.44
353.22	431.44
353.447	417.44
353.674	398.44
353.901	395.44
354.128	405.44
354.355	396.44
354.583	391.44
354.81	381.44
355.037	372.44
355.264	372.44
355.491	356.44
355.718	373.44
355.945	374.44
356.172	364.44
356.399	388.44
356.626	370.44
356.853	389.44
357.08	388.44
357.307	392.44
357.534	376.44
357.761	383.44
357.988	380.44
358.215	374.44
358.441	370.44
358.668	373.44
358.895	380.44
359.122	380.44
359.349	403.44
359.576	413.44
359.802	440.44
360.029	463.44
360.256	481.44
360.483	463.44
360.709	421.44
360.936	427.44
361.163	410.44
361.39	418.44
361.616	414.44
361.843	442.44
362.07	413.44
362.296	406.44
362.523	411.44
362.749	419.44
362.976	412.44
363.203	405.44
363.429	375.44
363.656	400.44
363.882	379.44
364.109	382.44
364.335	375.44
364.562	382.44
364.788	399.44
365.015	379.44
365.241	381.44
365.468	404.44
365.694	404.44
365.92	395.44
366.147	388.44
366.373	379.44
366.599	398.44
366.826	378.44
367.052	378.44
367.278	383.44
367.505	383.44
367.731	375.44
367.957	382.44
368.184	376.44
368.41	365.44
368.636	406.44
368.862	405.44
369.089	386.44
369.315	410.44
369.541	377.44
369.767	372.44
369.993	362.44
370.219	384.44
370.445	379.44
370.672	381.44
370.898	370.44
371.124	362.44
371.35	362.44
371.576	355.44
371.802	380.44
372.028	375.44
372.254	377.44
372.48	367.44
372.706	373.44
372.932	360.44
373.158	356.44
373.384	355.44
373.61	365.44
373.835	380.44
374.061	387.44
374.287	370.44
374.513	382.44
374.739	380.44
374.965	375.44
375.191	382.44
375.416	384.44
375.642	365.44
375.868	378.44
376.094	372.44
376.319	359.44
376.545	363.44
376.771	354.44
376.997	364.44
377.222	368.44
377.448	372.44
377.674	351.44
377.899	361.44
378.125	367.44
378.35	357.44
378.576	353.44
378.802	365.44
379.027	339.44
379.253	370.44
379.478	344.44
379.704	353.44
379.929	358.44
380.155	360.44
380.38	354.44
380.606	367.44
380.831	349.44
381.057	357.44
381.282	370.44
381.507	359.44
381.733	367.44
381.958	357.44
382.184	352.44
382.409	378.44
382.634	346.44
382.86	373.44
383.085	365.44
383.31	361.44
383.535	371.44
383.761	368.44
383.986	365.44
384.211	362.44
384.436	351.44
384.662	383.44
384.887	390.44
385.112	371.44
385.337	384.44
385.562	375.44
385.787	396.44
386.013	401.44
386.238	392.44
386.463	381.44
386.688	388.44
386.913	371.44
387.138	361.44
387.363	368.44
387.588	396.44
387.813	390.44
388.038	359.44
388.263	385.44
388.488	398.44
388.713	386.44
388.938	383.44
389.163	380.44
389.387	373.44
389.612	386.44
389.837	370.44
390.062	356.44
390.287	376.44
390.512	386.44
390.736	361.44
390.961	384.44
391.186	370.44
391.411	379.44
391.636	373.44
391.86	379.44
392.085	402.44
392.31	376.44
392.534	382.44
392.759	379.44
392.984	367.44
393.208	382.44
393.433	374.44
393.658	350.44
393.882	365.44
394.107	353.44
394.331	384.44
394.556	378.44
394.78	367.44
395.005	382.44
395.229	381.44
395.454	391.44
395.678	401.44
395.903	400.44
396.127	411.44
396.352	423.44
396.576	405.44
396.801	360.44
397.025	397.44
397.249	380.44
397.474	396.44
397.698	389.44
397.922	396.44
398.147	416.44
398.371	430.44
398.595	405.44
398.82	418.44
399.044	416.44
399.268	424.44
399.492	426.44
399.717	447.44
399.941	478.44
400.165	493.44
400.389	511.44
400.613	478.44
400.837	444.44
401.062	451.44
401.286	455.44
401.51	416.44
401.734	412.44
401.958	447.44
402.182	419.44
402.406	426.44
402.63	424.44
402.854	430.44
403.078	415.44
403.302	419.44
403.526	440.44
403.75	441.44
403.974	416.44
404.198	426.44
404.422	447.44
404.645	453.44
404.869	423.44
405.093	465.44
405.317	506.44
405.541	505.44
405.765	492.44
405.988	473.44
406.212	476.44
406.436	495.44
406.66	488.44
406.883	467.44
407.107	477.44
407.331	543.44
407.555	589.44
407.778	570.44
408.002	540.44
408.226	506.44
408.449	481.44
408.673	473.44
408.896	519.44
409.12	548.44
409.344	506.44
409.567	487.44
409.791	436.44
410.014	431.44
410.238	452.44
410.461	428.44
410.685	434.44
410.908	466.44
411.132	496.44
411.355	516.44
411.578	487.44
411.802	455.44
412.025	436.44
412.249	452.44
412.472	446.44
412.695	501.44
412.919	486.44
413.142	464.44
413.365	430.44
413.589	418.44
413.812	403.44
414.035	417.44
414.258	413.44
414.482	394.44
414.705	394.44
414.928	398.44
415.151	405.44
415.374	396.44
415.597	390.44
415.821	401.44
416.044	394.44
416.267	426.44
416.49	400.44
416.713	387.44
416.936	409.44
417.159	429.44
417.382	414.44
417.605	417.44
417.828	425.44
418.051	442.44
418.274	426.44
418.497	409.44
418.72	421.44
418.943	400.44
419.166	441.44
419.389	447.44
419.611	420.44
419.834	438.44
420.057	433.44
420.28	448.44
420.503	445.44
420.726	421.44
420.948	452.44
421.171	481.44
421.394	501.44
421.617	457.44
421.839	438.44
422.062	444.44
422.285	472.44
422.507	507.44
422.73	546.44
422.953	546.44
423.175	510.44
423.398	450.44
423.621	458.44
423.843	469.44
424.066	458.44
424.288	462.44
424.511	480.44
424.733	539.44
424.956	620.44
425.178	603.44
425.401	579.44
425.623	603.44
425.846	506.44
426.068	488.44
426.291	479.44
426.513	465.44
426.735	508.44
426.958	538.44
427.18	619.44
427.402	717.44
427.625	808.44
427.847	725.44
428.069	597.44
428.292	558.44
428.514	500.44
428.736	475.44
428.958	457.44
429.181	435.44
429.403	448.44
429.625	447.44
429.847	478.44
430.069	533.44
430.292	535.44
430.514	474.44
430.736	442.44
430.958	424.44
431.18	412.44
431.402	417.44
431.624	420.44
431.846	410.44
432.068	401.44
432.29	426.44
432.512	415.44
432.734	411.44
432.956	415.44
433.178	421.44
433.4	437.44
433.622	423.44
433.844	405.44
434.066	398.44
434.287	403.44
434.509	415.44
434.731	415.44
434.953	424.44
435.175	454.44
435.397	473.44
435.618	478.44
435.84	527.44
436.062	633.44
436.284	665.44
436.505	538.44
436.727	501.44
436.949	463.44
437.17	462.44
437.392	422.44
437.614	474.44
437.835	492.44
438.057	600.44
438.278	686.44
438.5	698.44
438.721	724.44
438.943	700.44
439.165	579.44
439.386	524.44
439.608	509.44
439.829	515.44
440.05	518.44
440.272	570.44
440.493	536.44
440.715	487.44
440.936	474.44
441.158	458.44
441.379	456.44
441.6	483.44
441.822	475.44
442.043	521.44
442.264	592.44
442.486	647.44
442.707	569.44
442.928	521.44
443.149	504.44
443.371	528.44
443.592	550.44
443.813	649.44
444.034	706.44
444.255	554.44
444.476	522.44
444.698	454.44
444.919	463.44
445.14	561.44
445.361	524.44
445.582	544.44
445.803	591.44
446.024	709.44
446.245	706.44
446.466	640.44
446.687	534.44
446.908	469.44
447.129	474.44
447.35	467.44
447.571	444.44
447.792	444.44
448.013	446.44
448.234	489.44
448.455	526.44
448.675	626.44
448.896	726.44
449.117	628.44
449.338	592.44
449.559	687.44
449.779	762.44
450	615.44
450.221	532.44
450.442	464.44
450.662	447.44
450.883	466.44
451.104	493.44
451.324	455.44
451.545	422.44
451.766	431.44
451.986	407.44
452.207	389.44
452.428	408.44
452.648	392.44
452.869	402.44
453.089	406.44
453.31	420.44
453.53	415.44
453.751	394.44
453.971	418.44
454.192	422.44
454.412	431.44
454.633	408.44
454.853	409.44
455.073	395.44
455.294	408.44
455.514	516.44
455.734	477.44
455.955	417.44
456.175	383.44
456.395	371.44
456.616	391.44
456.836	350.44
457.056	363.44
457.276	374.44
457.497	352.44
457.717	374.44
457.937	377.44
458.157	387.44
458.377	385.44
458.598	398.44
458.818	465.44
459.038	574.44
459.258	566.44
459.478	467.44
459.698	423.44
459.918	415.44
460.138	402.44
460.358	404.44
460.578	385.44
460.798	401.44
461.018	422.44
461.238	404.44
461.458	400.44
461.678	386.44
461.898	392.44
462.118	397.44
462.338	413.44
462.558	414.44
462.777	392.44
462.997	430.44
463.217	436.44
463.437	433.44
463.657	404.44
463.876	413.44
464.096	393.44
464.316	413.44
464.536	416.44
464.755	450.44
464.975	451.44
465.195	515.44
465.414	567.44
465.634	492.44
465.854	448.44
466.073	413.44
466.293	422.44
466.512	414.44
466.732	400.44
466.951	413.44
467.171	397.44
467.391	402.44
467.61	403.44
467.829	398.44
468.049	394.44
468.268	403.44
468.488	392.44
468.707	390.44
468.927	381.44
469.146	395.44
469.365	412.44
469.585	389.44
469.804	395.44
470.023	375.44
470.243	417.44
470.462	416.44
470.681	430.44
470.901	412.44
471.12	410.44
471.339	412.44
471.558	414.44
471.777	426.44
471.997	393.44
472.216	411.44
472.435	446.44
472.654	415.44
472.873	424.44
473.092	415.44
473.311	392.44
473.53	420.44
473.749	398.44
473.968	453.44
474.187	569.44
474.406	580.44
474.625	486.44
474.844	407.44
475.063	413.44
475.282	402.44
475.501	416.44
475.72	400.44
475.939	430.44
476.158	420.44
476.377	399.44
476.596	407.44
476.814	435.44
477.033	430.44
477.252	423.44
477.471	427.44
477.69	412.44
477.908	417.44
478.127	422.44
478.346	428.44
478.564	404.44
478.783	449.44
479.002	453.44
479.22	447.44
479.439	456.44
479.658	482.44
479.876	480.44
480.095	499.44
480.313	514.44
480.532	512.44
480.751	467.44
480.969	500.44
481.188	540.44
481.406	579.44
481.624	541.44
481.843	494.44
482.061	474.44
482.28	483.44
482.498	497.44
482.717	476.44
482.935	487.44
483.153	474.44
483.372	475.44
483.59	465.44
483.808	464.44
484.027	463.44
484.245	482.44
484.463	478.44
484.681	480.44
484.9	479.44
485.118	481.44
485.336	493.44
485.554	472.44
485.772	493.44
485.99	474.44
486.209	485.44
486.427	485.44
486.645	516.44
486.863	525.44
487.081	530.44
487.299	525.44
487.517	506.44
487.735	533.44
487.953	506.44
488.171	506.44
488.389	524.44
488.607	527.44
488.825	519.44
489.043	517.44
489.261	512.44
489.479	532.44
489.696	524.44
489.914	501.44
490.132	520.44
490.35	546.44
490.568	548.44
490.786	556.44
491.003	541.44
491.221	556.44
491.439	588.44
491.657	564.44
491.874	593.44
492.092	576.44
492.31	599.44
492.527	584.44
492.745	571.44
492.963	600.44
493.18	590.44
493.398	583.44
493.615	585.44
493.833	628.44
494.05	607.44
494.268	611.44
494.485	589.44
494.703	587.44
494.92	599.44
495.138	595.44
495.355	638.44
495.573	603.44
495.79	618.44
496.008	607.44
496.225	613.44
496.442	607.44
496.66	590.44
496.877	617.44
497.094	624.44
497.312	605.44
497.529	623.44
497.746	636.44
497.963	632.44
498.181	680.44
498.398	648.44
498.615	652.44
498.832	663.44
499.049	640.44
499.267	644.44
499.484	656.44
499.701	725.44
499.918	715.44
500.135	719.44
500.352	740.44
500.569	733.44
500.786	739.44
501.003	754.44
501.22	724.44
501.437	727.44
501.654	766.44
501.871	728.44
