Data from 1981.PennyLincolnUp.Lamp.En5.5.200Scan.071819.P1_HRD10591_16-40-34-961.txt Node
Date: Thu Jul 18 16:40:34 EDT 2019
User: cochatt
Spectrometer: HR+D1059
Trigger mode: 1
Integration Time (sec): 1.000000E-1
Scans to average: 1
Electric dark correction enabled: true
Nonlinearity correction enabled: false
Boxcar width: 0
XAxis mode: Wavelengths
Number of Pixels in Spectrum: 2048
>>>>>Begin Spectral Data<<<<<
223.165	-16.81
223.4	-16.81
223.635	-16.81
223.869	-19.81
224.104	-23.81
224.338	-8.81
224.573	-11.81
224.808	4.19
225.042	4.19
225.277	-7.81
225.511	-12.81
225.746	-1.81
225.98	3.19
226.215	12.19
226.449	10.19
226.683	22.19
226.918	25.19
227.152	22.19
227.387	35.19
227.621	38.19
227.856	40.19
228.09	41.19
228.324	38.19
228.559	42.19
228.793	69.19
229.027	79.19
229.262	92.19
229.496	82.19
229.73	114.19
229.964	133.19
230.199	117.19
230.433	115.19
230.667	99.19
230.901	97.19
231.136	98.19
231.37	96.19
231.604	102.19
231.838	113.19
232.072	106.19
232.306	104.19
232.541	108.19
232.775	105.19
233.009	111.19
233.243	104.19
233.477	108.19
233.711	80.19
233.945	105.19
234.179	98.19
234.413	116.19
234.647	108.19
234.881	98.19
235.115	103.19
235.349	106.19
235.583	113.19
235.817	119.19
236.051	107.19
236.285	110.19
236.519	110.19
236.753	98.19
236.987	128.19
237.221	153.19
237.455	204.19
237.689	168.19
237.922	123.19
238.156	126.19
238.39	91.19
238.624	110.19
238.858	108.19
239.091	114.19
239.325	117.19
239.559	122.19
239.793	125.19
240.027	111.19
240.26	131.19
240.494	146.19
240.728	144.19
240.961	135.19
241.195	119.19
241.429	127.19
241.662	119.19
241.896	114.19
242.13	113.19
242.363	110.19
242.597	121.19
242.83	126.19
243.064	119.19
243.298	116.19
243.531	112.19
243.765	116.19
243.998	126.19
244.232	132.19
244.465	128.19
244.699	126.19
244.932	128.19
245.166	131.19
245.399	148.19
245.633	130.19
245.866	122.19
246.099	138.19
246.333	135.19
246.566	139.19
246.8	147.19
247.033	121.19
247.266	144.19
247.5	146.19
247.733	156.19
247.966	143.19
248.2	155.19
248.433	152.19
248.666	162.19
248.899	169.19
249.133	181.19
249.366	163.19
249.599	164.19
249.832	151.19
250.066	164.19
250.299	155.19
250.532	182.19
250.765	175.19
250.998	191.19
251.231	192.19
251.465	177.19
251.698	186.19
251.931	180.19
252.164	190.19
252.397	180.19
252.63	203.19
252.863	208.19
253.096	180.19
253.329	196.19
253.562	182.19
253.795	184.19
254.028	197.19
254.261	185.19
254.494	185.19
254.727	221.19
254.96	231.19
255.193	223.19
255.426	213.19
255.659	206.19
255.892	223.19
256.124	218.19
256.357	204.19
256.59	191.19
256.823	190.19
257.056	201.19
257.289	186.19
257.521	199.19
257.754	189.19
257.987	198.19
258.22	193.19
258.452	187.19
258.685	174.19
258.918	204.19
259.151	187.19
259.383	203.19
259.616	207.19
259.849	196.19
260.081	209.19
260.314	229.19
260.547	231.19
260.779	214.19
261.012	209.19
261.244	204.19
261.477	206.19
261.71	203.19
261.942	200.19
262.175	208.19
262.407	199.19
262.64	191.19
262.872	204.19
263.105	191.19
263.337	187.19
263.57	191.19
263.802	207.19
264.035	183.19
264.267	174.19
264.499	177.19
264.732	186.19
264.964	194.19
265.197	202.19
265.429	191.19
265.661	204.19
265.894	176.19
266.126	201.19
266.358	182.19
266.591	188.19
266.823	192.19
267.055	203.19
267.287	198.19
267.52	201.19
267.752	200.19
267.984	188.19
268.216	216.19
268.448	196.19
268.681	210.19
268.913	216.19
269.145	219.19
269.377	245.19
269.609	230.19
269.841	232.19
270.073	248.19
270.306	264.19
270.538	252.19
270.77	294.19
271.002	254.19
271.234	266.19
271.466	270.19
271.698	280.19
271.93	285.19
272.162	286.19
272.394	261.19
272.626	267.19
272.858	266.19
273.09	253.19
273.322	241.19
273.553	233.19
273.785	247.19
274.017	238.19
274.249	238.19
274.481	251.19
274.713	235.19
274.945	239.19
275.176	228.19
275.408	245.19
275.64	232.19
275.872	239.19
276.104	231.19
276.335	210.19
276.567	232.19
276.799	242.19
277.031	256.19
277.262	266.19
277.494	268.19
277.726	259.19
277.957	247.19
278.189	236.19
278.421	242.19
278.652	256.19
278.884	245.19
279.115	252.19
279.347	229.19
279.579	240.19
279.81	243.19
280.042	219.19
280.273	231.19
280.505	227.19
280.736	213.19
280.968	219.19
281.199	222.19
281.431	242.19
281.662	240.19
281.894	234.19
282.125	233.19
282.356	234.19
282.588	257.19
282.819	250.19
283.051	224.19
283.282	240.19
283.513	238.19
283.745	238.19
283.976	247.19
284.207	240.19
284.439	262.19
284.67	262.19
284.901	227.19
285.132	231.19
285.364	241.19
285.595	244.19
285.826	233.19
286.057	248.19
286.288	238.19
286.52	247.19
286.751	235.19
286.982	264.19
287.213	239.19
287.444	241.19
287.675	249.19
287.906	256.19
288.138	266.19
288.369	248.19
288.6	264.19
288.831	259.19
289.062	259.19
289.293	245.19
289.524	238.19
289.755	253.19
289.986	271.19
290.217	250.19
290.448	248.19
290.679	246.19
290.91	241.19
291.141	244.19
291.371	266.19
291.602	259.19
291.833	264.19
292.064	262.19
292.295	261.19
292.526	226.19
292.757	258.19
292.987	252.19
293.218	248.19
293.449	251.19
293.68	242.19
293.91	240.19
294.141	244.19
294.372	241.19
294.603	254.19
294.833	258.19
295.064	243.19
295.295	235.19
295.525	265.19
295.756	240.19
295.987	243.19
296.217	279.19
296.448	272.19
296.679	270.19
296.909	252.19
297.14	258.19
297.37	272.19
297.601	245.19
297.831	254.19
298.062	262.19
298.292	265.19
298.523	265.19
298.753	266.19
298.984	251.19
299.214	267.19
299.445	274.19
299.675	262.19
299.905	278.19
300.136	282.19
300.366	278.19
300.597	265.19
300.827	262.19
301.057	262.19
301.288	290.19
301.518	270.19
301.748	251.19
301.979	271.19
302.209	280.19
302.439	304.19
302.669	289.19
302.9	276.19
303.13	268.19
303.36	269.19
303.59	288.19
303.82	282.19
304.051	290.19
304.281	264.19
304.511	272.19
304.741	297.19
304.971	281.19
305.201	287.19
305.431	274.19
305.661	285.19
305.891	269.19
306.121	292.19
306.352	268.19
306.582	286.19
306.812	279.19
307.042	279.19
307.272	297.19
307.502	282.19
307.731	288.19
307.961	297.19
308.191	283.19
308.421	273.19
308.651	284.19
308.881	311.19
309.111	291.19
309.341	287.19
309.571	287.19
309.8	302.19
310.03	299.19
310.26	313.19
310.49	330.19
310.72	327.19
310.949	341.19
311.179	327.19
311.409	329.19
311.639	328.19
311.868	315.19
312.098	315.19
312.328	341.19
312.557	355.19
312.787	337.19
313.017	350.19
313.246	333.19
313.476	332.19
313.706	327.19
313.935	310.19
314.165	308.19
314.394	336.19
314.624	340.19
314.853	333.19
315.083	336.19
315.312	324.19
315.542	320.19
315.771	310.19
316.001	317.19
316.23	302.19
316.46	325.19
316.689	334.19
316.919	314.19
317.148	324.19
317.377	324.19
317.607	324.19
317.836	318.19
318.065	345.19
318.295	330.19
318.524	310.19
318.753	302.19
318.983	327.19
319.212	306.19
319.441	324.19
319.67	347.19
319.9	344.19
320.129	314.19
320.358	318.19
320.587	339.19
320.816	336.19
321.046	353.19
321.275	355.19
321.504	353.19
321.733	355.19
321.962	354.19
322.191	359.19
322.42	386.19
322.649	390.19
322.878	398.19
323.108	399.19
323.337	410.19
323.566	404.19
323.795	464.19
324.024	502.19
324.253	586.19
324.482	822.19
324.71	1241.19
324.939	1697.19
325.168	1451.19
325.397	754.19
325.626	531.19
325.855	467.19
326.084	419.19
326.313	426.19
326.542	414.19
326.77	475.19
326.999	554.19
327.228	754.19
327.457	1121.19
327.686	1286.19
327.914	867.19
328.143	569.19
328.372	499.19
328.6	467.19
328.829	466.19
329.058	456.19
329.287	470.19
329.515	434.19
329.744	422.19
329.972	419.19
330.201	424.19
330.43	443.19
330.658	459.19
330.887	520.19
331.115	467.19
331.344	430.19
331.572	411.19
331.801	404.19
332.03	407.19
332.258	397.19
332.486	368.19
332.715	367.19
332.943	376.19
333.172	377.19
333.4	386.19
333.629	391.19
333.857	363.19
334.085	395.19
334.314	387.19
334.542	403.19
334.771	416.19
334.999	398.19
335.227	393.19
335.455	375.19
335.684	387.19
335.912	354.19
336.14	365.19
336.369	371.19
336.597	370.19
336.825	360.19
337.053	369.19
337.281	348.19
337.51	359.19
337.738	393.19
337.966	374.19
338.194	389.19
338.422	372.19
338.65	367.19
338.878	360.19
339.106	350.19
339.334	375.19
339.562	355.19
339.79	363.19
340.018	361.19
340.246	372.19
340.474	366.19
340.702	365.19
340.93	370.19
341.158	369.19
341.386	358.19
341.614	363.19
341.842	384.19
342.07	334.19
342.298	354.19
342.526	338.19
342.754	342.19
342.981	334.19
343.209	364.19
343.437	356.19
343.665	361.19
343.893	363.19
344.12	382.19
344.348	372.19
344.576	379.19
344.804	354.19
345.031	376.19
345.259	372.19
345.487	356.19
345.714	374.19
345.942	359.19
346.17	348.19
346.397	347.19
346.625	342.19
346.853	349.19
347.08	354.19
347.308	369.19
347.535	353.19
347.763	364.19
347.99	355.19
348.218	340.19
348.445	338.19
348.673	354.19
348.9	347.19
349.128	341.19
349.355	347.19
349.583	333.19
349.81	346.19
350.037	336.19
350.265	351.19
350.492	358.19
350.72	333.19
350.947	334.19
351.174	348.19
351.402	338.19
351.629	325.19
351.856	338.19
352.083	348.19
352.311	342.19
352.538	346.19
352.765	351.19
352.992	352.19
353.22	351.19
353.447	343.19
353.674	357.19
353.901	340.19
354.128	326.19
354.355	325.19
354.583	335.19
354.81	334.19
355.037	327.19
355.264	319.19
355.491	299.19
355.718	333.19
355.945	324.19
356.172	302.19
356.399	327.19
356.626	308.19
356.853	327.19
357.08	325.19
357.307	311.19
357.534	304.19
357.761	340.19
357.988	332.19
358.215	350.19
358.441	334.19
358.668	303.19
358.895	322.19
359.122	316.19
359.349	315.19
359.576	340.19
359.802	358.19
360.029	365.19
360.256	378.19
360.483	343.19
360.709	356.19
360.936	346.19
361.163	345.19
361.39	333.19
361.616	329.19
361.843	324.19
362.07	333.19
362.296	325.19
362.523	338.19
362.749	329.19
362.976	323.19
363.203	332.19
363.429	318.19
363.656	324.19
363.882	323.19
364.109	329.19
364.335	326.19
364.562	316.19
364.788	311.19
365.015	307.19
365.241	323.19
365.468	331.19
365.694	321.19
365.92	329.19
366.147	329.19
366.373	325.19
366.599	328.19
366.826	325.19
367.052	306.19
367.278	322.19
367.505	335.19
367.731	330.19
367.957	326.19
368.184	319.19
368.41	342.19
368.636	330.19
368.862	329.19
369.089	317.19
369.315	329.19
369.541	329.19
369.767	321.19
369.993	329.19
370.219	318.19
370.445	313.19
370.672	293.19
370.898	314.19
371.124	328.19
371.35	324.19
371.576	312.19
371.802	311.19
372.028	338.19
372.254	342.19
372.48	325.19
372.706	322.19
372.932	307.19
373.158	323.19
373.384	303.19
373.61	319.19
373.835	320.19
374.061	337.19
374.287	312.19
374.513	314.19
374.739	323.19
374.965	320.19
375.191	325.19
375.416	330.19
375.642	320.19
375.868	314.19
376.094	325.19
376.319	303.19
376.545	322.19
376.771	316.19
376.997	314.19
377.222	311.19
377.448	310.19
377.674	312.19
377.899	328.19
378.125	311.19
378.35	298.19
378.576	285.19
378.802	306.19
379.027	306.19
379.253	328.19
379.478	310.19
379.704	313.19
379.929	323.19
380.155	323.19
380.38	311.19
380.606	314.19
380.831	314.19
381.057	338.19
381.282	325.19
381.507	312.19
381.733	315.19
381.958	313.19
382.184	322.19
382.409	316.19
382.634	333.19
382.86	321.19
383.085	311.19
383.31	330.19
383.535	323.19
383.761	325.19
383.986	311.19
384.211	319.19
384.436	308.19
384.662	326.19
384.887	332.19
385.112	324.19
385.337	322.19
385.562	331.19
385.787	304.19
386.013	327.19
386.238	325.19
386.463	355.19
386.688	348.19
386.913	329.19
387.138	336.19
387.363	326.19
387.588	328.19
387.813	340.19
388.038	345.19
388.263	335.19
388.488	319.19
388.713	334.19
388.938	316.19
389.163	359.19
389.387	324.19
389.612	341.19
389.837	329.19
390.062	326.19
390.287	336.19
390.512	316.19
390.736	333.19
390.961	337.19
391.186	328.19
391.411	348.19
391.636	310.19
391.86	335.19
392.085	323.19
392.31	328.19
392.534	339.19
392.759	333.19
392.984	324.19
393.208	330.19
393.433	346.19
393.658	315.19
393.882	336.19
394.107	325.19
394.331	334.19
394.556	336.19
394.78	340.19
395.005	325.19
395.229	334.19
395.454	317.19
395.678	361.19
395.903	351.19
396.127	366.19
396.352	363.19
396.576	348.19
396.801	325.19
397.025	337.19
397.249	343.19
397.474	325.19
397.698	380.19
397.922	376.19
398.147	358.19
398.371	375.19
398.595	370.19
398.82	377.19
399.044	364.19
399.268	378.19
399.492	378.19
399.717	409.19
399.941	419.19
400.165	432.19
400.389	454.19
400.613	410.19
400.837	391.19
401.062	392.19
401.286	354.19
401.51	372.19
401.734	373.19
401.958	360.19
402.182	376.19
402.406	384.19
402.63	367.19
402.854	372.19
403.078	383.19
403.302	384.19
403.526	368.19
403.75	375.19
403.974	390.19
404.198	368.19
404.422	372.19
404.645	376.19
404.869	379.19
405.093	402.19
405.317	432.19
405.541	436.19
405.765	397.19
405.988	390.19
406.212	396.19
406.436	410.19
406.66	410.19
406.883	404.19
407.107	414.19
407.331	461.19
407.555	499.19
407.778	497.19
408.002	434.19
408.226	414.19
408.449	415.19
408.673	403.19
408.896	431.19
409.12	466.19
409.344	439.19
409.567	414.19
409.791	380.19
410.014	385.19
410.238	378.19
410.461	370.19
410.685	399.19
410.908	399.19
411.132	426.19
411.355	427.19
411.578	411.19
411.802	419.19
412.025	375.19
412.249	350.19
412.472	366.19
412.695	401.19
412.919	411.19
413.142	386.19
413.365	361.19
413.589	384.19
413.812	370.19
414.035	363.19
414.258	353.19
414.482	353.19
414.705	357.19
414.928	344.19
415.151	358.19
415.374	346.19
415.597	342.19
415.821	358.19
416.044	356.19
416.267	350.19
416.49	347.19
416.713	338.19
416.936	347.19
417.159	357.19
417.382	329.19
417.605	364.19
417.828	380.19
418.051	360.19
418.274	370.19
418.497	370.19
418.72	354.19
418.943	357.19
419.166	379.19
419.389	368.19
419.611	361.19
419.834	366.19
420.057	376.19
420.28	371.19
420.503	340.19
420.726	382.19
420.948	375.19
421.171	418.19
421.394	417.19
421.617	383.19
421.839	358.19
422.062	369.19
422.285	400.19
422.507	423.19
422.73	482.19
422.953	455.19
423.175	396.19
423.398	391.19
423.621	396.19
423.843	379.19
424.066	380.19
424.288	393.19
424.511	400.19
424.733	458.19
424.956	522.19
425.178	496.19
425.401	481.19
425.623	533.19
425.846	424.19
426.068	401.19
426.291	402.19
426.513	401.19
426.735	389.19
426.958	440.19
427.18	512.19
427.402	623.19
427.625	639.19
427.847	565.19
428.069	479.19
428.292	443.19
428.514	406.19
428.736	402.19
428.958	366.19
429.181	363.19
429.403	378.19
429.625	361.19
429.847	408.19
430.069	457.19
430.292	460.19
430.514	400.19
430.736	382.19
430.958	359.19
431.18	382.19
431.402	345.19
431.624	350.19
431.846	349.19
432.068	344.19
432.29	360.19
432.512	362.19
432.734	372.19
432.956	370.19
433.178	365.19
433.4	367.19
433.622	362.19
433.844	354.19
434.066	349.19
434.287	353.19
434.509	362.19
434.731	366.19
434.953	350.19
435.175	370.19
435.397	381.19
435.618	394.19
435.84	422.19
436.062	510.19
436.284	545.19
436.505	485.19
436.727	430.19
436.949	403.19
437.17	379.19
437.392	376.19
437.614	375.19
437.835	434.19
438.057	480.19
438.278	552.19
438.5	552.19
438.721	607.19
438.943	555.19
439.165	473.19
439.386	433.19
439.608	400.19
439.829	412.19
440.05	432.19
440.272	448.19
440.493	428.19
440.715	407.19
440.936	376.19
441.158	382.19
441.379	364.19
441.6	375.19
441.822	401.19
442.043	423.19
442.264	473.19
442.486	521.19
442.707	448.19
442.928	408.19
443.149	403.19
443.371	436.19
443.592	455.19
443.813	532.19
444.034	576.19
444.255	479.19
444.476	430.19
444.698	427.19
444.919	412.19
445.14	483.19
445.361	458.19
445.582	448.19
445.803	483.19
446.024	558.19
446.245	575.19
446.466	522.19
446.687	428.19
446.908	400.19
447.129	393.19
447.35	378.19
447.571	355.19
447.792	374.19
448.013	376.19
448.234	394.19
448.455	442.19
448.675	517.19
448.896	593.19
449.117	510.19
449.338	472.19
449.559	587.19
449.779	626.19
450	488.19
450.221	421.19
450.442	392.19
450.662	384.19
450.883	377.19
451.104	386.19
451.324	377.19
451.545	351.19
451.766	344.19
451.986	329.19
452.207	324.19
452.428	320.19
452.648	317.19
452.869	339.19
453.089	344.19
453.31	371.19
453.53	358.19
453.751	339.19
453.971	328.19
454.192	368.19
454.412	352.19
454.633	340.19
454.853	331.19
455.073	337.19
455.294	364.19
455.514	416.19
455.734	393.19
455.955	356.19
456.175	322.19
456.395	326.19
456.616	303.19
456.836	308.19
457.056	311.19
457.276	323.19
457.497	326.19
457.717	332.19
457.937	342.19
458.157	314.19
458.377	341.19
458.598	340.19
458.818	392.19
459.038	422.19
459.258	446.19
459.478	401.19
459.698	362.19
459.918	353.19
460.138	349.19
460.358	361.19
460.578	359.19
460.798	352.19
461.018	347.19
461.238	340.19
461.458	352.19
461.678	343.19
461.898	350.19
462.118	351.19
462.338	358.19
462.558	352.19
462.777	362.19
462.997	347.19
463.217	356.19
463.437	372.19
463.657	371.19
463.876	354.19
464.096	372.19
464.316	351.19
464.536	374.19
464.755	378.19
464.975	387.19
465.195	425.19
465.414	438.19
465.634	387.19
465.854	386.19
466.073	358.19
466.293	350.19
466.512	326.19
466.732	349.19
466.951	327.19
467.171	343.19
467.391	354.19
467.61	362.19
467.829	358.19
468.049	355.19
468.268	320.19
468.488	327.19
468.707	342.19
468.927	333.19
469.146	311.19
469.365	341.19
469.585	331.19
469.804	344.19
470.023	355.19
470.243	338.19
470.462	352.19
470.681	364.19
470.901	365.19
471.12	330.19
471.339	359.19
471.558	353.19
471.777	352.19
471.997	338.19
472.216	343.19
472.435	353.19
472.654	372.19
472.873	346.19
473.092	337.19
473.311	332.19
473.53	351.19
473.749	359.19
473.968	384.19
474.187	464.19
474.406	469.19
474.625	402.19
474.844	368.19
475.063	357.19
475.282	362.19
475.501	338.19
475.72	350.19
475.939	361.19
476.158	346.19
476.377	344.19
476.596	351.19
476.814	388.19
477.033	372.19
477.252	357.19
477.471	370.19
477.69	378.19
477.908	380.19
478.127	378.19
478.346	361.19
478.564	408.19
478.783	366.19
479.002	385.19
479.22	394.19
479.439	395.19
479.658	401.19
479.876	407.19
480.095	411.19
480.313	437.19
480.532	397.19
480.751	425.19
480.969	443.19
481.188	447.19
481.406	452.19
481.624	422.19
481.843	410.19
482.061	396.19
482.28	408.19
482.498	389.19
482.717	408.19
482.935	412.19
483.153	409.19
483.372	403.19
483.59	398.19
483.808	422.19
484.027	405.19
484.245	419.19
484.463	424.19
484.681	413.19
484.9	410.19
485.118	424.19
485.336	419.19
485.554	424.19
485.772	428.19
485.99	409.19
486.209	438.19
486.427	442.19
486.645	421.19
486.863	438.19
487.081	419.19
487.299	445.19
487.517	432.19
487.735	412.19
487.953	438.19
488.171	417.19
488.389	442.19
488.607	425.19
488.825	427.19
489.043	433.19
489.261	438.19
489.479	438.19
489.696	443.19
489.914	453.19
490.132	450.19
490.35	439.19
490.568	445.19
490.786	454.19
491.003	468.19
491.221	463.19
491.439	479.19
491.657	466.19
491.874	486.19
492.092	475.19
492.31	505.19
492.527	463.19
492.745	495.19
492.963	496.19
493.18	496.19
493.398	490.19
493.615	489.19
493.833	487.19
494.05	514.19
494.268	514.19
494.485	515.19
494.703	507.19
494.92	487.19
495.138	478.19
495.355	507.19
495.573	514.19
495.79	504.19
496.008	494.19
496.225	516.19
496.442	511.19
496.66	507.19
496.877	485.19
497.094	514.19
497.312	521.19
497.529	515.19
497.746	520.19
497.963	527.19
498.181	555.19
498.398	567.19
498.615	538.19
498.832	548.19
499.049	579.19
499.267	590.19
499.484	579.19
499.701	613.19
499.918	611.19
500.135	610.19
500.352	668.19
500.569	649.19
500.786	636.19
501.003	636.19
501.22	649.19
501.437	635.19
501.654	654.19
501.871	608.19
502.088	592.19
