Data from 1981.PennyLincolnUp.Lamp.En5.5.200Scan.071819.P1_HRD10591_16-41-43-959.txt Node
Date: Thu Jul 18 16:41:43 EDT 2019
User: cochatt
Spectrometer: HR+D1059
Trigger mode: 1
Integration Time (sec): 1.000000E-1
Scans to average: 1
Electric dark correction enabled: true
Nonlinearity correction enabled: false
Boxcar width: 0
XAxis mode: Wavelengths
Number of Pixels in Spectrum: 2048
>>>>>Begin Spectral Data<<<<<
223.165	-3.62
223.4	-3.62
223.635	-3.62
223.869	-13.62
224.104	-32.62
224.338	-13.62
224.573	-0.62
224.808	-2.62
225.042	-12.62
225.277	-8.62
225.511	-0.62
225.746	9.38
225.98	14.38
226.215	0.38
226.449	10.38
226.683	20.38
226.918	16.38
227.152	17.38
227.387	31.38
227.621	32.38
227.856	45.38
228.09	44.38
228.324	57.38
228.559	51.38
228.793	61.38
229.027	95.38
229.262	104.38
229.496	110.38
229.73	120.38
229.964	145.38
230.199	131.38
230.433	121.38
230.667	124.38
230.901	102.38
231.136	96.38
231.37	113.38
231.604	103.38
231.838	124.38
232.072	116.38
232.306	109.38
232.541	102.38
232.775	110.38
233.009	98.38
233.243	121.38
233.477	99.38
233.711	98.38
233.945	113.38
234.179	96.38
234.413	101.38
234.647	113.38
234.881	127.38
235.115	121.38
235.349	97.38
235.583	101.38
235.817	116.38
236.051	121.38
236.285	122.38
236.519	117.38
236.753	126.38
236.987	144.38
237.221	180.38
237.455	226.38
237.689	182.38
237.922	134.38
238.156	106.38
238.39	126.38
238.624	124.38
238.858	118.38
239.091	112.38
239.325	122.38
239.559	114.38
239.793	127.38
240.027	140.38
240.26	136.38
240.494	152.38
240.728	153.38
240.961	142.38
241.195	151.38
241.429	129.38
241.662	144.38
241.896	137.38
242.13	133.38
242.363	136.38
242.597	128.38
242.83	121.38
243.064	121.38
243.298	122.38
243.531	130.38
243.765	133.38
243.998	138.38
244.232	144.38
244.465	142.38
244.699	142.38
244.932	160.38
245.166	156.38
245.399	148.38
245.633	142.38
245.866	132.38
246.099	142.38
246.333	160.38
246.566	151.38
246.8	137.38
247.033	150.38
247.266	158.38
247.5	158.38
247.733	160.38
247.966	169.38
248.2	159.38
248.433	179.38
248.666	175.38
248.899	187.38
249.133	198.38
249.366	197.38
249.599	201.38
249.832	183.38
250.066	178.38
250.299	189.38
250.532	187.38
250.765	194.38
250.998	227.38
251.231	232.38
251.465	210.38
251.698	205.38
251.931	211.38
252.164	198.38
252.397	192.38
252.63	183.38
252.863	207.38
253.096	199.38
253.329	243.38
253.562	222.38
253.795	223.38
254.028	230.38
254.261	228.38
254.494	243.38
254.727	254.38
254.96	278.38
255.193	280.38
255.426	266.38
255.659	244.38
255.892	241.38
256.124	252.38
256.357	232.38
256.59	232.38
256.823	221.38
257.056	212.38
257.289	223.38
257.521	210.38
257.754	207.38
257.987	197.38
258.22	203.38
258.452	217.38
258.685	196.38
258.918	208.38
259.151	201.38
259.383	231.38
259.616	229.38
259.849	222.38
260.081	231.38
260.314	250.38
260.547	266.38
260.779	242.38
261.012	242.38
261.244	237.38
261.477	216.38
261.71	218.38
261.942	225.38
262.175	245.38
262.407	238.38
262.64	244.38
262.872	216.38
263.105	218.38
263.337	204.38
263.57	192.38
263.802	198.38
264.035	192.38
264.267	187.38
264.499	202.38
264.732	213.38
264.964	210.38
265.197	214.38
265.429	210.38
265.661	204.38
265.894	201.38
266.126	209.38
266.358	213.38
266.591	231.38
266.823	233.38
267.055	231.38
267.287	221.38
267.52	208.38
267.752	215.38
267.984	221.38
268.216	207.38
268.448	208.38
268.681	226.38
268.913	250.38
269.145	279.38
269.377	279.38
269.609	265.38
269.841	278.38
270.073	287.38
270.306	302.38
270.538	317.38
270.77	317.38
271.002	289.38
271.234	306.38
271.466	311.38
271.698	288.38
271.93	320.38
272.162	332.38
272.394	330.38
272.626	316.38
272.858	281.38
273.09	282.38
273.322	300.38
273.553	270.38
273.785	242.38
274.017	266.38
274.249	279.38
274.481	270.38
274.713	267.38
274.945	262.38
275.176	293.38
275.408	279.38
275.64	267.38
275.872	258.38
276.104	228.38
276.335	253.38
276.567	252.38
276.799	301.38
277.031	312.38
277.262	313.38
277.494	333.38
277.726	308.38
277.957	304.38
278.189	280.38
278.421	278.38
278.652	283.38
278.884	276.38
279.115	268.38
279.347	284.38
279.579	264.38
279.81	266.38
280.042	265.38
280.273	261.38
280.505	265.38
280.736	244.38
280.968	264.38
281.199	224.38
281.431	259.38
281.662	252.38
281.894	256.38
282.125	257.38
282.356	286.38
282.588	307.38
282.819	282.38
283.051	261.38
283.282	258.38
283.513	275.38
283.745	275.38
283.976	278.38
284.207	278.38
284.439	280.38
284.67	274.38
284.901	261.38
285.132	280.38
285.364	272.38
285.595	293.38
285.826	270.38
286.057	276.38
286.288	279.38
286.52	278.38
286.751	268.38
286.982	278.38
287.213	279.38
287.444	264.38
287.675	276.38
287.906	279.38
288.138	282.38
288.369	308.38
288.6	301.38
288.831	286.38
289.062	285.38
289.293	281.38
289.524	276.38
289.755	284.38
289.986	276.38
290.217	267.38
290.448	284.38
290.679	277.38
290.91	278.38
291.141	279.38
291.371	270.38
291.602	284.38
291.833	271.38
292.064	271.38
292.295	279.38
292.526	269.38
292.757	270.38
292.987	259.38
293.218	293.38
293.449	277.38
293.68	277.38
293.91	282.38
294.141	283.38
294.372	288.38
294.603	272.38
294.833	281.38
295.064	293.38
295.295	280.38
295.525	282.38
295.756	293.38
295.987	289.38
296.217	306.38
296.448	330.38
296.679	294.38
296.909	298.38
297.14	274.38
297.37	295.38
297.601	294.38
297.831	275.38
298.062	304.38
298.292	295.38
298.523	288.38
298.753	280.38
298.984	283.38
299.214	311.38
299.445	276.38
299.675	300.38
299.905	307.38
300.136	293.38
300.366	310.38
300.597	301.38
300.827	303.38
301.057	293.38
301.288	308.38
301.518	310.38
301.748	314.38
301.979	308.38
302.209	313.38
302.439	313.38
302.669	291.38
302.9	314.38
303.13	304.38
303.36	312.38
303.59	322.38
303.82	323.38
304.051	345.38
304.281	316.38
304.511	317.38
304.741	303.38
304.971	310.38
305.201	300.38
305.431	325.38
305.661	328.38
305.891	319.38
306.121	310.38
306.352	313.38
306.582	333.38
306.812	324.38
307.042	313.38
307.272	339.38
307.502	308.38
307.731	325.38
307.961	315.38
308.191	329.38
308.421	320.38
308.651	336.38
308.881	335.38
309.111	335.38
309.341	327.38
309.571	341.38
309.8	342.38
310.03	356.38
310.26	383.38
310.49	384.38
310.72	372.38
310.949	386.38
311.179	395.38
311.409	376.38
311.639	369.38
311.868	365.38
312.098	366.38
312.328	392.38
312.557	384.38
312.787	420.38
313.017	407.38
313.246	374.38
313.476	367.38
313.706	351.38
313.935	386.38
314.165	390.38
314.394	393.38
314.624	372.38
314.853	385.38
315.083	380.38
315.312	362.38
315.542	359.38
315.771	362.38
316.001	356.38
316.23	368.38
316.46	358.38
316.689	368.38
316.919	390.38
317.148	376.38
317.377	383.38
317.607	386.38
317.836	375.38
318.065	388.38
318.295	384.38
318.524	359.38
318.753	366.38
318.983	368.38
319.212	378.38
319.441	369.38
319.67	370.38
319.9	389.38
320.129	378.38
320.358	373.38
320.587	365.38
320.816	393.38
321.046	392.38
321.275	391.38
321.504	415.38
321.733	398.38
321.962	408.38
322.191	422.38
322.42	423.38
322.649	458.38
322.878	465.38
323.108	468.38
323.337	492.38
323.566	501.38
323.795	563.38
324.024	613.38
324.253	733.38
324.482	1086.38
324.71	1629.38
324.939	2207.38
325.168	1906.38
325.397	986.38
325.626	719.38
325.855	595.38
326.084	544.38
326.313	514.38
326.542	527.38
326.77	586.38
326.999	703.38
327.228	945.38
327.457	1418.38
327.686	1639.38
327.914	1143.38
328.143	751.38
328.372	644.38
328.6	621.38
328.829	581.38
329.058	590.38
329.287	601.38
329.515	559.38
329.744	528.38
329.972	526.38
330.201	513.38
330.43	553.38
330.658	605.38
330.887	617.38
331.115	577.38
331.344	532.38
331.572	473.38
331.801	498.38
332.03	495.38
332.258	456.38
332.486	438.38
332.715	455.38
332.943	444.38
333.172	450.38
333.4	436.38
333.629	428.38
333.857	466.38
334.085	458.38
334.314	478.38
334.542	510.38
334.771	492.38
334.999	461.38
335.227	419.38
335.455	450.38
335.684	425.38
335.912	432.38
336.14	419.38
336.369	414.38
336.597	431.38
336.825	410.38
337.053	397.38
337.281	414.38
337.51	414.38
337.738	429.38
337.966	416.38
338.194	414.38
338.422	418.38
338.65	426.38
338.878	422.38
339.106	389.38
339.334	403.38
339.562	417.38
339.79	400.38
340.018	411.38
340.246	386.38
340.474	413.38
340.702	416.38
340.93	406.38
341.158	403.38
341.386	409.38
341.614	419.38
341.842	413.38
342.07	403.38
342.298	408.38
342.526	371.38
342.754	395.38
342.981	384.38
343.209	392.38
343.437	386.38
343.665	396.38
343.893	412.38
344.12	391.38
344.348	404.38
344.576	396.38
344.804	394.38
345.031	410.38
345.259	403.38
345.487	417.38
345.714	405.38
345.942	403.38
346.17	387.38
346.397	389.38
346.625	400.38
346.853	389.38
347.08	395.38
347.308	392.38
347.535	386.38
347.763	404.38
347.99	395.38
348.218	408.38
348.445	411.38
348.673	406.38
348.9	399.38
349.128	386.38
349.355	387.38
349.583	400.38
349.81	386.38
350.037	398.38
350.265	378.38
350.492	377.38
350.72	360.38
350.947	387.38
351.174	385.38
351.402	392.38
351.629	398.38
351.856	409.38
352.083	404.38
352.311	416.38
352.538	416.38
352.765	403.38
352.992	400.38
353.22	393.38
353.447	389.38
353.674	391.38
353.901	384.38
354.128	375.38
354.355	338.38
354.583	340.38
354.81	363.38
355.037	354.38
355.264	345.38
355.491	367.38
355.718	342.38
355.945	372.38
356.172	377.38
356.399	374.38
356.626	356.38
356.853	351.38
357.08	354.38
357.307	336.38
357.534	357.38
357.761	352.38
357.988	364.38
358.215	367.38
358.441	349.38
358.668	359.38
358.895	357.38
359.122	367.38
359.349	378.38
359.576	384.38
359.802	392.38
360.029	422.38
360.256	433.38
360.483	412.38
360.709	389.38
360.936	385.38
361.163	392.38
361.39	388.38
361.616	378.38
361.843	395.38
362.07	390.38
362.296	384.38
362.523	398.38
362.749	377.38
362.976	355.38
363.203	371.38
363.429	356.38
363.656	384.38
363.882	358.38
364.109	364.38
364.335	337.38
364.562	363.38
364.788	364.38
365.015	359.38
365.241	357.38
365.468	367.38
365.694	362.38
365.92	364.38
366.147	363.38
366.373	353.38
366.599	346.38
366.826	346.38
367.052	345.38
367.278	354.38
367.505	353.38
367.731	371.38
367.957	356.38
368.184	366.38
368.41	357.38
368.636	354.38
368.862	370.38
369.089	361.38
369.315	366.38
369.541	328.38
369.767	340.38
369.993	348.38
370.219	374.38
370.445	336.38
370.672	347.38
370.898	358.38
371.124	348.38
371.35	348.38
371.576	350.38
371.802	343.38
372.028	347.38
372.254	343.38
372.48	348.38
372.706	337.38
372.932	354.38
373.158	361.38
373.384	349.38
373.61	339.38
373.835	342.38
374.061	358.38
374.287	338.38
374.513	347.38
374.739	352.38
374.965	368.38
375.191	370.38
375.416	344.38
375.642	334.38
375.868	348.38
376.094	325.38
376.319	318.38
376.545	342.38
376.771	338.38
376.997	329.38
377.222	323.38
377.448	333.38
377.674	344.38
377.899	328.38
378.125	339.38
378.35	336.38
378.576	333.38
378.802	325.38
379.027	330.38
379.253	330.38
379.478	337.38
379.704	344.38
379.929	339.38
380.155	337.38
380.38	337.38
380.606	337.38
380.831	353.38
381.057	321.38
381.282	349.38
381.507	351.38
381.733	348.38
381.958	328.38
382.184	349.38
382.409	341.38
382.634	333.38
382.86	332.38
383.085	342.38
383.31	350.38
383.535	360.38
383.761	349.38
383.986	353.38
384.211	337.38
384.436	347.38
384.662	366.38
384.887	366.38
385.112	347.38
385.337	362.38
385.562	345.38
385.787	352.38
386.013	370.38
386.238	362.38
386.463	351.38
386.688	368.38
386.913	344.38
387.138	360.38
387.363	360.38
387.588	351.38
387.813	348.38
388.038	359.38
388.263	359.38
388.488	365.38
388.713	340.38
388.938	371.38
389.163	361.38
389.387	369.38
389.612	348.38
389.837	359.38
390.062	352.38
390.287	355.38
390.512	367.38
390.736	346.38
390.961	357.38
391.186	370.38
391.411	348.38
391.636	345.38
391.86	370.38
392.085	350.38
392.31	364.38
392.534	364.38
392.759	351.38
392.984	338.38
393.208	359.38
393.433	353.38
393.658	355.38
393.882	354.38
394.107	340.38
394.331	347.38
394.556	347.38
394.78	354.38
395.005	341.38
395.229	353.38
395.454	351.38
395.678	369.38
395.903	384.38
396.127	408.38
396.352	390.38
396.576	390.38
396.801	369.38
397.025	365.38
397.249	383.38
397.474	369.38
397.698	372.38
397.922	365.38
398.147	407.38
398.371	385.38
398.595	385.38
398.82	388.38
399.044	390.38
399.268	376.38
399.492	419.38
399.717	426.38
399.941	460.38
400.165	469.38
400.389	490.38
400.613	459.38
400.837	421.38
401.062	398.38
401.286	407.38
401.51	401.38
401.734	405.38
401.958	393.38
402.182	420.38
402.406	414.38
402.63	416.38
402.854	394.38
403.078	389.38
403.302	394.38
403.526	394.38
403.75	401.38
403.974	406.38
404.198	390.38
404.422	415.38
404.645	391.38
404.869	420.38
405.093	454.38
405.317	486.38
405.541	510.38
405.765	462.38
405.988	426.38
406.212	452.38
406.436	455.38
406.66	458.38
406.883	454.38
407.107	454.38
407.331	515.38
407.555	553.38
407.778	536.38
408.002	505.38
408.226	478.38
408.449	443.38
408.673	468.38
408.896	446.38
409.12	499.38
409.344	487.38
409.567	444.38
409.791	422.38
410.014	421.38
410.238	419.38
410.461	392.38
410.685	405.38
410.908	430.38
411.132	453.38
411.355	470.38
411.578	470.38
411.802	422.38
412.025	413.38
412.249	416.38
412.472	453.38
412.695	476.38
412.919	456.38
413.142	426.38
413.365	401.38
413.589	392.38
413.812	392.38
414.035	382.38
414.258	381.38
414.482	394.38
414.705	384.38
414.928	383.38
415.151	392.38
415.374	371.38
415.597	375.38
415.821	377.38
416.044	375.38
416.267	386.38
416.49	376.38
416.713	373.38
416.936	390.38
417.159	391.38
417.382	376.38
417.605	372.38
417.828	389.38
418.051	405.38
418.274	407.38
418.497	387.38
418.72	395.38
418.943	388.38
419.166	407.38
419.389	412.38
419.611	401.38
419.834	407.38
420.057	408.38
420.28	400.38
420.503	418.38
420.726	413.38
420.948	423.38
421.171	464.38
421.394	486.38
421.617	411.38
421.839	433.38
422.062	409.38
422.285	419.38
422.507	474.38
422.73	533.38
422.953	508.38
423.175	455.38
423.398	438.38
423.621	411.38
423.843	423.38
424.066	461.38
424.288	415.38
424.511	447.38
424.733	532.38
424.956	577.38
425.178	542.38
425.401	561.38
425.623	556.38
425.846	464.38
426.068	443.38
426.291	443.38
426.513	422.38
426.735	448.38
426.958	480.38
427.18	560.38
427.402	669.38
427.625	744.38
427.847	644.38
428.069	562.38
428.292	506.38
428.514	430.38
428.736	446.38
428.958	433.38
429.181	430.38
429.403	400.38
429.625	415.38
429.847	435.38
430.069	487.38
430.292	508.38
430.514	441.38
430.736	419.38
430.958	404.38
431.18	380.38
431.402	406.38
431.624	383.38
431.846	381.38
432.068	426.38
432.29	388.38
432.512	381.38
432.734	405.38
432.956	380.38
433.178	377.38
433.4	426.38
433.622	390.38
433.844	376.38
434.066	380.38
434.287	380.38
434.509	375.38
434.731	374.38
434.953	400.38
435.175	432.38
435.397	446.38
435.618	456.38
435.84	496.38
436.062	570.38
436.284	607.38
436.505	499.38
436.727	456.38
436.949	433.38
437.17	434.38
437.392	427.38
437.614	426.38
437.835	464.38
438.057	559.38
438.278	651.38
438.5	625.38
438.721	659.38
438.943	651.38
439.165	527.38
439.386	511.38
439.608	479.38
439.829	473.38
440.05	492.38
440.272	554.38
440.493	496.38
440.715	474.38
440.936	440.38
441.158	411.38
441.379	400.38
441.6	431.38
441.822	445.38
442.043	482.38
442.264	551.38
442.486	605.38
442.707	507.38
442.928	471.38
443.149	477.38
443.371	482.38
443.592	525.38
443.813	620.38
444.034	656.38
444.255	572.38
444.476	454.38
444.698	464.38
444.919	449.38
445.14	574.38
445.361	535.38
445.582	499.38
445.803	533.38
446.024	656.38
446.245	643.38
446.466	586.38
446.687	514.38
446.908	456.38
447.129	436.38
447.35	424.38
447.571	407.38
447.792	425.38
448.013	436.38
448.234	453.38
448.455	493.38
448.675	608.38
448.896	652.38
449.117	551.38
449.338	542.38
449.559	641.38
449.779	678.38
450	577.38
450.221	492.38
450.442	457.38
450.662	428.38
450.883	433.38
451.104	424.38
451.324	413.38
451.545	408.38
451.766	407.38
451.986	381.38
452.207	376.38
452.428	397.38
452.648	388.38
452.869	374.38
453.089	385.38
453.31	386.38
453.53	369.38
453.751	379.38
453.971	394.38
454.192	419.38
454.412	396.38
454.633	380.38
454.853	366.38
455.073	364.38
455.294	392.38
455.514	466.38
455.734	437.38
455.955	396.38
456.175	352.38
456.395	343.38
456.616	341.38
456.836	344.38
457.056	368.38
457.276	331.38
457.497	337.38
457.717	343.38
457.937	346.38
458.157	360.38
458.377	371.38
458.598	402.38
458.818	448.38
459.038	518.38
459.258	519.38
459.478	441.38
459.698	402.38
459.918	366.38
460.138	371.38
460.358	375.38
460.578	372.38
460.798	398.38
461.018	382.38
461.238	376.38
461.458	369.38
461.678	364.38
461.898	376.38
462.118	372.38
462.338	382.38
462.558	388.38
462.777	383.38
462.997	367.38
463.217	382.38
463.437	393.38
463.657	392.38
463.876	378.38
464.096	386.38
464.316	378.38
464.536	410.38
464.755	406.38
464.975	406.38
465.195	461.38
465.414	512.38
465.634	464.38
465.854	435.38
466.073	410.38
466.293	403.38
466.512	386.38
466.732	360.38
466.951	376.38
467.171	370.38
467.391	370.38
467.61	371.38
467.829	386.38
468.049	379.38
468.268	369.38
468.488	370.38
468.707	373.38
468.927	372.38
469.146	352.38
469.365	362.38
469.585	367.38
469.804	394.38
470.023	384.38
470.243	382.38
470.462	372.38
470.681	394.38
470.901	384.38
471.12	374.38
471.339	375.38
471.558	371.38
471.777	378.38
471.997	372.38
472.216	387.38
472.435	412.38
472.654	386.38
472.873	383.38
473.092	369.38
473.311	388.38
473.53	406.38
473.749	384.38
473.968	425.38
474.187	551.38
474.406	558.38
474.625	432.38
474.844	386.38
475.063	418.38
475.282	395.38
475.501	388.38
475.72	390.38
475.939	401.38
476.158	388.38
476.377	396.38
476.596	366.38
476.814	384.38
477.033	397.38
477.252	382.38
477.471	394.38
477.69	422.38
477.908	420.38
478.127	407.38
478.346	419.38
478.564	409.38
478.783	418.38
479.002	416.38
479.22	432.38
479.439	430.38
479.658	458.38
479.876	441.38
480.095	449.38
480.313	504.38
480.532	462.38
480.751	459.38
480.969	457.38
481.188	509.38
481.406	534.38
481.624	497.38
481.843	479.38
482.061	451.38
482.28	436.38
482.498	456.38
482.717	439.38
482.935	468.38
483.153	445.38
483.372	451.38
483.59	451.38
483.808	431.38
484.027	430.38
484.245	460.38
484.463	444.38
484.681	453.38
484.9	476.38
485.118	479.38
485.336	445.38
485.554	465.38
485.772	444.38
485.99	456.38
486.209	449.38
486.427	478.38
486.645	487.38
486.863	485.38
487.081	489.38
487.299	463.38
487.517	468.38
487.735	471.38
487.953	464.38
488.171	449.38
488.389	490.38
488.607	466.38
488.825	487.38
489.043	481.38
489.261	496.38
489.479	493.38
489.696	477.38
489.914	482.38
490.132	492.38
490.35	510.38
490.568	498.38
490.786	507.38
491.003	540.38
491.221	525.38
491.439	561.38
491.657	529.38
491.874	531.38
492.092	553.38
492.31	567.38
492.527	556.38
492.745	565.38
492.963	565.38
493.18	557.38
493.398	569.38
493.615	561.38
493.833	556.38
494.05	550.38
494.268	561.38
494.485	551.38
494.703	562.38
494.92	581.38
495.138	591.38
495.355	569.38
495.573	561.38
495.79	589.38
496.008	579.38
496.225	572.38
496.442	569.38
496.66	566.38
496.877	564.38
497.094	573.38
497.312	587.38
497.529	583.38
497.746	614.38
497.963	602.38
498.181	647.38
498.398	634.38
498.615	617.38
498.832	633.38
499.049	628.38
499.267	646.38
499.484	629.38
499.701	638.38
499.918	660.38
500.135	670.38
500.352	703.38
500.569	691.38
500.786	700.38
501.003	695.38
501.22	682.38
501.437	704.38
501.654	684.38
501.871	691.38
502.088	681.38
