Data from 1981.PennyLincolnUp.Lamp.En5.5.200Scan.071819.P1_HRD10591_16-41-28-958.txt Node
Date: Thu Jul 18 16:41:28 EDT 2019
User: cochatt
Spectrometer: HR+D1059
Trigger mode: 1
Integration Time (sec): 1.000000E-1
Scans to average: 1
Electric dark correction enabled: true
Nonlinearity correction enabled: false
Boxcar width: 0
XAxis mode: Wavelengths
Number of Pixels in Spectrum: 2048
>>>>>Begin Spectral Data<<<<<
223.165	0.62
223.4	0.62
223.635	0.62
223.869	-16.38
224.104	-15.38
224.338	-14.38
224.573	-21.38
224.808	-9.38
225.042	-10.38
225.277	-4.38
225.511	-1.38
225.746	-2.38
225.98	6.62
226.215	5.62
226.449	9.62
226.683	21.62
226.918	22.62
227.152	28.62
227.387	34.62
227.621	34.62
227.856	54.62
228.09	39.62
228.324	50.62
228.559	73.62
228.793	68.62
229.027	94.62
229.262	104.62
229.496	105.62
229.73	131.62
229.964	158.62
230.199	130.62
230.433	119.62
230.667	116.62
230.901	127.62
231.136	124.62
231.37	118.62
231.604	106.62
231.838	103.62
232.072	107.62
232.306	110.62
232.541	123.62
232.775	116.62
233.009	124.62
233.243	130.62
233.477	120.62
233.711	132.62
233.945	105.62
234.179	121.62
234.413	116.62
234.647	116.62
234.881	111.62
235.115	121.62
235.349	122.62
235.583	116.62
235.817	126.62
236.051	118.62
236.285	120.62
236.519	119.62
236.753	149.62
236.987	148.62
237.221	187.62
237.455	242.62
237.689	198.62
237.922	156.62
238.156	121.62
238.39	122.62
238.624	134.62
238.858	123.62
239.091	138.62
239.325	126.62
239.559	124.62
239.793	131.62
240.027	136.62
240.26	145.62
240.494	160.62
240.728	161.62
240.961	150.62
241.195	141.62
241.429	132.62
241.662	137.62
241.896	124.62
242.13	130.62
242.363	119.62
242.597	130.62
242.83	142.62
243.064	128.62
243.298	138.62
243.531	126.62
243.765	134.62
243.998	146.62
244.232	140.62
244.465	146.62
244.699	149.62
244.932	147.62
245.166	140.62
245.399	129.62
245.633	151.62
245.866	146.62
246.099	136.62
246.333	159.62
246.566	139.62
246.8	146.62
247.033	173.62
247.266	161.62
247.5	163.62
247.733	174.62
247.966	187.62
248.2	167.62
248.433	182.62
248.666	180.62
248.899	184.62
249.133	199.62
249.366	220.62
249.599	211.62
249.832	183.62
250.066	185.62
250.299	169.62
250.532	184.62
250.765	220.62
250.998	227.62
251.231	235.62
251.465	209.62
251.698	203.62
251.931	204.62
252.164	196.62
252.397	202.62
252.63	217.62
252.863	213.62
253.096	219.62
253.329	244.62
253.562	234.62
253.795	244.62
254.028	220.62
254.261	218.62
254.494	230.62
254.727	262.62
254.96	284.62
255.193	294.62
255.426	283.62
255.659	244.62
255.892	248.62
256.124	251.62
256.357	233.62
256.59	219.62
256.823	227.62
257.056	231.62
257.289	212.62
257.521	223.62
257.754	212.62
257.987	215.62
258.22	216.62
258.452	211.62
258.685	216.62
258.918	207.62
259.151	220.62
259.383	224.62
259.616	232.62
259.849	223.62
260.081	237.62
260.314	258.62
260.547	262.62
260.779	276.62
261.012	238.62
261.244	249.62
261.477	236.62
261.71	246.62
261.942	258.62
262.175	246.62
262.407	243.62
262.64	229.62
262.872	232.62
263.105	226.62
263.337	214.62
263.57	215.62
263.802	208.62
264.035	220.62
264.267	211.62
264.499	229.62
264.732	208.62
264.964	211.62
265.197	221.62
265.429	212.62
265.661	212.62
265.894	204.62
266.126	205.62
266.358	219.62
266.591	223.62
266.823	207.62
267.055	234.62
267.287	250.62
267.52	244.62
267.752	244.62
267.984	236.62
268.216	236.62
268.448	236.62
268.681	244.62
268.913	243.62
269.145	256.62
269.377	300.62
269.609	288.62
269.841	275.62
270.073	282.62
270.306	301.62
270.538	318.62
270.77	321.62
271.002	320.62
271.234	306.62
271.466	303.62
271.698	311.62
271.93	325.62
272.162	329.62
272.394	332.62
272.626	318.62
272.858	299.62
273.09	280.62
273.322	286.62
273.553	280.62
273.785	295.62
274.017	261.62
274.249	270.62
274.481	277.62
274.713	271.62
274.945	277.62
275.176	282.62
275.408	274.62
275.64	285.62
275.872	273.62
276.104	260.62
276.335	274.62
276.567	257.62
276.799	282.62
277.031	286.62
277.262	313.62
277.494	323.62
277.726	300.62
277.957	303.62
278.189	287.62
278.421	279.62
278.652	280.62
278.884	281.62
279.115	276.62
279.347	273.62
279.579	258.62
279.81	271.62
280.042	282.62
280.273	269.62
280.505	265.62
280.736	262.62
280.968	271.62
281.199	264.62
281.431	272.62
281.662	260.62
281.894	271.62
282.125	273.62
282.356	271.62
282.588	299.62
282.819	323.62
283.051	291.62
283.282	266.62
283.513	283.62
283.745	291.62
283.976	276.62
284.207	282.62
284.439	281.62
284.67	277.62
284.901	261.62
285.132	269.62
285.364	277.62
285.595	263.62
285.826	280.62
286.057	276.62
286.288	270.62
286.52	262.62
286.751	292.62
286.982	290.62
287.213	278.62
287.444	286.62
287.675	276.62
287.906	298.62
288.138	305.62
288.369	312.62
288.6	324.62
288.831	290.62
289.062	286.62
289.293	286.62
289.524	280.62
289.755	297.62
289.986	292.62
290.217	291.62
290.448	288.62
290.679	284.62
290.91	287.62
291.141	281.62
291.371	284.62
291.602	270.62
291.833	276.62
292.064	281.62
292.295	282.62
292.526	279.62
292.757	273.62
292.987	272.62
293.218	300.62
293.449	291.62
293.68	302.62
293.91	287.62
294.141	271.62
294.372	290.62
294.603	272.62
294.833	309.62
295.064	291.62
295.295	308.62
295.525	269.62
295.756	286.62
295.987	292.62
296.217	313.62
296.448	327.62
296.679	302.62
296.909	308.62
297.14	302.62
297.37	289.62
297.601	306.62
297.831	296.62
298.062	295.62
298.292	291.62
298.523	303.62
298.753	308.62
298.984	306.62
299.214	302.62
299.445	302.62
299.675	302.62
299.905	285.62
300.136	304.62
300.366	327.62
300.597	301.62
300.827	314.62
301.057	314.62
301.288	326.62
301.518	325.62
301.748	334.62
301.979	318.62
302.209	317.62
302.439	323.62
302.669	299.62
302.9	332.62
303.13	328.62
303.36	312.62
303.59	342.62
303.82	334.62
304.051	329.62
304.281	327.62
304.511	312.62
304.741	321.62
304.971	319.62
305.201	321.62
305.431	334.62
305.661	326.62
305.891	337.62
306.121	324.62
306.352	318.62
306.582	338.62
306.812	324.62
307.042	339.62
307.272	315.62
307.502	330.62
307.731	334.62
307.961	328.62
308.191	325.62
308.421	336.62
308.651	354.62
308.881	347.62
309.111	340.62
309.341	332.62
309.571	360.62
309.8	372.62
310.03	380.62
310.26	377.62
310.49	367.62
310.72	406.62
310.949	396.62
311.179	410.62
311.409	406.62
311.639	388.62
311.868	390.62
312.098	379.62
312.328	384.62
312.557	424.62
312.787	427.62
313.017	407.62
313.246	390.62
313.476	384.62
313.706	400.62
313.935	381.62
314.165	379.62
314.394	414.62
314.624	393.62
314.853	396.62
315.083	394.62
315.312	395.62
315.542	377.62
315.771	399.62
316.001	354.62
316.23	363.62
316.46	372.62
316.689	359.62
316.919	404.62
317.148	372.62
317.377	393.62
317.607	393.62
317.836	405.62
318.065	359.62
318.295	372.62
318.524	363.62
318.753	367.62
318.983	390.62
319.212	370.62
319.441	382.62
319.67	395.62
319.9	384.62
320.129	384.62
320.358	395.62
320.587	378.62
320.816	380.62
321.046	408.62
321.275	399.62
321.504	402.62
321.733	418.62
321.962	405.62
322.191	426.62
322.42	449.62
322.649	445.62
322.878	470.62
323.108	472.62
323.337	495.62
323.566	560.62
323.795	573.62
324.024	626.62
324.253	782.62
324.482	1125.62
324.71	1727.62
324.939	2318.62
325.168	1993.62
325.397	1058.62
325.626	720.62
325.855	607.62
326.084	549.62
326.313	529.62
326.542	549.62
326.77	615.62
326.999	710.62
327.228	980.62
327.457	1477.62
327.686	1706.62
327.914	1174.62
328.143	784.62
328.372	669.62
328.6	611.62
328.829	616.62
329.058	600.62
329.287	630.62
329.515	584.62
329.744	510.62
329.972	522.62
330.201	535.62
330.43	594.62
330.658	582.62
330.887	642.62
331.115	609.62
331.344	536.62
331.572	496.62
331.801	511.62
332.03	499.62
332.258	484.62
332.486	461.62
332.715	442.62
332.943	445.62
333.172	452.62
333.4	446.62
333.629	460.62
333.857	495.62
334.085	476.62
334.314	498.62
334.542	500.62
334.771	503.62
334.999	476.62
335.227	449.62
335.455	456.62
335.684	419.62
335.912	435.62
336.14	443.62
336.369	424.62
336.597	430.62
336.825	433.62
337.053	416.62
337.281	431.62
337.51	440.62
337.738	418.62
337.966	432.62
338.194	442.62
338.422	432.62
338.65	423.62
338.878	412.62
339.106	411.62
339.334	431.62
339.562	410.62
339.79	410.62
340.018	413.62
340.246	407.62
340.474	449.62
340.702	410.62
340.93	427.62
341.158	414.62
341.386	427.62
341.614	401.62
341.842	406.62
342.07	399.62
342.298	413.62
342.526	405.62
342.754	410.62
342.981	385.62
343.209	387.62
343.437	409.62
343.665	408.62
343.893	420.62
344.12	419.62
344.348	430.62
344.576	424.62
344.804	408.62
345.031	438.62
345.259	441.62
345.487	438.62
345.714	406.62
345.942	413.62
346.17	399.62
346.397	401.62
346.625	392.62
346.853	410.62
347.08	381.62
347.308	405.62
347.535	419.62
347.763	442.62
347.99	412.62
348.218	428.62
348.445	410.62
348.673	409.62
348.9	394.62
349.128	394.62
349.355	386.62
349.583	376.62
349.81	384.62
350.037	386.62
350.265	375.62
350.492	382.62
350.72	370.62
350.947	393.62
351.174	390.62
351.402	421.62
351.629	413.62
351.856	418.62
352.083	419.62
352.311	413.62
352.538	434.62
352.765	402.62
352.992	399.62
353.22	400.62
353.447	390.62
353.674	381.62
353.901	369.62
354.128	376.62
354.355	349.62
354.583	366.62
354.81	383.62
355.037	359.62
355.264	351.62
355.491	364.62
355.718	362.62
355.945	343.62
356.172	349.62
356.399	344.62
356.626	344.62
356.853	362.62
357.08	356.62
357.307	349.62
357.534	347.62
357.761	352.62
357.988	359.62
358.215	365.62
358.441	362.62
358.668	364.62
358.895	381.62
359.122	374.62
359.349	367.62
359.576	398.62
359.802	428.62
360.029	455.62
360.256	442.62
360.483	427.62
360.709	394.62
360.936	405.62
361.163	384.62
361.39	388.62
361.616	396.62
361.843	383.62
362.07	382.62
362.296	376.62
362.523	392.62
362.749	377.62
362.976	395.62
363.203	387.62
363.429	371.62
363.656	370.62
363.882	378.62
364.109	367.62
364.335	354.62
364.562	360.62
364.788	374.62
365.015	372.62
365.241	356.62
365.468	370.62
365.694	372.62
365.92	377.62
366.147	363.62
366.373	349.62
366.599	364.62
366.826	359.62
367.052	370.62
367.278	365.62
367.505	357.62
367.731	396.62
367.957	383.62
368.184	364.62
368.41	361.62
368.636	384.62
368.862	388.62
369.089	362.62
369.315	364.62
369.541	358.62
369.767	366.62
369.993	376.62
370.219	367.62
370.445	344.62
370.672	361.62
370.898	341.62
371.124	360.62
371.35	363.62
371.576	334.62
371.802	355.62
372.028	347.62
372.254	355.62
372.48	362.62
372.706	339.62
372.932	343.62
373.158	373.62
373.384	351.62
373.61	338.62
373.835	370.62
374.061	354.62
374.287	355.62
374.513	371.62
374.739	372.62
374.965	355.62
375.191	362.62
375.416	348.62
375.642	342.62
375.868	350.62
376.094	362.62
376.319	364.62
376.545	354.62
376.771	328.62
376.997	363.62
377.222	335.62
377.448	340.62
377.674	357.62
377.899	363.62
378.125	345.62
378.35	357.62
378.576	344.62
378.802	361.62
379.027	328.62
379.253	339.62
379.478	333.62
379.704	355.62
379.929	349.62
380.155	347.62
380.38	340.62
380.606	332.62
380.831	342.62
381.057	354.62
381.282	339.62
381.507	339.62
381.733	342.62
381.958	325.62
382.184	342.62
382.409	344.62
382.634	364.62
382.86	357.62
383.085	378.62
383.31	349.62
383.535	350.62
383.761	353.62
383.986	357.62
384.211	340.62
384.436	350.62
384.662	339.62
384.887	360.62
385.112	360.62
385.337	366.62
385.562	369.62
385.787	348.62
386.013	389.62
386.238	379.62
386.463	370.62
386.688	363.62
386.913	350.62
387.138	357.62
387.363	322.62
387.588	367.62
387.813	382.62
388.038	352.62
388.263	379.62
388.488	378.62
388.713	370.62
388.938	361.62
389.163	386.62
389.387	380.62
389.612	372.62
389.837	364.62
390.062	363.62
390.287	371.62
390.512	351.62
390.736	361.62
390.961	359.62
391.186	375.62
391.411	360.62
391.636	350.62
391.86	389.62
392.085	373.62
392.31	359.62
392.534	386.62
392.759	364.62
392.984	357.62
393.208	348.62
393.433	347.62
393.658	358.62
393.882	355.62
394.107	355.62
394.331	359.62
394.556	350.62
394.78	355.62
395.005	353.62
395.229	376.62
395.454	363.62
395.678	370.62
395.903	378.62
396.127	392.62
396.352	396.62
396.576	392.62
396.801	372.62
397.025	379.62
397.249	367.62
397.474	374.62
397.698	384.62
397.922	390.62
398.147	414.62
398.371	392.62
398.595	388.62
398.82	392.62
399.044	399.62
399.268	395.62
399.492	427.62
399.717	432.62
399.941	443.62
400.165	486.62
400.389	486.62
400.613	466.62
400.837	446.62
401.062	431.62
401.286	406.62
401.51	424.62
401.734	419.62
401.958	409.62
402.182	412.62
402.406	410.62
402.63	390.62
402.854	410.62
403.078	436.62
403.302	414.62
403.526	426.62
403.75	410.62
403.974	423.62
404.198	439.62
404.422	417.62
404.645	418.62
404.869	420.62
405.093	450.62
405.317	464.62
405.541	491.62
405.765	479.62
405.988	454.62
406.212	442.62
406.436	434.62
406.66	504.62
406.883	456.62
407.107	473.62
407.331	514.62
407.555	570.62
407.778	559.62
408.002	526.62
408.226	470.62
408.449	471.62
408.673	466.62
408.896	488.62
409.12	525.62
409.344	495.62
409.567	446.62
409.791	440.62
410.014	404.62
410.238	409.62
410.461	418.62
410.685	411.62
410.908	452.62
411.132	489.62
411.355	503.62
411.578	470.62
411.802	411.62
412.025	419.62
412.249	421.62
412.472	437.62
412.695	468.62
412.919	459.62
413.142	447.62
413.365	426.62
413.589	391.62
413.812	406.62
414.035	382.62
414.258	395.62
414.482	380.62
414.705	384.62
414.928	384.62
415.151	387.62
415.374	380.62
415.597	387.62
415.821	388.62
416.044	367.62
416.267	392.62
416.49	381.62
416.713	371.62
416.936	394.62
417.159	380.62
417.382	393.62
417.605	409.62
417.828	410.62
418.051	401.62
418.274	398.62
418.497	385.62
418.72	390.62
418.943	401.62
419.166	404.62
419.389	406.62
419.611	413.62
419.834	422.62
420.057	416.62
420.28	426.62
420.503	412.62
420.726	414.62
420.948	432.62
421.171	477.62
421.394	487.62
421.617	421.62
421.839	440.62
422.062	410.62
422.285	435.62
422.507	489.62
422.73	540.62
422.953	518.62
423.175	456.62
423.398	444.62
423.621	422.62
423.843	458.62
424.066	454.62
424.288	450.62
424.511	472.62
424.733	476.62
424.956	591.62
425.178	578.62
425.401	572.62
425.623	572.62
425.846	516.62
426.068	463.62
426.291	467.62
426.513	459.62
426.735	465.62
426.958	502.62
427.18	607.62
427.402	682.62
427.625	768.62
427.847	674.62
428.069	582.62
428.292	514.62
428.514	464.62
428.736	443.62
428.958	442.62
429.181	442.62
429.403	431.62
429.625	440.62
429.847	476.62
430.069	529.62
430.292	520.62
430.514	443.62
430.736	447.62
430.958	409.62
431.18	414.62
431.402	396.62
431.624	402.62
431.846	389.62
432.068	401.62
432.29	392.62
432.512	401.62
432.734	409.62
432.956	388.62
433.178	430.62
433.4	427.62
433.622	392.62
433.844	394.62
434.066	396.62
434.287	413.62
434.509	390.62
434.731	400.62
434.953	393.62
435.175	416.62
435.397	436.62
435.618	448.62
435.84	487.62
436.062	593.62
436.284	623.62
436.505	528.62
436.727	473.62
436.949	434.62
437.17	422.62
437.392	419.62
437.614	444.62
437.835	488.62
438.057	571.62
438.278	658.62
438.5	650.62
438.721	693.62
438.943	681.62
439.165	542.62
439.386	484.62
439.608	471.62
439.829	466.62
440.05	492.62
440.272	565.62
440.493	501.62
440.715	468.62
440.936	428.62
441.158	441.62
441.379	424.62
441.6	443.62
441.822	462.62
442.043	518.62
442.264	572.62
442.486	609.62
442.707	518.62
442.928	469.62
443.149	491.62
443.371	498.62
443.592	520.62
443.813	626.62
444.034	632.62
444.255	540.62
444.476	478.62
444.698	436.62
444.919	447.62
445.14	586.62
445.361	508.62
445.582	500.62
445.803	572.62
446.024	654.62
446.245	652.62
446.466	604.62
446.687	511.62
446.908	478.62
447.129	442.62
447.35	446.62
447.571	431.62
447.792	415.62
448.013	423.62
448.234	424.62
448.455	485.62
448.675	613.62
448.896	715.62
449.117	581.62
449.338	552.62
449.559	638.62
449.779	697.62
450	574.62
450.221	467.62
450.442	439.62
450.662	411.62
450.883	419.62
451.104	427.62
451.324	450.62
451.545	404.62
451.766	414.62
451.986	372.62
452.207	392.62
452.428	403.62
452.648	376.62
452.869	390.62
453.089	376.62
453.31	413.62
453.53	399.62
453.751	381.62
453.971	406.62
454.192	408.62
454.412	405.62
454.633	401.62
454.853	389.62
455.073	382.62
455.294	413.62
455.514	446.62
455.734	444.62
455.955	395.62
456.175	382.62
456.395	358.62
456.616	354.62
456.836	371.62
457.056	357.62
457.276	348.62
457.497	355.62
457.717	338.62
457.937	365.62
458.157	360.62
458.377	368.62
458.598	402.62
458.818	441.62
459.038	559.62
459.258	509.62
459.478	455.62
459.698	422.62
459.918	382.62
460.138	393.62
460.358	382.62
460.578	404.62
460.798	402.62
461.018	390.62
461.238	399.62
461.458	395.62
461.678	373.62
461.898	384.62
462.118	388.62
462.338	377.62
462.558	384.62
462.777	398.62
462.997	406.62
463.217	396.62
463.437	380.62
463.657	396.62
463.876	411.62
464.096	420.62
464.316	410.62
464.536	405.62
464.755	413.62
464.975	414.62
465.195	475.62
465.414	542.62
465.634	477.62
465.854	441.62
466.073	416.62
466.293	396.62
466.512	386.62
466.732	386.62
466.951	376.62
467.171	388.62
467.391	380.62
467.61	399.62
467.829	396.62
468.049	404.62
468.268	384.62
468.488	380.62
468.707	366.62
468.927	359.62
469.146	366.62
469.365	383.62
469.585	362.62
469.804	378.62
470.023	404.62
470.243	380.62
470.462	396.62
470.681	394.62
470.901	385.62
471.12	390.62
471.339	381.62
471.558	389.62
471.777	384.62
471.997	379.62
472.216	410.62
472.435	403.62
472.654	405.62
472.873	399.62
473.092	388.62
473.311	386.62
473.53	395.62
473.749	401.62
473.968	439.62
474.187	546.62
474.406	551.62
474.625	473.62
474.844	418.62
475.063	396.62
475.282	404.62
475.501	392.62
475.72	406.62
475.939	401.62
476.158	393.62
476.377	400.62
476.596	388.62
476.814	390.62
477.033	422.62
477.252	419.62
477.471	415.62
477.69	398.62
477.908	415.62
478.127	412.62
478.346	405.62
478.564	422.62
478.783	418.62
479.002	439.62
479.22	440.62
479.439	446.62
479.658	451.62
479.876	473.62
480.095	469.62
480.313	506.62
480.532	498.62
480.751	481.62
480.969	462.62
481.188	502.62
481.406	560.62
481.624	494.62
481.843	465.62
482.061	480.62
482.28	453.62
482.498	460.62
482.717	440.62
482.935	468.62
483.153	453.62
483.372	458.62
483.59	444.62
483.808	436.62
484.027	453.62
484.245	442.62
484.463	469.62
484.681	478.62
484.9	464.62
485.118	464.62
485.336	437.62
485.554	458.62
485.772	480.62
485.99	468.62
486.209	462.62
486.427	464.62
486.645	484.62
486.863	498.62
487.081	512.62
487.299	497.62
487.517	476.62
487.735	475.62
487.953	474.62
488.171	488.62
488.389	505.62
488.607	491.62
488.825	505.62
489.043	507.62
489.261	487.62
489.479	491.62
489.696	518.62
489.914	504.62
490.132	515.62
490.35	517.62
490.568	535.62
490.786	511.62
491.003	540.62
491.221	542.62
491.439	556.62
491.657	546.62
491.874	534.62
492.092	550.62
492.31	538.62
492.527	555.62
492.745	574.62
492.963	554.62
493.18	583.62
493.398	573.62
493.615	591.62
493.833	551.62
494.05	579.62
494.268	598.62
494.485	573.62
494.703	563.62
494.92	578.62
495.138	559.62
495.355	548.62
495.573	549.62
495.79	580.62
496.008	567.62
496.225	555.62
496.442	575.62
496.66	585.62
496.877	573.62
497.094	577.62
497.312	598.62
497.529	592.62
497.746	606.62
497.963	610.62
498.181	596.62
498.398	602.62
498.615	637.62
498.832	622.62
499.049	652.62
499.267	660.62
499.484	662.62
499.701	667.62
499.918	687.62
500.135	704.62
500.352	716.62
500.569	716.62
500.786	728.62
501.003	737.62
501.22	692.62
501.437	704.62
501.654	707.62
501.871	710.62
502.088	672.62
