Data from 1981.PennyLincolnUp.Lamp.En5.5.200Scan.071819.P1_HRD10591_16-43-23-960.txt Node
Date: Thu Jul 18 16:43:23 EDT 2019
User: cochatt
Spectrometer: HR+D1059
Trigger mode: 1
Integration Time (sec): 1.000000E-1
Scans to average: 1
Electric dark correction enabled: true
Nonlinearity correction enabled: false
Boxcar width: 0
XAxis mode: Wavelengths
Number of Pixels in Spectrum: 2048
>>>>>Begin Spectral Data<<<<<
223.165	-8.38
223.4	-8.38
223.635	-8.38
223.869	-23.38
224.104	-21.38
224.338	-20.38
224.573	-24.38
224.808	0.62
225.042	2.62
225.277	-3.38
225.511	4.62
225.746	-1.38
225.98	4.62
226.215	11.62
226.449	8.62
226.683	17.62
226.918	23.62
227.152	28.62
227.387	23.62
227.621	28.62
227.856	43.62
228.09	49.62
228.324	35.62
228.559	45.62
228.793	63.62
229.027	102.62
229.262	111.62
229.496	100.62
229.73	130.62
229.964	155.62
230.199	136.62
230.433	134.62
230.667	117.62
230.901	118.62
231.136	105.62
231.37	113.62
231.604	96.62
231.838	111.62
232.072	110.62
232.306	112.62
232.541	109.62
232.775	105.62
233.009	126.62
233.243	111.62
233.477	100.62
233.711	113.62
233.945	106.62
234.179	119.62
234.413	119.62
234.647	107.62
234.881	116.62
235.115	103.62
235.349	119.62
235.583	131.62
235.817	134.62
236.051	119.62
236.285	139.62
236.519	119.62
236.753	135.62
236.987	147.62
237.221	190.62
237.455	244.62
237.689	188.62
237.922	152.62
238.156	132.62
238.39	133.62
238.624	121.62
238.858	114.62
239.091	141.62
239.325	123.62
239.559	132.62
239.793	134.62
240.027	147.62
240.26	148.62
240.494	159.62
240.728	154.62
240.961	141.62
241.195	129.62
241.429	129.62
241.662	131.62
241.896	130.62
242.13	128.62
242.363	127.62
242.597	138.62
242.83	146.62
243.064	126.62
243.298	121.62
243.531	142.62
243.765	147.62
243.998	143.62
244.232	140.62
244.465	168.62
244.699	156.62
244.932	140.62
245.166	160.62
245.399	156.62
245.633	139.62
245.866	136.62
246.099	143.62
246.333	149.62
246.566	144.62
246.8	145.62
247.033	164.62
247.266	163.62
247.5	148.62
247.733	168.62
247.966	178.62
248.2	169.62
248.433	184.62
248.666	182.62
248.899	188.62
249.133	199.62
249.366	205.62
249.599	211.62
249.832	194.62
250.066	195.62
250.299	193.62
250.532	220.62
250.765	211.62
250.998	226.62
251.231	242.62
251.465	217.62
251.698	202.62
251.931	216.62
252.164	198.62
252.397	200.62
252.63	211.62
252.863	195.62
253.096	230.62
253.329	242.62
253.562	238.62
253.795	241.62
254.028	225.62
254.261	236.62
254.494	231.62
254.727	271.62
254.96	294.62
255.193	284.62
255.426	273.62
255.659	242.62
255.892	260.62
256.124	258.62
256.357	244.62
256.59	240.62
256.823	232.62
257.056	232.62
257.289	227.62
257.521	225.62
257.754	228.62
257.987	227.62
258.22	221.62
258.452	222.62
258.685	219.62
258.918	211.62
259.151	223.62
259.383	226.62
259.616	247.62
259.849	234.62
260.081	236.62
260.314	273.62
260.547	272.62
260.779	271.62
261.012	254.62
261.244	243.62
261.477	249.62
261.71	253.62
261.942	243.62
262.175	249.62
262.407	265.62
262.64	226.62
262.872	223.62
263.105	222.62
263.337	219.62
263.57	206.62
263.802	223.62
264.035	216.62
264.267	223.62
264.499	224.62
264.732	241.62
264.964	218.62
265.197	208.62
265.429	233.62
265.661	207.62
265.894	239.62
266.126	218.62
266.358	233.62
266.591	228.62
266.823	234.62
267.055	227.62
267.287	230.62
267.52	223.62
267.752	262.62
267.984	223.62
268.216	224.62
268.448	234.62
268.681	233.62
268.913	260.62
269.145	279.62
269.377	295.62
269.609	272.62
269.841	300.62
270.073	298.62
270.306	321.62
270.538	328.62
270.77	333.62
271.002	327.62
271.234	299.62
271.466	325.62
271.698	308.62
271.93	342.62
272.162	339.62
272.394	349.62
272.626	312.62
272.858	328.62
273.09	303.62
273.322	321.62
273.553	290.62
273.785	276.62
274.017	286.62
274.249	273.62
274.481	272.62
274.713	276.62
274.945	277.62
275.176	284.62
275.408	275.62
275.64	273.62
275.872	268.62
276.104	280.62
276.335	266.62
276.567	304.62
276.799	307.62
277.031	331.62
277.262	341.62
277.494	326.62
277.726	318.62
277.957	305.62
278.189	292.62
278.421	283.62
278.652	302.62
278.884	275.62
279.115	284.62
279.347	271.62
279.579	292.62
279.81	274.62
280.042	264.62
280.273	259.62
280.505	268.62
280.736	273.62
280.968	260.62
281.199	263.62
281.431	264.62
281.662	286.62
281.894	280.62
282.125	292.62
282.356	298.62
282.588	310.62
282.819	306.62
283.051	283.62
283.282	277.62
283.513	270.62
283.745	272.62
283.976	273.62
284.207	272.62
284.439	278.62
284.67	269.62
284.901	285.62
285.132	273.62
285.364	262.62
285.595	287.62
285.826	269.62
286.057	303.62
286.288	295.62
286.52	269.62
286.751	287.62
286.982	277.62
287.213	280.62
287.444	283.62
287.675	289.62
287.906	287.62
288.138	311.62
288.369	310.62
288.6	303.62
288.831	291.62
289.062	308.62
289.293	298.62
289.524	308.62
289.755	286.62
289.986	282.62
290.217	298.62
290.448	290.62
290.679	290.62
290.91	292.62
291.141	308.62
291.371	283.62
291.602	278.62
291.833	297.62
292.064	285.62
292.295	289.62
292.526	283.62
292.757	282.62
292.987	294.62
293.218	293.62
293.449	302.62
293.68	292.62
293.91	294.62
294.141	280.62
294.372	292.62
294.603	291.62
294.833	284.62
295.064	272.62
295.295	288.62
295.525	283.62
295.756	295.62
295.987	295.62
296.217	316.62
296.448	320.62
296.679	322.62
296.909	298.62
297.14	309.62
297.37	290.62
297.601	301.62
297.831	296.62
298.062	308.62
298.292	297.62
298.523	295.62
298.753	311.62
298.984	306.62
299.214	282.62
299.445	300.62
299.675	321.62
299.905	310.62
300.136	315.62
300.366	313.62
300.597	319.62
300.827	309.62
301.057	328.62
301.288	335.62
301.518	326.62
301.748	327.62
301.979	311.62
302.209	321.62
302.439	320.62
302.669	323.62
302.9	315.62
303.13	327.62
303.36	307.62
303.59	324.62
303.82	335.62
304.051	333.62
304.281	347.62
304.511	338.62
304.741	315.62
304.971	302.62
305.201	325.62
305.431	338.62
305.661	328.62
305.891	331.62
306.121	332.62
306.352	322.62
306.582	355.62
306.812	350.62
307.042	336.62
307.272	323.62
307.502	313.62
307.731	326.62
307.961	343.62
308.191	340.62
308.421	338.62
308.651	346.62
308.881	335.62
309.111	351.62
309.341	346.62
309.571	365.62
309.8	376.62
310.03	387.62
310.26	375.62
310.49	393.62
310.72	391.62
310.949	408.62
311.179	394.62
311.409	390.62
311.639	404.62
311.868	377.62
312.098	396.62
312.328	383.62
312.557	405.62
312.787	427.62
313.017	398.62
313.246	397.62
313.476	380.62
313.706	379.62
313.935	396.62
314.165	403.62
314.394	421.62
314.624	410.62
314.853	401.62
315.083	374.62
315.312	380.62
315.542	391.62
315.771	375.62
316.001	379.62
316.23	387.62
316.46	358.62
316.689	396.62
316.919	386.62
317.148	408.62
317.377	416.62
317.607	382.62
317.836	411.62
318.065	400.62
318.295	379.62
318.524	397.62
318.753	390.62
318.983	395.62
319.212	401.62
319.441	381.62
319.67	401.62
319.9	381.62
320.129	401.62
320.358	397.62
320.587	392.62
320.816	390.62
321.046	416.62
321.275	417.62
321.504	411.62
321.733	406.62
321.962	427.62
322.191	449.62
322.42	460.62
322.649	465.62
322.878	487.62
323.108	518.62
323.337	532.62
323.566	552.62
323.795	594.62
324.024	702.62
324.253	848.62
324.482	1206.62
324.71	1906.62
324.939	2544.62
325.168	2131.62
325.397	1132.62
325.626	754.62
325.855	619.62
326.084	580.62
326.313	547.62
326.542	569.62
326.77	633.62
326.999	742.62
327.228	1089.62
327.457	1598.62
327.686	1848.62
327.914	1279.62
328.143	818.62
328.372	727.62
328.6	682.62
328.829	641.62
329.058	643.62
329.287	675.62
329.515	606.62
329.744	560.62
329.972	575.62
330.201	588.62
330.43	638.62
330.658	638.62
330.887	672.62
331.115	661.62
331.344	562.62
331.572	530.62
331.801	516.62
332.03	511.62
332.258	499.62
332.486	460.62
332.715	488.62
332.943	435.62
333.172	453.62
333.4	468.62
333.629	467.62
333.857	465.62
334.085	491.62
334.314	525.62
334.542	535.62
334.771	544.62
334.999	514.62
335.227	500.62
335.455	469.62
335.684	442.62
335.912	448.62
336.14	451.62
336.369	454.62
336.597	446.62
336.825	454.62
337.053	418.62
337.281	434.62
337.51	426.62
337.738	443.62
337.966	451.62
338.194	445.62
338.422	417.62
338.65	437.62
338.878	438.62
339.106	433.62
339.334	434.62
339.562	418.62
339.79	406.62
340.018	437.62
340.246	434.62
340.474	446.62
340.702	444.62
340.93	413.62
341.158	428.62
341.386	406.62
341.614	409.62
341.842	417.62
342.07	409.62
342.298	414.62
342.526	405.62
342.754	402.62
342.981	408.62
343.209	419.62
343.437	410.62
343.665	417.62
343.893	417.62
344.12	397.62
344.348	428.62
344.576	424.62
344.804	443.62
345.031	410.62
345.259	440.62
345.487	437.62
345.714	439.62
345.942	420.62
346.17	424.62
346.397	418.62
346.625	409.62
346.853	403.62
347.08	397.62
347.308	419.62
347.535	424.62
347.763	400.62
347.99	424.62
348.218	410.62
348.445	440.62
348.673	442.62
348.9	410.62
349.128	391.62
349.355	402.62
349.583	397.62
349.81	408.62
350.037	396.62
350.265	390.62
350.492	378.62
350.72	386.62
350.947	421.62
351.174	409.62
351.402	438.62
351.629	408.62
351.856	408.62
352.083	428.62
352.311	419.62
352.538	403.62
352.765	423.62
352.992	420.62
353.22	410.62
353.447	410.62
353.674	403.62
353.901	379.62
354.128	385.62
354.355	351.62
354.583	390.62
354.81	378.62
355.037	374.62
355.264	354.62
355.491	362.62
355.718	373.62
355.945	362.62
356.172	366.62
356.399	370.62
356.626	373.62
356.853	368.62
357.08	348.62
357.307	373.62
357.534	368.62
357.761	377.62
357.988	351.62
358.215	364.62
358.441	383.62
358.668	369.62
358.895	350.62
359.122	371.62
359.349	390.62
359.576	418.62
359.802	436.62
360.029	469.62
360.256	491.62
360.483	435.62
360.709	432.62
360.936	404.62
361.163	391.62
361.39	403.62
361.616	394.62
361.843	396.62
362.07	383.62
362.296	399.62
362.523	387.62
362.749	392.62
362.976	363.62
363.203	384.62
363.429	380.62
363.656	363.62
363.882	372.62
364.109	378.62
364.335	370.62
364.562	356.62
364.788	388.62
365.015	380.62
365.241	380.62
365.468	368.62
365.694	394.62
365.92	372.62
366.147	363.62
366.373	356.62
366.599	368.62
366.826	354.62
367.052	357.62
367.278	357.62
367.505	383.62
367.731	363.62
367.957	355.62
368.184	357.62
368.41	393.62
368.636	381.62
368.862	374.62
369.089	395.62
369.315	369.62
369.541	346.62
369.767	364.62
369.993	369.62
370.219	355.62
370.445	358.62
370.672	352.62
370.898	372.62
371.124	377.62
371.35	356.62
371.576	361.62
371.802	371.62
372.028	356.62
372.254	364.62
372.48	351.62
372.706	362.62
372.932	357.62
373.158	371.62
373.384	364.62
373.61	346.62
373.835	358.62
374.061	369.62
374.287	375.62
374.513	341.62
374.739	355.62
374.965	355.62
375.191	361.62
375.416	367.62
375.642	352.62
375.868	352.62
376.094	368.62
376.319	351.62
376.545	359.62
376.771	332.62
376.997	346.62
377.222	352.62
377.448	334.62
377.674	361.62
377.899	350.62
378.125	345.62
378.35	357.62
378.576	326.62
378.802	344.62
379.027	344.62
379.253	351.62
379.478	340.62
379.704	343.62
379.929	352.62
380.155	366.62
380.38	361.62
380.606	351.62
380.831	351.62
381.057	353.62
381.282	352.62
381.507	366.62
381.733	350.62
381.958	358.62
382.184	368.62
382.409	328.62
382.634	370.62
382.86	360.62
383.085	354.62
383.31	341.62
383.535	354.62
383.761	341.62
383.986	359.62
384.211	351.62
384.436	351.62
384.662	362.62
384.887	358.62
385.112	350.62
385.337	353.62
385.562	358.62
385.787	345.62
386.013	372.62
386.238	362.62
386.463	381.62
386.688	374.62
386.913	369.62
387.138	354.62
387.363	367.62
387.588	370.62
387.813	366.62
388.038	360.62
388.263	371.62
388.488	349.62
388.713	372.62
388.938	368.62
389.163	360.62
389.387	372.62
389.612	363.62
389.837	359.62
390.062	338.62
390.287	369.62
390.512	359.62
390.736	366.62
390.961	373.62
391.186	362.62
391.411	364.62
391.636	356.62
391.86	362.62
392.085	369.62
392.31	376.62
392.534	358.62
392.759	351.62
392.984	384.62
393.208	340.62
393.433	368.62
393.658	357.62
393.882	356.62
394.107	366.62
394.331	352.62
394.556	347.62
394.78	372.62
395.005	360.62
395.229	362.62
395.454	378.62
395.678	382.62
395.903	375.62
396.127	406.62
396.352	397.62
396.576	370.62
396.801	358.62
397.025	374.62
397.249	382.62
397.474	380.62
397.698	373.62
397.922	403.62
398.147	402.62
398.371	424.62
398.595	417.62
398.82	411.62
399.044	398.62
399.268	419.62
399.492	425.62
399.717	436.62
399.941	480.62
400.165	501.62
400.389	478.62
400.613	466.62
400.837	425.62
401.062	418.62
401.286	424.62
401.51	411.62
401.734	378.62
401.958	421.62
402.182	395.62
402.406	426.62
402.63	420.62
402.854	422.62
403.078	413.62
403.302	428.62
403.526	417.62
403.75	415.62
403.974	421.62
404.198	406.62
404.422	436.62
404.645	433.62
404.869	435.62
405.093	457.62
405.317	472.62
405.541	515.62
405.765	469.62
405.988	454.62
406.212	449.62
406.436	455.62
406.66	487.62
406.883	459.62
407.107	481.62
407.331	523.62
407.555	573.62
407.778	566.62
408.002	530.62
408.226	475.62
408.449	462.62
408.673	472.62
408.896	503.62
409.12	525.62
409.344	489.62
409.567	442.62
409.791	446.62
410.014	417.62
410.238	405.62
410.461	436.62
410.685	437.62
410.908	422.62
411.132	480.62
411.355	517.62
411.578	476.62
411.802	421.62
412.025	442.62
412.249	427.62
412.472	445.62
412.695	493.62
412.919	475.62
413.142	440.62
413.365	404.62
413.589	407.62
413.812	413.62
414.035	405.62
414.258	404.62
414.482	376.62
414.705	390.62
414.928	404.62
415.151	411.62
415.374	386.62
415.597	381.62
415.821	384.62
416.044	389.62
416.267	402.62
416.49	391.62
416.713	402.62
416.936	394.62
417.159	379.62
417.382	420.62
417.605	389.62
417.828	423.62
418.051	422.62
418.274	414.62
418.497	405.62
418.72	388.62
418.943	388.62
419.166	429.62
419.389	414.62
419.611	414.62
419.834	418.62
420.057	437.62
420.28	434.62
420.503	416.62
420.726	426.62
420.948	444.62
421.171	467.62
421.394	503.62
421.617	444.62
421.839	406.62
422.062	415.62
422.285	433.62
422.507	483.62
422.73	551.62
422.953	550.62
423.175	468.62
423.398	433.62
423.621	452.62
423.843	460.62
424.066	470.62
424.288	447.62
424.511	489.62
424.733	519.62
424.956	594.62
425.178	567.62
425.401	588.62
425.623	588.62
425.846	517.62
426.068	434.62
426.291	471.62
426.513	483.62
426.735	479.62
426.958	535.62
427.18	610.62
427.402	727.62
427.625	768.62
427.847	713.62
428.069	574.62
428.292	516.62
428.514	482.62
428.736	447.62
428.958	463.62
429.181	430.62
429.403	442.62
429.625	450.62
429.847	485.62
430.069	517.62
430.292	530.62
430.514	472.62
430.736	430.62
430.958	448.62
431.18	409.62
431.402	397.62
431.624	394.62
431.846	392.62
432.068	408.62
432.29	400.62
432.512	430.62
432.734	427.62
432.956	408.62
433.178	447.62
433.4	437.62
433.622	402.62
433.844	399.62
434.066	378.62
434.287	386.62
434.509	389.62
434.731	406.62
434.953	411.62
435.175	404.62
435.397	435.62
435.618	467.62
435.84	516.62
436.062	596.62
436.284	641.62
436.505	538.62
436.727	506.62
436.949	442.62
437.17	431.62
437.392	426.62
437.614	465.62
437.835	484.62
438.057	595.62
438.278	658.62
438.5	675.62
438.721	712.62
438.943	656.62
439.165	542.62
439.386	469.62
439.608	511.62
439.829	502.62
440.05	534.62
440.272	559.62
440.493	516.62
440.715	489.62
440.936	460.62
441.158	425.62
441.379	442.62
441.6	449.62
441.822	474.62
442.043	507.62
442.264	592.62
442.486	603.62
442.707	524.62
442.928	482.62
443.149	512.62
443.371	512.62
443.592	551.62
443.813	638.62
444.034	664.62
444.255	545.62
444.476	468.62
444.698	467.62
444.919	461.62
445.14	562.62
445.361	520.62
445.582	505.62
445.803	568.62
446.024	687.62
446.245	663.62
446.466	588.62
446.687	530.62
446.908	478.62
447.129	450.62
447.35	416.62
447.571	427.62
447.792	427.62
448.013	467.62
448.234	472.62
448.455	519.62
448.675	628.62
448.896	683.62
449.117	584.62
449.338	568.62
449.559	659.62
449.779	755.62
450	578.62
450.221	491.62
450.442	451.62
450.662	446.62
450.883	446.62
451.104	455.62
451.324	432.62
451.545	432.62
451.766	417.62
451.986	404.62
452.207	373.62
452.428	362.62
452.648	378.62
452.869	387.62
453.089	395.62
453.31	411.62
453.53	404.62
453.751	391.62
453.971	387.62
454.192	414.62
454.412	399.62
454.633	382.62
454.853	367.62
455.073	350.62
455.294	424.62
455.514	484.62
455.734	486.62
455.955	393.62
456.175	377.62
456.395	364.62
456.616	358.62
456.836	353.62
457.056	349.62
457.276	351.62
457.497	376.62
457.717	364.62
457.937	354.62
458.157	352.62
458.377	369.62
458.598	404.62
458.818	495.62
459.038	535.62
459.258	553.62
459.478	462.62
459.698	409.62
459.918	390.62
460.138	390.62
460.358	379.62
460.578	386.62
460.798	400.62
461.018	368.62
461.238	393.62
461.458	376.62
461.678	374.62
461.898	371.62
462.118	392.62
462.338	378.62
462.558	412.62
462.777	405.62
462.997	397.62
463.217	383.62
463.437	424.62
463.657	386.62
463.876	393.62
464.096	400.62
464.316	396.62
464.536	418.62
464.755	409.62
464.975	426.62
465.195	470.62
465.414	558.62
465.634	488.62
465.854	436.62
466.073	419.62
466.293	388.62
466.512	375.62
466.732	391.62
466.951	369.62
467.171	392.62
467.391	384.62
467.61	392.62
467.829	416.62
468.049	379.62
468.268	395.62
468.488	380.62
468.707	375.62
468.927	380.62
469.146	368.62
469.365	356.62
469.585	378.62
469.804	381.62
470.023	393.62
470.243	395.62
470.462	385.62
470.681	428.62
470.901	421.62
471.12	406.62
471.339	396.62
471.558	377.62
471.777	395.62
471.997	391.62
472.216	392.62
472.435	423.62
472.654	417.62
472.873	397.62
473.092	379.62
473.311	384.62
473.53	388.62
473.749	425.62
473.968	456.62
474.187	549.62
474.406	560.62
474.625	466.62
474.844	416.62
475.063	411.62
475.282	400.62
475.501	386.62
475.72	412.62
475.939	387.62
476.158	389.62
476.377	401.62
476.596	391.62
476.814	408.62
477.033	407.62
477.252	420.62
477.471	420.62
477.69	402.62
477.908	411.62
478.127	434.62
478.346	425.62
478.564	428.62
478.783	404.62
479.002	416.62
479.22	428.62
479.439	464.62
479.658	468.62
479.876	468.62
480.095	468.62
480.313	497.62
480.532	479.62
480.751	474.62
480.969	487.62
481.188	554.62
481.406	588.62
481.624	520.62
481.843	475.62
482.061	495.62
482.28	459.62
482.498	458.62
482.717	440.62
482.935	439.62
483.153	458.62
483.372	454.62
483.59	455.62
483.808	469.62
484.027	473.62
484.245	472.62
484.463	459.62
484.681	458.62
484.9	491.62
485.118	457.62
485.336	472.62
485.554	468.62
485.772	474.62
485.99	473.62
486.209	469.62
486.427	486.62
486.645	494.62
486.863	489.62
487.081	500.62
487.299	489.62
487.517	514.62
487.735	473.62
487.953	483.62
488.171	489.62
488.389	505.62
488.607	474.62
488.825	505.62
489.043	511.62
489.261	488.62
489.479	510.62
489.696	502.62
489.914	471.62
490.132	508.62
490.35	518.62
490.568	504.62
490.786	530.62
491.003	523.62
491.221	567.62
491.439	558.62
491.657	574.62
491.874	568.62
492.092	580.62
492.31	593.62
492.527	586.62
492.745	581.62
492.963	577.62
493.18	548.62
493.398	590.62
493.615	562.62
493.833	589.62
494.05	586.62
494.268	592.62
494.485	606.62
494.703	594.62
494.92	581.62
495.138	608.62
495.355	577.62
495.573	581.62
495.79	571.62
496.008	585.62
496.225	592.62
496.442	593.62
496.66	583.62
496.877	570.62
497.094	574.62
497.312	596.62
497.529	610.62
497.746	591.62
497.963	619.62
498.181	629.62
498.398	645.62
498.615	623.62
498.832	641.62
499.049	635.62
499.267	666.62
499.484	664.62
499.701	663.62
499.918	664.62
500.135	695.62
500.352	691.62
500.569	699.62
500.786	709.62
501.003	728.62
501.22	725.62
501.437	700.62
501.654	694.62
501.871	716.62
502.088	714.62
