Data from 1981.PennyLincolnUp.Lamp.En5.5.200Scan.071819.P1_HRD10591_16-41-38-960.txt Node
Date: Thu Jul 18 16:41:38 EDT 2019
User: cochatt
Spectrometer: HR+D1059
Trigger mode: 1
Integration Time (sec): 1.000000E-1
Scans to average: 1
Electric dark correction enabled: true
Nonlinearity correction enabled: false
Boxcar width: 0
XAxis mode: Wavelengths
Number of Pixels in Spectrum: 2048
>>>>>Begin Spectral Data<<<<<
223.165	-15.56
223.4	-15.56
223.635	-15.56
223.869	-7.56
224.104	-15.56
224.338	-21.56
224.573	-21.56
224.808	-21.56
225.042	-20.56
225.277	-0.56
225.511	-15.56
225.746	8.44
225.98	20.44
226.215	13.44
226.449	25.44
226.683	9.44
226.918	26.44
227.152	36.44
227.387	30.44
227.621	33.44
227.856	46.44
228.09	53.44
228.324	50.44
228.559	58.44
228.793	68.44
229.027	100.44
229.262	93.44
229.496	100.44
229.73	122.44
229.964	140.44
230.199	130.44
230.433	105.44
230.667	119.44
230.901	116.44
231.136	110.44
231.37	100.44
231.604	119.44
231.838	101.44
232.072	108.44
232.306	113.44
232.541	105.44
232.775	102.44
233.009	124.44
233.243	118.44
233.477	116.44
233.711	105.44
233.945	116.44
234.179	100.44
234.413	107.44
234.647	109.44
234.881	115.44
235.115	99.44
235.349	108.44
235.583	118.44
235.817	108.44
236.051	128.44
236.285	129.44
236.519	121.44
236.753	123.44
236.987	140.44
237.221	181.44
237.455	244.44
237.689	181.44
237.922	143.44
238.156	130.44
238.39	137.44
238.624	120.44
238.858	123.44
239.091	127.44
239.325	138.44
239.559	133.44
239.793	123.44
240.027	124.44
240.26	151.44
240.494	160.44
240.728	157.44
240.961	130.44
241.195	143.44
241.429	146.44
241.662	143.44
241.896	113.44
242.13	134.44
242.363	136.44
242.597	131.44
242.83	132.44
243.064	139.44
243.298	147.44
243.531	132.44
243.765	126.44
243.998	138.44
244.232	142.44
244.465	148.44
244.699	140.44
244.932	128.44
245.166	156.44
245.399	134.44
245.633	141.44
245.866	134.44
246.099	156.44
246.333	152.44
246.566	158.44
246.8	153.44
247.033	154.44
247.266	156.44
247.5	160.44
247.733	171.44
247.966	177.44
248.2	173.44
248.433	189.44
248.666	173.44
248.899	187.44
249.133	201.44
249.366	207.44
249.599	199.44
249.832	195.44
250.066	190.44
250.299	176.44
250.532	192.44
250.765	199.44
250.998	212.44
251.231	229.44
251.465	224.44
251.698	194.44
251.931	213.44
252.164	202.44
252.397	202.44
252.63	213.44
252.863	224.44
253.096	205.44
253.329	236.44
253.562	224.44
253.795	228.44
254.028	234.44
254.261	232.44
254.494	237.44
254.727	252.44
254.96	276.44
255.193	287.44
255.426	268.44
255.659	258.44
255.892	240.44
256.124	247.44
256.357	235.44
256.59	235.44
256.823	233.44
257.056	222.44
257.289	218.44
257.521	217.44
257.754	222.44
257.987	203.44
258.22	205.44
258.452	216.44
258.685	226.44
258.918	219.44
259.151	219.44
259.383	219.44
259.616	224.44
259.849	226.44
260.081	224.44
260.314	254.44
260.547	268.44
260.779	252.44
261.012	249.44
261.244	255.44
261.477	226.44
261.71	241.44
261.942	255.44
262.175	250.44
262.407	236.44
262.64	225.44
262.872	221.44
263.105	217.44
263.337	218.44
263.57	214.44
263.802	224.44
264.035	212.44
264.267	218.44
264.499	237.44
264.732	216.44
264.964	231.44
265.197	213.44
265.429	220.44
265.661	209.44
265.894	210.44
266.126	232.44
266.358	221.44
266.591	213.44
266.823	218.44
267.055	221.44
267.287	225.44
267.52	215.44
267.752	231.44
267.984	221.44
268.216	228.44
268.448	243.44
268.681	226.44
268.913	235.44
269.145	280.44
269.377	285.44
269.609	278.44
269.841	279.44
270.073	292.44
270.306	302.44
270.538	321.44
270.77	305.44
271.002	315.44
271.234	301.44
271.466	311.44
271.698	331.44
271.93	347.44
272.162	324.44
272.394	317.44
272.626	322.44
272.858	290.44
273.09	267.44
273.322	280.44
273.553	301.44
273.785	278.44
274.017	292.44
274.249	280.44
274.481	272.44
274.713	267.44
274.945	280.44
275.176	281.44
275.408	290.44
275.64	242.44
275.872	257.44
276.104	264.44
276.335	280.44
276.567	260.44
276.799	295.44
277.031	294.44
277.262	325.44
277.494	327.44
277.726	307.44
277.957	300.44
278.189	279.44
278.421	268.44
278.652	268.44
278.884	278.44
279.115	262.44
279.347	275.44
279.579	262.44
279.81	276.44
280.042	283.44
280.273	277.44
280.505	275.44
280.736	278.44
280.968	265.44
281.199	259.44
281.431	264.44
281.662	270.44
281.894	270.44
282.125	285.44
282.356	294.44
282.588	280.44
282.819	307.44
283.051	275.44
283.282	283.44
283.513	267.44
283.745	278.44
283.976	272.44
284.207	282.44
284.439	276.44
284.67	285.44
284.901	282.44
285.132	268.44
285.364	292.44
285.595	286.44
285.826	273.44
286.057	284.44
286.288	270.44
286.52	275.44
286.751	256.44
286.982	290.44
287.213	283.44
287.444	256.44
287.675	299.44
287.906	281.44
288.138	293.44
288.369	306.44
288.6	292.44
288.831	281.44
289.062	297.44
289.293	274.44
289.524	291.44
289.755	290.44
289.986	282.44
290.217	277.44
290.448	284.44
290.679	287.44
290.91	285.44
291.141	280.44
291.371	294.44
291.602	275.44
291.833	280.44
292.064	257.44
292.295	286.44
292.526	296.44
292.757	274.44
292.987	282.44
293.218	277.44
293.449	294.44
293.68	291.44
293.91	274.44
294.141	286.44
294.372	304.44
294.603	297.44
294.833	276.44
295.064	280.44
295.295	279.44
295.525	269.44
295.756	299.44
295.987	284.44
296.217	308.44
296.448	324.44
296.679	302.44
296.909	299.44
297.14	290.44
297.37	283.44
297.601	276.44
297.831	277.44
298.062	308.44
298.292	278.44
298.523	291.44
298.753	297.44
298.984	298.44
299.214	309.44
299.445	304.44
299.675	284.44
299.905	301.44
300.136	298.44
300.366	302.44
300.597	306.44
300.827	309.44
301.057	324.44
301.288	320.44
301.518	326.44
301.748	314.44
301.979	297.44
302.209	299.44
302.439	316.44
302.669	338.44
302.9	323.44
303.13	316.44
303.36	344.44
303.59	337.44
303.82	337.44
304.051	327.44
304.281	326.44
304.511	332.44
304.741	296.44
304.971	318.44
305.201	330.44
305.431	324.44
305.661	329.44
305.891	324.44
306.121	310.44
306.352	324.44
306.582	341.44
306.812	315.44
307.042	341.44
307.272	325.44
307.502	323.44
307.731	337.44
307.961	322.44
308.191	326.44
308.421	336.44
308.651	330.44
308.881	321.44
309.111	348.44
309.341	350.44
309.571	349.44
309.8	347.44
310.03	385.44
310.26	386.44
310.49	365.44
310.72	384.44
310.949	402.44
311.179	391.44
311.409	389.44
311.639	379.44
311.868	377.44
312.098	380.44
312.328	379.44
312.557	402.44
312.787	414.44
313.017	413.44
313.246	408.44
313.476	378.44
313.706	379.44
313.935	379.44
314.165	384.44
314.394	390.44
314.624	401.44
314.853	375.44
315.083	384.44
315.312	372.44
315.542	364.44
315.771	380.44
316.001	379.44
316.23	373.44
316.46	364.44
316.689	373.44
316.919	381.44
317.148	389.44
317.377	396.44
317.607	390.44
317.836	378.44
318.065	391.44
318.295	379.44
318.524	389.44
318.753	377.44
318.983	379.44
319.212	378.44
319.441	396.44
319.67	402.44
319.9	387.44
320.129	382.44
320.358	409.44
320.587	392.44
320.816	406.44
321.046	400.44
321.275	380.44
321.504	406.44
321.733	412.44
321.962	401.44
322.191	422.44
322.42	440.44
322.649	449.44
322.878	477.44
323.108	496.44
323.337	497.44
323.566	527.44
323.795	553.44
324.024	632.44
324.253	756.44
324.482	1084.44
324.71	1634.44
324.939	2290.44
325.168	1942.44
325.397	1025.44
325.626	722.44
325.855	604.44
326.084	569.44
326.313	519.44
326.542	559.44
326.77	598.44
326.999	704.44
327.228	940.44
327.457	1448.44
327.686	1662.44
327.914	1141.44
328.143	760.44
328.372	668.44
328.6	618.44
328.829	593.44
329.058	594.44
329.287	597.44
329.515	553.44
329.744	525.44
329.972	531.44
330.201	532.44
330.43	587.44
330.658	612.44
330.887	622.44
331.115	593.44
331.344	518.44
331.572	512.44
331.801	486.44
332.03	496.44
332.258	447.44
332.486	452.44
332.715	465.44
332.943	420.44
333.172	427.44
333.4	457.44
333.629	450.44
333.857	451.44
334.085	476.44
334.314	483.44
334.542	489.44
334.771	512.44
334.999	487.44
335.227	446.44
335.455	465.44
335.684	450.44
335.912	450.44
336.14	425.44
336.369	440.44
336.597	452.44
336.825	439.44
337.053	434.44
337.281	430.44
337.51	424.44
337.738	417.44
337.966	425.44
338.194	429.44
338.422	436.44
338.65	432.44
338.878	425.44
339.106	414.44
339.334	430.44
339.562	409.44
339.79	407.44
340.018	392.44
340.246	405.44
340.474	415.44
340.702	415.44
340.93	409.44
341.158	412.44
341.386	400.44
341.614	418.44
341.842	416.44
342.07	406.44
342.298	421.44
342.526	418.44
342.754	411.44
342.981	392.44
343.209	380.44
343.437	400.44
343.665	397.44
343.893	388.44
344.12	386.44
344.348	390.44
344.576	404.44
344.804	426.44
345.031	441.44
345.259	438.44
345.487	429.44
345.714	408.44
345.942	410.44
346.17	405.44
346.397	399.44
346.625	389.44
346.853	408.44
347.08	407.44
347.308	410.44
347.535	423.44
347.763	416.44
347.99	412.44
348.218	400.44
348.445	413.44
348.673	426.44
348.9	404.44
349.128	393.44
349.355	383.44
349.583	378.44
349.81	365.44
350.037	372.44
350.265	394.44
350.492	390.44
350.72	383.44
350.947	376.44
351.174	397.44
351.402	410.44
351.629	406.44
351.856	393.44
352.083	404.44
352.311	411.44
352.538	424.44
352.765	424.44
352.992	387.44
353.22	385.44
353.447	385.44
353.674	394.44
353.901	386.44
354.128	393.44
354.355	378.44
354.583	372.44
354.81	362.44
355.037	370.44
355.264	380.44
355.491	371.44
355.718	354.44
355.945	341.44
356.172	366.44
356.399	366.44
356.626	349.44
356.853	361.44
357.08	356.44
357.307	370.44
357.534	354.44
357.761	356.44
357.988	355.44
358.215	368.44
358.441	365.44
358.668	350.44
358.895	358.44
359.122	373.44
359.349	386.44
359.576	385.44
359.802	420.44
360.029	440.44
360.256	438.44
360.483	414.44
360.709	407.44
360.936	396.44
361.163	374.44
361.39	395.44
361.616	394.44
361.843	395.44
362.07	390.44
362.296	398.44
362.523	391.44
362.749	399.44
362.976	382.44
363.203	377.44
363.429	386.44
363.656	379.44
363.882	376.44
364.109	369.44
364.335	381.44
364.562	377.44
364.788	368.44
365.015	368.44
365.241	362.44
365.468	368.44
365.694	368.44
365.92	363.44
366.147	378.44
366.373	360.44
366.599	350.44
366.826	356.44
367.052	362.44
367.278	358.44
367.505	358.44
367.731	364.44
367.957	375.44
368.184	352.44
368.41	378.44
368.636	384.44
368.862	363.44
369.089	375.44
369.315	358.44
369.541	380.44
369.767	365.44
369.993	364.44
370.219	376.44
370.445	353.44
370.672	352.44
370.898	357.44
371.124	353.44
371.35	364.44
371.576	342.44
371.802	333.44
372.028	341.44
372.254	350.44
372.48	345.44
372.706	366.44
372.932	356.44
373.158	357.44
373.384	339.44
373.61	348.44
373.835	355.44
374.061	362.44
374.287	365.44
374.513	371.44
374.739	368.44
374.965	361.44
375.191	347.44
375.416	353.44
375.642	346.44
375.868	349.44
376.094	360.44
376.319	338.44
376.545	337.44
376.771	343.44
376.997	338.44
377.222	325.44
377.448	328.44
377.674	372.44
377.899	333.44
378.125	351.44
378.35	338.44
378.576	358.44
378.802	359.44
379.027	338.44
379.253	337.44
379.478	336.44
379.704	359.44
379.929	329.44
380.155	359.44
380.38	335.44
380.606	356.44
380.831	346.44
381.057	353.44
381.282	359.44
381.507	362.44
381.733	359.44
381.958	355.44
382.184	350.44
382.409	370.44
382.634	365.44
382.86	368.44
383.085	343.44
383.31	338.44
383.535	338.44
383.761	341.44
383.986	343.44
384.211	357.44
384.436	351.44
384.662	350.44
384.887	362.44
385.112	342.44
385.337	356.44
385.562	365.44
385.787	359.44
386.013	390.44
386.238	376.44
386.463	381.44
386.688	353.44
386.913	380.44
387.138	352.44
387.363	368.44
387.588	353.44
387.813	378.44
388.038	377.44
388.263	343.44
388.488	354.44
388.713	361.44
388.938	376.44
389.163	381.44
389.387	371.44
389.612	350.44
389.837	349.44
390.062	352.44
390.287	355.44
390.512	359.44
390.736	377.44
390.961	354.44
391.186	376.44
391.411	368.44
391.636	368.44
391.86	364.44
392.085	370.44
392.31	349.44
392.534	362.44
392.759	355.44
392.984	355.44
393.208	378.44
393.433	342.44
393.658	348.44
393.882	352.44
394.107	363.44
394.331	358.44
394.556	378.44
394.78	339.44
395.005	378.44
395.229	356.44
395.454	376.44
395.678	370.44
395.903	375.44
396.127	382.44
396.352	423.44
396.576	396.44
396.801	370.44
397.025	372.44
397.249	372.44
397.474	380.44
397.698	381.44
397.922	386.44
398.147	381.44
398.371	410.44
398.595	387.44
398.82	414.44
399.044	408.44
399.268	426.44
399.492	433.44
399.717	429.44
399.941	457.44
400.165	481.44
400.389	506.44
400.613	442.44
400.837	423.44
401.062	405.44
401.286	422.44
401.51	425.44
401.734	390.44
401.958	400.44
402.182	410.44
402.406	406.44
402.63	416.44
402.854	422.44
403.078	408.44
403.302	428.44
403.526	429.44
403.75	424.44
403.974	425.44
404.198	413.44
404.422	427.44
404.645	432.44
404.869	426.44
405.093	457.44
405.317	506.44
405.541	505.44
405.765	478.44
405.988	451.44
406.212	465.44
406.436	453.44
406.66	491.44
406.883	476.44
407.107	475.44
407.331	519.44
407.555	551.44
407.778	569.44
408.002	489.44
408.226	467.44
408.449	469.44
408.673	456.44
408.896	494.44
409.12	526.44
409.344	491.44
409.567	450.44
409.791	452.44
410.014	412.44
410.238	426.44
410.461	413.44
410.685	446.44
410.908	416.44
411.132	446.44
411.355	470.44
411.578	453.44
411.802	426.44
412.025	426.44
412.249	420.44
412.472	437.44
412.695	462.44
412.919	456.44
413.142	428.44
413.365	406.44
413.589	405.44
413.812	387.44
414.035	390.44
414.258	382.44
414.482	391.44
414.705	405.44
414.928	380.44
415.151	396.44
415.374	383.44
415.597	384.44
415.821	387.44
416.044	388.44
416.267	395.44
416.49	374.44
416.713	402.44
416.936	392.44
417.159	393.44
417.382	402.44
417.605	396.44
417.828	410.44
418.051	418.44
418.274	417.44
418.497	410.44
418.72	400.44
418.943	393.44
419.166	392.44
419.389	416.44
419.611	424.44
419.834	430.44
420.057	428.44
420.28	404.44
420.503	405.44
420.726	419.44
420.948	442.44
421.171	479.44
421.394	494.44
421.617	423.44
421.839	420.44
422.062	432.44
422.285	421.44
422.507	500.44
422.73	538.44
422.953	528.44
423.175	474.44
423.398	461.44
423.621	444.44
423.843	475.44
424.066	444.44
424.288	462.44
424.511	465.44
424.733	493.44
424.956	602.44
425.178	580.44
425.401	553.44
425.623	564.44
425.846	474.44
426.068	460.44
426.291	453.44
426.513	474.44
426.735	468.44
426.958	481.44
427.18	584.44
427.402	692.44
427.625	741.44
427.847	684.44
428.069	550.44
428.292	512.44
428.514	482.44
428.736	427.44
428.958	428.44
429.181	439.44
429.403	422.44
429.625	455.44
429.847	466.44
430.069	549.44
430.292	541.44
430.514	421.44
430.736	412.44
430.958	416.44
431.18	424.44
431.402	406.44
431.624	393.44
431.846	388.44
432.068	394.44
432.29	418.44
432.512	421.44
432.734	394.44
432.956	402.44
433.178	397.44
433.4	384.44
433.622	381.44
433.844	406.44
434.066	385.44
434.287	389.44
434.509	394.44
434.731	397.44
434.953	417.44
435.175	414.44
435.397	458.44
435.618	452.44
435.84	490.44
436.062	571.44
436.284	613.44
436.505	521.44
436.727	503.44
436.949	453.44
437.17	426.44
437.392	421.44
437.614	438.44
437.835	478.44
438.057	563.44
438.278	628.44
438.5	627.44
438.721	683.44
438.943	646.44
439.165	560.44
439.386	510.44
439.608	485.44
439.829	461.44
440.05	513.44
440.272	552.44
440.493	514.44
440.715	458.44
440.936	436.44
441.158	436.44
441.379	438.44
441.6	439.44
441.822	436.44
442.043	482.44
442.264	576.44
442.486	606.44
442.707	512.44
442.928	493.44
443.149	510.44
443.371	499.44
443.592	516.44
443.813	610.44
444.034	654.44
444.255	532.44
444.476	463.44
444.698	472.44
444.919	459.44
445.14	564.44
445.361	508.44
445.582	502.44
445.803	570.44
446.024	644.44
446.245	661.44
446.466	586.44
446.687	512.44
446.908	465.44
447.129	452.44
447.35	430.44
447.571	436.44
447.792	418.44
448.013	445.44
448.234	429.44
448.455	486.44
448.675	578.44
448.896	679.44
449.117	572.44
449.338	562.44
449.559	661.44
449.779	691.44
450	585.44
450.221	500.44
450.442	450.44
450.662	409.44
450.883	434.44
451.104	440.44
451.324	433.44
451.545	410.44
451.766	383.44
451.986	378.44
452.207	391.44
452.428	385.44
452.648	371.44
452.869	391.44
453.089	386.44
453.31	393.44
453.53	371.44
453.751	398.44
453.971	398.44
454.192	410.44
454.412	396.44
454.633	396.44
454.853	373.44
455.073	379.44
455.294	428.44
455.514	442.44
455.734	444.44
455.955	389.44
456.175	352.44
456.395	366.44
456.616	376.44
456.836	372.44
457.056	348.44
457.276	344.44
457.497	359.44
457.717	345.44
457.937	365.44
458.157	369.44
458.377	364.44
458.598	399.44
458.818	447.44
459.038	532.44
459.258	530.44
459.478	449.44
459.698	416.44
459.918	398.44
460.138	402.44
460.358	372.44
460.578	380.44
460.798	386.44
461.018	404.44
461.238	392.44
461.458	404.44
461.678	388.44
461.898	391.44
462.118	386.44
462.338	411.44
462.558	414.44
462.777	377.44
462.997	399.44
463.217	406.44
463.437	416.44
463.657	402.44
463.876	418.44
464.096	396.44
464.316	407.44
464.536	398.44
464.755	378.44
464.975	401.44
465.195	472.44
465.414	541.44
465.634	477.44
465.854	424.44
466.073	414.44
466.293	404.44
466.512	388.44
466.732	399.44
466.951	382.44
467.171	393.44
467.391	384.44
467.61	393.44
467.829	416.44
468.049	398.44
468.268	387.44
468.488	362.44
468.707	378.44
468.927	372.44
469.146	344.44
469.365	374.44
469.585	378.44
469.804	379.44
470.023	392.44
470.243	385.44
470.462	397.44
470.681	415.44
470.901	398.44
471.12	390.44
471.339	395.44
471.558	408.44
471.777	385.44
471.997	392.44
472.216	379.44
472.435	412.44
472.654	416.44
472.873	402.44
473.092	405.44
473.311	389.44
473.53	397.44
473.749	403.44
473.968	469.44
474.187	546.44
474.406	552.44
474.625	444.44
474.844	412.44
475.063	413.44
475.282	382.44
475.501	409.44
475.72	397.44
475.939	398.44
476.158	397.44
476.377	396.44
476.596	413.44
476.814	427.44
477.033	406.44
477.252	404.44
477.471	421.44
477.69	418.44
477.908	395.44
478.127	427.44
478.346	416.44
478.564	434.44
478.783	421.44
479.002	470.44
479.22	423.44
479.439	423.44
479.658	462.44
479.876	475.44
480.095	474.44
480.313	503.44
480.532	487.44
480.751	471.44
480.969	462.44
481.188	532.44
481.406	546.44
481.624	501.44
481.843	484.44
482.061	475.44
482.28	483.44
482.498	466.44
482.717	468.44
482.935	467.44
483.153	463.44
483.372	458.44
483.59	449.44
483.808	452.44
484.027	444.44
484.245	456.44
484.463	452.44
484.681	468.44
484.9	460.44
485.118	466.44
485.336	470.44
485.554	477.44
485.772	467.44
485.99	485.44
486.209	477.44
486.427	481.44
486.645	468.44
486.863	513.44
487.081	498.44
487.299	493.44
487.517	486.44
487.735	496.44
487.953	487.44
488.171	496.44
488.389	474.44
488.607	494.44
488.825	509.44
489.043	493.44
489.261	492.44
489.479	504.44
489.696	500.44
489.914	492.44
490.132	502.44
490.35	524.44
490.568	522.44
490.786	522.44
491.003	516.44
491.221	551.44
491.439	560.44
491.657	582.44
491.874	553.44
492.092	547.44
492.31	554.44
492.527	558.44
492.745	555.44
492.963	565.44
493.18	560.44
493.398	575.44
493.615	570.44
493.833	578.44
494.05	570.44
494.268	583.44
494.485	558.44
494.703	561.44
494.92	574.44
495.138	573.44
495.355	572.44
495.573	601.44
495.79	588.44
496.008	580.44
496.225	577.44
496.442	596.44
496.66	591.44
496.877	589.44
497.094	572.44
497.312	573.44
497.529	579.44
497.746	601.44
497.963	615.44
498.181	633.44
498.398	640.44
498.615	613.44
498.832	601.44
499.049	635.44
499.267	646.44
499.484	660.44
499.701	670.44
499.918	680.44
500.135	674.44
500.352	709.44
500.569	707.44
500.786	714.44
501.003	727.44
501.22	731.44
501.437	708.44
501.654	704.44
501.871	677.44
