Data from 1981.PennyLincolnUp.Lamp.En5.5.200Scan.071819.P1_HRD10591_16-40-38-959.txt Node
Date: Thu Jul 18 16:40:38 EDT 2019
User: cochatt
Spectrometer: HR+D1059
Trigger mode: 1
Integration Time (sec): 1.000000E-1
Scans to average: 1
Electric dark correction enabled: true
Nonlinearity correction enabled: false
Boxcar width: 0
XAxis mode: Wavelengths
Number of Pixels in Spectrum: 2048
>>>>>Begin Spectral Data<<<<<
223.165	-9.25
223.4	-9.25
223.635	-9.25
223.869	-14.25
224.104	-18.25
224.338	-11.25
224.573	-25.25
224.808	-13.25
225.042	-10.25
225.277	2.75
225.511	6.75
225.746	-3.25
225.98	1.75
226.215	15.75
226.449	13.75
226.683	17.75
226.918	18.75
227.152	27.75
227.387	32.75
227.621	42.75
227.856	45.75
228.09	38.75
228.324	45.75
228.559	63.75
228.793	66.75
229.027	95.75
229.262	110.75
229.496	108.75
229.73	119.75
229.964	136.75
230.199	127.75
230.433	105.75
230.667	104.75
230.901	117.75
231.136	101.75
231.37	118.75
231.604	107.75
231.838	99.75
232.072	102.75
232.306	110.75
232.541	113.75
232.775	101.75
233.009	102.75
233.243	104.75
233.477	119.75
233.711	113.75
233.945	105.75
234.179	109.75
234.413	107.75
234.647	117.75
234.881	115.75
235.115	110.75
235.349	100.75
235.583	125.75
235.817	117.75
236.051	135.75
236.285	121.75
236.519	130.75
236.753	125.75
236.987	129.75
237.221	152.75
237.455	203.75
237.689	177.75
237.922	140.75
238.156	136.75
238.39	138.75
238.624	127.75
238.858	117.75
239.091	123.75
239.325	108.75
239.559	117.75
239.793	123.75
240.027	133.75
240.26	133.75
240.494	146.75
240.728	142.75
240.961	137.75
241.195	133.75
241.429	128.75
241.662	116.75
241.896	137.75
242.13	115.75
242.363	124.75
242.597	131.75
242.83	139.75
243.064	128.75
243.298	133.75
243.531	135.75
243.765	126.75
243.998	137.75
244.232	126.75
244.465	129.75
244.699	143.75
244.932	135.75
245.166	132.75
245.399	132.75
245.633	120.75
245.866	145.75
246.099	136.75
246.333	148.75
246.566	153.75
246.8	157.75
247.033	150.75
247.266	139.75
247.5	153.75
247.733	152.75
247.966	159.75
248.2	164.75
248.433	157.75
248.666	172.75
248.899	174.75
249.133	169.75
249.366	193.75
249.599	180.75
249.832	183.75
250.066	182.75
250.299	177.75
250.532	178.75
250.765	190.75
250.998	205.75
251.231	206.75
251.465	203.75
251.698	191.75
251.931	190.75
252.164	190.75
252.397	194.75
252.63	180.75
252.863	195.75
253.096	191.75
253.329	217.75
253.562	212.75
253.795	216.75
254.028	211.75
254.261	214.75
254.494	192.75
254.727	241.75
254.96	254.75
255.193	245.75
255.426	220.75
255.659	222.75
255.892	206.75
256.124	213.75
256.357	204.75
256.59	196.75
256.823	210.75
257.056	187.75
257.289	186.75
257.521	191.75
257.754	199.75
257.987	205.75
258.22	179.75
258.452	200.75
258.685	186.75
258.918	191.75
259.151	195.75
259.383	206.75
259.616	217.75
259.849	222.75
260.081	216.75
260.314	228.75
260.547	229.75
260.779	214.75
261.012	226.75
261.244	213.75
261.477	215.75
261.71	204.75
261.942	204.75
262.175	210.75
262.407	205.75
262.64	208.75
262.872	197.75
263.105	207.75
263.337	217.75
263.57	205.75
263.802	194.75
264.035	205.75
264.267	199.75
264.499	197.75
264.732	203.75
264.964	195.75
265.197	211.75
265.429	204.75
265.661	202.75
265.894	200.75
266.126	203.75
266.358	205.75
266.591	211.75
266.823	202.75
267.055	212.75
267.287	215.75
267.52	198.75
267.752	213.75
267.984	192.75
268.216	208.75
268.448	202.75
268.681	209.75
268.913	219.75
269.145	235.75
269.377	242.75
269.609	256.75
269.841	242.75
270.073	241.75
270.306	267.75
270.538	286.75
270.77	288.75
271.002	275.75
271.234	249.75
271.466	259.75
271.698	260.75
271.93	279.75
272.162	296.75
272.394	285.75
272.626	281.75
272.858	278.75
273.09	271.75
273.322	241.75
273.553	256.75
273.785	255.75
274.017	238.75
274.249	241.75
274.481	236.75
274.713	220.75
274.945	239.75
275.176	231.75
275.408	249.75
275.64	240.75
275.872	241.75
276.104	246.75
276.335	245.75
276.567	237.75
276.799	245.75
277.031	271.75
277.262	274.75
277.494	293.75
277.726	287.75
277.957	258.75
278.189	250.75
278.421	263.75
278.652	245.75
278.884	236.75
279.115	241.75
279.347	250.75
279.579	245.75
279.81	249.75
280.042	241.75
280.273	263.75
280.505	265.75
280.736	244.75
280.968	242.75
281.199	234.75
281.431	255.75
281.662	249.75
281.894	245.75
282.125	241.75
282.356	261.75
282.588	277.75
282.819	270.75
283.051	236.75
283.282	253.75
283.513	241.75
283.745	247.75
283.976	239.75
284.207	270.75
284.439	250.75
284.67	250.75
284.901	255.75
285.132	250.75
285.364	247.75
285.595	245.75
285.826	234.75
286.057	239.75
286.288	233.75
286.52	231.75
286.751	252.75
286.982	251.75
287.213	251.75
287.444	246.75
287.675	259.75
287.906	261.75
288.138	252.75
288.369	254.75
288.6	268.75
288.831	270.75
289.062	268.75
289.293	266.75
289.524	261.75
289.755	261.75
289.986	274.75
290.217	268.75
290.448	244.75
290.679	250.75
290.91	253.75
291.141	265.75
291.371	274.75
291.602	267.75
291.833	233.75
292.064	267.75
292.295	275.75
292.526	270.75
292.757	249.75
292.987	262.75
293.218	258.75
293.449	277.75
293.68	245.75
293.91	262.75
294.141	261.75
294.372	262.75
294.603	249.75
294.833	259.75
295.064	258.75
295.295	257.75
295.525	272.75
295.756	269.75
295.987	278.75
296.217	277.75
296.448	288.75
296.679	285.75
296.909	267.75
297.14	253.75
297.37	258.75
297.601	274.75
297.831	267.75
298.062	276.75
298.292	277.75
298.523	282.75
298.753	276.75
298.984	289.75
299.214	275.75
299.445	271.75
299.675	283.75
299.905	281.75
300.136	298.75
300.366	270.75
300.597	273.75
300.827	266.75
301.057	284.75
301.288	292.75
301.518	277.75
301.748	276.75
301.979	278.75
302.209	285.75
302.439	281.75
302.669	289.75
302.9	293.75
303.13	279.75
303.36	295.75
303.59	307.75
303.82	277.75
304.051	293.75
304.281	288.75
304.511	294.75
304.741	284.75
304.971	292.75
305.201	276.75
305.431	283.75
305.661	302.75
305.891	289.75
306.121	294.75
306.352	290.75
306.582	307.75
306.812	294.75
307.042	323.75
307.272	298.75
307.502	287.75
307.731	291.75
307.961	286.75
308.191	295.75
308.421	298.75
308.651	306.75
308.881	293.75
309.111	295.75
309.341	306.75
309.571	328.75
309.8	318.75
310.03	310.75
310.26	335.75
310.49	333.75
310.72	324.75
310.949	358.75
311.179	339.75
311.409	326.75
311.639	329.75
311.868	325.75
312.098	342.75
312.328	345.75
312.557	347.75
312.787	384.75
313.017	352.75
313.246	329.75
313.476	324.75
313.706	326.75
313.935	340.75
314.165	340.75
314.394	335.75
314.624	351.75
314.853	331.75
315.083	330.75
315.312	339.75
315.542	327.75
315.771	316.75
316.001	325.75
316.23	325.75
316.46	333.75
316.689	340.75
316.919	342.75
317.148	362.75
317.377	354.75
317.607	341.75
317.836	327.75
318.065	330.75
318.295	337.75
318.524	318.75
318.753	330.75
318.983	327.75
319.212	353.75
319.441	340.75
319.67	344.75
319.9	337.75
320.129	346.75
320.358	360.75
320.587	321.75
320.816	351.75
321.046	344.75
321.275	363.75
321.504	358.75
321.733	362.75
321.962	364.75
322.191	389.75
322.42	382.75
322.649	388.75
322.878	390.75
323.108	394.75
323.337	438.75
323.566	441.75
323.795	457.75
324.024	520.75
324.253	610.75
324.482	865.75
324.71	1309.75
324.939	1778.75
325.168	1516.75
325.397	827.75
325.626	569.75
325.855	473.75
326.084	459.75
326.313	447.75
326.542	455.75
326.77	498.75
326.999	554.75
327.228	796.75
327.457	1131.75
327.686	1319.75
327.914	896.75
328.143	614.75
328.372	527.75
328.6	534.75
328.829	474.75
329.058	492.75
329.287	478.75
329.515	461.75
329.744	441.75
329.972	425.75
330.201	433.75
330.43	458.75
330.658	478.75
330.887	523.75
331.115	505.75
331.344	452.75
331.572	413.75
331.801	424.75
332.03	438.75
332.258	414.75
332.486	384.75
332.715	382.75
332.943	392.75
333.172	383.75
333.4	389.75
333.629	386.75
333.857	390.75
334.085	397.75
334.314	413.75
334.542	405.75
334.771	436.75
334.999	414.75
335.227	396.75
335.455	373.75
335.684	383.75
335.912	396.75
336.14	374.75
336.369	390.75
336.597	389.75
336.825	391.75
337.053	380.75
337.281	366.75
337.51	369.75
337.738	387.75
337.966	377.75
338.194	376.75
338.422	389.75
338.65	380.75
338.878	361.75
339.106	379.75
339.334	391.75
339.562	377.75
339.79	363.75
340.018	348.75
340.246	362.75
340.474	354.75
340.702	373.75
340.93	349.75
341.158	359.75
341.386	353.75
341.614	359.75
341.842	369.75
342.07	373.75
342.298	353.75
342.526	387.75
342.754	339.75
342.981	344.75
343.209	370.75
343.437	356.75
343.665	361.75
343.893	356.75
344.12	367.75
344.348	386.75
344.576	379.75
344.804	370.75
345.031	389.75
345.259	358.75
345.487	376.75
345.714	373.75
345.942	356.75
346.17	361.75
346.397	363.75
346.625	377.75
346.853	388.75
347.08	364.75
347.308	348.75
347.535	344.75
347.763	356.75
347.99	373.75
348.218	371.75
348.445	381.75
348.673	378.75
348.9	379.75
349.128	356.75
349.355	342.75
349.583	341.75
349.81	346.75
350.037	350.75
350.265	338.75
350.492	361.75
350.72	345.75
350.947	347.75
351.174	366.75
351.402	360.75
351.629	354.75
351.856	358.75
352.083	371.75
352.311	371.75
352.538	359.75
352.765	363.75
352.992	348.75
353.22	352.75
353.447	364.75
353.674	333.75
353.901	343.75
354.128	346.75
354.355	342.75
354.583	355.75
354.81	326.75
355.037	331.75
355.264	322.75
355.491	323.75
355.718	324.75
355.945	327.75
356.172	328.75
356.399	334.75
356.626	321.75
356.853	324.75
357.08	334.75
357.307	346.75
357.534	314.75
357.761	343.75
357.988	328.75
358.215	323.75
358.441	324.75
358.668	330.75
358.895	317.75
359.122	351.75
359.349	331.75
359.576	339.75
359.802	360.75
360.029	372.75
360.256	385.75
360.483	369.75
360.709	346.75
360.936	358.75
361.163	353.75
361.39	358.75
361.616	352.75
361.843	338.75
362.07	323.75
362.296	330.75
362.523	362.75
362.749	359.75
362.976	332.75
363.203	342.75
363.429	335.75
363.656	341.75
363.882	333.75
364.109	306.75
364.335	316.75
364.562	338.75
364.788	329.75
365.015	326.75
365.241	313.75
365.468	344.75
365.694	330.75
365.92	341.75
366.147	344.75
366.373	330.75
366.599	331.75
366.826	331.75
367.052	333.75
367.278	332.75
367.505	325.75
367.731	344.75
367.957	323.75
368.184	307.75
368.41	329.75
368.636	333.75
368.862	349.75
369.089	321.75
369.315	321.75
369.541	330.75
369.767	336.75
369.993	337.75
370.219	314.75
370.445	318.75
370.672	334.75
370.898	326.75
371.124	330.75
371.35	331.75
371.576	329.75
371.802	328.75
372.028	323.75
372.254	342.75
372.48	330.75
372.706	325.75
372.932	332.75
373.158	319.75
373.384	314.75
373.61	339.75
373.835	335.75
374.061	331.75
374.287	329.75
374.513	340.75
374.739	338.75
374.965	335.75
375.191	326.75
375.416	338.75
375.642	321.75
375.868	332.75
376.094	327.75
376.319	295.75
376.545	297.75
376.771	334.75
376.997	328.75
377.222	306.75
377.448	326.75
377.674	329.75
377.899	331.75
378.125	313.75
378.35	309.75
378.576	314.75
378.802	293.75
379.027	316.75
379.253	328.75
379.478	311.75
379.704	316.75
379.929	327.75
380.155	321.75
380.38	300.75
380.606	318.75
380.831	322.75
381.057	312.75
381.282	321.75
381.507	334.75
381.733	327.75
381.958	323.75
382.184	327.75
382.409	318.75
382.634	334.75
382.86	332.75
383.085	318.75
383.31	308.75
383.535	316.75
383.761	331.75
383.986	339.75
384.211	341.75
384.436	327.75
384.662	329.75
384.887	345.75
385.112	335.75
385.337	336.75
385.562	335.75
385.787	325.75
386.013	349.75
386.238	348.75
386.463	346.75
386.688	351.75
386.913	325.75
387.138	328.75
387.363	324.75
387.588	335.75
387.813	340.75
388.038	325.75
388.263	345.75
388.488	341.75
388.713	330.75
388.938	337.75
389.163	344.75
389.387	339.75
389.612	346.75
389.837	341.75
390.062	328.75
390.287	333.75
390.512	332.75
390.736	324.75
390.961	340.75
391.186	337.75
391.411	347.75
391.636	350.75
391.86	333.75
392.085	340.75
392.31	346.75
392.534	315.75
392.759	327.75
392.984	339.75
393.208	332.75
393.433	332.75
393.658	350.75
393.882	328.75
394.107	343.75
394.331	339.75
394.556	326.75
394.78	347.75
395.005	339.75
395.229	317.75
395.454	353.75
395.678	324.75
395.903	349.75
396.127	378.75
396.352	371.75
396.576	371.75
396.801	334.75
397.025	332.75
397.249	347.75
397.474	349.75
397.698	348.75
397.922	364.75
398.147	376.75
398.371	366.75
398.595	375.75
398.82	377.75
399.044	382.75
399.268	376.75
399.492	396.75
399.717	403.75
399.941	431.75
400.165	434.75
400.389	451.75
400.613	422.75
400.837	411.75
401.062	369.75
401.286	365.75
401.51	360.75
401.734	372.75
401.958	373.75
402.182	378.75
402.406	380.75
402.63	386.75
402.854	382.75
403.078	383.75
403.302	381.75
403.526	376.75
403.75	379.75
403.974	410.75
404.198	378.75
404.422	376.75
404.645	386.75
404.869	376.75
405.093	399.75
405.317	428.75
405.541	456.75
405.765	419.75
405.988	393.75
406.212	424.75
406.436	433.75
406.66	438.75
406.883	408.75
407.107	423.75
407.331	452.75
407.555	506.75
407.778	507.75
408.002	470.75
408.226	423.75
408.449	404.75
408.673	442.75
408.896	451.75
409.12	454.75
409.344	439.75
409.567	408.75
409.791	399.75
410.014	380.75
410.238	380.75
410.461	371.75
410.685	405.75
410.908	401.75
411.132	428.75
411.355	446.75
411.578	437.75
411.802	391.75
412.025	385.75
412.249	411.75
412.472	417.75
412.695	390.75
412.919	410.75
413.142	391.75
413.365	381.75
413.589	381.75
413.812	372.75
414.035	347.75
414.258	344.75
414.482	352.75
414.705	359.75
414.928	357.75
415.151	348.75
415.374	343.75
415.597	340.75
415.821	349.75
416.044	367.75
416.267	332.75
416.49	358.75
416.713	347.75
416.936	356.75
417.159	373.75
417.382	368.75
417.605	376.75
417.828	365.75
418.051	372.75
418.274	358.75
418.497	364.75
418.72	351.75
418.943	366.75
419.166	405.75
419.389	393.75
419.611	367.75
419.834	373.75
420.057	385.75
420.28	375.75
420.503	373.75
420.726	362.75
420.948	371.75
421.171	407.75
421.394	450.75
421.617	409.75
421.839	373.75
422.062	385.75
422.285	404.75
422.507	443.75
422.73	507.75
422.953	455.75
423.175	406.75
423.398	406.75
423.621	396.75
423.843	428.75
424.066	392.75
424.288	417.75
424.511	427.75
424.733	488.75
424.956	547.75
425.178	508.75
425.401	492.75
425.623	526.75
425.846	452.75
426.068	431.75
426.291	417.75
426.513	399.75
426.735	419.75
426.958	464.75
427.18	520.75
427.402	601.75
427.625	663.75
427.847	569.75
428.069	503.75
428.292	433.75
428.514	413.75
428.736	390.75
428.958	403.75
429.181	400.75
429.403	399.75
429.625	406.75
429.847	405.75
430.069	476.75
430.292	481.75
430.514	406.75
430.736	386.75
430.958	365.75
431.18	364.75
431.402	374.75
431.624	353.75
431.846	346.75
432.068	348.75
432.29	371.75
432.512	371.75
432.734	386.75
432.956	362.75
433.178	367.75
433.4	367.75
433.622	363.75
433.844	376.75
434.066	381.75
434.287	353.75
434.509	358.75
434.731	353.75
434.953	373.75
435.175	377.75
435.397	402.75
435.618	422.75
435.84	449.75
436.062	513.75
436.284	566.75
436.505	486.75
436.727	449.75
436.949	388.75
437.17	384.75
437.392	381.75
437.614	428.75
437.835	450.75
438.057	510.75
438.278	583.75
438.5	563.75
438.721	607.75
438.943	564.75
439.165	469.75
439.386	428.75
439.608	425.75
439.829	437.75
440.05	454.75
440.272	482.75
440.493	446.75
440.715	399.75
440.936	407.75
441.158	386.75
441.379	389.75
441.6	398.75
441.822	399.75
442.043	430.75
442.264	514.75
442.486	527.75
442.707	471.75
442.928	427.75
443.149	422.75
443.371	454.75
443.592	484.75
443.813	535.75
444.034	591.75
444.255	477.75
444.476	426.75
444.698	403.75
444.919	393.75
445.14	504.75
445.361	460.75
445.582	451.75
445.803	493.75
446.024	569.75
446.245	578.75
446.466	530.75
446.687	425.75
446.908	426.75
447.129	393.75
447.35	391.75
447.571	380.75
447.792	378.75
448.013	379.75
448.234	392.75
448.455	439.75
448.675	533.75
448.896	619.75
449.117	523.75
449.338	494.75
449.559	569.75
449.779	653.75
450	509.75
450.221	433.75
450.442	376.75
450.662	379.75
450.883	396.75
451.104	397.75
451.324	389.75
451.545	355.75
451.766	347.75
451.986	350.75
452.207	354.75
452.428	344.75
452.648	344.75
452.869	348.75
453.089	335.75
453.31	356.75
453.53	349.75
453.751	364.75
453.971	356.75
454.192	367.75
454.412	340.75
454.633	345.75
454.853	331.75
455.073	335.75
455.294	349.75
455.514	406.75
455.734	399.75
455.955	359.75
456.175	348.75
456.395	330.75
456.616	324.75
456.836	324.75
457.056	323.75
457.276	322.75
457.497	325.75
457.717	329.75
457.937	315.75
458.157	318.75
458.377	334.75
458.598	346.75
458.818	403.75
459.038	486.75
459.258	454.75
459.478	386.75
459.698	365.75
459.918	373.75
460.138	353.75
460.358	347.75
460.578	359.75
460.798	346.75
461.018	377.75
461.238	376.75
461.458	359.75
461.678	343.75
461.898	369.75
462.118	347.75
462.338	360.75
462.558	363.75
462.777	345.75
462.997	386.75
463.217	369.75
463.437	374.75
463.657	372.75
463.876	389.75
464.096	351.75
464.316	369.75
464.536	381.75
464.755	382.75
464.975	357.75
465.195	397.75
465.414	474.75
465.634	413.75
465.854	386.75
466.073	373.75
466.293	345.75
466.512	361.75
466.732	321.75
466.951	327.75
467.171	340.75
467.391	332.75
467.61	359.75
467.829	351.75
468.049	351.75
468.268	350.75
468.488	335.75
468.707	340.75
468.927	342.75
469.146	333.75
469.365	337.75
469.585	341.75
469.804	351.75
470.023	358.75
470.243	350.75
470.462	374.75
470.681	364.75
470.901	370.75
471.12	352.75
471.339	352.75
471.558	346.75
471.777	349.75
471.997	350.75
472.216	328.75
472.435	365.75
472.654	356.75
472.873	357.75
473.092	362.75
473.311	363.75
473.53	356.75
473.749	380.75
473.968	377.75
474.187	464.75
474.406	484.75
474.625	410.75
474.844	376.75
475.063	385.75
475.282	373.75
475.501	349.75
475.72	380.75
475.939	362.75
476.158	389.75
476.377	371.75
476.596	368.75
476.814	377.75
477.033	377.75
477.252	373.75
477.471	372.75
477.69	374.75
477.908	379.75
478.127	377.75
478.346	379.75
478.564	421.75
478.783	388.75
479.002	402.75
479.22	395.75
479.439	399.75
479.658	417.75
479.876	437.75
480.095	442.75
480.313	446.75
480.532	426.75
480.751	426.75
480.969	431.75
481.188	447.75
481.406	461.75
481.624	425.75
481.843	436.75
482.061	407.75
482.28	407.75
482.498	421.75
482.717	418.75
482.935	403.75
483.153	413.75
483.372	434.75
483.59	412.75
483.808	414.75
484.027	410.75
484.245	422.75
484.463	450.75
484.681	423.75
484.9	418.75
485.118	439.75
485.336	415.75
485.554	430.75
485.772	435.75
485.99	424.75
486.209	412.75
486.427	440.75
486.645	416.75
486.863	458.75
487.081	444.75
487.299	441.75
487.517	461.75
487.735	458.75
487.953	434.75
488.171	447.75
488.389	441.75
488.607	453.75
488.825	462.75
489.043	451.75
489.261	449.75
489.479	446.75
489.696	463.75
489.914	456.75
490.132	468.75
490.35	482.75
490.568	484.75
490.786	470.75
491.003	493.75
491.221	466.75
491.439	469.75
491.657	471.75
491.874	498.75
492.092	493.75
492.31	517.75
492.527	502.75
492.745	494.75
492.963	499.75
493.18	513.75
493.398	510.75
493.615	508.75
493.833	511.75
494.05	518.75
494.268	526.75
494.485	505.75
494.703	521.75
494.92	518.75
495.138	517.75
495.355	527.75
495.573	540.75
495.79	519.75
496.008	529.75
496.225	525.75
496.442	521.75
496.66	549.75
496.877	519.75
497.094	547.75
497.312	534.75
497.529	535.75
497.746	526.75
497.963	549.75
498.181	561.75
498.398	551.75
498.615	580.75
498.832	577.75
499.049	552.75
499.267	573.75
499.484	583.75
499.701	607.75
499.918	634.75
500.135	624.75
500.352	663.75
500.569	655.75
500.786	641.75
501.003	659.75
501.22	660.75
501.437	662.75
501.654	645.75
501.871	645.75
502.088	591.75
