Data from 1981.PennyLincolnUp.Lamp.En5.5.200Scan.071819.P1_HRD10591_16-42-57-961.txt Node
Date: Thu Jul 18 16:42:57 EDT 2019
User: cochatt
Spectrometer: HR+D1059
Trigger mode: 1
Integration Time (sec): 1.000000E-1
Scans to average: 1
Electric dark correction enabled: true
Nonlinearity correction enabled: false
Boxcar width: 0
XAxis mode: Wavelengths
Number of Pixels in Spectrum: 2048
>>>>>Begin Spectral Data<<<<<
223.165	-17.56
223.4	-17.56
223.635	-17.56
223.869	-9.56
224.104	-17.56
224.338	-1.56
224.573	-30.56
224.808	-18.56
225.042	-12.56
225.277	1.44
225.511	-2.56
225.746	10.44
225.98	-1.56
226.215	5.44
226.449	13.44
226.683	26.44
226.918	27.44
227.152	27.44
227.387	34.44
227.621	30.44
227.856	44.44
228.09	50.44
228.324	45.44
228.559	49.44
228.793	58.44
229.027	119.44
229.262	106.44
229.496	129.44
229.73	148.44
229.964	150.44
230.199	143.44
230.433	116.44
230.667	105.44
230.901	117.44
231.136	106.44
231.37	111.44
231.604	106.44
231.838	106.44
232.072	91.44
232.306	117.44
232.541	121.44
232.775	111.44
233.009	99.44
233.243	103.44
233.477	118.44
233.711	113.44
233.945	113.44
234.179	116.44
234.413	124.44
234.647	120.44
234.881	123.44
235.115	102.44
235.349	117.44
235.583	114.44
235.817	129.44
236.051	133.44
236.285	124.44
236.519	123.44
236.753	131.44
236.987	142.44
237.221	188.44
237.455	229.44
237.689	207.44
237.922	149.44
238.156	141.44
238.39	128.44
238.624	124.44
238.858	131.44
239.091	125.44
239.325	125.44
239.559	131.44
239.793	123.44
240.027	141.44
240.26	156.44
240.494	164.44
240.728	147.44
240.961	151.44
241.195	136.44
241.429	142.44
241.662	121.44
241.896	118.44
242.13	129.44
242.363	127.44
242.597	114.44
242.83	133.44
243.064	147.44
243.298	127.44
243.531	144.44
243.765	137.44
243.998	136.44
244.232	140.44
244.465	143.44
244.699	159.44
244.932	141.44
245.166	138.44
245.399	149.44
245.633	151.44
245.866	159.44
246.099	130.44
246.333	144.44
246.566	147.44
246.8	159.44
247.033	169.44
247.266	166.44
247.5	150.44
247.733	182.44
247.966	172.44
248.2	178.44
248.433	161.44
248.666	185.44
248.899	197.44
249.133	207.44
249.366	214.44
249.599	207.44
249.832	186.44
250.066	199.44
250.299	193.44
250.532	194.44
250.765	215.44
250.998	238.44
251.231	242.44
251.465	232.44
251.698	224.44
251.931	213.44
252.164	205.44
252.397	200.44
252.63	205.44
252.863	226.44
253.096	235.44
253.329	252.44
253.562	243.44
253.795	230.44
254.028	207.44
254.261	219.44
254.494	255.44
254.727	268.44
254.96	311.44
255.193	301.44
255.426	259.44
255.659	261.44
255.892	248.44
256.124	242.44
256.357	247.44
256.59	248.44
256.823	221.44
257.056	230.44
257.289	216.44
257.521	211.44
257.754	215.44
257.987	212.44
258.22	227.44
258.452	225.44
258.685	210.44
258.918	217.44
259.151	234.44
259.383	230.44
259.616	238.44
259.849	227.44
260.081	249.44
260.314	279.44
260.547	270.44
260.779	270.44
261.012	258.44
261.244	236.44
261.477	233.44
261.71	222.44
261.942	241.44
262.175	250.44
262.407	233.44
262.64	236.44
262.872	225.44
263.105	228.44
263.337	223.44
263.57	235.44
263.802	226.44
264.035	219.44
264.267	227.44
264.499	213.44
264.732	215.44
264.964	229.44
265.197	229.44
265.429	234.44
265.661	231.44
265.894	223.44
266.126	218.44
266.358	228.44
266.591	237.44
266.823	242.44
267.055	242.44
267.287	227.44
267.52	238.44
267.752	245.44
267.984	245.44
268.216	218.44
268.448	243.44
268.681	255.44
268.913	259.44
269.145	280.44
269.377	296.44
269.609	287.44
269.841	291.44
270.073	307.44
270.306	325.44
270.538	346.44
270.77	317.44
271.002	324.44
271.234	309.44
271.466	301.44
271.698	343.44
271.93	341.44
272.162	330.44
272.394	341.44
272.626	319.44
272.858	323.44
273.09	310.44
273.322	294.44
273.553	301.44
273.785	296.44
274.017	300.44
274.249	281.44
274.481	269.44
274.713	286.44
274.945	290.44
275.176	290.44
275.408	276.44
275.64	286.44
275.872	265.44
276.104	283.44
276.335	286.44
276.567	276.44
276.799	302.44
277.031	336.44
277.262	347.44
277.494	347.44
277.726	338.44
277.957	294.44
278.189	291.44
278.421	289.44
278.652	287.44
278.884	290.44
279.115	280.44
279.347	263.44
279.579	298.44
279.81	264.44
280.042	264.44
280.273	283.44
280.505	269.44
280.736	279.44
280.968	261.44
281.199	263.44
281.431	272.44
281.662	278.44
281.894	263.44
282.125	281.44
282.356	314.44
282.588	313.44
282.819	323.44
283.051	299.44
283.282	272.44
283.513	277.44
283.745	283.44
283.976	301.44
284.207	279.44
284.439	291.44
284.67	282.44
284.901	294.44
285.132	286.44
285.364	263.44
285.595	281.44
285.826	271.44
286.057	276.44
286.288	277.44
286.52	281.44
286.751	275.44
286.982	282.44
287.213	275.44
287.444	298.44
287.675	299.44
287.906	309.44
288.138	322.44
288.369	308.44
288.6	315.44
288.831	297.44
289.062	313.44
289.293	321.44
289.524	293.44
289.755	284.44
289.986	297.44
290.217	291.44
290.448	286.44
290.679	286.44
290.91	291.44
291.141	282.44
291.371	283.44
291.602	295.44
291.833	284.44
292.064	290.44
292.295	303.44
292.526	265.44
292.757	300.44
292.987	307.44
293.218	279.44
293.449	300.44
293.68	286.44
293.91	293.44
294.141	312.44
294.372	289.44
294.603	309.44
294.833	317.44
295.064	293.44
295.295	296.44
295.525	300.44
295.756	314.44
295.987	307.44
296.217	344.44
296.448	329.44
296.679	321.44
296.909	281.44
297.14	304.44
297.37	310.44
297.601	310.44
297.831	300.44
298.062	298.44
298.292	293.44
298.523	292.44
298.753	316.44
298.984	308.44
299.214	298.44
299.445	289.44
299.675	300.44
299.905	318.44
300.136	326.44
300.366	307.44
300.597	316.44
300.827	340.44
301.057	323.44
301.288	345.44
301.518	339.44
301.748	324.44
301.979	332.44
302.209	340.44
302.439	345.44
302.669	338.44
302.9	307.44
303.13	326.44
303.36	345.44
303.59	345.44
303.82	336.44
304.051	334.44
304.281	334.44
304.511	324.44
304.741	335.44
304.971	327.44
305.201	340.44
305.431	351.44
305.661	331.44
305.891	331.44
306.121	324.44
306.352	327.44
306.582	365.44
306.812	346.44
307.042	336.44
307.272	338.44
307.502	328.44
307.731	339.44
307.961	326.44
308.191	326.44
308.421	348.44
308.651	337.44
308.881	343.44
309.111	360.44
309.341	341.44
309.571	370.44
309.8	364.44
310.03	382.44
310.26	400.44
310.49	389.44
310.72	407.44
310.949	425.44
311.179	425.44
311.409	405.44
311.639	395.44
311.868	410.44
312.098	377.44
312.328	388.44
312.557	428.44
312.787	435.44
313.017	413.44
313.246	410.44
313.476	395.44
313.706	386.44
313.935	396.44
314.165	427.44
314.394	430.44
314.624	424.44
314.853	401.44
315.083	404.44
315.312	383.44
315.542	389.44
315.771	396.44
316.001	379.44
316.23	381.44
316.46	379.44
316.689	405.44
316.919	409.44
317.148	412.44
317.377	419.44
317.607	398.44
317.836	391.44
318.065	394.44
318.295	395.44
318.524	390.44
318.753	387.44
318.983	373.44
319.212	391.44
319.441	404.44
319.67	400.44
319.9	409.44
320.129	407.44
320.358	390.44
320.587	397.44
320.816	403.44
321.046	424.44
321.275	420.44
321.504	407.44
321.733	409.44
321.962	449.44
322.191	453.44
322.42	466.44
322.649	484.44
322.878	501.44
323.108	533.44
323.337	544.44
323.566	548.44
323.795	592.44
324.024	659.44
324.253	842.44
324.482	1214.44
324.71	1842.44
324.939	2519.44
325.168	2157.44
325.397	1151.44
325.626	785.44
325.855	644.44
326.084	595.44
326.313	581.44
326.542	585.44
326.77	644.44
326.999	793.44
327.228	1057.44
327.457	1600.44
327.686	1915.44
327.914	1249.44
328.143	827.44
328.372	717.44
328.6	653.44
328.829	631.44
329.058	643.44
329.287	652.44
329.515	605.44
329.744	565.44
329.972	563.44
330.201	587.44
330.43	625.44
330.658	643.44
330.887	682.44
331.115	657.44
331.344	562.44
331.572	529.44
331.801	530.44
332.03	518.44
332.258	488.44
332.486	466.44
332.715	462.44
332.943	470.44
333.172	449.44
333.4	441.44
333.629	476.44
333.857	475.44
334.085	491.44
334.314	515.44
334.542	556.44
334.771	566.44
334.999	497.44
335.227	468.44
335.455	478.44
335.684	440.44
335.912	465.44
336.14	449.44
336.369	469.44
336.597	459.44
336.825	446.44
337.053	450.44
337.281	417.44
337.51	442.44
337.738	439.44
337.966	445.44
338.194	429.44
338.422	449.44
338.65	422.44
338.878	444.44
339.106	417.44
339.334	417.44
339.562	419.44
339.79	437.44
340.018	417.44
340.246	412.44
340.474	431.44
340.702	441.44
340.93	438.44
341.158	421.44
341.386	438.44
341.614	427.44
341.842	426.44
342.07	413.44
342.298	437.44
342.526	408.44
342.754	414.44
342.981	419.44
343.209	414.44
343.437	412.44
343.665	425.44
343.893	427.44
344.12	417.44
344.348	425.44
344.576	426.44
344.804	439.44
345.031	435.44
345.259	452.44
345.487	439.44
345.714	430.44
345.942	418.44
346.17	433.44
346.397	415.44
346.625	420.44
346.853	415.44
347.08	404.44
347.308	421.44
347.535	438.44
347.763	432.44
347.99	435.44
348.218	421.44
348.445	428.44
348.673	419.44
348.9	420.44
349.128	410.44
349.355	407.44
349.583	398.44
349.81	397.44
350.037	399.44
350.265	405.44
350.492	426.44
350.72	411.44
350.947	395.44
351.174	430.44
351.402	424.44
351.629	427.44
351.856	413.44
352.083	438.44
352.311	435.44
352.538	439.44
352.765	449.44
352.992	432.44
353.22	439.44
353.447	402.44
353.674	393.44
353.901	405.44
354.128	380.44
354.355	376.44
354.583	376.44
354.81	385.44
355.037	366.44
355.264	375.44
355.491	341.44
355.718	364.44
355.945	395.44
356.172	378.44
356.399	376.44
356.626	364.44
356.853	373.44
357.08	377.44
357.307	386.44
357.534	382.44
357.761	378.44
357.988	377.44
358.215	371.44
358.441	370.44
358.668	376.44
358.895	380.44
359.122	390.44
359.349	390.44
359.576	386.44
359.802	435.44
360.029	473.44
360.256	491.44
360.483	473.44
360.709	419.44
360.936	387.44
361.163	396.44
361.39	390.44
361.616	420.44
361.843	394.44
362.07	387.44
362.296	427.44
362.523	400.44
362.749	407.44
362.976	385.44
363.203	383.44
363.429	389.44
363.656	389.44
363.882	376.44
364.109	373.44
364.335	372.44
364.562	369.44
364.788	385.44
365.015	381.44
365.241	388.44
365.468	395.44
365.694	385.44
365.92	378.44
366.147	343.44
366.373	385.44
366.599	365.44
366.826	367.44
367.052	378.44
367.278	366.44
367.505	395.44
367.731	371.44
367.957	367.44
368.184	377.44
368.41	375.44
368.636	384.44
368.862	380.44
369.089	382.44
369.315	371.44
369.541	371.44
369.767	376.44
369.993	363.44
370.219	369.44
370.445	371.44
370.672	381.44
370.898	352.44
371.124	348.44
371.35	367.44
371.576	379.44
371.802	353.44
372.028	370.44
372.254	359.44
372.48	343.44
372.706	357.44
372.932	365.44
373.158	355.44
373.384	375.44
373.61	351.44
373.835	363.44
374.061	360.44
374.287	378.44
374.513	350.44
374.739	375.44
374.965	361.44
375.191	371.44
375.416	369.44
375.642	363.44
375.868	366.44
376.094	349.44
376.319	357.44
376.545	371.44
376.771	349.44
376.997	344.44
377.222	365.44
377.448	355.44
377.674	355.44
377.899	363.44
378.125	349.44
378.35	354.44
378.576	356.44
378.802	364.44
379.027	346.44
379.253	368.44
379.478	356.44
379.704	332.44
379.929	349.44
380.155	355.44
380.38	365.44
380.606	367.44
380.831	353.44
381.057	350.44
381.282	343.44
381.507	373.44
381.733	355.44
381.958	350.44
382.184	346.44
382.409	362.44
382.634	365.44
382.86	361.44
383.085	349.44
383.31	349.44
383.535	365.44
383.761	365.44
383.986	358.44
384.211	355.44
384.436	361.44
384.662	386.44
384.887	353.44
385.112	348.44
385.337	363.44
385.562	371.44
385.787	363.44
386.013	398.44
386.238	391.44
386.463	400.44
386.688	382.44
386.913	362.44
387.138	366.44
387.363	362.44
387.588	366.44
387.813	358.44
388.038	362.44
388.263	369.44
388.488	369.44
388.713	386.44
388.938	377.44
389.163	364.44
389.387	364.44
389.612	375.44
389.837	367.44
390.062	375.44
390.287	375.44
390.512	359.44
390.736	375.44
390.961	356.44
391.186	369.44
391.411	374.44
391.636	366.44
391.86	353.44
392.085	382.44
392.31	375.44
392.534	378.44
392.759	387.44
392.984	372.44
393.208	360.44
393.433	373.44
393.658	373.44
393.882	373.44
394.107	363.44
394.331	373.44
394.556	359.44
394.78	363.44
395.005	375.44
395.229	377.44
395.454	376.44
395.678	369.44
395.903	407.44
396.127	403.44
396.352	430.44
396.576	410.44
396.801	386.44
397.025	373.44
397.249	381.44
397.474	376.44
397.698	391.44
397.922	416.44
398.147	425.44
398.371	397.44
398.595	395.44
398.82	410.44
399.044	395.44
399.268	426.44
399.492	425.44
399.717	446.44
399.941	461.44
400.165	497.44
400.389	497.44
400.613	428.44
400.837	446.44
401.062	436.44
401.286	422.44
401.51	443.44
401.734	397.44
401.958	405.44
402.182	417.44
402.406	422.44
402.63	427.44
402.854	419.44
403.078	420.44
403.302	441.44
403.526	434.44
403.75	441.44
403.974	418.44
404.198	423.44
404.422	429.44
404.645	443.44
404.869	435.44
405.093	454.44
405.317	512.44
405.541	534.44
405.765	491.44
405.988	483.44
406.212	443.44
406.436	484.44
406.66	509.44
406.883	491.44
407.107	476.44
407.331	517.44
407.555	584.44
407.778	577.44
408.002	521.44
408.226	479.44
408.449	469.44
408.673	458.44
408.896	491.44
409.12	537.44
409.344	494.44
409.567	455.44
409.791	446.44
410.014	454.44
410.238	441.44
410.461	429.44
410.685	436.44
410.908	451.44
411.132	490.44
411.355	503.44
411.578	474.44
411.802	430.44
412.025	434.44
412.249	440.44
412.472	464.44
412.695	488.44
412.919	476.44
413.142	428.44
413.365	425.44
413.589	429.44
413.812	412.44
414.035	409.44
414.258	387.44
414.482	417.44
414.705	409.44
414.928	418.44
415.151	407.44
415.374	409.44
415.597	406.44
415.821	393.44
416.044	417.44
416.267	396.44
416.49	380.44
416.713	398.44
416.936	393.44
417.159	380.44
417.382	423.44
417.605	412.44
417.828	451.44
418.051	427.44
418.274	418.44
418.497	410.44
418.72	410.44
418.943	408.44
419.166	399.44
419.389	434.44
419.611	420.44
419.834	426.44
420.057	425.44
420.28	415.44
420.503	424.44
420.726	428.44
420.948	453.44
421.171	488.44
421.394	517.44
421.617	473.44
421.839	435.44
422.062	444.44
422.285	445.44
422.507	483.44
422.73	551.44
422.953	571.44
423.175	493.44
423.398	471.44
423.621	438.44
423.843	457.44
424.066	446.44
424.288	465.44
424.511	466.44
424.733	536.44
424.956	589.44
425.178	560.44
425.401	575.44
425.623	590.44
425.846	545.44
426.068	499.44
426.291	462.44
426.513	462.44
426.735	502.44
426.958	531.44
427.18	582.44
427.402	709.44
427.625	800.44
427.847	728.44
428.069	603.44
428.292	547.44
428.514	471.44
428.736	461.44
428.958	447.44
429.181	452.44
429.403	452.44
429.625	464.44
429.847	490.44
430.069	529.44
430.292	515.44
430.514	492.44
430.736	431.44
430.958	408.44
431.18	432.44
431.402	410.44
431.624	383.44
431.846	386.44
432.068	435.44
432.29	409.44
432.512	399.44
432.734	418.44
432.956	411.44
433.178	421.44
433.4	410.44
433.622	400.44
433.844	402.44
434.066	407.44
434.287	402.44
434.509	392.44
434.731	425.44
434.953	420.44
435.175	410.44
435.397	462.44
435.618	458.44
435.84	501.44
436.062	609.44
436.284	636.44
436.505	538.44
436.727	502.44
436.949	470.44
437.17	458.44
437.392	430.44
437.614	443.44
437.835	500.44
438.057	577.44
438.278	685.44
438.5	709.44
438.721	713.44
438.943	683.44
439.165	553.44
439.386	476.44
439.608	498.44
439.829	477.44
440.05	526.44
440.272	585.44
440.493	524.44
440.715	477.44
440.936	476.44
441.158	443.44
441.379	449.44
441.6	453.44
441.822	465.44
442.043	511.44
442.264	602.44
442.486	627.44
442.707	511.44
442.928	478.44
443.149	507.44
443.371	523.44
443.592	570.44
443.813	620.44
444.034	693.44
444.255	565.44
444.476	485.44
444.698	469.44
444.919	483.44
445.14	565.44
445.361	523.44
445.582	513.44
445.803	577.44
446.024	678.44
446.245	695.44
446.466	622.44
446.687	535.44
446.908	489.44
447.129	447.44
447.35	438.44
447.571	456.44
447.792	451.44
448.013	445.44
448.234	469.44
448.455	521.44
448.675	635.44
448.896	725.44
449.117	610.44
449.338	578.44
449.559	659.44
449.779	719.44
450	590.44
450.221	495.44
450.442	464.44
450.662	443.44
450.883	442.44
451.104	451.44
451.324	460.44
451.545	427.44
451.766	426.44
451.986	409.44
452.207	373.44
452.428	398.44
452.648	397.44
452.869	411.44
453.089	402.44
453.31	422.44
453.53	409.44
453.751	405.44
453.971	401.44
454.192	412.44
454.412	404.44
454.633	388.44
454.853	401.44
455.073	393.44
455.294	412.44
455.514	511.44
455.734	466.44
455.955	405.44
456.175	375.44
456.395	353.44
456.616	368.44
456.836	369.44
457.056	356.44
457.276	371.44
457.497	364.44
457.717	369.44
457.937	387.44
458.157	349.44
458.377	374.44
458.598	397.44
458.818	474.44
459.038	541.44
459.258	553.44
459.478	459.44
459.698	415.44
459.918	384.44
460.138	394.44
460.358	400.44
460.578	389.44
460.798	391.44
461.018	398.44
461.238	399.44
461.458	401.44
461.678	398.44
461.898	397.44
462.118	400.44
462.338	396.44
462.558	412.44
462.777	400.44
462.997	393.44
463.217	397.44
463.437	416.44
463.657	395.44
463.876	404.44
464.096	428.44
464.316	413.44
464.536	429.44
464.755	418.44
464.975	424.44
465.195	479.44
465.414	553.44
465.634	502.44
465.854	441.44
466.073	406.44
466.293	408.44
466.512	399.44
466.732	395.44
466.951	386.44
467.171	384.44
467.391	390.44
467.61	392.44
467.829	407.44
468.049	411.44
468.268	389.44
468.488	377.44
468.707	383.44
468.927	383.44
469.146	374.44
469.365	381.44
469.585	389.44
469.804	405.44
470.023	397.44
470.243	405.44
470.462	404.44
470.681	421.44
470.901	417.44
471.12	395.44
471.339	397.44
471.558	404.44
471.777	395.44
471.997	376.44
472.216	398.44
472.435	439.44
472.654	446.44
472.873	406.44
473.092	405.44
473.311	413.44
473.53	398.44
473.749	430.44
473.968	453.44
474.187	561.44
474.406	595.44
474.625	452.44
474.844	437.44
475.063	420.44
475.282	422.44
475.501	393.44
475.72	400.44
475.939	415.44
476.158	427.44
476.377	419.44
476.596	403.44
476.814	418.44
477.033	417.44
477.252	419.44
477.471	414.44
477.69	433.44
477.908	425.44
478.127	433.44
478.346	411.44
478.564	444.44
478.783	431.44
479.002	438.44
479.22	460.44
479.439	451.44
479.658	479.44
479.876	472.44
480.095	491.44
480.313	507.44
480.532	505.44
480.751	469.44
480.969	481.44
481.188	573.44
481.406	593.44
481.624	517.44
481.843	486.44
482.061	463.44
482.28	455.44
482.498	473.44
482.717	468.44
482.935	482.44
483.153	458.44
483.372	472.44
483.59	461.44
483.808	447.44
484.027	461.44
484.245	487.44
484.463	480.44
484.681	453.44
484.9	484.44
485.118	469.44
485.336	472.44
485.554	500.44
485.772	497.44
485.99	509.44
486.209	498.44
486.427	486.44
486.645	499.44
486.863	526.44
487.081	500.44
487.299	493.44
487.517	497.44
487.735	488.44
487.953	492.44
488.171	503.44
488.389	509.44
488.607	510.44
488.825	507.44
489.043	514.44
489.261	516.44
489.479	519.44
489.696	517.44
489.914	514.44
490.132	523.44
490.35	528.44
490.568	524.44
490.786	542.44
491.003	527.44
491.221	573.44
491.439	541.44
491.657	563.44
491.874	569.44
492.092	570.44
492.31	596.44
492.527	572.44
492.745	574.44
492.963	586.44
493.18	611.44
493.398	588.44
493.615	612.44
493.833	588.44
494.05	603.44
494.268	614.44
494.485	587.44
494.703	590.44
494.92	579.44
495.138	591.44
495.355	584.44
495.573	612.44
495.79	591.44
496.008	579.44
496.225	599.44
496.442	591.44
496.66	621.44
496.877	587.44
497.094	574.44
497.312	600.44
497.529	626.44
497.746	612.44
497.963	617.44
498.181	648.44
498.398	664.44
498.615	654.44
498.832	633.44
499.049	629.44
499.267	626.44
499.484	647.44
499.701	685.44
499.918	691.44
500.135	699.44
500.352	738.44
500.569	710.44
500.786	729.44
501.003	723.44
501.22	709.44
501.437	713.44
501.654	727.44
501.871	725.44
