Data from 1981.PennyLincolnUp.Lamp.En5.5.200Scan.071819.P1_HRD10591_16-43-35-961.txt Node
Date: Thu Jul 18 16:43:35 EDT 2019
User: cochatt
Spectrometer: HR+D1059
Trigger mode: 1
Integration Time (sec): 1.000000E-1
Scans to average: 1
Electric dark correction enabled: true
Nonlinearity correction enabled: false
Boxcar width: 0
XAxis mode: Wavelengths
Number of Pixels in Spectrum: 2048
>>>>>Begin Spectral Data<<<<<
223.165	-15.88
223.4	-15.88
223.635	-15.88
223.869	-6.88
224.104	-20.88
224.338	-5.88
224.573	-4.88
224.808	-12.88
225.042	-9.88
225.277	1.12
225.511	-16.88
225.746	0.12
225.98	-0.88
226.215	9.12
226.449	13.12
226.683	11.12
226.918	24.12
227.152	36.12
227.387	28.12
227.621	39.12
227.856	35.12
228.09	35.12
228.324	39.12
228.559	62.12
228.793	51.12
229.027	94.12
229.262	100.12
229.496	124.12
229.73	135.12
229.964	164.12
230.199	144.12
230.433	126.12
230.667	115.12
230.901	117.12
231.136	119.12
231.37	103.12
231.604	122.12
231.838	124.12
232.072	110.12
232.306	121.12
232.541	117.12
232.775	101.12
233.009	108.12
233.243	121.12
233.477	122.12
233.711	99.12
233.945	114.12
234.179	116.12
234.413	120.12
234.647	124.12
234.881	106.12
235.115	112.12
235.349	127.12
235.583	140.12
235.817	118.12
236.051	129.12
236.285	116.12
236.519	126.12
236.753	150.12
236.987	155.12
237.221	186.12
237.455	232.12
237.689	196.12
237.922	149.12
238.156	143.12
238.39	139.12
238.624	119.12
238.858	117.12
239.091	135.12
239.325	130.12
239.559	126.12
239.793	133.12
240.027	132.12
240.26	140.12
240.494	168.12
240.728	153.12
240.961	139.12
241.195	151.12
241.429	145.12
241.662	131.12
241.896	141.12
242.13	146.12
242.363	129.12
242.597	132.12
242.83	140.12
243.064	137.12
243.298	145.12
243.531	148.12
243.765	148.12
243.998	146.12
244.232	138.12
244.465	163.12
244.699	148.12
244.932	148.12
245.166	153.12
245.399	147.12
245.633	148.12
245.866	160.12
246.099	162.12
246.333	162.12
246.566	156.12
246.8	141.12
247.033	148.12
247.266	161.12
247.5	172.12
247.733	185.12
247.966	180.12
248.2	168.12
248.433	187.12
248.666	191.12
248.899	190.12
249.133	204.12
249.366	201.12
249.599	220.12
249.832	196.12
250.066	198.12
250.299	189.12
250.532	204.12
250.765	225.12
250.998	233.12
251.231	256.12
251.465	240.12
251.698	220.12
251.931	230.12
252.164	220.12
252.397	211.12
252.63	229.12
252.863	244.12
253.096	233.12
253.329	240.12
253.562	243.12
253.795	238.12
254.028	236.12
254.261	227.12
254.494	244.12
254.727	280.12
254.96	314.12
255.193	301.12
255.426	290.12
255.659	263.12
255.892	246.12
256.124	266.12
256.357	256.12
256.59	251.12
256.823	234.12
257.056	242.12
257.289	216.12
257.521	236.12
257.754	225.12
257.987	221.12
258.22	218.12
258.452	231.12
258.685	224.12
258.918	235.12
259.151	232.12
259.383	250.12
259.616	226.12
259.849	242.12
260.081	258.12
260.314	287.12
260.547	285.12
260.779	268.12
261.012	259.12
261.244	266.12
261.477	255.12
261.71	247.12
261.942	234.12
262.175	244.12
262.407	252.12
262.64	216.12
262.872	216.12
263.105	242.12
263.337	219.12
263.57	231.12
263.802	242.12
264.035	231.12
264.267	206.12
264.499	219.12
264.732	231.12
264.964	225.12
265.197	217.12
265.429	243.12
265.661	223.12
265.894	226.12
266.126	228.12
266.358	231.12
266.591	220.12
266.823	229.12
267.055	238.12
267.287	245.12
267.52	226.12
267.752	243.12
267.984	244.12
268.216	249.12
268.448	241.12
268.681	257.12
268.913	250.12
269.145	285.12
269.377	306.12
269.609	309.12
269.841	285.12
270.073	306.12
270.306	322.12
270.538	375.12
270.77	354.12
271.002	324.12
271.234	337.12
271.466	337.12
271.698	336.12
271.93	362.12
272.162	357.12
272.394	353.12
272.626	345.12
272.858	321.12
273.09	317.12
273.322	286.12
273.553	293.12
273.785	283.12
274.017	275.12
274.249	299.12
274.481	283.12
274.713	299.12
274.945	295.12
275.176	298.12
275.408	279.12
275.64	280.12
275.872	300.12
276.104	290.12
276.335	277.12
276.567	284.12
276.799	302.12
277.031	328.12
277.262	344.12
277.494	348.12
277.726	325.12
277.957	322.12
278.189	298.12
278.421	295.12
278.652	296.12
278.884	278.12
279.115	322.12
279.347	310.12
279.579	282.12
279.81	277.12
280.042	289.12
280.273	275.12
280.505	276.12
280.736	268.12
280.968	288.12
281.199	272.12
281.431	285.12
281.662	270.12
281.894	276.12
282.125	292.12
282.356	315.12
282.588	348.12
282.819	323.12
283.051	287.12
283.282	274.12
283.513	300.12
283.745	300.12
283.976	288.12
284.207	298.12
284.439	301.12
284.67	294.12
284.901	289.12
285.132	301.12
285.364	280.12
285.595	284.12
285.826	309.12
286.057	278.12
286.288	280.12
286.52	286.12
286.751	267.12
286.982	315.12
287.213	287.12
287.444	296.12
287.675	314.12
287.906	308.12
288.138	309.12
288.369	311.12
288.6	319.12
288.831	320.12
289.062	312.12
289.293	310.12
289.524	289.12
289.755	293.12
289.986	271.12
290.217	289.12
290.448	300.12
290.679	321.12
290.91	288.12
291.141	286.12
291.371	285.12
291.602	275.12
291.833	290.12
292.064	306.12
292.295	297.12
292.526	280.12
292.757	309.12
292.987	290.12
293.218	302.12
293.449	305.12
293.68	301.12
293.91	286.12
294.141	286.12
294.372	305.12
294.603	301.12
294.833	305.12
295.064	306.12
295.295	308.12
295.525	311.12
295.756	321.12
295.987	323.12
296.217	353.12
296.448	369.12
296.679	307.12
296.909	324.12
297.14	301.12
297.37	295.12
297.601	311.12
297.831	301.12
298.062	324.12
298.292	313.12
298.523	324.12
298.753	316.12
298.984	310.12
299.214	325.12
299.445	312.12
299.675	336.12
299.905	326.12
300.136	324.12
300.366	322.12
300.597	312.12
300.827	307.12
301.057	310.12
301.288	354.12
301.518	339.12
301.748	325.12
301.979	322.12
302.209	331.12
302.439	314.12
302.669	324.12
302.9	338.12
303.13	336.12
303.36	342.12
303.59	336.12
303.82	333.12
304.051	352.12
304.281	348.12
304.511	333.12
304.741	323.12
304.971	335.12
305.201	314.12
305.431	341.12
305.661	353.12
305.891	329.12
306.121	342.12
306.352	343.12
306.582	347.12
306.812	323.12
307.042	352.12
307.272	350.12
307.502	353.12
307.731	345.12
307.961	344.12
308.191	364.12
308.421	345.12
308.651	328.12
308.881	347.12
309.111	355.12
309.341	373.12
309.571	367.12
309.8	388.12
310.03	404.12
310.26	399.12
310.49	404.12
310.72	412.12
310.949	436.12
311.179	426.12
311.409	420.12
311.639	376.12
311.868	392.12
312.098	412.12
312.328	419.12
312.557	434.12
312.787	438.12
313.017	415.12
313.246	423.12
313.476	400.12
313.706	404.12
313.935	413.12
314.165	423.12
314.394	422.12
314.624	442.12
314.853	424.12
315.083	407.12
315.312	380.12
315.542	369.12
315.771	386.12
316.001	403.12
316.23	373.12
316.46	398.12
316.689	403.12
316.919	423.12
317.148	411.12
317.377	421.12
317.607	408.12
317.836	406.12
318.065	399.12
318.295	392.12
318.524	414.12
318.753	402.12
318.983	406.12
319.212	413.12
319.441	427.12
319.67	420.12
319.9	428.12
320.129	411.12
320.358	384.12
320.587	397.12
320.816	416.12
321.046	424.12
321.275	423.12
321.504	435.12
321.733	431.12
321.962	445.12
322.191	448.12
322.42	476.12
322.649	508.12
322.878	462.12
323.108	508.12
323.337	550.12
323.566	577.12
323.795	603.12
324.024	702.12
324.253	858.12
324.482	1248.12
324.71	1970.12
324.939	2694.12
325.168	2280.12
325.397	1159.12
325.626	788.12
325.855	646.12
326.084	614.12
326.313	584.12
326.542	587.12
326.77	669.12
326.999	785.12
327.228	1082.12
327.457	1652.12
327.686	1947.12
327.914	1294.12
328.143	867.12
328.372	755.12
328.6	674.12
328.829	676.12
329.058	649.12
329.287	663.12
329.515	636.12
329.744	582.12
329.972	582.12
330.201	610.12
330.43	657.12
330.658	706.12
330.887	729.12
331.115	668.12
331.344	579.12
331.572	552.12
331.801	522.12
332.03	545.12
332.258	492.12
332.486	485.12
332.715	476.12
332.943	485.12
333.172	458.12
333.4	472.12
333.629	466.12
333.857	504.12
334.085	512.12
334.314	520.12
334.542	569.12
334.771	539.12
334.999	512.12
335.227	480.12
335.455	475.12
335.684	466.12
335.912	455.12
336.14	452.12
336.369	454.12
336.597	461.12
336.825	477.12
337.053	450.12
337.281	458.12
337.51	464.12
337.738	433.12
337.966	459.12
338.194	429.12
338.422	461.12
338.65	425.12
338.878	425.12
339.106	437.12
339.334	459.12
339.562	468.12
339.79	437.12
340.018	458.12
340.246	458.12
340.474	430.12
340.702	424.12
340.93	422.12
341.158	432.12
341.386	448.12
341.614	438.12
341.842	435.12
342.07	425.12
342.298	432.12
342.526	421.12
342.754	403.12
342.981	428.12
343.209	413.12
343.437	426.12
343.665	424.12
343.893	429.12
344.12	434.12
344.348	428.12
344.576	436.12
344.804	427.12
345.031	458.12
345.259	462.12
345.487	450.12
345.714	448.12
345.942	421.12
346.17	419.12
346.397	421.12
346.625	415.12
346.853	426.12
347.08	434.12
347.308	417.12
347.535	434.12
347.763	421.12
347.99	441.12
348.218	443.12
348.445	437.12
348.673	439.12
348.9	414.12
349.128	407.12
349.355	404.12
349.583	412.12
349.81	422.12
350.037	387.12
350.265	404.12
350.492	422.12
350.72	410.12
350.947	408.12
351.174	422.12
351.402	454.12
351.629	441.12
351.856	446.12
352.083	440.12
352.311	454.12
352.538	462.12
352.765	436.12
352.992	440.12
353.22	413.12
353.447	408.12
353.674	429.12
353.901	392.12
354.128	407.12
354.355	378.12
354.583	371.12
354.81	385.12
355.037	380.12
355.264	374.12
355.491	386.12
355.718	373.12
355.945	371.12
356.172	383.12
356.399	381.12
356.626	368.12
356.853	365.12
357.08	363.12
357.307	385.12
357.534	365.12
357.761	380.12
357.988	362.12
358.215	386.12
358.441	378.12
358.668	372.12
358.895	399.12
359.122	388.12
359.349	412.12
359.576	421.12
359.802	432.12
360.029	467.12
360.256	484.12
360.483	464.12
360.709	416.12
360.936	411.12
361.163	418.12
361.39	437.12
361.616	429.12
361.843	415.12
362.07	410.12
362.296	421.12
362.523	414.12
362.749	407.12
362.976	405.12
363.203	376.12
363.429	387.12
363.656	386.12
363.882	395.12
364.109	397.12
364.335	390.12
364.562	385.12
364.788	399.12
365.015	404.12
365.241	389.12
365.468	388.12
365.694	411.12
365.92	392.12
366.147	390.12
366.373	380.12
366.599	370.12
366.826	379.12
367.052	386.12
367.278	376.12
367.505	374.12
367.731	380.12
367.957	375.12
368.184	389.12
368.41	386.12
368.636	398.12
368.862	404.12
369.089	375.12
369.315	375.12
369.541	379.12
369.767	375.12
369.993	388.12
370.219	381.12
370.445	394.12
370.672	346.12
370.898	375.12
371.124	368.12
371.35	362.12
371.576	366.12
371.802	361.12
372.028	374.12
372.254	360.12
372.48	374.12
372.706	359.12
372.932	360.12
373.158	365.12
373.384	365.12
373.61	380.12
373.835	374.12
374.061	361.12
374.287	369.12
374.513	369.12
374.739	386.12
374.965	368.12
375.191	369.12
375.416	369.12
375.642	384.12
375.868	369.12
376.094	342.12
376.319	365.12
376.545	349.12
376.771	374.12
376.997	373.12
377.222	356.12
377.448	356.12
377.674	370.12
377.899	341.12
378.125	370.12
378.35	339.12
378.576	349.12
378.802	342.12
379.027	363.12
379.253	361.12
379.478	345.12
379.704	359.12
379.929	345.12
380.155	364.12
380.38	345.12
380.606	354.12
380.831	371.12
381.057	352.12
381.282	359.12
381.507	363.12
381.733	354.12
381.958	335.12
382.184	344.12
382.409	370.12
382.634	358.12
382.86	357.12
383.085	376.12
383.31	355.12
383.535	365.12
383.761	361.12
383.986	375.12
384.211	374.12
384.436	378.12
384.662	369.12
384.887	372.12
385.112	376.12
385.337	384.12
385.562	386.12
385.787	359.12
386.013	394.12
386.238	386.12
386.463	389.12
386.688	358.12
386.913	360.12
387.138	392.12
387.363	372.12
387.588	370.12
387.813	359.12
388.038	384.12
388.263	375.12
388.488	386.12
388.713	405.12
388.938	360.12
389.163	377.12
389.387	387.12
389.612	378.12
389.837	380.12
390.062	356.12
390.287	395.12
390.512	373.12
390.736	386.12
390.961	390.12
391.186	378.12
391.411	391.12
391.636	363.12
391.86	389.12
392.085	390.12
392.31	376.12
392.534	386.12
392.759	368.12
392.984	387.12
393.208	375.12
393.433	376.12
393.658	370.12
393.882	391.12
394.107	376.12
394.331	385.12
394.556	363.12
394.78	374.12
395.005	384.12
395.229	373.12
395.454	368.12
395.678	402.12
395.903	378.12
396.127	421.12
396.352	402.12
396.576	373.12
396.801	389.12
397.025	355.12
397.249	402.12
397.474	404.12
397.698	381.12
397.922	412.12
398.147	406.12
398.371	429.12
398.595	409.12
398.82	398.12
399.044	410.12
399.268	408.12
399.492	443.12
399.717	454.12
399.941	475.12
400.165	531.12
400.389	504.12
400.613	478.12
400.837	461.12
401.062	420.12
401.286	420.12
401.51	411.12
401.734	421.12
401.958	427.12
402.182	418.12
402.406	412.12
402.63	415.12
402.854	426.12
403.078	404.12
403.302	446.12
403.526	429.12
403.75	436.12
403.974	418.12
404.198	421.12
404.422	428.12
404.645	421.12
404.869	449.12
405.093	456.12
405.317	502.12
405.541	541.12
405.765	475.12
405.988	460.12
406.212	473.12
406.436	493.12
406.66	512.12
406.883	481.12
407.107	501.12
407.331	541.12
407.555	546.12
407.778	593.12
408.002	546.12
408.226	496.12
408.449	475.12
408.673	486.12
408.896	515.12
409.12	517.12
409.344	526.12
409.567	460.12
409.791	452.12
410.014	433.12
410.238	418.12
410.461	429.12
410.685	452.12
410.908	444.12
411.132	479.12
411.355	527.12
411.578	506.12
411.802	456.12
412.025	450.12
412.249	449.12
412.472	440.12
412.695	476.12
412.919	489.12
413.142	459.12
413.365	430.12
413.589	433.12
413.812	424.12
414.035	409.12
414.258	398.12
414.482	403.12
414.705	411.12
414.928	395.12
415.151	388.12
415.374	397.12
415.597	408.12
415.821	393.12
416.044	416.12
416.267	421.12
416.49	414.12
416.713	404.12
416.936	405.12
417.159	398.12
417.382	437.12
417.605	415.12
417.828	427.12
418.051	422.12
418.274	421.12
418.497	401.12
418.72	398.12
418.943	395.12
419.166	420.12
419.389	431.12
419.611	410.12
419.834	420.12
420.057	431.12
420.28	426.12
420.503	449.12
420.726	449.12
420.948	439.12
421.171	475.12
421.394	495.12
421.617	458.12
421.839	431.12
422.062	449.12
422.285	476.12
422.507	516.12
422.73	550.12
422.953	552.12
423.175	469.12
423.398	461.12
423.621	478.12
423.843	474.12
424.066	468.12
424.288	485.12
424.511	497.12
424.733	548.12
424.956	609.12
425.178	616.12
425.401	596.12
425.623	620.12
425.846	530.12
426.068	484.12
426.291	459.12
426.513	487.12
426.735	525.12
426.958	566.12
427.18	622.12
427.402	717.12
427.625	816.12
427.847	730.12
428.069	653.12
428.292	551.12
428.514	486.12
428.736	478.12
428.958	445.12
429.181	437.12
429.403	450.12
429.625	462.12
429.847	498.12
430.069	526.12
430.292	506.12
430.514	481.12
430.736	448.12
430.958	444.12
431.18	414.12
431.402	422.12
431.624	391.12
431.846	403.12
432.068	401.12
432.29	427.12
432.512	413.12
432.734	422.12
432.956	414.12
433.178	426.12
433.4	428.12
433.622	428.12
433.844	401.12
434.066	398.12
434.287	413.12
434.509	413.12
434.731	395.12
434.953	435.12
435.175	456.12
435.397	471.12
435.618	485.12
435.84	514.12
436.062	630.12
436.284	647.12
436.505	565.12
436.727	532.12
436.949	451.12
437.17	440.12
437.392	451.12
437.614	464.12
437.835	498.12
438.057	600.12
438.278	666.12
438.5	688.12
438.721	739.12
438.943	698.12
439.165	564.12
439.386	528.12
439.608	498.12
439.829	509.12
440.05	553.12
440.272	590.12
440.493	534.12
440.715	467.12
440.936	471.12
441.158	452.12
441.379	452.12
441.6	449.12
441.822	493.12
442.043	539.12
442.264	611.12
442.486	664.12
442.707	536.12
442.928	532.12
443.149	510.12
443.371	537.12
443.592	556.12
443.813	649.12
444.034	712.12
444.255	577.12
444.476	492.12
444.698	479.12
444.919	468.12
445.14	588.12
445.361	529.12
445.582	503.12
445.803	619.12
446.024	688.12
446.245	703.12
446.466	649.12
446.687	531.12
446.908	493.12
447.129	466.12
447.35	454.12
447.571	459.12
447.792	426.12
448.013	456.12
448.234	476.12
448.455	556.12
448.675	620.12
448.896	720.12
449.117	633.12
449.338	591.12
449.559	678.12
449.779	748.12
450	612.12
450.221	493.12
450.442	484.12
450.662	463.12
450.883	459.12
451.104	479.12
451.324	456.12
451.545	428.12
451.766	431.12
451.986	410.12
452.207	399.12
452.428	398.12
452.648	409.12
452.869	408.12
453.089	406.12
453.31	435.12
453.53	413.12
453.751	405.12
453.971	423.12
454.192	423.12
454.412	408.12
454.633	404.12
454.853	397.12
455.073	387.12
455.294	437.12
455.514	503.12
455.734	474.12
455.955	392.12
456.175	392.12
456.395	375.12
456.616	369.12
456.836	371.12
457.056	377.12
457.276	360.12
457.497	396.12
457.717	372.12
457.937	384.12
458.157	396.12
458.377	390.12
458.598	402.12
458.818	466.12
459.038	540.12
459.258	572.12
459.478	486.12
459.698	422.12
459.918	421.12
460.138	386.12
460.358	386.12
460.578	405.12
460.798	406.12
461.018	392.12
461.238	386.12
461.458	396.12
461.678	385.12
461.898	396.12
462.118	384.12
462.338	395.12
462.558	393.12
462.777	392.12
462.997	416.12
463.217	417.12
463.437	408.12
463.657	412.12
463.876	414.12
464.096	421.12
464.316	422.12
464.536	439.12
464.755	424.12
464.975	422.12
465.195	479.12
465.414	575.12
465.634	516.12
465.854	446.12
466.073	444.12
466.293	408.12
466.512	401.12
466.732	402.12
466.951	404.12
467.171	399.12
467.391	394.12
467.61	393.12
467.829	406.12
468.049	400.12
468.268	402.12
468.488	411.12
468.707	409.12
468.927	399.12
469.146	374.12
469.365	380.12
469.585	380.12
469.804	396.12
470.023	396.12
470.243	386.12
470.462	404.12
470.681	446.12
470.901	424.12
471.12	384.12
471.339	392.12
471.558	416.12
471.777	399.12
471.997	403.12
472.216	412.12
472.435	441.12
472.654	413.12
472.873	412.12
473.092	419.12
473.311	407.12
473.53	427.12
473.749	438.12
473.968	490.12
474.187	578.12
474.406	608.12
474.625	482.12
474.844	416.12
475.063	424.12
475.282	416.12
475.501	418.12
475.72	392.12
475.939	418.12
476.158	431.12
476.377	427.12
476.596	410.12
476.814	409.12
477.033	443.12
477.252	446.12
477.471	418.12
477.69	438.12
477.908	412.12
478.127	427.12
478.346	444.12
478.564	442.12
478.783	447.12
479.002	440.12
479.22	446.12
479.439	488.12
479.658	500.12
479.876	500.12
480.095	493.12
480.313	517.12
480.532	517.12
480.751	491.12
480.969	500.12
481.188	568.12
481.406	619.12
481.624	564.12
481.843	505.12
482.061	477.12
482.28	487.12
482.498	480.12
482.717	475.12
482.935	444.12
483.153	474.12
483.372	493.12
483.59	473.12
483.808	462.12
484.027	489.12
484.245	465.12
484.463	464.12
484.681	477.12
484.9	503.12
485.118	488.12
485.336	498.12
485.554	487.12
485.772	506.12
485.99	505.12
486.209	488.12
486.427	493.12
486.645	506.12
486.863	524.12
487.081	521.12
487.299	512.12
487.517	512.12
487.735	501.12
487.953	500.12
488.171	501.12
488.389	501.12
488.607	494.12
488.825	544.12
489.043	506.12
489.261	536.12
489.479	525.12
489.696	527.12
489.914	512.12
490.132	533.12
490.35	527.12
490.568	532.12
490.786	546.12
491.003	541.12
491.221	554.12
491.439	574.12
491.657	552.12
491.874	566.12
492.092	604.12
492.31	591.12
492.527	593.12
492.745	575.12
492.963	589.12
493.18	594.12
493.398	604.12
493.615	602.12
493.833	617.12
494.05	609.12
494.268	603.12
494.485	613.12
494.703	615.12
494.92	626.12
495.138	609.12
495.355	620.12
495.573	613.12
495.79	596.12
496.008	610.12
496.225	607.12
496.442	602.12
496.66	593.12
496.877	609.12
497.094	612.12
497.312	601.12
497.529	604.12
497.746	604.12
497.963	628.12
498.181	644.12
498.398	657.12
498.615	673.12
498.832	662.12
499.049	651.12
499.267	664.12
499.484	659.12
499.701	661.12
499.918	677.12
500.135	716.12
500.352	745.12
500.569	702.12
500.786	724.12
501.003	764.12
501.22	731.12
501.437	717.12
501.654	722.12
501.871	736.12
