Data from 1981.PennyLincolnUp.Lamp.En5.5.200Scan.071819.P1_HRD10591_16-42-13-967.txt Node
Date: Thu Jul 18 16:42:13 EDT 2019
User: cochatt
Spectrometer: HR+D1059
Trigger mode: 1
Integration Time (sec): 1.000000E-1
Scans to average: 1
Electric dark correction enabled: true
Nonlinearity correction enabled: false
Boxcar width: 0
XAxis mode: Wavelengths
Number of Pixels in Spectrum: 2048
>>>>>Begin Spectral Data<<<<<
223.165	-16.81
223.4	-16.81
223.635	-16.81
223.869	-8.81
224.104	-23.81
224.338	-7.81
224.573	-19.81
224.808	-19.81
225.042	-15.81
225.277	-0.81
225.511	-9.81
225.746	5.19
225.98	7.19
226.215	13.19
226.449	13.19
226.683	21.19
226.918	17.19
227.152	46.19
227.387	45.19
227.621	19.19
227.856	20.19
228.09	37.19
228.324	37.19
228.559	51.19
228.793	69.19
229.027	107.19
229.262	132.19
229.496	123.19
229.73	139.19
229.964	164.19
230.199	129.19
230.433	108.19
230.667	116.19
230.901	110.19
231.136	109.19
231.37	108.19
231.604	108.19
231.838	124.19
232.072	121.19
232.306	104.19
232.541	115.19
232.775	108.19
233.009	123.19
233.243	133.19
233.477	119.19
233.711	110.19
233.945	115.19
234.179	118.19
234.413	104.19
234.647	122.19
234.881	120.19
235.115	112.19
235.349	111.19
235.583	123.19
235.817	121.19
236.051	136.19
236.285	121.19
236.519	125.19
236.753	125.19
236.987	145.19
237.221	184.19
237.455	226.19
237.689	180.19
237.922	155.19
238.156	123.19
238.39	144.19
238.624	139.19
238.858	138.19
239.091	116.19
239.325	132.19
239.559	121.19
239.793	137.19
240.027	148.19
240.26	150.19
240.494	152.19
240.728	165.19
240.961	161.19
241.195	152.19
241.429	152.19
241.662	139.19
241.896	153.19
242.13	142.19
242.363	133.19
242.597	135.19
242.83	142.19
243.064	159.19
243.298	164.19
243.531	123.19
243.765	140.19
243.998	142.19
244.232	147.19
244.465	148.19
244.699	159.19
244.932	134.19
245.166	142.19
245.399	150.19
245.633	154.19
245.866	151.19
246.099	150.19
246.333	150.19
246.566	164.19
246.8	164.19
247.033	166.19
247.266	154.19
247.5	174.19
247.733	187.19
247.966	179.19
248.2	171.19
248.433	197.19
248.666	183.19
248.899	186.19
249.133	208.19
249.366	217.19
249.599	192.19
249.832	198.19
250.066	197.19
250.299	191.19
250.532	189.19
250.765	241.19
250.998	248.19
251.231	231.19
251.465	219.19
251.698	218.19
251.931	215.19
252.164	210.19
252.397	208.19
252.63	210.19
252.863	223.19
253.096	220.19
253.329	239.19
253.562	263.19
253.795	219.19
254.028	227.19
254.261	209.19
254.494	240.19
254.727	267.19
254.96	302.19
255.193	294.19
255.426	263.19
255.659	253.19
255.892	259.19
256.124	253.19
256.357	230.19
256.59	253.19
256.823	249.19
257.056	223.19
257.289	222.19
257.521	222.19
257.754	213.19
257.987	215.19
258.22	209.19
258.452	216.19
258.685	218.19
258.918	204.19
259.151	218.19
259.383	240.19
259.616	236.19
259.849	244.19
260.081	259.19
260.314	267.19
260.547	277.19
260.779	287.19
261.012	269.19
261.244	248.19
261.477	255.19
261.71	239.19
261.942	236.19
262.175	259.19
262.407	248.19
262.64	234.19
262.872	211.19
263.105	218.19
263.337	225.19
263.57	214.19
263.802	213.19
264.035	231.19
264.267	232.19
264.499	215.19
264.732	214.19
264.964	222.19
265.197	231.19
265.429	224.19
265.661	213.19
265.894	230.19
266.126	213.19
266.358	214.19
266.591	225.19
266.823	217.19
267.055	221.19
267.287	241.19
267.52	245.19
267.752	220.19
267.984	237.19
268.216	233.19
268.448	237.19
268.681	227.19
268.913	248.19
269.145	272.19
269.377	283.19
269.609	300.19
269.841	283.19
270.073	289.19
270.306	317.19
270.538	335.19
270.77	321.19
271.002	334.19
271.234	299.19
271.466	301.19
271.698	324.19
271.93	343.19
272.162	324.19
272.394	332.19
272.626	313.19
272.858	316.19
273.09	277.19
273.322	291.19
273.553	271.19
273.785	266.19
274.017	280.19
274.249	280.19
274.481	257.19
274.713	263.19
274.945	271.19
275.176	266.19
275.408	276.19
275.64	276.19
275.872	279.19
276.104	289.19
276.335	283.19
276.567	287.19
276.799	286.19
277.031	313.19
277.262	313.19
277.494	319.19
277.726	306.19
277.957	287.19
278.189	293.19
278.421	272.19
278.652	283.19
278.884	282.19
279.115	267.19
279.347	283.19
279.579	279.19
279.81	273.19
280.042	281.19
280.273	273.19
280.505	284.19
280.736	280.19
280.968	280.19
281.199	271.19
281.431	269.19
281.662	272.19
281.894	259.19
282.125	277.19
282.356	293.19
282.588	317.19
282.819	317.19
283.051	280.19
283.282	289.19
283.513	270.19
283.745	294.19
283.976	288.19
284.207	291.19
284.439	289.19
284.67	281.19
284.901	273.19
285.132	267.19
285.364	263.19
285.595	266.19
285.826	276.19
286.057	285.19
286.288	273.19
286.52	289.19
286.751	267.19
286.982	272.19
287.213	272.19
287.444	281.19
287.675	267.19
287.906	296.19
288.138	313.19
288.369	298.19
288.6	303.19
288.831	301.19
289.062	290.19
289.293	299.19
289.524	297.19
289.755	269.19
289.986	294.19
290.217	284.19
290.448	275.19
290.679	281.19
290.91	287.19
291.141	270.19
291.371	275.19
291.602	272.19
291.833	281.19
292.064	283.19
292.295	294.19
292.526	295.19
292.757	279.19
292.987	293.19
293.218	300.19
293.449	287.19
293.68	275.19
293.91	289.19
294.141	282.19
294.372	297.19
294.603	273.19
294.833	291.19
295.064	283.19
295.295	291.19
295.525	285.19
295.756	292.19
295.987	313.19
296.217	329.19
296.448	342.19
296.679	308.19
296.909	289.19
297.14	290.19
297.37	301.19
297.601	283.19
297.831	299.19
298.062	302.19
298.292	308.19
298.523	311.19
298.753	305.19
298.984	280.19
299.214	288.19
299.445	299.19
299.675	285.19
299.905	309.19
300.136	295.19
300.366	309.19
300.597	320.19
300.827	309.19
301.057	311.19
301.288	319.19
301.518	323.19
301.748	320.19
301.979	310.19
302.209	328.19
302.439	315.19
302.669	329.19
302.9	309.19
303.13	301.19
303.36	326.19
303.59	316.19
303.82	313.19
304.051	328.19
304.281	317.19
304.511	318.19
304.741	318.19
304.971	311.19
305.201	323.19
305.431	333.19
305.661	304.19
305.891	318.19
306.121	318.19
306.352	332.19
306.582	327.19
306.812	335.19
307.042	330.19
307.272	317.19
307.502	343.19
307.731	314.19
307.961	328.19
308.191	332.19
308.421	323.19
308.651	335.19
308.881	339.19
309.111	340.19
309.341	347.19
309.571	337.19
309.8	364.19
310.03	364.19
310.26	392.19
310.49	375.19
310.72	397.19
310.949	413.19
311.179	419.19
311.409	393.19
311.639	417.19
311.868	380.19
312.098	388.19
312.328	375.19
312.557	415.19
312.787	435.19
313.017	420.19
313.246	423.19
313.476	371.19
313.706	391.19
313.935	404.19
314.165	394.19
314.394	423.19
314.624	416.19
314.853	398.19
315.083	380.19
315.312	384.19
315.542	374.19
315.771	360.19
316.001	372.19
316.23	383.19
316.46	374.19
316.689	382.19
316.919	383.19
317.148	393.19
317.377	368.19
317.607	384.19
317.836	381.19
318.065	379.19
318.295	382.19
318.524	371.19
318.753	368.19
318.983	389.19
319.212	385.19
319.441	397.19
319.67	394.19
319.9	374.19
320.129	381.19
320.358	397.19
320.587	404.19
320.816	402.19
321.046	403.19
321.275	421.19
321.504	407.19
321.733	407.19
321.962	424.19
322.191	441.19
322.42	465.19
322.649	453.19
322.878	479.19
323.108	499.19
323.337	535.19
323.566	545.19
323.795	575.19
324.024	644.19
324.253	828.19
324.482	1189.19
324.71	1792.19
324.939	2447.19
325.168	2093.19
325.397	1121.19
325.626	748.19
325.855	590.19
326.084	573.19
326.313	566.19
326.542	525.19
326.77	620.19
326.999	721.19
327.228	1039.19
327.457	1543.19
327.686	1808.19
327.914	1203.19
328.143	832.19
328.372	688.19
328.6	652.19
328.829	632.19
329.058	651.19
329.287	642.19
329.515	613.19
329.744	537.19
329.972	533.19
330.201	571.19
330.43	586.19
330.658	617.19
330.887	653.19
331.115	621.19
331.344	540.19
331.572	496.19
331.801	490.19
332.03	502.19
332.258	475.19
332.486	461.19
332.715	471.19
332.943	463.19
333.172	459.19
333.4	467.19
333.629	449.19
333.857	469.19
334.085	469.19
334.314	473.19
334.542	522.19
334.771	517.19
334.999	487.19
335.227	458.19
335.455	434.19
335.684	441.19
335.912	425.19
336.14	420.19
336.369	437.19
336.597	448.19
336.825	448.19
337.053	440.19
337.281	422.19
337.51	451.19
337.738	428.19
337.966	425.19
338.194	429.19
338.422	453.19
338.65	411.19
338.878	429.19
339.106	424.19
339.334	409.19
339.562	400.19
339.79	414.19
340.018	415.19
340.246	416.19
340.474	418.19
340.702	424.19
340.93	411.19
341.158	415.19
341.386	432.19
341.614	421.19
341.842	408.19
342.07	409.19
342.298	410.19
342.526	387.19
342.754	380.19
342.981	391.19
343.209	397.19
343.437	405.19
343.665	404.19
343.893	426.19
344.12	405.19
344.348	414.19
344.576	411.19
344.804	427.19
345.031	438.19
345.259	457.19
345.487	443.19
345.714	412.19
345.942	394.19
346.17	399.19
346.397	403.19
346.625	391.19
346.853	383.19
347.08	400.19
347.308	404.19
347.535	407.19
347.763	422.19
347.99	415.19
348.218	407.19
348.445	422.19
348.673	418.19
348.9	394.19
349.128	413.19
349.355	371.19
349.583	390.19
349.81	388.19
350.037	394.19
350.265	383.19
350.492	392.19
350.72	405.19
350.947	382.19
351.174	423.19
351.402	418.19
351.629	420.19
351.856	423.19
352.083	409.19
352.311	416.19
352.538	417.19
352.765	425.19
352.992	416.19
353.22	399.19
353.447	397.19
353.674	408.19
353.901	380.19
354.128	380.19
354.355	366.19
354.583	364.19
354.81	369.19
355.037	369.19
355.264	365.19
355.491	358.19
355.718	352.19
355.945	360.19
356.172	373.19
356.399	341.19
356.626	377.19
356.853	366.19
357.08	362.19
357.307	341.19
357.534	375.19
357.761	361.19
357.988	365.19
358.215	367.19
358.441	372.19
358.668	391.19
358.895	370.19
359.122	366.19
359.349	379.19
359.576	405.19
359.802	427.19
360.029	461.19
360.256	457.19
360.483	442.19
360.709	399.19
360.936	396.19
361.163	408.19
361.39	398.19
361.616	381.19
361.843	386.19
362.07	404.19
362.296	380.19
362.523	390.19
362.749	396.19
362.976	387.19
363.203	364.19
363.429	376.19
363.656	386.19
363.882	399.19
364.109	359.19
364.335	376.19
364.562	381.19
364.788	357.19
365.015	371.19
365.241	375.19
365.468	368.19
365.694	382.19
365.92	379.19
366.147	379.19
366.373	373.19
366.599	377.19
366.826	368.19
367.052	343.19
367.278	348.19
367.505	359.19
367.731	366.19
367.957	362.19
368.184	356.19
368.41	370.19
368.636	377.19
368.862	408.19
369.089	367.19
369.315	363.19
369.541	363.19
369.767	355.19
369.993	386.19
370.219	363.19
370.445	345.19
370.672	366.19
370.898	361.19
371.124	353.19
371.35	346.19
371.576	350.19
371.802	349.19
372.028	354.19
372.254	345.19
372.48	352.19
372.706	343.19
372.932	347.19
373.158	368.19
373.384	347.19
373.61	358.19
373.835	360.19
374.061	363.19
374.287	345.19
374.513	348.19
374.739	347.19
374.965	340.19
375.191	336.19
375.416	347.19
375.642	357.19
375.868	330.19
376.094	334.19
376.319	343.19
376.545	342.19
376.771	356.19
376.997	359.19
377.222	350.19
377.448	340.19
377.674	352.19
377.899	351.19
378.125	340.19
378.35	358.19
378.576	352.19
378.802	348.19
379.027	332.19
379.253	342.19
379.478	334.19
379.704	339.19
379.929	332.19
380.155	358.19
380.38	350.19
380.606	336.19
380.831	351.19
381.057	369.19
381.282	342.19
381.507	324.19
381.733	347.19
381.958	317.19
382.184	358.19
382.409	361.19
382.634	359.19
382.86	335.19
383.085	348.19
383.31	348.19
383.535	369.19
383.761	354.19
383.986	365.19
384.211	357.19
384.436	346.19
384.662	345.19
384.887	361.19
385.112	315.19
385.337	352.19
385.562	347.19
385.787	357.19
386.013	372.19
386.238	364.19
386.463	375.19
386.688	361.19
386.913	344.19
387.138	351.19
387.363	342.19
387.588	350.19
387.813	349.19
388.038	356.19
388.263	348.19
388.488	371.19
388.713	368.19
388.938	371.19
389.163	343.19
389.387	348.19
389.612	356.19
389.837	361.19
390.062	375.19
390.287	357.19
390.512	356.19
390.736	354.19
390.961	373.19
391.186	357.19
391.411	353.19
391.636	345.19
391.86	366.19
392.085	370.19
392.31	363.19
392.534	365.19
392.759	373.19
392.984	360.19
393.208	348.19
393.433	361.19
393.658	361.19
393.882	342.19
394.107	366.19
394.331	361.19
394.556	349.19
394.78	357.19
395.005	350.19
395.229	347.19
395.454	355.19
395.678	372.19
395.903	357.19
396.127	403.19
396.352	406.19
396.576	385.19
396.801	366.19
397.025	385.19
397.249	368.19
397.474	391.19
397.698	374.19
397.922	383.19
398.147	400.19
398.371	391.19
398.595	377.19
398.82	386.19
399.044	401.19
399.268	405.19
399.492	443.19
399.717	415.19
399.941	454.19
400.165	476.19
400.389	503.19
400.613	463.19
400.837	419.19
401.062	422.19
401.286	398.19
401.51	405.19
401.734	382.19
401.958	393.19
402.182	413.19
402.406	409.19
402.63	396.19
402.854	391.19
403.078	426.19
403.302	426.19
403.526	419.19
403.75	401.19
403.974	425.19
404.198	406.19
404.422	412.19
404.645	427.19
404.869	427.19
405.093	456.19
405.317	478.19
405.541	515.19
405.765	487.19
405.988	456.19
406.212	453.19
406.436	475.19
406.66	486.19
406.883	461.19
407.107	479.19
407.331	513.19
407.555	583.19
407.778	577.19
408.002	524.19
408.226	472.19
408.449	463.19
408.673	469.19
408.896	496.19
409.12	531.19
409.344	485.19
409.567	432.19
409.791	437.19
410.014	395.19
410.238	407.19
410.461	406.19
410.685	397.19
410.908	435.19
411.132	471.19
411.355	485.19
411.578	452.19
411.802	407.19
412.025	416.19
412.249	435.19
412.472	445.19
412.695	472.19
412.919	464.19
413.142	428.19
413.365	428.19
413.589	408.19
413.812	386.19
414.035	381.19
414.258	380.19
414.482	386.19
414.705	383.19
414.928	387.19
415.151	392.19
415.374	390.19
415.597	367.19
415.821	369.19
416.044	392.19
416.267	395.19
416.49	383.19
416.713	393.19
416.936	394.19
417.159	388.19
417.382	405.19
417.605	413.19
417.828	403.19
418.051	411.19
418.274	415.19
418.497	368.19
418.72	391.19
418.943	384.19
419.166	388.19
419.389	428.19
419.611	428.19
419.834	413.19
420.057	400.19
420.28	415.19
420.503	410.19
420.726	432.19
420.948	457.19
421.171	468.19
421.394	498.19
421.617	431.19
421.839	414.19
422.062	416.19
422.285	420.19
422.507	484.19
422.73	553.19
422.953	537.19
423.175	463.19
423.398	446.19
423.621	440.19
423.843	453.19
424.066	451.19
424.288	445.19
424.511	455.19
424.733	497.19
424.956	563.19
425.178	574.19
425.401	582.19
425.623	576.19
425.846	502.19
426.068	445.19
426.291	470.19
426.513	465.19
426.735	477.19
426.958	500.19
427.18	586.19
427.402	676.19
427.625	761.19
427.847	695.19
428.069	565.19
428.292	507.19
428.514	465.19
428.736	452.19
428.958	448.19
429.181	429.19
429.403	416.19
429.625	416.19
429.847	458.19
430.069	519.19
430.292	518.19
430.514	433.19
430.736	441.19
430.958	414.19
431.18	399.19
431.402	414.19
431.624	402.19
431.846	378.19
432.068	384.19
432.29	384.19
432.512	392.19
432.734	423.19
432.956	395.19
433.178	416.19
433.4	413.19
433.622	399.19
433.844	396.19
434.066	397.19
434.287	415.19
434.509	390.19
434.731	423.19
434.953	418.19
435.175	408.19
435.397	459.19
435.618	468.19
435.84	494.19
436.062	579.19
436.284	633.19
436.505	547.19
436.727	475.19
436.949	461.19
437.17	443.19
437.392	428.19
437.614	439.19
437.835	488.19
438.057	579.19
438.278	681.19
438.5	614.19
438.721	715.19
438.943	654.19
439.165	549.19
439.386	495.19
439.608	485.19
439.829	487.19
440.05	489.19
440.272	576.19
440.493	502.19
440.715	466.19
440.936	447.19
441.158	427.19
441.379	429.19
441.6	430.19
441.822	465.19
442.043	494.19
442.264	573.19
442.486	622.19
442.707	516.19
442.928	496.19
443.149	490.19
443.371	504.19
443.592	531.19
443.813	629.19
444.034	666.19
444.255	568.19
444.476	483.19
444.698	469.19
444.919	442.19
445.14	592.19
445.361	528.19
445.582	508.19
445.803	592.19
446.024	645.19
446.245	677.19
446.466	613.19
446.687	519.19
446.908	461.19
447.129	455.19
447.35	455.19
447.571	416.19
447.792	449.19
448.013	423.19
448.234	470.19
448.455	547.19
448.675	621.19
448.896	700.19
449.117	606.19
449.338	592.19
449.559	631.19
449.779	727.19
450	607.19
450.221	491.19
450.442	465.19
450.662	439.19
450.883	444.19
451.104	445.19
451.324	455.19
451.545	415.19
451.766	379.19
451.986	390.19
452.207	385.19
452.428	407.19
452.648	399.19
452.869	388.19
453.089	392.19
453.31	420.19
453.53	391.19
453.751	405.19
453.971	387.19
454.192	412.19
454.412	393.19
454.633	368.19
454.853	392.19
455.073	385.19
455.294	420.19
455.514	470.19
455.734	451.19
455.955	389.19
456.175	371.19
456.395	357.19
456.616	355.19
456.836	353.19
457.056	335.19
457.276	330.19
457.497	347.19
457.717	346.19
457.937	353.19
458.157	386.19
458.377	381.19
458.598	391.19
458.818	450.19
459.038	524.19
459.258	542.19
459.478	438.19
459.698	415.19
459.918	398.19
460.138	394.19
460.358	377.19
460.578	382.19
460.798	388.19
461.018	387.19
461.238	377.19
461.458	375.19
461.678	385.19
461.898	384.19
462.118	380.19
462.338	383.19
462.558	380.19
462.777	416.19
462.997	392.19
463.217	407.19
463.437	382.19
463.657	393.19
463.876	400.19
464.096	389.19
464.316	399.19
464.536	411.19
464.755	412.19
464.975	440.19
465.195	465.19
465.414	524.19
465.634	491.19
465.854	439.19
466.073	405.19
466.293	389.19
466.512	387.19
466.732	382.19
466.951	380.19
467.171	390.19
467.391	371.19
467.61	379.19
467.829	412.19
468.049	390.19
468.268	397.19
468.488	384.19
468.707	385.19
468.927	376.19
469.146	358.19
469.365	370.19
469.585	385.19
469.804	374.19
470.023	381.19
470.243	387.19
470.462	385.19
470.681	400.19
470.901	405.19
471.12	396.19
471.339	414.19
471.558	399.19
471.777	393.19
471.997	367.19
472.216	398.19
472.435	401.19
472.654	416.19
472.873	400.19
473.092	391.19
473.311	392.19
473.53	397.19
473.749	409.19
473.968	470.19
474.187	550.19
474.406	555.19
474.625	453.19
474.844	428.19
475.063	393.19
475.282	402.19
475.501	405.19
475.72	426.19
475.939	385.19
476.158	398.19
476.377	385.19
476.596	391.19
476.814	417.19
477.033	408.19
477.252	414.19
477.471	391.19
477.69	407.19
477.908	407.19
478.127	412.19
478.346	429.19
478.564	446.19
478.783	423.19
479.002	451.19
479.22	402.19
479.439	457.19
479.658	462.19
479.876	464.19
480.095	457.19
480.313	533.19
480.532	471.19
480.751	466.19
480.969	479.19
481.188	563.19
481.406	563.19
481.624	493.19
481.843	470.19
482.061	458.19
482.28	461.19
482.498	446.19
482.717	460.19
482.935	483.19
483.153	463.19
483.372	461.19
483.59	465.19
483.808	444.19
484.027	446.19
484.245	446.19
484.463	462.19
484.681	459.19
484.9	452.19
485.118	440.19
485.336	465.19
485.554	473.19
485.772	476.19
485.99	484.19
486.209	456.19
486.427	471.19
486.645	497.19
486.863	511.19
487.081	502.19
487.299	506.19
487.517	496.19
487.735	475.19
487.953	481.19
488.171	489.19
488.389	481.19
488.607	469.19
488.825	495.19
489.043	481.19
489.261	474.19
489.479	489.19
489.696	494.19
489.914	507.19
490.132	494.19
490.35	505.19
490.568	509.19
490.786	501.19
491.003	517.19
491.221	558.19
491.439	557.19
491.657	540.19
491.874	571.19
492.092	573.19
492.31	592.19
492.527	559.19
492.745	569.19
492.963	561.19
493.18	559.19
493.398	567.19
493.615	578.19
493.833	582.19
494.05	590.19
494.268	585.19
494.485	580.19
494.703	585.19
494.92	582.19
495.138	557.19
495.355	609.19
495.573	575.19
495.79	571.19
496.008	591.19
496.225	589.19
496.442	584.19
496.66	588.19
496.877	585.19
497.094	590.19
497.312	586.19
497.529	592.19
497.746	604.19
497.963	600.19
498.181	608.19
498.398	640.19
498.615	628.19
498.832	643.19
499.049	617.19
499.267	599.19
499.484	639.19
499.701	668.19
499.918	683.19
500.135	678.19
500.352	688.19
500.569	710.19
500.786	698.19
501.003	709.19
501.22	692.19
501.437	708.19
501.654	695.19
501.871	693.19
