Data from 1982.PennyLincolnUp.Lamp.En5.5.200Scan.071819.P1_HRD10591_16-45-14-961.txt Node
Date: Thu Jul 18 16:45:14 EDT 2019
User: cochatt
Spectrometer: HR+D1059
Trigger mode: 1
Integration Time (sec): 1.000000E-1
Scans to average: 1
Electric dark correction enabled: true
Nonlinearity correction enabled: false
Boxcar width: 0
XAxis mode: Wavelengths
Number of Pixels in Spectrum: 2048
>>>>>Begin Spectral Data<<<<<
223.165	-25.31
223.4	-25.31
223.635	-25.31
223.869	-11.31
224.104	-10.31
224.338	-16.31
224.573	-10.31
224.808	-21.31
225.042	-14.31
225.277	-2.31
225.511	-10.31
225.746	11.69
225.98	3.69
226.215	6.69
226.449	12.69
226.683	19.69
226.918	34.69
227.152	32.69
227.387	16.69
227.621	31.69
227.856	35.69
228.09	49.69
228.324	60.69
228.559	39.69
228.793	53.69
229.027	90.69
229.262	101.69
229.496	110.69
229.73	100.69
229.964	117.69
230.199	79.69
230.433	78.69
230.667	98.69
230.901	90.69
231.136	94.69
231.37	97.69
231.604	101.69
231.838	87.69
232.072	96.69
232.306	104.69
232.541	95.69
232.775	85.69
233.009	90.69
233.243	103.69
233.477	96.69
233.711	105.69
233.945	97.69
234.179	94.69
234.413	97.69
234.647	87.69
234.881	101.69
235.115	93.69
235.349	97.69
235.583	88.69
235.817	113.69
236.051	105.69
236.285	96.69
236.519	105.69
236.753	96.69
236.987	119.69
237.221	134.69
237.455	159.69
237.689	145.69
237.922	121.69
238.156	109.69
238.39	120.69
238.624	109.69
238.858	114.69
239.091	121.69
239.325	104.69
239.559	96.69
239.793	102.69
240.027	99.69
240.26	96.69
240.494	133.69
240.728	118.69
240.961	119.69
241.195	113.69
241.429	111.69
241.662	102.69
241.896	107.69
242.13	128.69
242.363	117.69
242.597	111.69
242.83	109.69
243.064	113.69
243.298	106.69
243.531	117.69
243.765	123.69
243.998	100.69
244.232	122.69
244.465	109.69
244.699	116.69
244.932	111.69
245.166	116.69
245.399	106.69
245.633	131.69
245.866	104.69
246.099	124.69
246.333	126.69
246.566	114.69
246.8	124.69
247.033	112.69
247.266	130.69
247.5	114.69
247.733	116.69
247.966	131.69
248.2	139.69
248.433	135.69
248.666	125.69
248.899	138.69
249.133	155.69
249.366	150.69
249.599	161.69
249.832	142.69
250.066	148.69
250.299	135.69
250.532	142.69
250.765	150.69
250.998	170.69
251.231	160.69
251.465	161.69
251.698	140.69
251.931	153.69
252.164	142.69
252.397	143.69
252.63	149.69
252.863	149.69
253.096	148.69
253.329	170.69
253.562	171.69
253.795	169.69
254.028	158.69
254.261	162.69
254.494	163.69
254.727	181.69
254.96	206.69
255.193	188.69
255.426	167.69
255.659	185.69
255.892	166.69
256.124	161.69
256.357	187.69
256.59	182.69
256.823	157.69
257.056	168.69
257.289	181.69
257.521	147.69
257.754	166.69
257.987	147.69
258.22	159.69
258.452	143.69
258.685	151.69
258.918	174.69
259.151	168.69
259.383	169.69
259.616	174.69
259.849	165.69
260.081	177.69
260.314	186.69
260.547	178.69
260.779	165.69
261.012	190.69
261.244	173.69
261.477	177.69
261.71	163.69
261.942	160.69
262.175	154.69
262.407	166.69
262.64	166.69
262.872	163.69
263.105	161.69
263.337	175.69
263.57	183.69
263.802	175.69
264.035	173.69
264.267	157.69
264.499	165.69
264.732	164.69
264.964	158.69
265.197	169.69
265.429	153.69
265.661	151.69
265.894	165.69
266.126	158.69
266.358	156.69
266.591	170.69
266.823	174.69
267.055	155.69
267.287	194.69
267.52	177.69
267.752	175.69
267.984	165.69
268.216	179.69
268.448	168.69
268.681	183.69
268.913	182.69
269.145	198.69
269.377	195.69
269.609	202.69
269.841	194.69
270.073	207.69
270.306	202.69
270.538	223.69
270.77	214.69
271.002	214.69
271.234	198.69
271.466	218.69
271.698	230.69
271.93	225.69
272.162	216.69
272.394	226.69
272.626	207.69
272.858	197.69
273.09	211.69
273.322	200.69
273.553	209.69
273.785	181.69
274.017	178.69
274.249	181.69
274.481	205.69
274.713	192.69
274.945	185.69
275.176	186.69
275.408	170.69
275.64	177.69
275.872	181.69
276.104	179.69
276.335	212.69
276.567	184.69
276.799	213.69
277.031	216.69
277.262	223.69
277.494	238.69
277.726	222.69
277.957	208.69
278.189	193.69
278.421	188.69
278.652	199.69
278.884	196.69
279.115	192.69
279.347	185.69
279.579	188.69
279.81	190.69
280.042	200.69
280.273	201.69
280.505	198.69
280.736	186.69
280.968	193.69
281.199	194.69
281.431	195.69
281.662	201.69
281.894	187.69
282.125	203.69
282.356	216.69
282.588	219.69
282.819	209.69
283.051	217.69
283.282	205.69
283.513	185.69
283.745	182.69
283.976	201.69
284.207	203.69
284.439	206.69
284.67	206.69
284.901	178.69
285.132	189.69
285.364	203.69
285.595	195.69
285.826	201.69
286.057	191.69
286.288	185.69
286.52	195.69
286.751	191.69
286.982	198.69
287.213	184.69
287.444	194.69
287.675	198.69
287.906	201.69
288.138	213.69
288.369	206.69
288.6	216.69
288.831	207.69
289.062	213.69
289.293	203.69
289.524	206.69
289.755	210.69
289.986	196.69
290.217	208.69
290.448	193.69
290.679	208.69
290.91	216.69
291.141	212.69
291.371	186.69
291.602	209.69
291.833	200.69
292.064	178.69
292.295	214.69
292.526	210.69
292.757	214.69
292.987	208.69
293.218	197.69
293.449	221.69
293.68	202.69
293.91	214.69
294.141	212.69
294.372	205.69
294.603	202.69
294.833	206.69
295.064	217.69
295.295	203.69
295.525	198.69
295.756	201.69
295.987	213.69
296.217	220.69
296.448	241.69
296.679	209.69
296.909	206.69
297.14	199.69
297.37	211.69
297.601	205.69
297.831	216.69
298.062	214.69
298.292	190.69
298.523	215.69
298.753	210.69
298.984	231.69
299.214	202.69
299.445	226.69
299.675	225.69
299.905	214.69
300.136	231.69
300.366	217.69
300.597	226.69
300.827	224.69
301.057	222.69
301.288	222.69
301.518	221.69
301.748	238.69
301.979	220.69
302.209	232.69
302.439	227.69
302.669	237.69
302.9	223.69
303.13	220.69
303.36	233.69
303.59	227.69
303.82	224.69
304.051	216.69
304.281	221.69
304.511	222.69
304.741	210.69
304.971	214.69
305.201	226.69
305.431	214.69
305.661	228.69
305.891	229.69
306.121	246.69
306.352	241.69
306.582	245.69
306.812	239.69
307.042	229.69
307.272	237.69
307.502	232.69
307.731	242.69
307.961	211.69
308.191	230.69
308.421	234.69
308.651	250.69
308.881	238.69
309.111	249.69
309.341	240.69
309.571	233.69
309.8	246.69
310.03	253.69
310.26	276.69
310.49	263.69
310.72	253.69
310.949	281.69
311.179	273.69
311.409	261.69
311.639	271.69
311.868	259.69
312.098	275.69
312.328	267.69
312.557	269.69
312.787	267.69
313.017	289.69
313.246	265.69
313.476	268.69
313.706	264.69
313.935	275.69
314.165	274.69
314.394	278.69
314.624	285.69
314.853	262.69
315.083	259.69
315.312	286.69
315.542	270.69
315.771	267.69
316.001	273.69
316.23	249.69
316.46	241.69
316.689	254.69
316.919	268.69
317.148	262.69
317.377	277.69
317.607	281.69
317.836	281.69
318.065	270.69
318.295	265.69
318.524	246.69
318.753	257.69
318.983	269.69
319.212	262.69
319.441	278.69
319.67	259.69
319.9	272.69
320.129	281.69
320.358	272.69
320.587	262.69
320.816	260.69
321.046	271.69
321.275	277.69
321.504	274.69
321.733	280.69
321.962	275.69
322.191	295.69
322.42	297.69
322.649	328.69
322.878	333.69
323.108	327.69
323.337	344.69
323.566	371.69
323.795	367.69
324.024	409.69
324.253	533.69
324.482	735.69
324.71	1105.69
324.939	1437.69
325.168	1157.69
325.397	644.69
325.626	447.69
325.855	376.69
326.084	360.69
326.313	351.69
326.542	360.69
326.77	396.69
326.999	474.69
327.228	663.69
327.457	957.69
327.686	1060.69
327.914	695.69
328.143	488.69
328.372	435.69
328.6	399.69
328.829	392.69
329.058	403.69
329.287	419.69
329.515	350.69
329.744	353.69
329.972	352.69
330.201	367.69
330.43	360.69
330.658	391.69
330.887	409.69
331.115	392.69
331.344	341.69
331.572	353.69
331.801	334.69
332.03	331.69
332.258	343.69
332.486	310.69
332.715	290.69
332.943	280.69
333.172	301.69
333.4	308.69
333.629	313.69
333.857	322.69
334.085	322.69
334.314	326.69
334.542	349.69
334.771	340.69
334.999	307.69
335.227	307.69
335.455	325.69
335.684	310.69
335.912	310.69
336.14	316.69
336.369	314.69
336.597	307.69
336.825	298.69
337.053	308.69
337.281	306.69
337.51	301.69
337.738	303.69
337.966	313.69
338.194	287.69
338.422	313.69
338.65	292.69
338.878	292.69
339.106	284.69
339.334	296.69
339.562	311.69
339.79	291.69
340.018	279.69
340.246	303.69
340.474	286.69
340.702	289.69
340.93	287.69
341.158	298.69
341.386	298.69
341.614	285.69
341.842	290.69
342.07	293.69
342.298	290.69
342.526	289.69
342.754	280.69
342.981	264.69
343.209	296.69
343.437	281.69
343.665	278.69
343.893	287.69
344.12	281.69
344.348	296.69
344.576	301.69
344.804	303.69
345.031	285.69
345.259	310.69
345.487	265.69
345.714	289.69
345.942	278.69
346.17	263.69
346.397	276.69
346.625	267.69
346.853	273.69
347.08	285.69
347.308	273.69
347.535	289.69
347.763	290.69
347.99	275.69
348.218	282.69
348.445	277.69
348.673	281.69
348.9	297.69
349.128	286.69
349.355	260.69
349.583	274.69
349.81	258.69
350.037	257.69
350.265	266.69
350.492	267.69
350.72	254.69
350.947	266.69
351.174	255.69
351.402	295.69
351.629	278.69
351.856	289.69
352.083	288.69
352.311	282.69
352.538	285.69
352.765	295.69
352.992	275.69
353.22	265.69
353.447	265.69
353.674	278.69
353.901	267.69
354.128	266.69
354.355	256.69
354.583	268.69
354.81	246.69
355.037	263.69
355.264	265.69
355.491	257.69
355.718	241.69
355.945	247.69
356.172	271.69
356.399	274.69
356.626	253.69
356.853	251.69
357.08	259.69
357.307	254.69
357.534	243.69
357.761	260.69
357.988	267.69
358.215	250.69
358.441	253.69
358.668	278.69
358.895	257.69
359.122	262.69
359.349	290.69
359.576	277.69
359.802	299.69
360.029	298.69
360.256	303.69
360.483	307.69
360.709	273.69
360.936	282.69
361.163	286.69
361.39	271.69
361.616	285.69
361.843	281.69
362.07	289.69
362.296	263.69
362.523	271.69
362.749	254.69
362.976	254.69
363.203	289.69
363.429	268.69
363.656	263.69
363.882	269.69
364.109	246.69
364.335	251.69
364.562	278.69
364.788	253.69
365.015	250.69
365.241	253.69
365.468	261.69
365.694	253.69
365.92	287.69
366.147	259.69
366.373	260.69
366.599	272.69
366.826	258.69
367.052	253.69
367.278	257.69
367.505	260.69
367.731	244.69
367.957	258.69
368.184	273.69
368.41	277.69
368.636	267.69
368.862	259.69
369.089	261.69
369.315	259.69
369.541	267.69
369.767	251.69
369.993	255.69
370.219	259.69
370.445	271.69
370.672	251.69
370.898	264.69
371.124	256.69
371.35	241.69
371.576	271.69
371.802	265.69
372.028	260.69
372.254	255.69
372.48	243.69
372.706	256.69
372.932	272.69
373.158	249.69
373.384	268.69
373.61	256.69
373.835	254.69
374.061	263.69
374.287	264.69
374.513	264.69
374.739	262.69
374.965	252.69
375.191	245.69
375.416	262.69
375.642	264.69
375.868	254.69
376.094	237.69
376.319	261.69
376.545	230.69
376.771	255.69
376.997	254.69
377.222	257.69
377.448	269.69
377.674	257.69
377.899	243.69
378.125	255.69
378.35	249.69
378.576	258.69
378.802	249.69
379.027	247.69
379.253	244.69
379.478	246.69
379.704	242.69
379.929	247.69
380.155	249.69
380.38	257.69
380.606	250.69
380.831	239.69
381.057	249.69
381.282	249.69
381.507	250.69
381.733	241.69
381.958	250.69
382.184	243.69
382.409	274.69
382.634	268.69
382.86	247.69
383.085	257.69
383.31	241.69
383.535	262.69
383.761	263.69
383.986	257.69
384.211	262.69
384.436	259.69
384.662	267.69
384.887	244.69
385.112	251.69
385.337	282.69
385.562	272.69
385.787	280.69
386.013	275.69
386.238	280.69
386.463	267.69
386.688	240.69
386.913	238.69
387.138	262.69
387.363	268.69
387.588	262.69
387.813	252.69
388.038	278.69
388.263	265.69
388.488	260.69
388.713	271.69
388.938	250.69
389.163	279.69
389.387	258.69
389.612	252.69
389.837	262.69
390.062	258.69
390.287	260.69
390.512	271.69
390.736	263.69
390.961	255.69
391.186	270.69
391.411	268.69
391.636	281.69
391.86	257.69
392.085	277.69
392.31	257.69
392.534	267.69
392.759	264.69
392.984	280.69
393.208	272.69
393.433	263.69
393.658	281.69
393.882	248.69
394.107	258.69
394.331	264.69
394.556	271.69
394.78	263.69
395.005	262.69
395.229	255.69
395.454	263.69
395.678	271.69
395.903	265.69
396.127	291.69
396.352	290.69
396.576	266.69
396.801	265.69
397.025	266.69
397.249	261.69
397.474	269.69
397.698	289.69
397.922	287.69
398.147	304.69
398.371	274.69
398.595	263.69
398.82	274.69
399.044	290.69
399.268	282.69
399.492	311.69
399.717	308.69
399.941	323.69
400.165	342.69
400.389	345.69
400.613	305.69
400.837	312.69
401.062	304.69
401.286	295.69
401.51	273.69
401.734	278.69
401.958	297.69
402.182	289.69
402.406	297.69
402.63	291.69
402.854	288.69
403.078	290.69
403.302	288.69
403.526	281.69
403.75	305.69
403.974	294.69
404.198	289.69
404.422	290.69
404.645	327.69
404.869	313.69
405.093	319.69
405.317	320.69
405.541	348.69
405.765	336.69
405.988	313.69
406.212	301.69
406.436	335.69
406.66	342.69
406.883	336.69
407.107	359.69
407.331	362.69
407.555	394.69
407.778	387.69
408.002	344.69
408.226	333.69
408.449	317.69
408.673	327.69
408.896	351.69
409.12	364.69
409.344	355.69
409.567	325.69
409.791	321.69
410.014	301.69
410.238	304.69
410.461	295.69
410.685	319.69
410.908	318.69
411.132	326.69
411.355	358.69
411.578	325.69
411.802	302.69
412.025	295.69
412.249	297.69
412.472	310.69
412.695	326.69
412.919	318.69
413.142	305.69
413.365	296.69
413.589	287.69
413.812	304.69
414.035	283.69
414.258	291.69
414.482	273.69
414.705	290.69
414.928	288.69
415.151	275.69
415.374	279.69
415.597	293.69
415.821	282.69
416.044	289.69
416.267	294.69
416.49	279.69
416.713	281.69
416.936	282.69
417.159	279.69
417.382	297.69
417.605	299.69
417.828	292.69
418.051	301.69
418.274	287.69
418.497	273.69
418.72	287.69
418.943	273.69
419.166	288.69
419.389	304.69
419.611	295.69
419.834	300.69
420.057	299.69
420.28	331.69
420.503	289.69
420.726	303.69
420.948	303.69
421.171	338.69
421.394	337.69
421.617	316.69
421.839	292.69
422.062	312.69
422.285	314.69
422.507	334.69
422.73	375.69
422.953	352.69
423.175	314.69
423.398	303.69
423.621	330.69
423.843	327.69
424.066	326.69
424.288	303.69
424.511	338.69
424.733	353.69
424.956	400.69
425.178	382.69
425.401	372.69
425.623	406.69
425.846	340.69
426.068	329.69
426.291	321.69
426.513	318.69
426.735	314.69
426.958	361.69
427.18	435.69
427.402	463.69
427.625	495.69
427.847	451.69
428.069	383.69
428.292	361.69
428.514	327.69
428.736	320.69
428.958	319.69
429.181	304.69
429.403	296.69
429.625	299.69
429.847	342.69
430.069	356.69
430.292	349.69
430.514	306.69
430.736	290.69
430.958	296.69
431.18	283.69
431.402	276.69
431.624	286.69
431.846	292.69
432.068	266.69
432.29	276.69
432.512	285.69
432.734	283.69
432.956	283.69
433.178	301.69
433.4	305.69
433.622	300.69
433.844	289.69
434.066	293.69
434.287	277.69
434.509	277.69
434.731	291.69
434.953	291.69
435.175	302.69
435.397	318.69
435.618	317.69
435.84	336.69
436.062	397.69
436.284	422.69
436.505	351.69
436.727	345.69
436.949	305.69
437.17	311.69
437.392	316.69
437.614	306.69
437.835	333.69
438.057	387.69
438.278	439.69
438.5	451.69
438.721	474.69
438.943	445.69
439.165	385.69
439.386	332.69
439.608	335.69
439.829	322.69
440.05	336.69
440.272	359.69
440.493	335.69
440.715	306.69
440.936	305.69
441.158	313.69
441.379	294.69
441.6	313.69
441.822	315.69
442.043	355.69
442.264	390.69
442.486	401.69
442.707	346.69
442.928	330.69
443.149	343.69
443.371	341.69
443.592	375.69
443.813	397.69
444.034	435.69
444.255	380.69
444.476	335.69
444.698	338.69
444.919	301.69
445.14	417.69
445.361	375.69
445.582	378.69
445.803	376.69
446.024	424.69
446.245	453.69
446.466	413.69
446.687	366.69
446.908	325.69
447.129	331.69
447.35	315.69
447.571	305.69
447.792	291.69
448.013	305.69
448.234	301.69
448.455	342.69
448.675	408.69
448.896	453.69
449.117	395.69
449.338	385.69
449.559	432.69
449.779	492.69
450	375.69
450.221	346.69
450.442	299.69
450.662	287.69
450.883	288.69
451.104	311.69
451.324	311.69
451.545	286.69
451.766	291.69
451.986	261.69
452.207	267.69
452.428	254.69
452.648	263.69
452.869	274.69
453.089	287.69
453.31	295.69
453.53	282.69
453.751	270.69
453.971	285.69
454.192	301.69
454.412	274.69
454.633	284.69
454.853	276.69
455.073	282.69
455.294	309.69
455.514	328.69
455.734	298.69
455.955	266.69
456.175	262.69
456.395	258.69
456.616	257.69
456.836	257.69
457.056	240.69
457.276	262.69
457.497	260.69
457.717	277.69
457.937	265.69
458.157	265.69
458.377	265.69
458.598	270.69
458.818	317.69
459.038	357.69
459.258	366.69
459.478	325.69
459.698	286.69
459.918	277.69
460.138	261.69
460.358	273.69
460.578	282.69
460.798	269.69
461.018	301.69
461.238	274.69
461.458	285.69
461.678	278.69
461.898	289.69
462.118	281.69
462.338	284.69
462.558	292.69
462.777	280.69
462.997	282.69
463.217	282.69
463.437	288.69
463.657	291.69
463.876	294.69
464.096	289.69
464.316	296.69
464.536	316.69
464.755	299.69
464.975	287.69
465.195	314.69
465.414	385.69
465.634	342.69
465.854	311.69
466.073	292.69
466.293	299.69
466.512	289.69
466.732	282.69
466.951	290.69
467.171	281.69
467.391	274.69
467.61	277.69
467.829	287.69
468.049	297.69
468.268	288.69
468.488	283.69
468.707	275.69
468.927	260.69
469.146	269.69
469.365	259.69
469.585	255.69
469.804	266.69
470.023	315.69
470.243	299.69
470.462	288.69
470.681	298.69
470.901	287.69
471.12	275.69
471.339	259.69
471.558	275.69
471.777	275.69
471.997	296.69
472.216	292.69
472.435	295.69
472.654	285.69
472.873	287.69
473.092	286.69
473.311	288.69
473.53	273.69
473.749	302.69
473.968	333.69
474.187	381.69
474.406	378.69
474.625	322.69
474.844	306.69
475.063	288.69
475.282	290.69
475.501	305.69
475.72	278.69
475.939	281.69
476.158	290.69
476.377	282.69
476.596	297.69
476.814	306.69
477.033	289.69
477.252	289.69
477.471	298.69
477.69	292.69
477.908	310.69
478.127	307.69
478.346	306.69
478.564	314.69
478.783	305.69
479.002	311.69
479.22	308.69
479.439	305.69
479.658	319.69
479.876	331.69
480.095	324.69
480.313	330.69
480.532	325.69
480.751	337.69
480.969	321.69
481.188	361.69
481.406	374.69
481.624	338.69
481.843	331.69
482.061	330.69
482.28	340.69
482.498	325.69
482.717	319.69
482.935	314.69
483.153	334.69
483.372	330.69
483.59	320.69
483.808	327.69
484.027	314.69
484.245	314.69
484.463	331.69
484.681	330.69
484.9	344.69
485.118	329.69
485.336	329.69
485.554	338.69
485.772	348.69
485.99	327.69
486.209	357.69
486.427	345.69
486.645	338.69
486.863	358.69
487.081	336.69
487.299	337.69
487.517	330.69
487.735	334.69
487.953	335.69
488.171	353.69
488.389	354.69
488.607	344.69
488.825	358.69
489.043	362.69
489.261	370.69
489.479	361.69
489.696	360.69
489.914	359.69
490.132	351.69
490.35	350.69
490.568	363.69
490.786	381.69
491.003	368.69
491.221	367.69
491.439	371.69
491.657	372.69
491.874	395.69
492.092	389.69
492.31	391.69
492.527	396.69
492.745	393.69
492.963	387.69
493.18	393.69
493.398	410.69
493.615	409.69
493.833	398.69
494.05	392.69
494.268	387.69
494.485	399.69
494.703	394.69
494.92	403.69
495.138	384.69
495.355	411.69
495.573	389.69
495.79	394.69
496.008	407.69
496.225	411.69
496.442	401.69
496.66	395.69
496.877	383.69
497.094	395.69
497.312	401.69
497.529	409.69
497.746	409.69
497.963	429.69
498.181	429.69
498.398	421.69
498.615	447.69
498.832	437.69
499.049	454.69
499.267	443.69
499.484	458.69
499.701	479.69
499.918	481.69
500.135	486.69
500.352	486.69
500.569	490.69
500.786	511.69
501.003	514.69
501.22	517.69
501.437	479.69
501.654	501.69
501.871	509.69
502.088	469.69
502.305	452.69
