Data from 1982.PennyLincolnUp.Lamp.En5.5.200Scan.071819.P1_HRD10591_16-44-46-961.txt Node
Date: Thu Jul 18 16:44:46 EDT 2019
User: cochatt
Spectrometer: HR+D1059
Trigger mode: 1
Integration Time (sec): 1.000000E-1
Scans to average: 1
Electric dark correction enabled: true
Nonlinearity correction enabled: false
Boxcar width: 0
XAxis mode: Wavelengths
Number of Pixels in Spectrum: 2048
>>>>>Begin Spectral Data<<<<<
223.165	-9.62
223.4	-9.62
223.635	-9.62
223.869	-7.62
224.104	-19.62
224.338	-17.62
224.573	-27.62
224.808	-14.62
225.042	-17.62
225.277	-6.62
225.511	-1.62
225.746	7.38
225.98	4.38
226.215	4.38
226.449	24.38
226.683	29.38
226.918	21.38
227.152	31.38
227.387	33.38
227.621	46.38
227.856	46.38
228.09	52.38
228.324	54.38
228.559	71.38
228.793	74.38
229.027	89.38
229.262	86.38
229.496	98.38
229.73	94.38
229.964	115.38
230.199	94.38
230.433	93.38
230.667	96.38
230.901	75.38
231.136	84.38
231.37	84.38
231.604	92.38
231.838	79.38
232.072	87.38
232.306	92.38
232.541	92.38
232.775	99.38
233.009	83.38
233.243	92.38
233.477	110.38
233.711	105.38
233.945	87.38
234.179	78.38
234.413	101.38
234.647	97.38
234.881	102.38
235.115	103.38
235.349	100.38
235.583	98.38
235.817	88.38
236.051	88.38
236.285	94.38
236.519	106.38
236.753	106.38
236.987	107.38
237.221	124.38
237.455	135.38
237.689	122.38
237.922	96.38
238.156	98.38
238.39	113.38
238.624	102.38
238.858	88.38
239.091	98.38
239.325	93.38
239.559	101.38
239.793	101.38
240.027	98.38
240.26	106.38
240.494	118.38
240.728	104.38
240.961	124.38
241.195	121.38
241.429	101.38
241.662	100.38
241.896	104.38
242.13	96.38
242.363	109.38
242.597	114.38
242.83	106.38
243.064	110.38
243.298	117.38
243.531	117.38
243.765	124.38
243.998	109.38
244.232	101.38
244.465	107.38
244.699	120.38
244.932	115.38
245.166	116.38
245.399	108.38
245.633	116.38
245.866	112.38
246.099	106.38
246.333	102.38
246.566	102.38
246.8	112.38
247.033	111.38
247.266	111.38
247.5	102.38
247.733	115.38
247.966	114.38
248.2	123.38
248.433	123.38
248.666	107.38
248.899	133.38
249.133	125.38
249.366	159.38
249.599	138.38
249.832	118.38
250.066	138.38
250.299	130.38
250.532	137.38
250.765	144.38
250.998	143.38
251.231	146.38
251.465	138.38
251.698	143.38
251.931	142.38
252.164	138.38
252.397	154.38
252.63	142.38
252.863	140.38
253.096	144.38
253.329	159.38
253.562	158.38
253.795	140.38
254.028	150.38
254.261	151.38
254.494	164.38
254.727	172.38
254.96	168.38
255.193	167.38
255.426	151.38
255.659	155.38
255.892	157.38
256.124	146.38
256.357	142.38
256.59	147.38
256.823	136.38
257.056	159.38
257.289	148.38
257.521	134.38
257.754	158.38
257.987	144.38
258.22	159.38
258.452	148.38
258.685	140.38
258.918	146.38
259.151	145.38
259.383	131.38
259.616	155.38
259.849	146.38
260.081	151.38
260.314	180.38
260.547	160.38
260.779	167.38
261.012	146.38
261.244	157.38
261.477	141.38
261.71	155.38
261.942	151.38
262.175	130.38
262.407	152.38
262.64	154.38
262.872	142.38
263.105	159.38
263.337	147.38
263.57	145.38
263.802	156.38
264.035	150.38
264.267	152.38
264.499	132.38
264.732	156.38
264.964	149.38
265.197	142.38
265.429	154.38
265.661	138.38
265.894	150.38
266.126	153.38
266.358	140.38
266.591	160.38
266.823	150.38
267.055	150.38
267.287	135.38
267.52	145.38
267.752	154.38
267.984	149.38
268.216	146.38
268.448	165.38
268.681	158.38
268.913	175.38
269.145	174.38
269.377	169.38
269.609	177.38
269.841	194.38
270.073	179.38
270.306	195.38
270.538	181.38
270.77	183.38
271.002	182.38
271.234	183.38
271.466	186.38
271.698	188.38
271.93	191.38
272.162	182.38
272.394	193.38
272.626	185.38
272.858	200.38
273.09	184.38
273.322	180.38
273.553	161.38
273.785	176.38
274.017	172.38
274.249	166.38
274.481	183.38
274.713	170.38
274.945	187.38
275.176	184.38
275.408	165.38
275.64	178.38
275.872	169.38
276.104	180.38
276.335	173.38
276.567	177.38
276.799	183.38
277.031	180.38
277.262	193.38
277.494	192.38
277.726	184.38
277.957	175.38
278.189	190.38
278.421	198.38
278.652	183.38
278.884	171.38
279.115	170.38
279.347	179.38
279.579	185.38
279.81	168.38
280.042	189.38
280.273	164.38
280.505	198.38
280.736	178.38
280.968	186.38
281.199	184.38
281.431	159.38
281.662	179.38
281.894	172.38
282.125	192.38
282.356	204.38
282.588	197.38
282.819	190.38
283.051	174.38
283.282	175.38
283.513	174.38
283.745	184.38
283.976	176.38
284.207	181.38
284.439	185.38
284.67	196.38
284.901	173.38
285.132	176.38
285.364	186.38
285.595	182.38
285.826	181.38
286.057	171.38
286.288	190.38
286.52	184.38
286.751	173.38
286.982	182.38
287.213	167.38
287.444	175.38
287.675	195.38
287.906	183.38
288.138	197.38
288.369	187.38
288.6	186.38
288.831	186.38
289.062	195.38
289.293	171.38
289.524	168.38
289.755	198.38
289.986	199.38
290.217	198.38
290.448	189.38
290.679	190.38
290.91	184.38
291.141	182.38
291.371	179.38
291.602	186.38
291.833	189.38
292.064	190.38
292.295	184.38
292.526	195.38
292.757	195.38
292.987	201.38
293.218	184.38
293.449	176.38
293.68	192.38
293.91	202.38
294.141	180.38
294.372	202.38
294.603	176.38
294.833	199.38
295.064	200.38
295.295	182.38
295.525	197.38
295.756	204.38
295.987	186.38
296.217	191.38
296.448	203.38
296.679	202.38
296.909	193.38
297.14	182.38
297.37	206.38
297.601	183.38
297.831	196.38
298.062	200.38
298.292	207.38
298.523	205.38
298.753	187.38
298.984	175.38
299.214	206.38
299.445	204.38
299.675	207.38
299.905	193.38
300.136	183.38
300.366	202.38
300.597	180.38
300.827	183.38
301.057	203.38
301.288	196.38
301.518	207.38
301.748	198.38
301.979	210.38
302.209	209.38
302.439	231.38
302.669	190.38
302.9	196.38
303.13	214.38
303.36	188.38
303.59	207.38
303.82	214.38
304.051	203.38
304.281	208.38
304.511	213.38
304.741	200.38
304.971	204.38
305.201	211.38
305.431	210.38
305.661	212.38
305.891	194.38
306.121	194.38
306.352	212.38
306.582	213.38
306.812	230.38
307.042	206.38
307.272	207.38
307.502	214.38
307.731	205.38
307.961	216.38
308.191	216.38
308.421	206.38
308.651	204.38
308.881	210.38
309.111	205.38
309.341	202.38
309.571	208.38
309.8	224.38
310.03	226.38
310.26	225.38
310.49	220.38
310.72	231.38
310.949	239.38
311.179	247.38
311.409	245.38
311.639	226.38
311.868	230.38
312.098	230.38
312.328	245.38
312.557	248.38
312.787	239.38
313.017	227.38
313.246	247.38
313.476	248.38
313.706	242.38
313.935	223.38
314.165	233.38
314.394	224.38
314.624	240.38
314.853	236.38
315.083	224.38
315.312	245.38
315.542	224.38
315.771	215.38
316.001	222.38
316.23	244.38
316.46	223.38
316.689	235.38
316.919	235.38
317.148	235.38
317.377	246.38
317.607	222.38
317.836	236.38
318.065	232.38
318.295	230.38
318.524	237.38
318.753	219.38
318.983	218.38
319.212	242.38
319.441	223.38
319.67	221.38
319.9	234.38
320.129	231.38
320.358	226.38
320.587	233.38
320.816	230.38
321.046	237.38
321.275	245.38
321.504	260.38
321.733	225.38
321.962	248.38
322.191	251.38
322.42	271.38
322.649	249.38
322.878	276.38
323.108	266.38
323.337	264.38
323.566	293.38
323.795	300.38
324.024	310.38
324.253	387.38
324.482	534.38
324.71	774.38
324.939	986.38
325.168	824.38
325.397	448.38
325.626	330.38
325.855	284.38
326.084	295.38
326.313	276.38
326.542	287.38
326.77	309.38
326.999	359.38
327.228	461.38
327.457	653.38
327.686	727.38
327.914	506.38
328.143	370.38
328.372	324.38
328.6	307.38
328.829	311.38
329.058	313.38
329.287	318.38
329.515	310.38
329.744	279.38
329.972	278.38
330.201	286.38
330.43	288.38
330.658	310.38
330.887	314.38
331.115	300.38
331.344	285.38
331.572	280.38
331.801	268.38
332.03	278.38
332.258	264.38
332.486	262.38
332.715	269.38
332.943	254.38
333.172	264.38
333.4	278.38
333.629	273.38
333.857	273.38
334.085	272.38
334.314	304.38
334.542	277.38
334.771	296.38
334.999	280.38
335.227	276.38
335.455	272.38
335.684	246.38
335.912	265.38
336.14	251.38
336.369	267.38
336.597	265.38
336.825	265.38
337.053	240.38
337.281	266.38
337.51	262.38
337.738	278.38
337.966	276.38
338.194	274.38
338.422	280.38
338.65	269.38
338.878	250.38
339.106	271.38
339.334	273.38
339.562	247.38
339.79	264.38
340.018	260.38
340.246	230.38
340.474	242.38
340.702	255.38
340.93	250.38
341.158	248.38
341.386	248.38
341.614	253.38
341.842	272.38
342.07	232.38
342.298	260.38
342.526	251.38
342.754	246.38
342.981	239.38
343.209	232.38
343.437	268.38
343.665	248.38
343.893	256.38
344.12	272.38
344.348	260.38
344.576	254.38
344.804	271.38
345.031	277.38
345.259	261.38
345.487	263.38
345.714	250.38
345.942	250.38
346.17	247.38
346.397	244.38
346.625	249.38
346.853	244.38
347.08	243.38
347.308	249.38
347.535	257.38
347.763	273.38
347.99	239.38
348.218	254.38
348.445	251.38
348.673	248.38
348.9	260.38
349.128	256.38
349.355	246.38
349.583	261.38
349.81	255.38
350.037	224.38
350.265	239.38
350.492	249.38
350.72	242.38
350.947	249.38
351.174	245.38
351.402	247.38
351.629	235.38
351.856	258.38
352.083	237.38
352.311	247.38
352.538	254.38
352.765	258.38
352.992	245.38
353.22	246.38
353.447	257.38
353.674	248.38
353.901	235.38
354.128	239.38
354.355	229.38
354.583	214.38
354.81	238.38
355.037	233.38
355.264	228.38
355.491	232.38
355.718	218.38
355.945	226.38
356.172	240.38
356.399	233.38
356.626	238.38
356.853	221.38
357.08	225.38
357.307	232.38
357.534	226.38
357.761	207.38
357.988	240.38
358.215	233.38
358.441	235.38
358.668	235.38
358.895	233.38
359.122	236.38
359.349	233.38
359.576	258.38
359.802	242.38
360.029	264.38
360.256	258.38
360.483	263.38
360.709	230.38
360.936	249.38
361.163	244.38
361.39	244.38
361.616	218.38
361.843	238.38
362.07	235.38
362.296	259.38
362.523	235.38
362.749	230.38
362.976	221.38
363.203	250.38
363.429	226.38
363.656	234.38
363.882	242.38
364.109	240.38
364.335	231.38
364.562	224.38
364.788	232.38
365.015	229.38
365.241	252.38
365.468	224.38
365.694	244.38
365.92	261.38
366.147	241.38
366.373	227.38
366.599	235.38
366.826	225.38
367.052	260.38
367.278	234.38
367.505	224.38
367.731	231.38
367.957	219.38
368.184	215.38
368.41	245.38
368.636	240.38
368.862	235.38
369.089	214.38
369.315	247.38
369.541	227.38
369.767	244.38
369.993	235.38
370.219	226.38
370.445	230.38
370.672	234.38
370.898	228.38
371.124	237.38
371.35	246.38
371.576	231.38
371.802	225.38
372.028	231.38
372.254	249.38
372.48	220.38
372.706	231.38
372.932	218.38
373.158	230.38
373.384	234.38
373.61	234.38
373.835	223.38
374.061	220.38
374.287	229.38
374.513	246.38
374.739	241.38
374.965	223.38
375.191	240.38
375.416	238.38
375.642	242.38
375.868	243.38
376.094	247.38
376.319	241.38
376.545	231.38
376.771	232.38
376.997	218.38
377.222	228.38
377.448	226.38
377.674	226.38
377.899	204.38
378.125	229.38
378.35	243.38
378.576	230.38
378.802	246.38
379.027	231.38
379.253	239.38
379.478	234.38
379.704	222.38
379.929	226.38
380.155	226.38
380.38	237.38
380.606	247.38
380.831	235.38
381.057	229.38
381.282	242.38
381.507	245.38
381.733	222.38
381.958	231.38
382.184	247.38
382.409	254.38
382.634	246.38
382.86	218.38
383.085	225.38
383.31	222.38
383.535	235.38
383.761	227.38
383.986	263.38
384.211	258.38
384.436	240.38
384.662	249.38
384.887	248.38
385.112	255.38
385.337	239.38
385.562	235.38
385.787	238.38
386.013	229.38
386.238	250.38
386.463	246.38
386.688	244.38
386.913	247.38
387.138	258.38
387.363	235.38
387.588	250.38
387.813	246.38
388.038	245.38
388.263	259.38
388.488	236.38
388.713	239.38
388.938	255.38
389.163	227.38
389.387	268.38
389.612	235.38
389.837	235.38
390.062	235.38
390.287	224.38
390.512	248.38
390.736	248.38
390.961	237.38
391.186	232.38
391.411	224.38
391.636	247.38
391.86	244.38
392.085	252.38
392.31	227.38
392.534	263.38
392.759	240.38
392.984	248.38
393.208	230.38
393.433	240.38
393.658	246.38
393.882	246.38
394.107	239.38
394.331	233.38
394.556	245.38
394.78	255.38
395.005	240.38
395.229	223.38
395.454	234.38
395.678	256.38
395.903	246.38
396.127	260.38
396.352	259.38
396.576	247.38
396.801	249.38
397.025	260.38
397.249	243.38
397.474	255.38
397.698	263.38
397.922	252.38
398.147	262.38
398.371	272.38
398.595	240.38
398.82	262.38
399.044	272.38
399.268	282.38
399.492	282.38
399.717	294.38
399.941	308.38
400.165	316.38
400.389	304.38
400.613	306.38
400.837	295.38
401.062	282.38
401.286	274.38
401.51	273.38
401.734	224.38
401.958	271.38
402.182	267.38
402.406	269.38
402.63	285.38
402.854	272.38
403.078	260.38
403.302	266.38
403.526	271.38
403.75	302.38
403.974	272.38
404.198	263.38
404.422	258.38
404.645	268.38
404.869	277.38
405.093	289.38
405.317	296.38
405.541	310.38
405.765	284.38
405.988	270.38
406.212	273.38
406.436	295.38
406.66	303.38
406.883	292.38
407.107	326.38
407.331	335.38
407.555	347.38
407.778	351.38
408.002	334.38
408.226	307.38
408.449	294.38
408.673	303.38
408.896	323.38
409.12	324.38
409.344	298.38
409.567	272.38
409.791	286.38
410.014	282.38
410.238	278.38
410.461	266.38
410.685	289.38
410.908	278.38
411.132	292.38
411.355	314.38
411.578	301.38
411.802	278.38
412.025	279.38
412.249	254.38
412.472	290.38
412.695	291.38
412.919	288.38
413.142	268.38
413.365	278.38
413.589	258.38
413.812	262.38
414.035	270.38
414.258	268.38
414.482	240.38
414.705	248.38
414.928	255.38
415.151	266.38
415.374	269.38
415.597	262.38
415.821	255.38
416.044	262.38
416.267	277.38
416.49	274.38
416.713	264.38
416.936	260.38
417.159	254.38
417.382	256.38
417.605	272.38
417.828	260.38
418.051	243.38
418.274	264.38
418.497	265.38
418.72	265.38
418.943	266.38
419.166	273.38
419.389	279.38
419.611	258.38
419.834	269.38
420.057	272.38
420.28	267.38
420.503	285.38
420.726	276.38
420.948	280.38
421.171	289.38
421.394	302.38
421.617	278.38
421.839	285.38
422.062	278.38
422.285	270.38
422.507	303.38
422.73	330.38
422.953	318.38
423.175	287.38
423.398	264.38
423.621	281.38
423.843	282.38
424.066	314.38
424.288	302.38
424.511	295.38
424.733	315.38
424.956	366.38
425.178	333.38
425.401	323.38
425.623	351.38
425.846	309.38
426.068	283.38
426.291	279.38
426.513	272.38
426.735	282.38
426.958	300.38
427.18	356.38
427.402	398.38
427.625	442.38
427.847	382.38
428.069	335.38
428.292	293.38
428.514	283.38
428.736	273.38
428.958	268.38
429.181	258.38
429.403	271.38
429.625	283.38
429.847	290.38
430.069	302.38
430.292	321.38
430.514	282.38
430.736	248.38
430.958	263.38
431.18	270.38
431.402	259.38
431.624	247.38
431.846	261.38
432.068	251.38
432.29	260.38
432.512	278.38
432.734	268.38
432.956	263.38
433.178	251.38
433.4	265.38
433.622	246.38
433.844	234.38
434.066	260.38
434.287	263.38
434.509	261.38
434.731	250.38
434.953	267.38
435.175	295.38
435.397	260.38
435.618	278.38
435.84	306.38
436.062	347.38
436.284	382.38
436.505	309.38
436.727	314.38
436.949	276.38
437.17	253.38
437.392	268.38
437.614	280.38
437.835	298.38
438.057	323.38
438.278	390.38
438.5	381.38
438.721	434.38
438.943	378.38
439.165	308.38
439.386	296.38
439.608	282.38
439.829	287.38
440.05	294.38
440.272	345.38
440.493	286.38
440.715	282.38
440.936	278.38
441.158	280.38
441.379	274.38
441.6	280.38
441.822	278.38
442.043	308.38
442.264	332.38
442.486	360.38
442.707	301.38
442.928	284.38
443.149	279.38
443.371	299.38
443.592	315.38
443.813	363.38
444.034	368.38
444.255	307.38
444.476	306.38
444.698	287.38
444.919	290.38
445.14	388.38
445.361	326.38
445.582	322.38
445.803	333.38
446.024	368.38
446.245	360.38
446.466	336.38
446.687	317.38
446.908	278.38
447.129	278.38
447.35	265.38
447.571	272.38
447.792	255.38
448.013	270.38
448.234	273.38
448.455	308.38
448.675	360.38
448.896	392.38
449.117	349.38
449.338	340.38
449.559	389.38
449.779	405.38
450	348.38
450.221	280.38
450.442	277.38
450.662	262.38
450.883	272.38
451.104	280.38
451.324	262.38
451.545	246.38
451.766	247.38
451.986	263.38
452.207	246.38
452.428	256.38
452.648	267.38
452.869	233.38
453.089	235.38
453.31	247.38
453.53	245.38
453.751	235.38
453.971	258.38
454.192	262.38
454.412	242.38
454.633	248.38
454.853	245.38
455.073	238.38
455.294	237.38
455.514	290.38
455.734	274.38
455.955	260.38
456.175	225.38
456.395	243.38
456.616	243.38
456.836	245.38
457.056	228.38
457.276	227.38
457.497	243.38
457.717	217.38
457.937	232.38
458.157	234.38
458.377	254.38
458.598	248.38
458.818	270.38
459.038	310.38
459.258	302.38
459.478	273.38
459.698	247.38
459.918	264.38
460.138	257.38
460.358	268.38
460.578	242.38
460.798	283.38
461.018	255.38
461.238	273.38
461.458	272.38
461.678	265.38
461.898	273.38
462.118	259.38
462.338	268.38
462.558	260.38
462.777	263.38
462.997	279.38
463.217	275.38
463.437	280.38
463.657	268.38
463.876	261.38
464.096	263.38
464.316	278.38
464.536	274.38
464.755	275.38
464.975	287.38
465.195	295.38
465.414	307.38
465.634	291.38
465.854	269.38
466.073	251.38
466.293	237.38
466.512	247.38
466.732	242.38
466.951	232.38
467.171	253.38
467.391	234.38
467.61	248.38
467.829	264.38
468.049	237.38
468.268	245.38
468.488	228.38
468.707	237.38
468.927	224.38
469.146	239.38
469.365	246.38
469.585	245.38
469.804	253.38
470.023	272.38
470.243	233.38
470.462	248.38
470.681	272.38
470.901	241.38
471.12	253.38
471.339	262.38
471.558	251.38
471.777	239.38
471.997	258.38
472.216	248.38
472.435	283.38
472.654	266.38
472.873	239.38
473.092	248.38
473.311	249.38
473.53	256.38
473.749	261.38
473.968	285.38
474.187	331.38
474.406	332.38
474.625	291.38
474.844	252.38
475.063	251.38
475.282	259.38
475.501	278.38
475.72	278.38
475.939	242.38
476.158	264.38
476.377	257.38
476.596	258.38
476.814	262.38
477.033	262.38
477.252	260.38
477.471	253.38
477.69	282.38
477.908	285.38
478.127	275.38
478.346	280.38
478.564	258.38
478.783	281.38
479.002	283.38
479.22	272.38
479.439	277.38
479.658	287.38
479.876	286.38
480.095	300.38
480.313	311.38
480.532	298.38
480.751	285.38
480.969	298.38
481.188	319.38
481.406	312.38
481.624	296.38
481.843	313.38
482.061	294.38
482.28	285.38
482.498	286.38
482.717	272.38
482.935	283.38
483.153	282.38
483.372	295.38
483.59	295.38
483.808	291.38
484.027	312.38
484.245	290.38
484.463	304.38
484.681	296.38
484.9	286.38
485.118	308.38
485.336	295.38
485.554	304.38
485.772	295.38
485.99	276.38
486.209	304.38
486.427	311.38
486.645	294.38
486.863	289.38
487.081	314.38
487.299	316.38
487.517	328.38
487.735	323.38
487.953	301.38
488.171	317.38
488.389	319.38
488.607	315.38
488.825	304.38
489.043	310.38
489.261	321.38
489.479	310.38
489.696	319.38
489.914	298.38
490.132	310.38
490.35	326.38
490.568	297.38
490.786	324.38
491.003	324.38
491.221	331.38
491.439	343.38
491.657	342.38
491.874	347.38
492.092	341.38
492.31	328.38
492.527	357.38
492.745	350.38
492.963	342.38
493.18	346.38
493.398	361.38
493.615	343.38
493.833	385.38
494.05	346.38
494.268	355.38
494.485	342.38
494.703	345.38
494.92	359.38
495.138	376.38
495.355	340.38
495.573	364.38
495.79	349.38
496.008	353.38
496.225	360.38
496.442	339.38
496.66	367.38
496.877	361.38
497.094	375.38
497.312	360.38
497.529	363.38
497.746	376.38
497.963	360.38
498.181	383.38
498.398	386.38
498.615	404.38
498.832	406.38
499.049	401.38
499.267	414.38
499.484	430.38
499.701	418.38
499.918	446.38
500.135	457.38
500.352	472.38
500.569	455.38
500.786	463.38
501.003	456.38
501.22	459.38
501.437	437.38
501.654	452.38
501.871	418.38
502.088	414.38
502.305	398.38
502.522	392.38
