Data from 1982.PennyLincolnUp.Lamp.En5.5.200Scan.071819.P1_HRD10591_16-46-10-961.txt Node
Date: Thu Jul 18 16:46:10 EDT 2019
User: cochatt
Spectrometer: HR+D1059
Trigger mode: 1
Integration Time (sec): 1.000000E-1
Scans to average: 1
Electric dark correction enabled: true
Nonlinearity correction enabled: false
Boxcar width: 0
XAxis mode: Wavelengths
Number of Pixels in Spectrum: 2048
>>>>>Begin Spectral Data<<<<<
223.165	-8.12
223.4	-8.12
223.635	-8.12
223.869	-6.12
224.104	-25.12
224.338	-10.12
224.573	-18.12
224.808	-0.12
225.042	-14.12
225.277	-6.12
225.511	-5.12
225.746	-5.12
225.98	1.88
226.215	17.88
226.449	1.88
226.683	14.88
226.918	31.88
227.152	29.88
227.387	34.88
227.621	33.88
227.856	34.88
228.09	32.88
228.324	43.88
228.559	53.88
228.793	58.88
229.027	68.88
229.262	100.88
229.496	92.88
229.73	105.88
229.964	117.88
230.199	97.88
230.433	99.88
230.667	85.88
230.901	85.88
231.136	93.88
231.37	103.88
231.604	84.88
231.838	94.88
232.072	88.88
232.306	95.88
232.541	98.88
232.775	101.88
233.009	106.88
233.243	94.88
233.477	90.88
233.711	95.88
233.945	106.88
234.179	103.88
234.413	88.88
234.647	107.88
234.881	96.88
235.115	86.88
235.349	105.88
235.583	82.88
235.817	109.88
236.051	102.88
236.285	109.88
236.519	113.88
236.753	113.88
236.987	115.88
237.221	166.88
237.455	189.88
237.689	143.88
237.922	123.88
238.156	113.88
238.39	116.88
238.624	98.88
238.858	98.88
239.091	94.88
239.325	105.88
239.559	111.88
239.793	123.88
240.027	113.88
240.26	116.88
240.494	133.88
240.728	117.88
240.961	125.88
241.195	112.88
241.429	118.88
241.662	121.88
241.896	110.88
242.13	106.88
242.363	121.88
242.597	117.88
242.83	117.88
243.064	114.88
243.298	113.88
243.531	115.88
243.765	112.88
243.998	118.88
244.232	116.88
244.465	109.88
244.699	127.88
244.932	135.88
245.166	114.88
245.399	125.88
245.633	120.88
245.866	106.88
246.099	121.88
246.333	110.88
246.566	124.88
246.8	131.88
247.033	125.88
247.266	146.88
247.5	131.88
247.733	130.88
247.966	135.88
248.2	132.88
248.433	138.88
248.666	145.88
248.899	145.88
249.133	162.88
249.366	178.88
249.599	155.88
249.832	153.88
250.066	158.88
250.299	157.88
250.532	157.88
250.765	164.88
250.998	171.88
251.231	178.88
251.465	154.88
251.698	145.88
251.931	165.88
252.164	168.88
252.397	153.88
252.63	171.88
252.863	173.88
253.096	173.88
253.329	182.88
253.562	186.88
253.795	170.88
254.028	146.88
254.261	163.88
254.494	182.88
254.727	205.88
254.96	219.88
255.193	194.88
255.426	200.88
255.659	190.88
255.892	191.88
256.124	170.88
256.357	190.88
256.59	178.88
256.823	177.88
257.056	155.88
257.289	176.88
257.521	170.88
257.754	162.88
257.987	145.88
258.22	173.88
258.452	170.88
258.685	143.88
258.918	159.88
259.151	166.88
259.383	178.88
259.616	159.88
259.849	168.88
260.081	191.88
260.314	195.88
260.547	208.88
260.779	194.88
261.012	179.88
261.244	195.88
261.477	170.88
261.71	157.88
261.942	173.88
262.175	184.88
262.407	169.88
262.64	163.88
262.872	157.88
263.105	166.88
263.337	172.88
263.57	163.88
263.802	176.88
264.035	157.88
264.267	162.88
264.499	151.88
264.732	164.88
264.964	179.88
265.197	176.88
265.429	170.88
265.661	154.88
265.894	182.88
266.126	182.88
266.358	166.88
266.591	167.88
266.823	170.88
267.055	169.88
267.287	169.88
267.52	174.88
267.752	161.88
267.984	172.88
268.216	180.88
268.448	174.88
268.681	186.88
268.913	200.88
269.145	203.88
269.377	208.88
269.609	197.88
269.841	219.88
270.073	212.88
270.306	219.88
270.538	257.88
270.77	231.88
271.002	238.88
271.234	234.88
271.466	231.88
271.698	225.88
271.93	258.88
272.162	266.88
272.394	242.88
272.626	225.88
272.858	219.88
273.09	210.88
273.322	200.88
273.553	207.88
273.785	206.88
274.017	207.88
274.249	202.88
274.481	217.88
274.713	204.88
274.945	191.88
275.176	194.88
275.408	191.88
275.64	197.88
275.872	220.88
276.104	207.88
276.335	199.88
276.567	204.88
276.799	214.88
277.031	226.88
277.262	247.88
277.494	244.88
277.726	244.88
277.957	203.88
278.189	201.88
278.421	209.88
278.652	216.88
278.884	205.88
279.115	193.88
279.347	194.88
279.579	208.88
279.81	206.88
280.042	195.88
280.273	199.88
280.505	213.88
280.736	208.88
280.968	202.88
281.199	194.88
281.431	202.88
281.662	202.88
281.894	215.88
282.125	196.88
282.356	206.88
282.588	242.88
282.819	221.88
283.051	199.88
283.282	202.88
283.513	215.88
283.745	200.88
283.976	217.88
284.207	222.88
284.439	198.88
284.67	226.88
284.901	219.88
285.132	202.88
285.364	209.88
285.595	218.88
285.826	210.88
286.057	214.88
286.288	213.88
286.52	212.88
286.751	212.88
286.982	222.88
287.213	211.88
287.444	217.88
287.675	226.88
287.906	222.88
288.138	243.88
288.369	223.88
288.6	217.88
288.831	234.88
289.062	228.88
289.293	228.88
289.524	215.88
289.755	210.88
289.986	224.88
290.217	222.88
290.448	221.88
290.679	214.88
290.91	221.88
291.141	220.88
291.371	220.88
291.602	210.88
291.833	218.88
292.064	220.88
292.295	221.88
292.526	216.88
292.757	227.88
292.987	206.88
293.218	221.88
293.449	211.88
293.68	221.88
293.91	221.88
294.141	213.88
294.372	214.88
294.603	219.88
294.833	211.88
295.064	219.88
295.295	226.88
295.525	219.88
295.756	219.88
295.987	228.88
296.217	224.88
296.448	233.88
296.679	215.88
296.909	209.88
297.14	233.88
297.37	224.88
297.601	226.88
297.831	211.88
298.062	231.88
298.292	239.88
298.523	223.88
298.753	213.88
298.984	221.88
299.214	237.88
299.445	237.88
299.675	243.88
299.905	227.88
300.136	206.88
300.366	223.88
300.597	234.88
300.827	233.88
301.057	230.88
301.288	236.88
301.518	249.88
301.748	241.88
301.979	241.88
302.209	226.88
302.439	241.88
302.669	257.88
302.9	239.88
303.13	241.88
303.36	240.88
303.59	271.88
303.82	261.88
304.051	236.88
304.281	245.88
304.511	240.88
304.741	254.88
304.971	239.88
305.201	241.88
305.431	245.88
305.661	244.88
305.891	237.88
306.121	244.88
306.352	248.88
306.582	253.88
306.812	244.88
307.042	243.88
307.272	246.88
307.502	239.88
307.731	241.88
307.961	246.88
308.191	241.88
308.421	256.88
308.651	253.88
308.881	265.88
309.111	257.88
309.341	247.88
309.571	255.88
309.8	274.88
310.03	261.88
310.26	275.88
310.49	282.88
310.72	295.88
310.949	309.88
311.179	299.88
311.409	298.88
311.639	275.88
311.868	295.88
312.098	297.88
312.328	306.88
312.557	315.88
312.787	303.88
313.017	309.88
313.246	291.88
313.476	288.88
313.706	278.88
313.935	294.88
314.165	285.88
314.394	319.88
314.624	304.88
314.853	304.88
315.083	280.88
315.312	278.88
315.542	289.88
315.771	284.88
316.001	276.88
316.23	279.88
316.46	286.88
316.689	288.88
316.919	282.88
317.148	291.88
317.377	314.88
317.607	301.88
317.836	283.88
318.065	273.88
318.295	284.88
318.524	264.88
318.753	267.88
318.983	278.88
319.212	273.88
319.441	277.88
319.67	296.88
319.9	279.88
320.129	292.88
320.358	277.88
320.587	296.88
320.816	314.88
321.046	313.88
321.275	298.88
321.504	313.88
321.733	311.88
321.962	315.88
322.191	340.88
322.42	334.88
322.649	339.88
322.878	342.88
323.108	348.88
323.337	360.88
323.566	379.88
323.795	429.88
324.024	481.88
324.253	611.88
324.482	850.88
324.71	1297.88
324.939	1669.88
325.168	1339.88
325.397	730.88
325.626	480.88
325.855	444.88
326.084	409.88
326.313	392.88
326.542	417.88
326.77	470.88
326.999	547.88
327.228	757.88
327.457	1081.88
327.686	1235.88
327.914	794.88
328.143	554.88
328.372	475.88
328.6	446.88
328.829	433.88
329.058	425.88
329.287	433.88
329.515	418.88
329.744	397.88
329.972	391.88
330.201	419.88
330.43	439.88
330.658	449.88
330.887	458.88
331.115	433.88
331.344	397.88
331.572	387.88
331.801	367.88
332.03	372.88
332.258	356.88
332.486	327.88
332.715	318.88
332.943	326.88
333.172	338.88
333.4	342.88
333.629	349.88
333.857	367.88
334.085	353.88
334.314	370.88
334.542	393.88
334.771	391.88
334.999	357.88
335.227	333.88
335.455	335.88
335.684	337.88
335.912	315.88
336.14	313.88
336.369	316.88
336.597	322.88
336.825	335.88
337.053	318.88
337.281	306.88
337.51	320.88
337.738	317.88
337.966	341.88
338.194	330.88
338.422	303.88
338.65	305.88
338.878	320.88
339.106	299.88
339.334	310.88
339.562	308.88
339.79	317.88
340.018	316.88
340.246	307.88
340.474	310.88
340.702	303.88
340.93	306.88
341.158	305.88
341.386	295.88
341.614	321.88
341.842	313.88
342.07	312.88
342.298	304.88
342.526	318.88
342.754	307.88
342.981	293.88
343.209	288.88
343.437	305.88
343.665	313.88
343.893	303.88
344.12	295.88
344.348	296.88
344.576	321.88
344.804	303.88
345.031	312.88
345.259	331.88
345.487	313.88
345.714	322.88
345.942	300.88
346.17	294.88
346.397	298.88
346.625	305.88
346.853	307.88
347.08	292.88
347.308	298.88
347.535	297.88
347.763	314.88
347.99	307.88
348.218	311.88
348.445	311.88
348.673	300.88
348.9	290.88
349.128	294.88
349.355	306.88
349.583	302.88
349.81	279.88
350.037	283.88
350.265	286.88
350.492	294.88
350.72	304.88
350.947	310.88
351.174	309.88
351.402	296.88
351.629	297.88
351.856	311.88
352.083	313.88
352.311	323.88
352.538	332.88
352.765	315.88
352.992	294.88
353.22	309.88
353.447	287.88
353.674	289.88
353.901	285.88
354.128	283.88
354.355	283.88
354.583	280.88
354.81	279.88
355.037	290.88
355.264	290.88
355.491	264.88
355.718	263.88
355.945	281.88
356.172	296.88
356.399	270.88
356.626	279.88
356.853	273.88
357.08	279.88
357.307	277.88
357.534	271.88
357.761	278.88
357.988	267.88
358.215	275.88
358.441	291.88
358.668	278.88
358.895	268.88
359.122	256.88
359.349	275.88
359.576	299.88
359.802	311.88
360.029	326.88
360.256	331.88
360.483	311.88
360.709	298.88
360.936	313.88
361.163	290.88
361.39	296.88
361.616	292.88
361.843	293.88
362.07	312.88
362.296	303.88
362.523	319.88
362.749	277.88
362.976	298.88
363.203	305.88
363.429	276.88
363.656	297.88
363.882	279.88
364.109	289.88
364.335	305.88
364.562	283.88
364.788	281.88
365.015	281.88
365.241	286.88
365.468	297.88
365.694	264.88
365.92	293.88
366.147	266.88
366.373	265.88
366.599	272.88
366.826	259.88
367.052	275.88
367.278	266.88
367.505	281.88
367.731	283.88
367.957	291.88
368.184	271.88
368.41	283.88
368.636	292.88
368.862	285.88
369.089	282.88
369.315	286.88
369.541	258.88
369.767	277.88
369.993	273.88
370.219	264.88
370.445	272.88
370.672	264.88
370.898	281.88
371.124	274.88
371.35	288.88
371.576	270.88
371.802	271.88
372.028	277.88
372.254	263.88
372.48	272.88
372.706	282.88
372.932	290.88
373.158	263.88
373.384	274.88
373.61	249.88
373.835	280.88
374.061	278.88
374.287	283.88
374.513	264.88
374.739	266.88
374.965	293.88
375.191	295.88
375.416	256.88
375.642	265.88
375.868	268.88
376.094	274.88
376.319	294.88
376.545	260.88
376.771	269.88
376.997	285.88
377.222	273.88
377.448	252.88
377.674	275.88
377.899	260.88
378.125	271.88
378.35	264.88
378.576	258.88
378.802	260.88
379.027	261.88
379.253	246.88
379.478	273.88
379.704	259.88
379.929	267.88
380.155	269.88
380.38	275.88
380.606	281.88
380.831	256.88
381.057	266.88
381.282	257.88
381.507	272.88
381.733	273.88
381.958	266.88
382.184	257.88
382.409	268.88
382.634	276.88
382.86	276.88
383.085	277.88
383.31	260.88
383.535	275.88
383.761	272.88
383.986	271.88
384.211	269.88
384.436	291.88
384.662	264.88
384.887	288.88
385.112	293.88
385.337	289.88
385.562	285.88
385.787	273.88
386.013	303.88
386.238	281.88
386.463	291.88
386.688	269.88
386.913	294.88
387.138	274.88
387.363	277.88
387.588	268.88
387.813	284.88
388.038	281.88
388.263	284.88
388.488	284.88
388.713	287.88
388.938	275.88
389.163	279.88
389.387	267.88
389.612	281.88
389.837	285.88
390.062	278.88
390.287	265.88
390.512	275.88
390.736	263.88
390.961	273.88
391.186	282.88
391.411	284.88
391.636	275.88
391.86	301.88
392.085	280.88
392.31	305.88
392.534	282.88
392.759	285.88
392.984	283.88
393.208	282.88
393.433	295.88
393.658	293.88
393.882	292.88
394.107	279.88
394.331	279.88
394.556	277.88
394.78	266.88
395.005	283.88
395.229	289.88
395.454	274.88
395.678	268.88
395.903	289.88
396.127	300.88
396.352	307.88
396.576	294.88
396.801	293.88
397.025	293.88
397.249	289.88
397.474	303.88
397.698	288.88
397.922	296.88
398.147	313.88
398.371	317.88
398.595	309.88
398.82	316.88
399.044	306.88
399.268	311.88
399.492	333.88
399.717	348.88
399.941	355.88
400.165	366.88
400.389	372.88
400.613	343.88
400.837	341.88
401.062	311.88
401.286	338.88
401.51	310.88
401.734	290.88
401.958	313.88
402.182	314.88
402.406	294.88
402.63	330.88
402.854	336.88
403.078	307.88
403.302	314.88
403.526	333.88
403.75	323.88
403.974	304.88
404.198	312.88
404.422	330.88
404.645	329.88
404.869	331.88
405.093	328.88
405.317	354.88
405.541	384.88
405.765	359.88
405.988	373.88
406.212	345.88
406.436	338.88
406.66	361.88
406.883	358.88
407.107	350.88
407.331	377.88
407.555	422.88
407.778	407.88
408.002	387.88
408.226	357.88
408.449	352.88
408.673	342.88
408.896	374.88
409.12	394.88
409.344	367.88
409.567	323.88
409.791	312.88
410.014	337.88
410.238	303.88
410.461	336.88
410.685	328.88
410.908	335.88
411.132	341.88
411.355	378.88
411.578	359.88
411.802	350.88
412.025	331.88
412.249	349.88
412.472	329.88
412.695	366.88
412.919	328.88
413.142	324.88
413.365	319.88
413.589	310.88
413.812	299.88
414.035	293.88
414.258	317.88
414.482	317.88
414.705	274.88
414.928	291.88
415.151	291.88
415.374	285.88
415.597	307.88
415.821	292.88
416.044	309.88
416.267	296.88
416.49	294.88
416.713	298.88
416.936	295.88
417.159	292.88
417.382	290.88
417.605	297.88
417.828	310.88
418.051	330.88
418.274	312.88
418.497	297.88
418.72	303.88
418.943	297.88
419.166	303.88
419.389	337.88
419.611	323.88
419.834	318.88
420.057	323.88
420.28	332.88
420.503	321.88
420.726	319.88
420.948	350.88
421.171	354.88
421.394	374.88
421.617	352.88
421.839	314.88
422.062	317.88
422.285	323.88
422.507	371.88
422.73	397.88
422.953	386.88
423.175	346.88
423.398	345.88
423.621	344.88
423.843	333.88
424.066	344.88
424.288	346.88
424.511	360.88
424.733	394.88
424.956	433.88
425.178	418.88
425.401	408.88
425.623	430.88
425.846	385.88
426.068	337.88
426.291	351.88
426.513	336.88
426.735	338.88
426.958	391.88
427.18	433.88
427.402	512.88
427.625	539.88
427.847	487.88
428.069	435.88
428.292	380.88
428.514	349.88
428.736	338.88
428.958	319.88
429.181	315.88
429.403	331.88
429.625	321.88
429.847	356.88
430.069	388.88
430.292	376.88
430.514	339.88
430.736	325.88
430.958	312.88
431.18	312.88
431.402	307.88
431.624	290.88
431.846	294.88
432.068	311.88
432.29	317.88
432.512	297.88
432.734	307.88
432.956	307.88
433.178	314.88
433.4	303.88
433.622	313.88
433.844	299.88
434.066	317.88
434.287	307.88
434.509	293.88
434.731	313.88
434.953	310.88
435.175	308.88
435.397	326.88
435.618	355.88
435.84	370.88
436.062	447.88
436.284	439.88
436.505	367.88
436.727	346.88
436.949	327.88
437.17	321.88
437.392	337.88
437.614	334.88
437.835	344.88
438.057	425.88
438.278	462.88
438.5	483.88
438.721	519.88
438.943	483.88
439.165	395.88
439.386	361.88
439.608	359.88
439.829	352.88
440.05	369.88
440.272	413.88
440.493	378.88
440.715	342.88
440.936	333.88
441.158	323.88
441.379	324.88
441.6	323.88
441.822	336.88
442.043	371.88
442.264	409.88
442.486	461.88
442.707	369.88
442.928	344.88
443.149	363.88
443.371	380.88
443.592	405.88
443.813	452.88
444.034	475.88
444.255	391.88
444.476	347.88
444.698	347.88
444.919	321.88
445.14	397.88
445.361	395.88
445.582	372.88
445.803	412.88
446.024	486.88
446.245	468.88
446.466	440.88
446.687	375.88
446.908	361.88
447.129	339.88
447.35	335.88
447.571	344.88
447.792	300.88
448.013	301.88
448.234	346.88
448.455	403.88
448.675	448.88
448.896	501.88
449.117	425.88
449.338	421.88
449.559	483.88
449.779	528.88
450	422.88
450.221	366.88
450.442	335.88
450.662	349.88
450.883	322.88
451.104	326.88
451.324	332.88
451.545	309.88
451.766	313.88
451.986	296.88
452.207	292.88
452.428	287.88
452.648	301.88
452.869	313.88
453.089	317.88
453.31	328.88
453.53	297.88
453.751	279.88
453.971	287.88
454.192	312.88
454.412	307.88
454.633	279.88
454.853	288.88
455.073	268.88
455.294	308.88
455.514	338.88
455.734	334.88
455.955	289.88
456.175	268.88
456.395	271.88
456.616	281.88
456.836	266.88
457.056	269.88
457.276	251.88
457.497	271.88
457.717	286.88
457.937	274.88
458.157	285.88
458.377	295.88
458.598	303.88
458.818	346.88
459.038	394.88
459.258	380.88
459.478	325.88
459.698	313.88
459.918	298.88
460.138	303.88
460.358	285.88
460.578	282.88
460.798	287.88
461.018	306.88
461.238	296.88
461.458	305.88
461.678	281.88
461.898	295.88
462.118	303.88
462.338	317.88
462.558	293.88
462.777	297.88
462.997	297.88
463.217	294.88
463.437	307.88
463.657	316.88
463.876	314.88
464.096	306.88
464.316	318.88
464.536	317.88
464.755	330.88
464.975	315.88
465.195	337.88
465.414	385.88
465.634	346.88
465.854	325.88
466.073	323.88
466.293	295.88
466.512	298.88
466.732	289.88
466.951	289.88
467.171	278.88
467.391	292.88
467.61	308.88
467.829	299.88
468.049	297.88
468.268	299.88
468.488	300.88
468.707	288.88
468.927	287.88
469.146	277.88
469.365	287.88
469.585	292.88
469.804	309.88
470.023	304.88
470.243	296.88
470.462	301.88
470.681	305.88
470.901	320.88
471.12	302.88
471.339	281.88
471.558	301.88
471.777	294.88
471.997	277.88
472.216	292.88
472.435	324.88
472.654	305.88
472.873	298.88
473.092	311.88
473.311	301.88
473.53	296.88
473.749	301.88
473.968	326.88
474.187	405.88
474.406	393.88
474.625	346.88
474.844	334.88
475.063	297.88
475.282	291.88
475.501	298.88
475.72	305.88
475.939	311.88
476.158	296.88
476.377	305.88
476.596	305.88
476.814	311.88
477.033	312.88
477.252	290.88
477.471	313.88
477.69	304.88
477.908	312.88
478.127	346.88
478.346	323.88
478.564	339.88
478.783	330.88
479.002	327.88
479.22	343.88
479.439	339.88
479.658	353.88
479.876	351.88
480.095	344.88
480.313	381.88
480.532	371.88
480.751	368.88
480.969	337.88
481.188	417.88
481.406	429.88
481.624	373.88
481.843	356.88
482.061	331.88
482.28	344.88
482.498	333.88
482.717	344.88
482.935	357.88
483.153	339.88
483.372	343.88
483.59	352.88
483.808	330.88
484.027	337.88
484.245	361.88
484.463	331.88
484.681	344.88
484.9	330.88
485.118	342.88
485.336	332.88
485.554	356.88
485.772	355.88
485.99	352.88
486.209	361.88
486.427	361.88
486.645	368.88
486.863	370.88
487.081	371.88
487.299	373.88
487.517	365.88
487.735	367.88
487.953	374.88
488.171	363.88
488.389	377.88
488.607	371.88
488.825	381.88
489.043	368.88
489.261	380.88
489.479	373.88
489.696	379.88
489.914	369.88
490.132	374.88
490.35	376.88
490.568	387.88
490.786	390.88
491.003	387.88
491.221	390.88
491.439	409.88
491.657	393.88
491.874	416.88
492.092	420.88
492.31	421.88
492.527	431.88
492.745	412.88
492.963	434.88
493.18	416.88
493.398	438.88
493.615	423.88
493.833	411.88
494.05	440.88
494.268	415.88
494.485	427.88
494.703	415.88
494.92	425.88
495.138	422.88
495.355	437.88
495.573	435.88
495.79	426.88
496.008	439.88
496.225	416.88
496.442	433.88
496.66	429.88
496.877	433.88
497.094	439.88
497.312	429.88
497.529	433.88
497.746	440.88
497.963	454.88
498.181	458.88
498.398	469.88
498.615	469.88
498.832	464.88
499.049	471.88
499.267	467.88
499.484	485.88
499.701	510.88
499.918	500.88
500.135	513.88
500.352	571.88
500.569	546.88
500.786	530.88
501.003	524.88
501.22	547.88
501.437	539.88
501.654	523.88
501.871	524.88
502.088	499.88
502.305	501.88
