Data from 1982.PennyLincolnUp.Lamp.En5.5.200Scan.071819.P1_HRD10591_16-46-26-961.txt Node
Date: Thu Jul 18 16:46:26 EDT 2019
User: cochatt
Spectrometer: HR+D1059
Trigger mode: 1
Integration Time (sec): 1.000000E-1
Scans to average: 1
Electric dark correction enabled: true
Nonlinearity correction enabled: false
Boxcar width: 0
XAxis mode: Wavelengths
Number of Pixels in Spectrum: 2048
>>>>>Begin Spectral Data<<<<<
223.165	-6.5
223.4	-6.5
223.635	-6.5
223.869	-31.5
224.104	-23.5
224.338	-18.5
224.573	-15.5
224.808	-18.5
225.042	-15.5
225.277	-2.5
225.511	-0.5
225.746	5.5
225.98	17.5
226.215	0.5
226.449	20.5
226.683	20.5
226.918	25.5
227.152	42.5
227.387	34.5
227.621	40.5
227.856	35.5
228.09	45.5
228.324	55.5
228.559	60.5
228.793	52.5
229.027	80.5
229.262	83.5
229.496	89.5
229.73	116.5
229.964	107.5
230.199	109.5
230.433	101.5
230.667	90.5
230.901	100.5
231.136	89.5
231.37	94.5
231.604	99.5
231.838	78.5
232.072	106.5
232.306	117.5
232.541	91.5
232.775	108.5
233.009	98.5
233.243	96.5
233.477	111.5
233.711	105.5
233.945	96.5
234.179	90.5
234.413	116.5
234.647	104.5
234.881	80.5
235.115	108.5
235.349	116.5
235.583	126.5
235.817	90.5
236.051	108.5
236.285	105.5
236.519	114.5
236.753	104.5
236.987	120.5
237.221	144.5
237.455	172.5
237.689	127.5
237.922	118.5
238.156	108.5
238.39	104.5
238.624	86.5
238.858	94.5
239.091	94.5
239.325	104.5
239.559	99.5
239.793	94.5
240.027	112.5
240.26	114.5
240.494	116.5
240.728	110.5
240.961	99.5
241.195	109.5
241.429	104.5
241.662	117.5
241.896	115.5
242.13	95.5
242.363	96.5
242.597	109.5
242.83	114.5
243.064	105.5
243.298	94.5
243.531	108.5
243.765	113.5
243.998	103.5
244.232	108.5
244.465	122.5
244.699	116.5
244.932	110.5
245.166	116.5
245.399	115.5
245.633	124.5
245.866	125.5
246.099	126.5
246.333	113.5
246.566	122.5
246.8	134.5
247.033	132.5
247.266	111.5
247.5	132.5
247.733	152.5
247.966	145.5
248.2	140.5
248.433	128.5
248.666	136.5
248.899	156.5
249.133	156.5
249.366	166.5
249.599	152.5
249.832	164.5
250.066	164.5
250.299	143.5
250.532	154.5
250.765	139.5
250.998	154.5
251.231	178.5
251.465	179.5
251.698	167.5
251.931	163.5
252.164	149.5
252.397	176.5
252.63	152.5
252.863	148.5
253.096	159.5
253.329	177.5
253.562	172.5
253.795	186.5
254.028	176.5
254.261	173.5
254.494	169.5
254.727	192.5
254.96	203.5
255.193	203.5
255.426	189.5
255.659	172.5
255.892	172.5
256.124	180.5
256.357	181.5
256.59	185.5
256.823	161.5
257.056	157.5
257.289	157.5
257.521	160.5
257.754	158.5
257.987	168.5
258.22	164.5
258.452	163.5
258.685	158.5
258.918	160.5
259.151	162.5
259.383	156.5
259.616	179.5
259.849	164.5
260.081	189.5
260.314	186.5
260.547	205.5
260.779	186.5
261.012	187.5
261.244	194.5
261.477	186.5
261.71	174.5
261.942	188.5
262.175	175.5
262.407	173.5
262.64	169.5
262.872	168.5
263.105	163.5
263.337	176.5
263.57	164.5
263.802	154.5
264.035	168.5
264.267	174.5
264.499	158.5
264.732	158.5
264.964	175.5
265.197	152.5
265.429	142.5
265.661	157.5
265.894	161.5
266.126	176.5
266.358	178.5
266.591	165.5
266.823	178.5
267.055	163.5
267.287	176.5
267.52	175.5
267.752	167.5
267.984	169.5
268.216	182.5
268.448	174.5
268.681	187.5
268.913	193.5
269.145	204.5
269.377	206.5
269.609	195.5
269.841	213.5
270.073	219.5
270.306	239.5
270.538	238.5
270.77	227.5
271.002	217.5
271.234	236.5
271.466	210.5
271.698	245.5
271.93	236.5
272.162	240.5
272.394	226.5
272.626	234.5
272.858	226.5
273.09	198.5
273.322	222.5
273.553	206.5
273.785	209.5
274.017	214.5
274.249	221.5
274.481	193.5
274.713	201.5
274.945	207.5
275.176	190.5
275.408	210.5
275.64	200.5
275.872	177.5
276.104	203.5
276.335	198.5
276.567	197.5
276.799	224.5
277.031	215.5
277.262	237.5
277.494	233.5
277.726	236.5
277.957	198.5
278.189	227.5
278.421	202.5
278.652	205.5
278.884	198.5
279.115	190.5
279.347	191.5
279.579	211.5
279.81	197.5
280.042	191.5
280.273	208.5
280.505	196.5
280.736	210.5
280.968	206.5
281.199	206.5
281.431	200.5
281.662	194.5
281.894	197.5
282.125	216.5
282.356	223.5
282.588	217.5
282.819	226.5
283.051	205.5
283.282	209.5
283.513	215.5
283.745	213.5
283.976	197.5
284.207	220.5
284.439	205.5
284.67	212.5
284.901	208.5
285.132	207.5
285.364	206.5
285.595	203.5
285.826	216.5
286.057	193.5
286.288	191.5
286.52	224.5
286.751	194.5
286.982	197.5
287.213	209.5
287.444	211.5
287.675	193.5
287.906	220.5
288.138	219.5
288.369	224.5
288.6	229.5
288.831	219.5
289.062	202.5
289.293	226.5
289.524	223.5
289.755	207.5
289.986	208.5
290.217	205.5
290.448	208.5
290.679	214.5
290.91	229.5
291.141	210.5
291.371	208.5
291.602	205.5
291.833	200.5
292.064	202.5
292.295	223.5
292.526	194.5
292.757	221.5
292.987	215.5
293.218	207.5
293.449	224.5
293.68	208.5
293.91	232.5
294.141	221.5
294.372	202.5
294.603	234.5
294.833	211.5
295.064	231.5
295.295	224.5
295.525	223.5
295.756	228.5
295.987	230.5
296.217	222.5
296.448	252.5
296.679	233.5
296.909	225.5
297.14	214.5
297.37	210.5
297.601	229.5
297.831	220.5
298.062	231.5
298.292	196.5
298.523	220.5
298.753	221.5
298.984	243.5
299.214	220.5
299.445	216.5
299.675	210.5
299.905	225.5
300.136	231.5
300.366	221.5
300.597	254.5
300.827	227.5
301.057	234.5
301.288	243.5
301.518	231.5
301.748	238.5
301.979	234.5
302.209	248.5
302.439	234.5
302.669	237.5
302.9	243.5
303.13	249.5
303.36	252.5
303.59	239.5
303.82	246.5
304.051	253.5
304.281	245.5
304.511	246.5
304.741	238.5
304.971	240.5
305.201	225.5
305.431	233.5
305.661	236.5
305.891	231.5
306.121	231.5
306.352	216.5
306.582	244.5
306.812	236.5
307.042	243.5
307.272	248.5
307.502	249.5
307.731	239.5
307.961	248.5
308.191	254.5
308.421	258.5
308.651	249.5
308.881	257.5
309.111	261.5
309.341	253.5
309.571	260.5
309.8	263.5
310.03	270.5
310.26	283.5
310.49	293.5
310.72	307.5
310.949	279.5
311.179	300.5
311.409	288.5
311.639	281.5
311.868	294.5
312.098	302.5
312.328	283.5
312.557	295.5
312.787	293.5
313.017	296.5
313.246	288.5
313.476	275.5
313.706	281.5
313.935	287.5
314.165	272.5
314.394	316.5
314.624	295.5
314.853	311.5
315.083	277.5
315.312	277.5
315.542	281.5
315.771	275.5
316.001	267.5
316.23	269.5
316.46	275.5
316.689	270.5
316.919	278.5
317.148	265.5
317.377	301.5
317.607	291.5
317.836	292.5
318.065	290.5
318.295	277.5
318.524	270.5
318.753	273.5
318.983	279.5
319.212	273.5
319.441	284.5
319.67	300.5
319.9	270.5
320.129	277.5
320.358	271.5
320.587	304.5
320.816	313.5
321.046	307.5
321.275	280.5
321.504	287.5
321.733	307.5
321.962	321.5
322.191	305.5
322.42	329.5
322.649	361.5
322.878	358.5
323.108	345.5
323.337	386.5
323.566	389.5
323.795	414.5
324.024	459.5
324.253	565.5
324.482	847.5
324.71	1252.5
324.939	1634.5
325.168	1358.5
325.397	730.5
325.626	492.5
325.855	402.5
326.084	383.5
326.313	377.5
326.542	378.5
326.77	444.5
326.999	536.5
327.228	754.5
327.457	1070.5
327.686	1185.5
327.914	817.5
328.143	562.5
328.372	475.5
328.6	450.5
328.829	450.5
329.058	419.5
329.287	438.5
329.515	417.5
329.744	402.5
329.972	377.5
330.201	405.5
330.43	414.5
330.658	445.5
330.887	463.5
331.115	446.5
331.344	389.5
331.572	361.5
331.801	364.5
332.03	341.5
332.258	322.5
332.486	327.5
332.715	330.5
332.943	339.5
333.172	321.5
333.4	333.5
333.629	321.5
333.857	339.5
334.085	355.5
334.314	362.5
334.542	374.5
334.771	386.5
334.999	350.5
335.227	328.5
335.455	327.5
335.684	312.5
335.912	318.5
336.14	312.5
336.369	311.5
336.597	313.5
336.825	329.5
337.053	323.5
337.281	309.5
337.51	300.5
337.738	324.5
337.966	279.5
338.194	306.5
338.422	318.5
338.65	309.5
338.878	290.5
339.106	330.5
339.334	316.5
339.562	329.5
339.79	312.5
340.018	323.5
340.246	323.5
340.474	310.5
340.702	306.5
340.93	321.5
341.158	293.5
341.386	286.5
341.614	296.5
341.842	308.5
342.07	304.5
342.298	302.5
342.526	293.5
342.754	265.5
342.981	291.5
343.209	279.5
343.437	302.5
343.665	289.5
343.893	314.5
344.12	298.5
344.348	293.5
344.576	303.5
344.804	325.5
345.031	301.5
345.259	313.5
345.487	311.5
345.714	303.5
345.942	329.5
346.17	288.5
346.397	304.5
346.625	306.5
346.853	307.5
347.08	294.5
347.308	296.5
347.535	282.5
347.763	317.5
347.99	314.5
348.218	295.5
348.445	305.5
348.673	304.5
348.9	297.5
349.128	313.5
349.355	288.5
349.583	287.5
349.81	303.5
350.037	268.5
350.265	302.5
350.492	285.5
350.72	278.5
350.947	295.5
351.174	292.5
351.402	307.5
351.629	305.5
351.856	301.5
352.083	302.5
352.311	319.5
352.538	314.5
352.765	294.5
352.992	293.5
353.22	292.5
353.447	289.5
353.674	294.5
353.901	279.5
354.128	288.5
354.355	261.5
354.583	254.5
354.81	263.5
355.037	271.5
355.264	261.5
355.491	262.5
355.718	259.5
355.945	248.5
356.172	256.5
356.399	270.5
356.626	268.5
356.853	265.5
357.08	260.5
357.307	266.5
357.534	265.5
357.761	269.5
357.988	276.5
358.215	278.5
358.441	274.5
358.668	263.5
358.895	274.5
359.122	278.5
359.349	272.5
359.576	305.5
359.802	307.5
360.029	323.5
360.256	331.5
360.483	325.5
360.709	295.5
360.936	319.5
361.163	286.5
361.39	306.5
361.616	304.5
361.843	292.5
362.07	289.5
362.296	287.5
362.523	293.5
362.749	296.5
362.976	282.5
363.203	322.5
363.429	272.5
363.656	268.5
363.882	301.5
364.109	269.5
364.335	268.5
364.562	260.5
364.788	265.5
365.015	272.5
365.241	272.5
365.468	262.5
365.694	280.5
365.92	279.5
366.147	278.5
366.373	264.5
366.599	253.5
366.826	265.5
367.052	276.5
367.278	279.5
367.505	276.5
367.731	279.5
367.957	271.5
368.184	245.5
368.41	273.5
368.636	283.5
368.862	266.5
369.089	276.5
369.315	263.5
369.541	279.5
369.767	279.5
369.993	270.5
370.219	259.5
370.445	272.5
370.672	257.5
370.898	273.5
371.124	272.5
371.35	248.5
371.576	276.5
371.802	266.5
372.028	258.5
372.254	278.5
372.48	269.5
372.706	273.5
372.932	229.5
373.158	274.5
373.384	268.5
373.61	266.5
373.835	270.5
374.061	257.5
374.287	276.5
374.513	268.5
374.739	266.5
374.965	271.5
375.191	270.5
375.416	258.5
375.642	260.5
375.868	291.5
376.094	274.5
376.319	280.5
376.545	269.5
376.771	265.5
376.997	257.5
377.222	257.5
377.448	258.5
377.674	256.5
377.899	274.5
378.125	252.5
378.35	250.5
378.576	252.5
378.802	254.5
379.027	263.5
379.253	259.5
379.478	247.5
379.704	248.5
379.929	264.5
380.155	248.5
380.38	274.5
380.606	262.5
380.831	262.5
381.057	260.5
381.282	246.5
381.507	261.5
381.733	261.5
381.958	250.5
382.184	256.5
382.409	258.5
382.634	261.5
382.86	254.5
383.085	265.5
383.31	252.5
383.535	269.5
383.761	263.5
383.986	269.5
384.211	262.5
384.436	260.5
384.662	258.5
384.887	280.5
385.112	267.5
385.337	259.5
385.562	274.5
385.787	283.5
386.013	274.5
386.238	273.5
386.463	285.5
386.688	276.5
386.913	266.5
387.138	276.5
387.363	281.5
387.588	274.5
387.813	273.5
388.038	264.5
388.263	268.5
388.488	262.5
388.713	276.5
388.938	264.5
389.163	278.5
389.387	270.5
389.612	294.5
389.837	269.5
390.062	281.5
390.287	263.5
390.512	266.5
390.736	256.5
390.961	277.5
391.186	273.5
391.411	264.5
391.636	278.5
391.86	270.5
392.085	264.5
392.31	261.5
392.534	254.5
392.759	261.5
392.984	269.5
393.208	276.5
393.433	270.5
393.658	258.5
393.882	265.5
394.107	278.5
394.331	276.5
394.556	277.5
394.78	288.5
395.005	258.5
395.229	286.5
395.454	276.5
395.678	289.5
395.903	306.5
396.127	289.5
396.352	299.5
396.576	298.5
396.801	274.5
397.025	283.5
397.249	280.5
397.474	276.5
397.698	291.5
397.922	297.5
398.147	301.5
398.371	281.5
398.595	295.5
398.82	289.5
399.044	279.5
399.268	295.5
399.492	295.5
399.717	327.5
399.941	325.5
400.165	349.5
400.389	356.5
400.613	331.5
400.837	318.5
401.062	308.5
401.286	304.5
401.51	298.5
401.734	310.5
401.958	296.5
402.182	312.5
402.406	323.5
402.63	318.5
402.854	305.5
403.078	326.5
403.302	296.5
403.526	316.5
403.75	330.5
403.974	314.5
404.198	304.5
404.422	321.5
404.645	313.5
404.869	340.5
405.093	341.5
405.317	368.5
405.541	382.5
405.765	343.5
405.988	332.5
406.212	334.5
406.436	360.5
406.66	351.5
406.883	323.5
407.107	343.5
407.331	359.5
407.555	412.5
407.778	404.5
408.002	370.5
408.226	360.5
408.449	343.5
408.673	329.5
408.896	357.5
409.12	370.5
409.344	351.5
409.567	306.5
409.791	313.5
410.014	328.5
410.238	301.5
410.461	305.5
410.685	327.5
410.908	321.5
411.132	343.5
411.355	358.5
411.578	348.5
411.802	314.5
412.025	314.5
412.249	336.5
412.472	317.5
412.695	356.5
412.919	315.5
413.142	317.5
413.365	293.5
413.589	305.5
413.812	303.5
414.035	302.5
414.258	272.5
414.482	281.5
414.705	312.5
414.928	288.5
415.151	310.5
415.374	293.5
415.597	271.5
415.821	300.5
416.044	273.5
416.267	308.5
416.49	302.5
416.713	307.5
416.936	298.5
417.159	297.5
417.382	288.5
417.605	296.5
417.828	296.5
418.051	314.5
418.274	285.5
418.497	294.5
418.72	291.5
418.943	311.5
419.166	296.5
419.389	297.5
419.611	301.5
419.834	288.5
420.057	308.5
420.28	300.5
420.503	289.5
420.726	312.5
420.948	319.5
421.171	354.5
421.394	348.5
421.617	327.5
421.839	314.5
422.062	308.5
422.285	324.5
422.507	376.5
422.73	392.5
422.953	388.5
423.175	333.5
423.398	322.5
423.621	320.5
423.843	340.5
424.066	328.5
424.288	332.5
424.511	343.5
424.733	370.5
424.956	414.5
425.178	409.5
425.401	423.5
425.623	400.5
425.846	356.5
426.068	342.5
426.291	329.5
426.513	318.5
426.735	339.5
426.958	356.5
427.18	426.5
427.402	492.5
427.625	545.5
427.847	485.5
428.069	432.5
428.292	377.5
428.514	339.5
428.736	321.5
428.958	316.5
429.181	316.5
429.403	318.5
429.625	288.5
429.847	350.5
430.069	389.5
430.292	378.5
430.514	336.5
430.736	316.5
430.958	302.5
431.18	301.5
431.402	301.5
431.624	282.5
431.846	275.5
432.068	284.5
432.29	306.5
432.512	301.5
432.734	296.5
432.956	297.5
433.178	292.5
433.4	292.5
433.622	293.5
433.844	272.5
434.066	277.5
434.287	286.5
434.509	290.5
434.731	318.5
434.953	308.5
435.175	330.5
435.397	338.5
435.618	343.5
435.84	383.5
436.062	420.5
436.284	449.5
436.505	370.5
436.727	354.5
436.949	316.5
437.17	312.5
437.392	315.5
437.614	319.5
437.835	346.5
438.057	409.5
438.278	459.5
438.5	464.5
438.721	511.5
438.943	469.5
439.165	369.5
439.386	361.5
439.608	361.5
439.829	346.5
440.05	359.5
440.272	386.5
440.493	366.5
440.715	333.5
440.936	330.5
441.158	300.5
441.379	311.5
441.6	333.5
441.822	328.5
442.043	361.5
442.264	436.5
442.486	420.5
442.707	368.5
442.928	359.5
443.149	350.5
443.371	364.5
443.592	378.5
443.813	445.5
444.034	476.5
444.255	382.5
444.476	348.5
444.698	310.5
444.919	340.5
445.14	446.5
445.361	382.5
445.582	375.5
445.803	398.5
446.024	474.5
446.245	451.5
446.466	428.5
446.687	386.5
446.908	348.5
447.129	348.5
447.35	322.5
447.571	332.5
447.792	318.5
448.013	317.5
448.234	330.5
448.455	370.5
448.675	422.5
448.896	486.5
449.117	420.5
449.338	396.5
449.559	474.5
449.779	518.5
450	405.5
450.221	348.5
450.442	328.5
450.662	321.5
450.883	323.5
451.104	339.5
451.324	338.5
451.545	310.5
451.766	292.5
451.986	291.5
452.207	295.5
452.428	273.5
452.648	292.5
452.869	290.5
453.089	289.5
453.31	305.5
453.53	279.5
453.751	284.5
453.971	297.5
454.192	294.5
454.412	288.5
454.633	277.5
454.853	283.5
455.073	285.5
455.294	321.5
455.514	338.5
455.734	324.5
455.955	298.5
456.175	249.5
456.395	276.5
456.616	264.5
456.836	262.5
457.056	263.5
457.276	265.5
457.497	257.5
457.717	263.5
457.937	270.5
458.157	258.5
458.377	288.5
458.598	289.5
458.818	330.5
459.038	376.5
459.258	388.5
459.478	335.5
459.698	308.5
459.918	302.5
460.138	300.5
460.358	265.5
460.578	281.5
460.798	284.5
461.018	292.5
461.238	305.5
461.458	300.5
461.678	273.5
461.898	288.5
462.118	290.5
462.338	280.5
462.558	303.5
462.777	301.5
462.997	323.5
463.217	289.5
463.437	293.5
463.657	307.5
463.876	301.5
464.096	305.5
464.316	310.5
464.536	327.5
464.755	320.5
464.975	316.5
465.195	343.5
465.414	398.5
465.634	363.5
465.854	324.5
466.073	285.5
466.293	299.5
466.512	292.5
466.732	276.5
466.951	278.5
467.171	290.5
467.391	289.5
467.61	294.5
467.829	295.5
468.049	301.5
468.268	282.5
468.488	302.5
468.707	267.5
468.927	271.5
469.146	267.5
469.365	289.5
469.585	281.5
469.804	293.5
470.023	292.5
470.243	283.5
470.462	286.5
470.681	311.5
470.901	305.5
471.12	310.5
471.339	286.5
471.558	298.5
471.777	290.5
471.997	289.5
472.216	300.5
472.435	309.5
472.654	306.5
472.873	307.5
473.092	284.5
473.311	291.5
473.53	283.5
473.749	302.5
473.968	336.5
474.187	377.5
474.406	412.5
474.625	343.5
474.844	304.5
475.063	324.5
475.282	308.5
475.501	306.5
475.72	313.5
475.939	283.5
476.158	283.5
476.377	287.5
476.596	283.5
476.814	308.5
477.033	297.5
477.252	307.5
477.471	306.5
477.69	295.5
477.908	300.5
478.127	311.5
478.346	303.5
478.564	336.5
478.783	326.5
479.002	312.5
479.22	316.5
479.439	319.5
479.658	345.5
479.876	341.5
480.095	335.5
480.313	366.5
480.532	353.5
480.751	356.5
480.969	336.5
481.188	397.5
481.406	400.5
481.624	378.5
481.843	341.5
482.061	332.5
482.28	344.5
482.498	330.5
482.717	333.5
482.935	334.5
483.153	342.5
483.372	348.5
483.59	333.5
483.808	340.5
484.027	332.5
484.245	343.5
484.463	329.5
484.681	345.5
484.9	336.5
485.118	319.5
485.336	343.5
485.554	348.5
485.772	327.5
485.99	345.5
486.209	346.5
486.427	358.5
486.645	353.5
486.863	378.5
487.081	382.5
487.299	358.5
487.517	372.5
487.735	345.5
487.953	343.5
488.171	391.5
488.389	362.5
488.607	366.5
488.825	353.5
489.043	356.5
489.261	361.5
489.479	358.5
489.696	367.5
489.914	376.5
490.132	363.5
490.35	365.5
490.568	368.5
490.786	376.5
491.003	385.5
491.221	392.5
491.439	402.5
491.657	393.5
491.874	414.5
492.092	388.5
492.31	412.5
492.527	421.5
492.745	405.5
492.963	407.5
493.18	425.5
493.398	407.5
493.615	426.5
493.833	422.5
494.05	422.5
494.268	402.5
494.485	425.5
494.703	437.5
494.92	402.5
495.138	427.5
495.355	430.5
495.573	412.5
495.79	433.5
496.008	424.5
496.225	422.5
496.442	410.5
496.66	435.5
496.877	420.5
497.094	411.5
497.312	420.5
497.529	426.5
497.746	453.5
497.963	432.5
498.181	457.5
498.398	444.5
498.615	450.5
498.832	466.5
499.049	468.5
499.267	452.5
499.484	461.5
499.701	487.5
499.918	489.5
500.135	510.5
500.352	522.5
500.569	517.5
500.786	493.5
501.003	519.5
501.22	525.5
501.437	502.5
501.654	508.5
501.871	500.5
502.088	487.5
502.305	490.5
502.522	458.5
502.739	454.5
502.956	439.5
503.172	432.5
503.389	448.5
503.606	431.5
503.823	439.5
504.04	441.5
504.256	430.5
504.473	418.5
504.69	403.5
504.907	416.5
505.123	393.5
505.34	408.5
505.557	399.5
505.773	374.5
505.99	412.5
506.207	384.5
506.423	404.5
506.64	393.5
506.856	392.5
507.073	392.5
507.289	409.5
507.506	408.5
507.722	400.5
507.939	423.5
508.155	418.5
508.372	412.5
508.588	420.5
508.805	374.5
509.021	394.5
509.238	409.5
509.454	416.5
509.67	413.5
509.887	406.5
510.103	402.5
510.319	399.5
510.536	489.5
510.752	796.5
510.968	614.5
511.184	408.5
511.401	390.5
511.617	388.5
511.833	367.5
512.049	393.5
512.265	387.5
512.481	372.5
512.698	356.5
512.914	369.5
513.13	372.5
513.346	374.5
513.562	400.5
513.778	388.5
513.994	388.5
514.21	386.5
514.426	421.5
514.642	432.5
514.858	454.5
515.074	485.5
515.29	589.5
515.506	860.5
515.721	677.5
515.937	472.5
516.153	432.5
516.369	388.5
516.585	404.5
516.801	378.5
517.016	383.5
517.232	395.5
517.448	384.5
517.664	386.5
517.879	390.5
518.095	380.5
518.311	372.5
518.527	382.5
518.742	369.5
518.958	381.5
519.173	374.5
519.389	370.5
519.605	354.5
519.82	374.5
520.036	376.5
520.251	394.5
