Data from 1982.PennyLincolnUp.Lamp.En5.5.200Scan.071819.P1_HRD10591_16-45-18-961.txt Node
Date: Thu Jul 18 16:45:18 EDT 2019
User: cochatt
Spectrometer: HR+D1059
Trigger mode: 1
Integration Time (sec): 1.000000E-1
Scans to average: 1
Electric dark correction enabled: true
Nonlinearity correction enabled: false
Boxcar width: 0
XAxis mode: Wavelengths
Number of Pixels in Spectrum: 2048
>>>>>Begin Spectral Data<<<<<
223.165	-11.75
223.4	-11.75
223.635	-11.75
223.869	-10.75
224.104	-33.75
224.338	-6.75
224.573	-19.75
224.808	-13.75
225.042	3.25
225.277	-4.75
225.511	-10.75
225.746	7.25
225.98	-1.75
226.215	15.25
226.449	13.25
226.683	23.25
226.918	18.25
227.152	33.25
227.387	44.25
227.621	41.25
227.856	41.25
228.09	44.25
228.324	48.25
228.559	44.25
228.793	66.25
229.027	78.25
229.262	73.25
229.496	95.25
229.73	90.25
229.964	119.25
230.199	108.25
230.433	92.25
230.667	105.25
230.901	81.25
231.136	104.25
231.37	105.25
231.604	103.25
231.838	96.25
232.072	114.25
232.306	85.25
232.541	114.25
232.775	99.25
233.009	94.25
233.243	106.25
233.477	94.25
233.711	107.25
233.945	109.25
234.179	99.25
234.413	98.25
234.647	93.25
234.881	98.25
235.115	102.25
235.349	97.25
235.583	110.25
235.817	122.25
236.051	103.25
236.285	100.25
236.519	114.25
236.753	112.25
236.987	122.25
237.221	127.25
237.455	166.25
237.689	122.25
237.922	108.25
238.156	123.25
238.39	107.25
238.624	100.25
238.858	97.25
239.091	104.25
239.325	108.25
239.559	103.25
239.793	120.25
240.027	102.25
240.26	93.25
240.494	125.25
240.728	121.25
240.961	119.25
241.195	111.25
241.429	108.25
241.662	102.25
241.896	136.25
242.13	108.25
242.363	89.25
242.597	110.25
242.83	111.25
243.064	110.25
243.298	107.25
243.531	116.25
243.765	104.25
243.998	117.25
244.232	98.25
244.465	108.25
244.699	114.25
244.932	122.25
245.166	116.25
245.399	105.25
245.633	105.25
245.866	114.25
246.099	114.25
246.333	121.25
246.566	127.25
246.8	102.25
247.033	132.25
247.266	131.25
247.5	126.25
247.733	131.25
247.966	137.25
248.2	149.25
248.433	144.25
248.666	129.25
248.899	148.25
249.133	148.25
249.366	164.25
249.599	151.25
249.832	158.25
250.066	133.25
250.299	155.25
250.532	142.25
250.765	149.25
250.998	159.25
251.231	152.25
251.465	156.25
251.698	151.25
251.931	148.25
252.164	142.25
252.397	136.25
252.63	135.25
252.863	158.25
253.096	163.25
253.329	161.25
253.562	160.25
253.795	167.25
254.028	159.25
254.261	173.25
254.494	178.25
254.727	183.25
254.96	181.25
255.193	199.25
255.426	185.25
255.659	173.25
255.892	167.25
256.124	177.25
256.357	162.25
256.59	169.25
256.823	161.25
257.056	160.25
257.289	147.25
257.521	164.25
257.754	134.25
257.987	166.25
258.22	159.25
258.452	157.25
258.685	152.25
258.918	157.25
259.151	160.25
259.383	172.25
259.616	159.25
259.849	164.25
260.081	185.25
260.314	168.25
260.547	187.25
260.779	161.25
261.012	172.25
261.244	172.25
261.477	181.25
261.71	159.25
261.942	185.25
262.175	171.25
262.407	169.25
262.64	166.25
262.872	159.25
263.105	160.25
263.337	145.25
263.57	147.25
263.802	162.25
264.035	158.25
264.267	151.25
264.499	171.25
264.732	155.25
264.964	165.25
265.197	158.25
265.429	158.25
265.661	157.25
265.894	153.25
266.126	175.25
266.358	157.25
266.591	161.25
266.823	162.25
267.055	179.25
267.287	166.25
267.52	163.25
267.752	183.25
267.984	169.25
268.216	171.25
268.448	183.25
268.681	185.25
268.913	188.25
269.145	214.25
269.377	191.25
269.609	198.25
269.841	186.25
270.073	189.25
270.306	214.25
270.538	202.25
270.77	213.25
271.002	220.25
271.234	196.25
271.466	215.25
271.698	228.25
271.93	223.25
272.162	220.25
272.394	213.25
272.626	219.25
272.858	223.25
273.09	204.25
273.322	197.25
273.553	171.25
273.785	188.25
274.017	190.25
274.249	184.25
274.481	191.25
274.713	195.25
274.945	186.25
275.176	203.25
275.408	192.25
275.64	202.25
275.872	194.25
276.104	201.25
276.335	187.25
276.567	199.25
276.799	200.25
277.031	235.25
277.262	239.25
277.494	230.25
277.726	209.25
277.957	220.25
278.189	208.25
278.421	199.25
278.652	195.25
278.884	195.25
279.115	190.25
279.347	182.25
279.579	214.25
279.81	191.25
280.042	193.25
280.273	177.25
280.505	191.25
280.736	205.25
280.968	191.25
281.199	193.25
281.431	193.25
281.662	182.25
281.894	212.25
282.125	205.25
282.356	203.25
282.588	215.25
282.819	223.25
283.051	206.25
283.282	197.25
283.513	211.25
283.745	194.25
283.976	205.25
284.207	201.25
284.439	206.25
284.67	197.25
284.901	187.25
285.132	205.25
285.364	209.25
285.595	201.25
285.826	193.25
286.057	206.25
286.288	197.25
286.52	205.25
286.751	204.25
286.982	202.25
287.213	207.25
287.444	202.25
287.675	213.25
287.906	204.25
288.138	229.25
288.369	205.25
288.6	206.25
288.831	209.25
289.062	201.25
289.293	207.25
289.524	186.25
289.755	204.25
289.986	204.25
290.217	214.25
290.448	206.25
290.679	197.25
290.91	212.25
291.141	206.25
291.371	202.25
291.602	211.25
291.833	212.25
292.064	204.25
292.295	208.25
292.526	197.25
292.757	197.25
292.987	200.25
293.218	201.25
293.449	198.25
293.68	191.25
293.91	203.25
294.141	193.25
294.372	199.25
294.603	221.25
294.833	212.25
295.064	203.25
295.295	209.25
295.525	223.25
295.756	218.25
295.987	237.25
296.217	222.25
296.448	219.25
296.679	220.25
296.909	216.25
297.14	210.25
297.37	219.25
297.601	212.25
297.831	211.25
298.062	211.25
298.292	210.25
298.523	235.25
298.753	205.25
298.984	214.25
299.214	205.25
299.445	199.25
299.675	212.25
299.905	224.25
300.136	206.25
300.366	214.25
300.597	220.25
300.827	210.25
301.057	218.25
301.288	227.25
301.518	231.25
301.748	226.25
301.979	218.25
302.209	233.25
302.439	226.25
302.669	227.25
302.9	221.25
303.13	224.25
303.36	218.25
303.59	238.25
303.82	231.25
304.051	223.25
304.281	228.25
304.511	239.25
304.741	237.25
304.971	222.25
305.201	225.25
305.431	212.25
305.661	231.25
305.891	211.25
306.121	225.25
306.352	245.25
306.582	235.25
306.812	233.25
307.042	225.25
307.272	243.25
307.502	247.25
307.731	237.25
307.961	225.25
308.191	229.25
308.421	230.25
308.651	221.25
308.881	241.25
309.111	248.25
309.341	235.25
309.571	241.25
309.8	249.25
310.03	247.25
310.26	283.25
310.49	282.25
310.72	255.25
310.949	286.25
311.179	274.25
311.409	260.25
311.639	260.25
311.868	259.25
312.098	253.25
312.328	266.25
312.557	295.25
312.787	277.25
313.017	280.25
313.246	277.25
313.476	255.25
313.706	275.25
313.935	276.25
314.165	277.25
314.394	259.25
314.624	266.25
314.853	275.25
315.083	283.25
315.312	270.25
315.542	263.25
315.771	260.25
316.001	264.25
316.23	253.25
316.46	255.25
316.689	264.25
316.919	271.25
317.148	260.25
317.377	274.25
317.607	280.25
317.836	247.25
318.065	252.25
318.295	274.25
318.524	244.25
318.753	260.25
318.983	271.25
319.212	257.25
319.441	276.25
319.67	286.25
319.9	257.25
320.129	278.25
320.358	277.25
320.587	253.25
320.816	285.25
321.046	289.25
321.275	277.25
321.504	267.25
321.733	297.25
321.962	283.25
322.191	299.25
322.42	294.25
322.649	306.25
322.878	328.25
323.108	334.25
323.337	325.25
323.566	376.25
323.795	350.25
324.024	412.25
324.253	508.25
324.482	726.25
324.71	1056.25
324.939	1354.25
325.168	1127.25
325.397	585.25
325.626	437.25
325.855	359.25
326.084	353.25
326.313	350.25
326.542	361.25
326.77	398.25
326.999	490.25
327.228	655.25
327.457	895.25
327.686	993.25
327.914	673.25
328.143	462.25
328.372	404.25
328.6	377.25
328.829	381.25
329.058	380.25
329.287	387.25
329.515	379.25
329.744	357.25
329.972	340.25
330.201	355.25
330.43	370.25
330.658	375.25
330.887	410.25
331.115	386.25
331.344	355.25
331.572	349.25
331.801	314.25
332.03	318.25
332.258	324.25
332.486	315.25
332.715	313.25
332.943	310.25
333.172	290.25
333.4	309.25
333.629	322.25
333.857	330.25
334.085	322.25
334.314	318.25
334.542	360.25
334.771	340.25
334.999	313.25
335.227	315.25
335.455	331.25
335.684	300.25
335.912	305.25
336.14	291.25
336.369	310.25
336.597	305.25
336.825	308.25
337.053	298.25
337.281	286.25
337.51	307.25
337.738	313.25
337.966	292.25
338.194	291.25
338.422	307.25
338.65	282.25
338.878	301.25
339.106	295.25
339.334	299.25
339.562	269.25
339.79	296.25
340.018	273.25
340.246	295.25
340.474	294.25
340.702	286.25
340.93	271.25
341.158	302.25
341.386	280.25
341.614	269.25
341.842	295.25
342.07	275.25
342.298	258.25
342.526	292.25
342.754	268.25
342.981	267.25
343.209	271.25
343.437	308.25
343.665	281.25
343.893	290.25
344.12	309.25
344.348	284.25
344.576	309.25
344.804	287.25
345.031	304.25
345.259	295.25
345.487	281.25
345.714	270.25
345.942	278.25
346.17	294.25
346.397	277.25
346.625	299.25
346.853	287.25
347.08	295.25
347.308	283.25
347.535	270.25
347.763	297.25
347.99	271.25
348.218	278.25
348.445	296.25
348.673	286.25
348.9	274.25
349.128	278.25
349.355	287.25
349.583	276.25
349.81	284.25
350.037	267.25
350.265	267.25
350.492	271.25
350.72	285.25
350.947	288.25
351.174	283.25
351.402	293.25
351.629	295.25
351.856	286.25
352.083	280.25
352.311	281.25
352.538	293.25
352.765	284.25
352.992	278.25
353.22	277.25
353.447	264.25
353.674	271.25
353.901	287.25
354.128	257.25
354.355	263.25
354.583	266.25
354.81	259.25
355.037	255.25
355.264	275.25
355.491	271.25
355.718	254.25
355.945	254.25
356.172	255.25
356.399	247.25
356.626	246.25
356.853	268.25
357.08	260.25
357.307	242.25
357.534	273.25
357.761	246.25
357.988	261.25
358.215	241.25
358.441	243.25
358.668	278.25
358.895	268.25
359.122	268.25
359.349	268.25
359.576	291.25
359.802	303.25
360.029	317.25
360.256	323.25
360.483	305.25
360.709	293.25
360.936	279.25
361.163	285.25
361.39	285.25
361.616	273.25
361.843	276.25
362.07	268.25
362.296	279.25
362.523	261.25
362.749	263.25
362.976	265.25
363.203	265.25
363.429	267.25
363.656	265.25
363.882	249.25
364.109	262.25
364.335	262.25
364.562	270.25
364.788	255.25
365.015	250.25
365.241	267.25
365.468	263.25
365.694	254.25
365.92	270.25
366.147	276.25
366.373	261.25
366.599	252.25
366.826	252.25
367.052	244.25
367.278	246.25
367.505	271.25
367.731	270.25
367.957	267.25
368.184	274.25
368.41	253.25
368.636	272.25
368.862	264.25
369.089	282.25
369.315	266.25
369.541	249.25
369.767	237.25
369.993	271.25
370.219	275.25
370.445	267.25
370.672	253.25
370.898	252.25
371.124	261.25
371.35	246.25
371.576	254.25
371.802	255.25
372.028	262.25
372.254	256.25
372.48	258.25
372.706	258.25
372.932	254.25
373.158	251.25
373.384	267.25
373.61	242.25
373.835	263.25
374.061	254.25
374.287	283.25
374.513	262.25
374.739	284.25
374.965	282.25
375.191	264.25
375.416	250.25
375.642	250.25
375.868	261.25
376.094	268.25
376.319	249.25
376.545	266.25
376.771	250.25
376.997	234.25
377.222	252.25
377.448	262.25
377.674	260.25
377.899	234.25
378.125	261.25
378.35	250.25
378.576	260.25
378.802	250.25
379.027	230.25
379.253	247.25
379.478	263.25
379.704	252.25
379.929	251.25
380.155	250.25
380.38	244.25
380.606	246.25
380.831	260.25
381.057	260.25
381.282	221.25
381.507	265.25
381.733	251.25
381.958	257.25
382.184	259.25
382.409	253.25
382.634	260.25
382.86	256.25
383.085	247.25
383.31	280.25
383.535	267.25
383.761	262.25
383.986	272.25
384.211	249.25
384.436	247.25
384.662	259.25
384.887	257.25
385.112	258.25
385.337	261.25
385.562	268.25
385.787	261.25
386.013	263.25
386.238	278.25
386.463	265.25
386.688	267.25
386.913	267.25
387.138	257.25
387.363	280.25
387.588	247.25
387.813	263.25
388.038	246.25
388.263	270.25
388.488	269.25
388.713	259.25
388.938	259.25
389.163	267.25
389.387	258.25
389.612	258.25
389.837	267.25
390.062	265.25
390.287	235.25
390.512	258.25
390.736	284.25
390.961	270.25
391.186	256.25
391.411	277.25
391.636	270.25
391.86	265.25
392.085	247.25
392.31	264.25
392.534	278.25
392.759	277.25
392.984	267.25
393.208	279.25
393.433	277.25
393.658	257.25
393.882	276.25
394.107	265.25
394.331	264.25
394.556	269.25
394.78	285.25
395.005	268.25
395.229	266.25
395.454	277.25
395.678	263.25
395.903	256.25
396.127	314.25
396.352	300.25
396.576	272.25
396.801	268.25
397.025	289.25
397.249	294.25
397.474	268.25
397.698	271.25
397.922	283.25
398.147	286.25
398.371	295.25
398.595	279.25
398.82	286.25
399.044	287.25
399.268	285.25
399.492	315.25
399.717	325.25
399.941	341.25
400.165	324.25
400.389	347.25
400.613	329.25
400.837	315.25
401.062	303.25
401.286	307.25
401.51	289.25
401.734	292.25
401.958	293.25
402.182	301.25
402.406	313.25
402.63	308.25
402.854	321.25
403.078	293.25
403.302	293.25
403.526	302.25
403.75	298.25
403.974	303.25
404.198	301.25
404.422	299.25
404.645	289.25
404.869	298.25
405.093	327.25
405.317	354.25
405.541	360.25
405.765	316.25
405.988	314.25
406.212	311.25
406.436	354.25
406.66	353.25
406.883	320.25
407.107	347.25
407.331	353.25
407.555	377.25
407.778	389.25
408.002	345.25
408.226	330.25
408.449	325.25
408.673	319.25
408.896	347.25
409.12	364.25
409.344	335.25
409.567	306.25
409.791	305.25
410.014	307.25
410.238	302.25
410.461	291.25
410.685	300.25
410.908	318.25
411.132	349.25
411.355	339.25
411.578	329.25
411.802	302.25
412.025	310.25
412.249	285.25
412.472	308.25
412.695	339.25
412.919	316.25
413.142	295.25
413.365	281.25
413.589	270.25
413.812	291.25
414.035	283.25
414.258	288.25
414.482	295.25
414.705	281.25
414.928	293.25
415.151	284.25
415.374	275.25
415.597	286.25
415.821	293.25
416.044	266.25
416.267	293.25
416.49	266.25
416.713	286.25
416.936	290.25
417.159	271.25
417.382	269.25
417.605	291.25
417.828	298.25
418.051	286.25
418.274	267.25
418.497	280.25
418.72	278.25
418.943	297.25
419.166	298.25
419.389	279.25
419.611	296.25
419.834	286.25
420.057	292.25
420.28	298.25
420.503	303.25
420.726	278.25
420.948	297.25
421.171	311.25
421.394	362.25
421.617	309.25
421.839	301.25
422.062	318.25
422.285	316.25
422.507	341.25
422.73	367.25
422.953	359.25
423.175	319.25
423.398	305.25
423.621	300.25
423.843	320.25
424.066	328.25
424.288	306.25
424.511	327.25
424.733	364.25
424.956	394.25
425.178	409.25
425.401	393.25
425.623	398.25
425.846	340.25
426.068	326.25
426.291	316.25
426.513	334.25
426.735	335.25
426.958	352.25
427.18	409.25
427.402	452.25
427.625	522.25
427.847	473.25
428.069	397.25
428.292	338.25
428.514	327.25
428.736	312.25
428.958	311.25
429.181	294.25
429.403	289.25
429.625	313.25
429.847	321.25
430.069	355.25
430.292	350.25
430.514	301.25
430.736	291.25
430.958	307.25
431.18	289.25
431.402	269.25
431.624	272.25
431.846	275.25
432.068	279.25
432.29	283.25
432.512	293.25
432.734	289.25
432.956	293.25
433.178	284.25
433.4	299.25
433.622	293.25
433.844	271.25
434.066	293.25
434.287	292.25
434.509	307.25
434.731	282.25
434.953	287.25
435.175	296.25
435.397	317.25
435.618	304.25
435.84	341.25
436.062	404.25
436.284	461.25
436.505	365.25
436.727	334.25
436.949	311.25
437.17	310.25
437.392	290.25
437.614	307.25
437.835	331.25
438.057	382.25
438.278	431.25
438.5	443.25
438.721	474.25
438.943	446.25
439.165	359.25
439.386	337.25
439.608	332.25
439.829	321.25
440.05	349.25
440.272	364.25
440.493	359.25
440.715	318.25
440.936	301.25
441.158	290.25
441.379	295.25
441.6	325.25
441.822	323.25
442.043	353.25
442.264	373.25
442.486	420.25
442.707	335.25
442.928	329.25
443.149	339.25
443.371	344.25
443.592	381.25
443.813	415.25
444.034	436.25
444.255	380.25
444.476	343.25
444.698	327.25
444.919	313.25
445.14	408.25
445.361	360.25
445.582	353.25
445.803	386.25
446.024	432.25
446.245	437.25
446.466	409.25
446.687	345.25
446.908	318.25
447.129	307.25
447.35	316.25
447.571	289.25
447.792	282.25
448.013	293.25
448.234	326.25
448.455	341.25
448.675	409.25
448.896	453.25
449.117	386.25
449.338	380.25
449.559	429.25
449.779	473.25
450	388.25
450.221	333.25
450.442	309.25
450.662	298.25
450.883	320.25
451.104	319.25
451.324	291.25
451.545	272.25
451.766	285.25
451.986	296.25
452.207	270.25
452.428	257.25
452.648	266.25
452.869	284.25
453.089	294.25
453.31	275.25
453.53	295.25
453.751	276.25
453.971	285.25
454.192	293.25
454.412	287.25
454.633	264.25
454.853	269.25
455.073	263.25
455.294	277.25
455.514	328.25
455.734	298.25
455.955	265.25
456.175	286.25
456.395	254.25
456.616	252.25
456.836	241.25
457.056	247.25
457.276	233.25
457.497	253.25
457.717	245.25
457.937	255.25
458.157	265.25
458.377	265.25
458.598	271.25
458.818	322.25
459.038	372.25
459.258	362.25
459.478	315.25
459.698	290.25
459.918	279.25
460.138	281.25
460.358	273.25
460.578	294.25
460.798	281.25
461.018	287.25
461.238	280.25
461.458	279.25
461.678	274.25
461.898	277.25
462.118	278.25
462.338	287.25
462.558	298.25
462.777	289.25
462.997	302.25
463.217	294.25
463.437	298.25
463.657	275.25
463.876	289.25
464.096	286.25
464.316	293.25
464.536	305.25
464.755	308.25
464.975	294.25
465.195	338.25
465.414	364.25
465.634	321.25
465.854	315.25
466.073	295.25
466.293	296.25
466.512	293.25
466.732	273.25
466.951	280.25
467.171	280.25
467.391	296.25
467.61	297.25
467.829	286.25
468.049	279.25
468.268	286.25
468.488	286.25
468.707	284.25
468.927	279.25
469.146	278.25
469.365	268.25
469.585	273.25
469.804	273.25
470.023	285.25
470.243	283.25
470.462	278.25
470.681	286.25
470.901	289.25
471.12	271.25
471.339	278.25
471.558	270.25
471.777	280.25
471.997	265.25
472.216	266.25
472.435	305.25
472.654	299.25
472.873	280.25
473.092	262.25
473.311	283.25
473.53	272.25
473.749	294.25
473.968	318.25
474.187	342.25
474.406	366.25
474.625	311.25
474.844	288.25
475.063	278.25
475.282	278.25
475.501	280.25
475.72	275.25
475.939	297.25
476.158	275.25
476.377	285.25
476.596	286.25
476.814	288.25
477.033	291.25
477.252	285.25
477.471	295.25
477.69	302.25
477.908	303.25
478.127	291.25
478.346	307.25
478.564	289.25
478.783	314.25
479.002	331.25
479.22	319.25
479.439	325.25
479.658	325.25
479.876	340.25
480.095	324.25
480.313	330.25
480.532	322.25
480.751	336.25
480.969	334.25
481.188	374.25
481.406	374.25
481.624	345.25
481.843	323.25
482.061	324.25
482.28	326.25
482.498	339.25
482.717	321.25
482.935	324.25
483.153	309.25
483.372	319.25
483.59	342.25
483.808	338.25
484.027	314.25
484.245	332.25
484.463	330.25
484.681	335.25
484.9	321.25
485.118	335.25
485.336	322.25
485.554	344.25
485.772	344.25
485.99	332.25
486.209	331.25
486.427	332.25
486.645	347.25
486.863	338.25
487.081	327.25
487.299	343.25
487.517	353.25
487.735	345.25
487.953	349.25
488.171	345.25
488.389	334.25
488.607	357.25
488.825	346.25
489.043	341.25
489.261	349.25
489.479	341.25
489.696	350.25
489.914	364.25
490.132	359.25
490.35	363.25
490.568	348.25
490.786	378.25
491.003	363.25
491.221	363.25
491.439	372.25
491.657	385.25
491.874	369.25
492.092	375.25
492.31	362.25
492.527	385.25
492.745	385.25
492.963	404.25
493.18	385.25
493.398	382.25
493.615	382.25
493.833	383.25
494.05	394.25
494.268	385.25
494.485	397.25
494.703	398.25
494.92	375.25
495.138	390.25
495.355	400.25
495.573	393.25
495.79	390.25
496.008	413.25
496.225	405.25
496.442	379.25
496.66	379.25
496.877	403.25
497.094	406.25
497.312	382.25
497.529	391.25
497.746	443.25
497.963	414.25
498.181	425.25
498.398	455.25
498.615	443.25
498.832	430.25
499.049	445.25
499.267	443.25
499.484	469.25
499.701	473.25
499.918	468.25
500.135	514.25
500.352	508.25
500.569	499.25
500.786	503.25
501.003	486.25
501.22	490.25
501.437	501.25
501.654	475.25
501.871	497.25
502.088	464.25
502.305	451.25
