Data from 1982.PennyLincolnUp.Lamp.En5.5.200Scan.071819.P1_HRD10591_16-46-59-962.txt Node
Date: Thu Jul 18 16:46:59 EDT 2019
User: cochatt
Spectrometer: HR+D1059
Trigger mode: 1
Integration Time (sec): 1.000000E-1
Scans to average: 1
Electric dark correction enabled: true
Nonlinearity correction enabled: false
Boxcar width: 0
XAxis mode: Wavelengths
Number of Pixels in Spectrum: 2048
>>>>>Begin Spectral Data<<<<<
223.165	-21.88
223.4	-21.88
223.635	-21.88
223.869	-19.88
224.104	-19.88
224.338	-19.88
224.573	-8.88
224.808	-10.88
225.042	-8.88
225.277	-7.88
225.511	-2.88
225.746	3.12
225.98	8.12
226.215	12.12
226.449	9.12
226.683	17.12
226.918	46.12
227.152	25.12
227.387	39.12
227.621	38.12
227.856	43.12
228.09	50.12
228.324	43.12
228.559	55.12
228.793	49.12
229.027	92.12
229.262	94.12
229.496	93.12
229.73	121.12
229.964	118.12
230.199	125.12
230.433	108.12
230.667	95.12
230.901	88.12
231.136	112.12
231.37	109.12
231.604	93.12
231.838	106.12
232.072	100.12
232.306	101.12
232.541	112.12
232.775	87.12
233.009	108.12
233.243	105.12
233.477	103.12
233.711	91.12
233.945	106.12
234.179	108.12
234.413	108.12
234.647	116.12
234.881	102.12
235.115	100.12
235.349	109.12
235.583	107.12
235.817	99.12
236.051	116.12
236.285	117.12
236.519	108.12
236.753	123.12
236.987	133.12
237.221	149.12
237.455	162.12
237.689	144.12
237.922	122.12
238.156	110.12
238.39	95.12
238.624	109.12
238.858	118.12
239.091	108.12
239.325	88.12
239.559	94.12
239.793	108.12
240.027	129.12
240.26	126.12
240.494	125.12
240.728	134.12
240.961	130.12
241.195	122.12
241.429	109.12
241.662	109.12
241.896	119.12
242.13	103.12
242.363	110.12
242.597	132.12
242.83	125.12
243.064	123.12
243.298	121.12
243.531	119.12
243.765	122.12
243.998	116.12
244.232	130.12
244.465	121.12
244.699	125.12
244.932	114.12
245.166	139.12
245.399	129.12
245.633	115.12
245.866	126.12
246.099	113.12
246.333	119.12
246.566	144.12
246.8	130.12
247.033	134.12
247.266	131.12
247.5	135.12
247.733	138.12
247.966	134.12
248.2	153.12
248.433	154.12
248.666	153.12
248.899	142.12
249.133	155.12
249.366	166.12
249.599	177.12
249.832	162.12
250.066	140.12
250.299	143.12
250.532	160.12
250.765	168.12
250.998	186.12
251.231	193.12
251.465	179.12
251.698	179.12
251.931	170.12
252.164	163.12
252.397	153.12
252.63	157.12
252.863	158.12
253.096	180.12
253.329	168.12
253.562	182.12
253.795	189.12
254.028	177.12
254.261	164.12
254.494	198.12
254.727	215.12
254.96	217.12
255.193	215.12
255.426	188.12
255.659	191.12
255.892	193.12
256.124	177.12
256.357	191.12
256.59	179.12
256.823	181.12
257.056	161.12
257.289	185.12
257.521	173.12
257.754	164.12
257.987	177.12
258.22	167.12
258.452	168.12
258.685	165.12
258.918	174.12
259.151	177.12
259.383	179.12
259.616	169.12
259.849	185.12
260.081	188.12
260.314	196.12
260.547	191.12
260.779	201.12
261.012	203.12
261.244	194.12
261.477	179.12
261.71	185.12
261.942	182.12
262.175	197.12
262.407	189.12
262.64	170.12
262.872	161.12
263.105	179.12
263.337	188.12
263.57	169.12
263.802	165.12
264.035	155.12
264.267	166.12
264.499	177.12
264.732	177.12
264.964	157.12
265.197	179.12
265.429	183.12
265.661	170.12
265.894	180.12
266.126	188.12
266.358	177.12
266.591	173.12
266.823	179.12
267.055	189.12
267.287	208.12
267.52	185.12
267.752	180.12
267.984	175.12
268.216	177.12
268.448	187.12
268.681	202.12
268.913	204.12
269.145	199.12
269.377	232.12
269.609	226.12
269.841	215.12
270.073	232.12
270.306	245.12
270.538	267.12
270.77	245.12
271.002	237.12
271.234	235.12
271.466	239.12
271.698	261.12
271.93	277.12
272.162	262.12
272.394	251.12
272.626	247.12
272.858	221.12
273.09	205.12
273.322	229.12
273.553	212.12
273.785	206.12
274.017	206.12
274.249	216.12
274.481	216.12
274.713	219.12
274.945	221.12
275.176	216.12
275.408	215.12
275.64	213.12
275.872	193.12
276.104	215.12
276.335	214.12
276.567	204.12
276.799	233.12
277.031	229.12
277.262	242.12
277.494	237.12
277.726	243.12
277.957	223.12
278.189	210.12
278.421	218.12
278.652	222.12
278.884	217.12
279.115	209.12
279.347	219.12
279.579	211.12
279.81	232.12
280.042	206.12
280.273	210.12
280.505	222.12
280.736	196.12
280.968	200.12
281.199	190.12
281.431	226.12
281.662	222.12
281.894	226.12
282.125	217.12
282.356	233.12
282.588	234.12
282.819	236.12
283.051	214.12
283.282	213.12
283.513	219.12
283.745	218.12
283.976	213.12
284.207	226.12
284.439	225.12
284.67	207.12
284.901	221.12
285.132	207.12
285.364	207.12
285.595	200.12
285.826	215.12
286.057	205.12
286.288	227.12
286.52	225.12
286.751	222.12
286.982	225.12
287.213	220.12
287.444	228.12
287.675	213.12
287.906	227.12
288.138	238.12
288.369	249.12
288.6	236.12
288.831	214.12
289.062	212.12
289.293	242.12
289.524	233.12
289.755	235.12
289.986	223.12
290.217	218.12
290.448	205.12
290.679	213.12
290.91	218.12
291.141	224.12
291.371	206.12
291.602	238.12
291.833	212.12
292.064	221.12
292.295	221.12
292.526	205.12
292.757	237.12
292.987	220.12
293.218	210.12
293.449	220.12
293.68	212.12
293.91	222.12
294.141	214.12
294.372	202.12
294.603	226.12
294.833	236.12
295.064	224.12
295.295	220.12
295.525	222.12
295.756	226.12
295.987	232.12
296.217	260.12
296.448	257.12
296.679	238.12
296.909	213.12
297.14	227.12
297.37	242.12
297.601	229.12
297.831	233.12
298.062	247.12
298.292	226.12
298.523	229.12
298.753	235.12
298.984	214.12
299.214	259.12
299.445	223.12
299.675	224.12
299.905	245.12
300.136	231.12
300.366	261.12
300.597	258.12
300.827	263.12
301.057	247.12
301.288	266.12
301.518	240.12
301.748	249.12
301.979	227.12
302.209	253.12
302.439	253.12
302.669	258.12
302.9	248.12
303.13	245.12
303.36	250.12
303.59	260.12
303.82	263.12
304.051	252.12
304.281	243.12
304.511	245.12
304.741	240.12
304.971	236.12
305.201	259.12
305.431	252.12
305.661	239.12
305.891	265.12
306.121	256.12
306.352	256.12
306.582	267.12
306.812	258.12
307.042	257.12
307.272	257.12
307.502	257.12
307.731	275.12
307.961	246.12
308.191	234.12
308.421	265.12
308.651	253.12
308.881	237.12
309.111	247.12
309.341	279.12
309.571	281.12
309.8	286.12
310.03	292.12
310.26	285.12
310.49	286.12
310.72	307.12
310.949	329.12
311.179	307.12
311.409	298.12
311.639	303.12
311.868	288.12
312.098	300.12
312.328	306.12
312.557	303.12
312.787	310.12
313.017	305.12
313.246	303.12
313.476	298.12
313.706	302.12
313.935	311.12
314.165	306.12
314.394	311.12
314.624	293.12
314.853	298.12
315.083	310.12
315.312	288.12
315.542	306.12
315.771	289.12
316.001	283.12
316.23	284.12
316.46	274.12
316.689	294.12
316.919	279.12
317.148	308.12
317.377	297.12
317.607	293.12
317.836	309.12
318.065	283.12
318.295	287.12
318.524	294.12
318.753	287.12
318.983	300.12
319.212	278.12
319.441	285.12
319.67	308.12
319.9	295.12
320.129	297.12
320.358	306.12
320.587	294.12
320.816	300.12
321.046	326.12
321.275	301.12
321.504	317.12
321.733	309.12
321.962	306.12
322.191	338.12
322.42	322.12
322.649	339.12
322.878	369.12
323.108	397.12
323.337	390.12
323.566	424.12
323.795	455.12
324.024	500.12
324.253	625.12
324.482	885.12
324.71	1382.12
324.939	1790.12
325.168	1479.12
325.397	773.12
325.626	533.12
325.855	437.12
326.084	430.12
326.313	400.12
326.542	426.12
326.77	459.12
326.999	589.12
327.228	793.12
327.457	1137.12
327.686	1315.12
327.914	856.12
328.143	562.12
328.372	481.12
328.6	488.12
328.829	450.12
329.058	443.12
329.287	450.12
329.515	423.12
329.744	417.12
329.972	417.12
330.201	421.12
330.43	464.12
330.658	459.12
330.887	499.12
331.115	463.12
331.344	402.12
331.572	391.12
331.801	400.12
332.03	376.12
332.258	352.12
332.486	323.12
332.715	329.12
332.943	350.12
333.172	326.12
333.4	349.12
333.629	349.12
333.857	364.12
334.085	380.12
334.314	379.12
334.542	405.12
334.771	393.12
334.999	362.12
335.227	371.12
335.455	345.12
335.684	345.12
335.912	329.12
336.14	337.12
336.369	338.12
336.597	330.12
336.825	342.12
337.053	322.12
337.281	345.12
337.51	332.12
337.738	330.12
337.966	324.12
338.194	326.12
338.422	330.12
338.65	322.12
338.878	335.12
339.106	312.12
339.334	295.12
339.562	305.12
339.79	319.12
340.018	322.12
340.246	314.12
340.474	322.12
340.702	317.12
340.93	321.12
341.158	311.12
341.386	314.12
341.614	323.12
341.842	305.12
342.07	305.12
342.298	322.12
342.526	302.12
342.754	298.12
342.981	286.12
343.209	271.12
343.437	325.12
343.665	301.12
343.893	310.12
344.12	317.12
344.348	318.12
344.576	348.12
344.804	346.12
345.031	338.12
345.259	318.12
345.487	307.12
345.714	302.12
345.942	307.12
346.17	311.12
346.397	318.12
346.625	324.12
346.853	321.12
347.08	312.12
347.308	312.12
347.535	304.12
347.763	325.12
347.99	313.12
348.218	331.12
348.445	339.12
348.673	308.12
348.9	317.12
349.128	312.12
349.355	303.12
349.583	298.12
349.81	302.12
350.037	298.12
350.265	295.12
350.492	289.12
350.72	313.12
350.947	298.12
351.174	314.12
351.402	312.12
351.629	303.12
351.856	319.12
352.083	322.12
352.311	322.12
352.538	324.12
352.765	334.12
352.992	330.12
353.22	316.12
353.447	301.12
353.674	302.12
353.901	301.12
354.128	278.12
354.355	276.12
354.583	286.12
354.81	278.12
355.037	282.12
355.264	283.12
355.491	284.12
355.718	301.12
355.945	274.12
356.172	285.12
356.399	289.12
356.626	273.12
356.853	290.12
357.08	269.12
357.307	280.12
357.534	281.12
357.761	285.12
357.988	297.12
358.215	289.12
358.441	278.12
358.668	271.12
358.895	273.12
359.122	274.12
359.349	309.12
359.576	320.12
359.802	328.12
360.029	353.12
360.256	353.12
360.483	344.12
360.709	311.12
360.936	309.12
361.163	294.12
361.39	303.12
361.616	296.12
361.843	309.12
362.07	306.12
362.296	298.12
362.523	295.12
362.749	301.12
362.976	268.12
363.203	297.12
363.429	277.12
363.656	310.12
363.882	293.12
364.109	287.12
364.335	292.12
364.562	281.12
364.788	263.12
365.015	276.12
365.241	283.12
365.468	278.12
365.694	298.12
365.92	305.12
366.147	289.12
366.373	278.12
366.599	275.12
366.826	275.12
367.052	275.12
367.278	272.12
367.505	272.12
367.731	274.12
367.957	269.12
368.184	258.12
368.41	290.12
368.636	294.12
368.862	276.12
369.089	279.12
369.315	269.12
369.541	292.12
369.767	287.12
369.993	282.12
370.219	278.12
370.445	279.12
370.672	274.12
370.898	284.12
371.124	288.12
371.35	267.12
371.576	276.12
371.802	285.12
372.028	261.12
372.254	261.12
372.48	282.12
372.706	277.12
372.932	291.12
373.158	264.12
373.384	263.12
373.61	274.12
373.835	285.12
374.061	290.12
374.287	277.12
374.513	275.12
374.739	282.12
374.965	269.12
375.191	270.12
375.416	272.12
375.642	279.12
375.868	277.12
376.094	289.12
376.319	265.12
376.545	250.12
376.771	271.12
376.997	280.12
377.222	263.12
377.448	276.12
377.674	290.12
377.899	250.12
378.125	259.12
378.35	266.12
378.576	297.12
378.802	282.12
379.027	274.12
379.253	260.12
379.478	261.12
379.704	269.12
379.929	274.12
380.155	265.12
380.38	276.12
380.606	262.12
380.831	271.12
381.057	277.12
381.282	261.12
381.507	277.12
381.733	276.12
381.958	277.12
382.184	269.12
382.409	280.12
382.634	273.12
382.86	272.12
383.085	282.12
383.31	277.12
383.535	282.12
383.761	279.12
383.986	309.12
384.211	269.12
384.436	283.12
384.662	273.12
384.887	285.12
385.112	279.12
385.337	286.12
385.562	276.12
385.787	274.12
386.013	298.12
386.238	285.12
386.463	285.12
386.688	295.12
386.913	283.12
387.138	281.12
387.363	291.12
387.588	279.12
387.813	284.12
388.038	289.12
388.263	276.12
388.488	274.12
388.713	269.12
388.938	282.12
389.163	289.12
389.387	299.12
389.612	282.12
389.837	288.12
390.062	278.12
390.287	290.12
390.512	283.12
390.736	282.12
390.961	279.12
391.186	286.12
391.411	275.12
391.636	281.12
391.86	273.12
392.085	282.12
392.31	282.12
392.534	268.12
392.759	285.12
392.984	286.12
393.208	290.12
393.433	290.12
393.658	272.12
393.882	278.12
394.107	285.12
394.331	276.12
394.556	293.12
394.78	290.12
395.005	285.12
395.229	287.12
395.454	280.12
395.678	278.12
395.903	301.12
396.127	308.12
396.352	314.12
396.576	292.12
396.801	283.12
397.025	301.12
397.249	289.12
397.474	299.12
397.698	313.12
397.922	300.12
398.147	301.12
398.371	294.12
398.595	305.12
398.82	314.12
399.044	310.12
399.268	329.12
399.492	317.12
399.717	351.12
399.941	353.12
400.165	354.12
400.389	381.12
400.613	331.12
400.837	341.12
401.062	322.12
401.286	308.12
401.51	302.12
401.734	317.12
401.958	310.12
402.182	316.12
402.406	323.12
402.63	329.12
402.854	327.12
403.078	325.12
403.302	320.12
403.526	331.12
403.75	336.12
403.974	335.12
404.198	321.12
404.422	325.12
404.645	323.12
404.869	326.12
405.093	342.12
405.317	374.12
405.541	378.12
405.765	342.12
405.988	354.12
406.212	348.12
406.436	352.12
406.66	385.12
406.883	364.12
407.107	363.12
407.331	389.12
407.555	417.12
407.778	408.12
408.002	373.12
408.226	359.12
408.449	361.12
408.673	361.12
408.896	370.12
409.12	403.12
409.344	383.12
409.567	342.12
409.791	327.12
410.014	325.12
410.238	326.12
410.461	323.12
410.685	313.12
410.908	365.12
411.132	357.12
411.355	374.12
411.578	353.12
411.802	340.12
412.025	320.12
412.249	316.12
412.472	320.12
412.695	362.12
412.919	363.12
413.142	330.12
413.365	303.12
413.589	323.12
413.812	300.12
414.035	298.12
414.258	290.12
414.482	289.12
414.705	312.12
414.928	303.12
415.151	288.12
415.374	287.12
415.597	296.12
415.821	313.12
416.044	277.12
416.267	302.12
416.49	302.12
416.713	292.12
416.936	314.12
417.159	309.12
417.382	321.12
417.605	309.12
417.828	326.12
418.051	329.12
418.274	308.12
418.497	306.12
418.72	309.12
418.943	302.12
419.166	307.12
419.389	339.12
419.611	316.12
419.834	312.12
420.057	333.12
420.28	327.12
420.503	309.12
420.726	323.12
420.948	329.12
421.171	366.12
421.394	359.12
421.617	335.12
421.839	334.12
422.062	328.12
422.285	327.12
422.507	361.12
422.73	397.12
422.953	381.12
423.175	348.12
423.398	310.12
423.621	323.12
423.843	335.12
424.066	343.12
424.288	348.12
424.511	342.12
424.733	405.12
424.956	449.12
425.178	434.12
425.401	438.12
425.623	464.12
425.846	386.12
426.068	362.12
426.291	350.12
426.513	348.12
426.735	355.12
426.958	399.12
427.18	442.12
427.402	499.12
427.625	551.12
427.847	488.12
428.069	441.12
428.292	393.12
428.514	357.12
428.736	353.12
428.958	330.12
429.181	306.12
429.403	319.12
429.625	346.12
429.847	362.12
430.069	396.12
430.292	395.12
430.514	321.12
430.736	323.12
430.958	317.12
431.18	314.12
431.402	312.12
431.624	292.12
431.846	310.12
432.068	302.12
432.29	296.12
432.512	298.12
432.734	292.12
432.956	328.12
433.178	315.12
433.4	319.12
433.622	294.12
433.844	323.12
434.066	294.12
434.287	311.12
434.509	308.12
434.731	302.12
434.953	314.12
435.175	312.12
435.397	341.12
435.618	359.12
435.84	381.12
436.062	443.12
436.284	458.12
436.505	411.12
436.727	343.12
436.949	334.12
437.17	327.12
437.392	319.12
437.614	322.12
437.835	377.12
438.057	427.12
438.278	486.12
438.5	490.12
438.721	504.12
438.943	492.12
439.165	396.12
439.386	348.12
439.608	357.12
439.829	358.12
440.05	396.12
440.272	425.12
440.493	397.12
440.715	350.12
440.936	341.12
441.158	323.12
441.379	326.12
441.6	350.12
441.822	348.12
442.043	374.12
442.264	426.12
442.486	443.12
442.707	394.12
442.928	386.12
443.149	364.12
443.371	383.12
443.592	421.12
443.813	478.12
444.034	484.12
444.255	397.12
444.476	343.12
444.698	335.12
444.919	355.12
445.14	425.12
445.361	395.12
445.582	396.12
445.803	425.12
446.024	492.12
446.245	503.12
446.466	453.12
446.687	364.12
446.908	355.12
447.129	344.12
447.35	323.12
447.571	316.12
447.792	327.12
448.013	355.12
448.234	348.12
448.455	384.12
448.675	441.12
448.896	505.12
449.117	447.12
449.338	413.12
449.559	480.12
449.779	522.12
450	440.12
450.221	378.12
450.442	348.12
450.662	337.12
450.883	331.12
451.104	351.12
451.324	332.12
451.545	321.12
451.766	329.12
451.986	289.12
452.207	284.12
452.428	286.12
452.648	295.12
452.869	279.12
453.089	305.12
453.31	309.12
453.53	305.12
453.751	317.12
453.971	296.12
454.192	294.12
454.412	301.12
454.633	289.12
454.853	286.12
455.073	289.12
455.294	301.12
455.514	361.12
455.734	330.12
455.955	314.12
456.175	293.12
456.395	275.12
456.616	268.12
456.836	298.12
457.056	284.12
457.276	275.12
457.497	283.12
457.717	287.12
457.937	284.12
458.157	295.12
458.377	289.12
458.598	321.12
458.818	362.12
459.038	407.12
459.258	399.12
459.478	335.12
459.698	310.12
459.918	321.12
460.138	296.12
460.358	301.12
460.578	295.12
460.798	301.12
461.018	322.12
461.238	308.12
461.458	291.12
461.678	289.12
461.898	289.12
462.118	303.12
462.338	292.12
462.558	298.12
462.777	293.12
462.997	311.12
463.217	319.12
463.437	302.12
463.657	319.12
463.876	321.12
464.096	301.12
464.316	314.12
464.536	305.12
464.755	314.12
464.975	311.12
465.195	365.12
465.414	400.12
465.634	342.12
465.854	322.12
466.073	297.12
466.293	324.12
466.512	315.12
466.732	296.12
466.951	298.12
467.171	302.12
467.391	298.12
467.61	309.12
467.829	318.12
468.049	298.12
468.268	299.12
468.488	290.12
468.707	286.12
468.927	290.12
469.146	297.12
469.365	294.12
469.585	269.12
469.804	297.12
470.023	297.12
470.243	299.12
470.462	302.12
470.681	322.12
470.901	305.12
471.12	291.12
471.339	297.12
471.558	299.12
471.777	314.12
471.997	282.12
472.216	300.12
472.435	332.12
472.654	334.12
472.873	323.12
473.092	279.12
473.311	297.12
473.53	315.12
473.749	309.12
473.968	346.12
474.187	407.12
474.406	421.12
474.625	348.12
474.844	321.12
475.063	310.12
475.282	298.12
475.501	317.12
475.72	316.12
475.939	310.12
476.158	301.12
476.377	333.12
476.596	313.12
476.814	309.12
477.033	326.12
477.252	321.12
477.471	325.12
477.69	321.12
477.908	317.12
478.127	337.12
478.346	297.12
478.564	319.12
478.783	329.12
479.002	332.12
479.22	316.12
479.439	350.12
479.658	350.12
479.876	350.12
480.095	341.12
480.313	364.12
480.532	363.12
480.751	375.12
480.969	373.12
481.188	422.12
481.406	439.12
481.624	386.12
481.843	377.12
482.061	358.12
482.28	346.12
482.498	343.12
482.717	345.12
482.935	340.12
483.153	333.12
483.372	362.12
483.59	333.12
483.808	329.12
484.027	338.12
484.245	344.12
484.463	346.12
484.681	356.12
484.9	337.12
485.118	343.12
485.336	349.12
485.554	353.12
485.772	353.12
485.99	375.12
486.209	373.12
486.427	371.12
486.645	369.12
486.863	378.12
487.081	379.12
487.299	378.12
487.517	385.12
487.735	356.12
487.953	356.12
488.171	361.12
488.389	375.12
488.607	359.12
488.825	363.12
489.043	371.12
489.261	399.12
489.479	397.12
489.696	391.12
489.914	387.12
490.132	384.12
490.35	399.12
490.568	391.12
490.786	411.12
491.003	393.12
491.221	390.12
491.439	417.12
491.657	427.12
491.874	421.12
492.092	405.12
492.31	424.12
492.527	427.12
492.745	430.12
492.963	422.12
493.18	447.12
493.398	460.12
493.615	443.12
493.833	455.12
494.05	429.12
494.268	435.12
494.485	437.12
494.703	442.12
494.92	428.12
495.138	453.12
495.355	426.12
495.573	414.12
495.79	443.12
496.008	428.12
496.225	451.12
496.442	435.12
496.66	433.12
496.877	434.12
497.094	443.12
497.312	441.12
497.529	443.12
497.746	443.12
497.963	465.12
498.181	488.12
498.398	447.12
498.615	461.12
498.832	466.12
499.049	480.12
499.267	474.12
499.484	493.12
499.701	489.12
499.918	508.12
500.135	513.12
500.352	521.12
500.569	556.12
500.786	542.12
501.003	535.12
501.22	521.12
501.437	521.12
501.654	518.12
501.871	522.12
502.088	519.12
