Data from 1982.PennyLincolnUp.Lamp.En5.5.200Scan.071819.P1_HRD10591_16-47-40-962.txt Node
Date: Thu Jul 18 16:47:40 EDT 2019
User: cochatt
Spectrometer: HR+D1059
Trigger mode: 1
Integration Time (sec): 1.000000E-1
Scans to average: 1
Electric dark correction enabled: true
Nonlinearity correction enabled: false
Boxcar width: 0
XAxis mode: Wavelengths
Number of Pixels in Spectrum: 2048
>>>>>Begin Spectral Data<<<<<
223.165	-6.31
223.4	-6.31
223.635	-6.31
223.869	-33.31
224.104	-33.31
224.338	-13.31
224.573	-20.31
224.808	-13.31
225.042	-2.31
225.277	-9.31
225.511	12.69
225.746	6.69
225.98	5.69
226.215	19.69
226.449	21.69
226.683	20.69
226.918	26.69
227.152	17.69
227.387	24.69
227.621	39.69
227.856	27.69
228.09	42.69
228.324	60.69
228.559	56.69
228.793	66.69
229.027	89.69
229.262	96.69
229.496	103.69
229.73	106.69
229.964	135.69
230.199	123.69
230.433	100.69
230.667	113.69
230.901	104.69
231.136	103.69
231.37	102.69
231.604	115.69
231.838	114.69
232.072	107.69
232.306	101.69
232.541	106.69
232.775	107.69
233.009	97.69
233.243	84.69
233.477	108.69
233.711	101.69
233.945	101.69
234.179	97.69
234.413	95.69
234.647	95.69
234.881	121.69
235.115	113.69
235.349	120.69
235.583	100.69
235.817	113.69
236.051	105.69
236.285	114.69
236.519	121.69
236.753	111.69
236.987	137.69
237.221	160.69
237.455	188.69
237.689	168.69
237.922	133.69
238.156	118.69
238.39	119.69
238.624	102.69
238.858	119.69
239.091	115.69
239.325	120.69
239.559	113.69
239.793	105.69
240.027	119.69
240.26	129.69
240.494	136.69
240.728	103.69
240.961	138.69
241.195	124.69
241.429	110.69
241.662	111.69
241.896	106.69
242.13	110.69
242.363	124.69
242.597	106.69
242.83	117.69
243.064	115.69
243.298	113.69
243.531	114.69
243.765	126.69
243.998	115.69
244.232	117.69
244.465	124.69
244.699	120.69
244.932	117.69
245.166	120.69
245.399	127.69
245.633	130.69
245.866	110.69
246.099	121.69
246.333	127.69
246.566	138.69
246.8	126.69
247.033	136.69
247.266	135.69
247.5	145.69
247.733	137.69
247.966	148.69
248.2	145.69
248.433	159.69
248.666	147.69
248.899	153.69
249.133	166.69
249.366	164.69
249.599	165.69
249.832	162.69
250.066	162.69
250.299	155.69
250.532	169.69
250.765	179.69
250.998	194.69
251.231	181.69
251.465	194.69
251.698	179.69
251.931	185.69
252.164	188.69
252.397	155.69
252.63	168.69
252.863	159.69
253.096	195.69
253.329	193.69
253.562	194.69
253.795	185.69
254.028	189.69
254.261	187.69
254.494	189.69
254.727	203.69
254.96	230.69
255.193	221.69
255.426	209.69
255.659	197.69
255.892	207.69
256.124	190.69
256.357	195.69
256.59	186.69
256.823	186.69
257.056	182.69
257.289	185.69
257.521	187.69
257.754	175.69
257.987	185.69
258.22	185.69
258.452	194.69
258.685	155.69
258.918	162.69
259.151	173.69
259.383	185.69
259.616	187.69
259.849	191.69
260.081	206.69
260.314	216.69
260.547	210.69
260.779	207.69
261.012	213.69
261.244	203.69
261.477	172.69
261.71	177.69
261.942	167.69
262.175	185.69
262.407	205.69
262.64	185.69
262.872	170.69
263.105	168.69
263.337	178.69
263.57	177.69
263.802	166.69
264.035	167.69
264.267	173.69
264.499	172.69
264.732	174.69
264.964	167.69
265.197	173.69
265.429	162.69
265.661	178.69
265.894	173.69
266.126	174.69
266.358	172.69
266.591	171.69
266.823	188.69
267.055	197.69
267.287	185.69
267.52	185.69
267.752	175.69
267.984	206.69
268.216	185.69
268.448	196.69
268.681	199.69
268.913	197.69
269.145	217.69
269.377	225.69
269.609	219.69
269.841	227.69
270.073	229.69
270.306	242.69
270.538	264.69
270.77	265.69
271.002	270.69
271.234	231.69
271.466	242.69
271.698	267.69
271.93	261.69
272.162	266.69
272.394	244.69
272.626	243.69
272.858	236.69
273.09	236.69
273.322	226.69
273.553	222.69
273.785	205.69
274.017	221.69
274.249	211.69
274.481	215.69
274.713	216.69
274.945	215.69
275.176	206.69
275.408	221.69
275.64	218.69
275.872	197.69
276.104	201.69
276.335	217.69
276.567	209.69
276.799	232.69
277.031	250.69
277.262	261.69
277.494	244.69
277.726	233.69
277.957	224.69
278.189	220.69
278.421	208.69
278.652	216.69
278.884	228.69
279.115	217.69
279.347	216.69
279.579	219.69
279.81	221.69
280.042	195.69
280.273	204.69
280.505	204.69
280.736	203.69
280.968	207.69
281.199	205.69
281.431	202.69
281.662	222.69
281.894	217.69
282.125	218.69
282.356	223.69
282.588	237.69
282.819	238.69
283.051	221.69
283.282	205.69
283.513	201.69
283.745	216.69
283.976	218.69
284.207	229.69
284.439	236.69
284.67	207.69
284.901	226.69
285.132	216.69
285.364	228.69
285.595	209.69
285.826	221.69
286.057	215.69
286.288	206.69
286.52	213.69
286.751	217.69
286.982	221.69
287.213	207.69
287.444	229.69
287.675	227.69
287.906	225.69
288.138	237.69
288.369	236.69
288.6	229.69
288.831	225.69
289.062	225.69
289.293	232.69
289.524	236.69
289.755	226.69
289.986	225.69
290.217	218.69
290.448	235.69
290.679	222.69
290.91	219.69
291.141	214.69
291.371	230.69
291.602	239.69
291.833	215.69
292.064	225.69
292.295	227.69
292.526	225.69
292.757	226.69
292.987	215.69
293.218	228.69
293.449	223.69
293.68	221.69
293.91	222.69
294.141	235.69
294.372	223.69
294.603	236.69
294.833	220.69
295.064	245.69
295.295	228.69
295.525	236.69
295.756	241.69
295.987	229.69
296.217	257.69
296.448	252.69
296.679	229.69
296.909	215.69
297.14	217.69
297.37	231.69
297.601	246.69
297.831	233.69
298.062	211.69
298.292	249.69
298.523	237.69
298.753	236.69
298.984	233.69
299.214	234.69
299.445	245.69
299.675	241.69
299.905	241.69
300.136	233.69
300.366	236.69
300.597	242.69
300.827	240.69
301.057	253.69
301.288	268.69
301.518	258.69
301.748	245.69
301.979	228.69
302.209	255.69
302.439	265.69
302.669	241.69
302.9	257.69
303.13	255.69
303.36	233.69
303.59	263.69
303.82	273.69
304.051	250.69
304.281	264.69
304.511	262.69
304.741	265.69
304.971	239.69
305.201	248.69
305.431	236.69
305.661	254.69
305.891	259.69
306.121	249.69
306.352	263.69
306.582	265.69
306.812	260.69
307.042	242.69
307.272	252.69
307.502	262.69
307.731	257.69
307.961	272.69
308.191	266.69
308.421	248.69
308.651	271.69
308.881	259.69
309.111	279.69
309.341	274.69
309.571	278.69
309.8	283.69
310.03	277.69
310.26	306.69
310.49	300.69
310.72	299.69
310.949	323.69
311.179	308.69
311.409	299.69
311.639	302.69
311.868	286.69
312.098	297.69
312.328	299.69
312.557	343.69
312.787	334.69
313.017	320.69
313.246	300.69
313.476	319.69
313.706	315.69
313.935	313.69
314.165	315.69
314.394	318.69
314.624	300.69
314.853	310.69
315.083	295.69
315.312	308.69
315.542	304.69
315.771	291.69
316.001	281.69
316.23	305.69
316.46	304.69
316.689	295.69
316.919	311.69
317.148	305.69
317.377	327.69
317.607	296.69
317.836	285.69
318.065	309.69
318.295	293.69
318.524	287.69
318.753	290.69
318.983	288.69
319.212	283.69
319.441	309.69
319.67	313.69
319.9	291.69
320.129	307.69
320.358	287.69
320.587	307.69
320.816	317.69
321.046	317.69
321.275	323.69
321.504	300.69
321.733	315.69
321.962	340.69
322.191	358.69
322.42	366.69
322.649	371.69
322.878	374.69
323.108	391.69
323.337	393.69
323.566	427.69
323.795	454.69
324.024	511.69
324.253	646.69
324.482	959.69
324.71	1409.69
324.939	1837.69
325.168	1508.69
325.397	793.69
325.626	556.69
325.855	465.69
326.084	425.69
326.313	397.69
326.542	421.69
326.77	513.69
326.999	592.69
327.228	832.69
327.457	1185.69
327.686	1301.69
327.914	889.69
328.143	597.69
328.372	516.69
328.6	492.69
328.829	473.69
329.058	494.69
329.287	492.69
329.515	444.69
329.744	411.69
329.972	421.69
330.201	435.69
330.43	459.69
330.658	484.69
330.887	519.69
331.115	488.69
331.344	430.69
331.572	401.69
331.801	394.69
332.03	373.69
332.258	364.69
332.486	349.69
332.715	348.69
332.943	333.69
333.172	362.69
333.4	351.69
333.629	370.69
333.857	349.69
334.085	360.69
334.314	385.69
334.542	419.69
334.771	401.69
334.999	375.69
335.227	359.69
335.455	339.69
335.684	357.69
335.912	346.69
336.14	307.69
336.369	343.69
336.597	339.69
336.825	341.69
337.053	341.69
337.281	319.69
337.51	345.69
337.738	345.69
337.966	328.69
338.194	333.69
338.422	340.69
338.65	342.69
338.878	315.69
339.106	338.69
339.334	317.69
339.562	315.69
339.79	336.69
340.018	320.69
340.246	328.69
340.474	321.69
340.702	347.69
340.93	312.69
341.158	319.69
341.386	293.69
341.614	331.69
341.842	333.69
342.07	299.69
342.298	306.69
342.526	306.69
342.754	316.69
342.981	301.69
343.209	292.69
343.437	314.69
343.665	317.69
343.893	312.69
344.12	326.69
344.348	319.69
344.576	336.69
344.804	328.69
345.031	334.69
345.259	340.69
345.487	328.69
345.714	331.69
345.942	325.69
346.17	342.69
346.397	303.69
346.625	311.69
346.853	300.69
347.08	317.69
347.308	292.69
347.535	330.69
347.763	333.69
347.99	341.69
348.218	335.69
348.445	323.69
348.673	325.69
348.9	319.69
349.128	334.69
349.355	297.69
349.583	298.69
349.81	308.69
350.037	286.69
350.265	310.69
350.492	301.69
350.72	323.69
350.947	315.69
351.174	325.69
351.402	318.69
351.629	328.69
351.856	321.69
352.083	323.69
352.311	332.69
352.538	334.69
352.765	307.69
352.992	312.69
353.22	327.69
353.447	319.69
353.674	297.69
353.901	313.69
354.128	294.69
354.355	299.69
354.583	293.69
354.81	288.69
355.037	289.69
355.264	303.69
355.491	278.69
355.718	279.69
355.945	282.69
356.172	281.69
356.399	280.69
356.626	258.69
356.853	280.69
357.08	275.69
357.307	283.69
357.534	285.69
357.761	282.69
357.988	279.69
358.215	272.69
358.441	279.69
358.668	286.69
358.895	272.69
359.122	282.69
359.349	281.69
359.576	313.69
359.802	346.69
360.029	343.69
360.256	339.69
360.483	348.69
360.709	317.69
360.936	306.69
361.163	313.69
361.39	311.69
361.616	319.69
361.843	306.69
362.07	303.69
362.296	310.69
362.523	307.69
362.749	297.69
362.976	301.69
363.203	282.69
363.429	284.69
363.656	299.69
363.882	301.69
364.109	279.69
364.335	283.69
364.562	280.69
364.788	294.69
365.015	288.69
365.241	291.69
365.468	275.69
365.694	302.69
365.92	288.69
366.147	301.69
366.373	289.69
366.599	271.69
366.826	266.69
367.052	285.69
367.278	305.69
367.505	292.69
367.731	290.69
367.957	300.69
368.184	299.69
368.41	289.69
368.636	303.69
368.862	284.69
369.089	290.69
369.315	306.69
369.541	277.69
369.767	276.69
369.993	281.69
370.219	278.69
370.445	282.69
370.672	266.69
370.898	277.69
371.124	281.69
371.35	267.69
371.576	264.69
371.802	292.69
372.028	257.69
372.254	286.69
372.48	275.69
372.706	270.69
372.932	271.69
373.158	263.69
373.384	269.69
373.61	255.69
373.835	265.69
374.061	277.69
374.287	294.69
374.513	283.69
374.739	269.69
374.965	269.69
375.191	280.69
375.416	284.69
375.642	278.69
375.868	282.69
376.094	280.69
376.319	279.69
376.545	281.69
376.771	268.69
376.997	273.69
377.222	259.69
377.448	271.69
377.674	257.69
377.899	263.69
378.125	265.69
378.35	265.69
378.576	267.69
378.802	253.69
379.027	266.69
379.253	274.69
379.478	260.69
379.704	250.69
379.929	277.69
380.155	268.69
380.38	261.69
380.606	255.69
380.831	282.69
381.057	270.69
381.282	278.69
381.507	284.69
381.733	272.69
381.958	275.69
382.184	278.69
382.409	282.69
382.634	278.69
382.86	275.69
383.085	281.69
383.31	290.69
383.535	275.69
383.761	270.69
383.986	276.69
384.211	269.69
384.436	283.69
384.662	274.69
384.887	280.69
385.112	283.69
385.337	291.69
385.562	278.69
385.787	285.69
386.013	300.69
386.238	298.69
386.463	270.69
386.688	301.69
386.913	290.69
387.138	285.69
387.363	283.69
387.588	286.69
387.813	287.69
388.038	278.69
388.263	294.69
388.488	279.69
388.713	273.69
388.938	273.69
389.163	292.69
389.387	296.69
389.612	265.69
389.837	266.69
390.062	307.69
390.287	281.69
390.512	265.69
390.736	256.69
390.961	283.69
391.186	280.69
391.411	267.69
391.636	288.69
391.86	297.69
392.085	311.69
392.31	297.69
392.534	283.69
392.759	293.69
392.984	295.69
393.208	285.69
393.433	279.69
393.658	266.69
393.882	283.69
394.107	268.69
394.331	294.69
394.556	291.69
394.78	286.69
395.005	279.69
395.229	285.69
395.454	282.69
395.678	284.69
395.903	290.69
396.127	319.69
396.352	302.69
396.576	285.69
396.801	298.69
397.025	299.69
397.249	284.69
397.474	307.69
397.698	291.69
397.922	299.69
398.147	321.69
398.371	333.69
398.595	302.69
398.82	311.69
399.044	318.69
399.268	305.69
399.492	335.69
399.717	350.69
399.941	373.69
400.165	351.69
400.389	370.69
400.613	346.69
400.837	326.69
401.062	338.69
401.286	339.69
401.51	343.69
401.734	327.69
401.958	316.69
402.182	311.69
402.406	328.69
402.63	315.69
402.854	323.69
403.078	324.69
403.302	321.69
403.526	314.69
403.75	331.69
403.974	329.69
404.198	309.69
404.422	331.69
404.645	335.69
404.869	347.69
405.093	386.69
405.317	391.69
405.541	398.69
405.765	362.69
405.988	349.69
406.212	346.69
406.436	364.69
406.66	369.69
406.883	371.69
407.107	355.69
407.331	387.69
407.555	418.69
407.778	422.69
408.002	389.69
408.226	350.69
408.449	351.69
408.673	358.69
408.896	378.69
409.12	403.69
409.344	392.69
409.567	350.69
409.791	355.69
410.014	333.69
410.238	325.69
410.461	304.69
410.685	326.69
410.908	335.69
411.132	375.69
411.355	388.69
411.578	358.69
411.802	336.69
412.025	315.69
412.249	329.69
412.472	347.69
412.695	362.69
412.919	369.69
413.142	331.69
413.365	312.69
413.589	306.69
413.812	305.69
414.035	329.69
414.258	317.69
414.482	312.69
414.705	320.69
414.928	289.69
415.151	310.69
415.374	301.69
415.597	277.69
415.821	284.69
416.044	307.69
416.267	319.69
416.49	298.69
416.713	304.69
416.936	312.69
417.159	309.69
417.382	298.69
417.605	292.69
417.828	331.69
418.051	335.69
418.274	320.69
418.497	323.69
418.72	289.69
418.943	311.69
419.166	322.69
419.389	313.69
419.611	318.69
419.834	325.69
420.057	330.69
420.28	338.69
420.503	330.69
420.726	326.69
420.948	333.69
421.171	372.69
421.394	385.69
421.617	338.69
421.839	336.69
422.062	310.69
422.285	336.69
422.507	371.69
422.73	405.69
422.953	391.69
423.175	362.69
423.398	353.69
423.621	330.69
423.843	354.69
424.066	354.69
424.288	370.69
424.511	362.69
424.733	397.69
424.956	429.69
425.178	443.69
425.401	429.69
425.623	437.69
425.846	388.69
426.068	366.69
426.291	363.69
426.513	341.69
426.735	378.69
426.958	405.69
427.18	442.69
427.402	531.69
427.625	569.69
427.847	517.69
428.069	457.69
428.292	386.69
428.514	373.69
428.736	346.69
428.958	336.69
429.181	341.69
429.403	347.69
429.625	342.69
429.847	369.69
430.069	401.69
430.292	388.69
430.514	352.69
430.736	334.69
430.958	322.69
431.18	313.69
431.402	302.69
431.624	313.69
431.846	313.69
432.068	306.69
432.29	316.69
432.512	311.69
432.734	309.69
432.956	312.69
433.178	306.69
433.4	323.69
433.622	293.69
433.844	310.69
434.066	305.69
434.287	297.69
434.509	321.69
434.731	307.69
434.953	333.69
435.175	317.69
435.397	361.69
435.618	355.69
435.84	398.69
436.062	448.69
436.284	479.69
436.505	410.69
436.727	384.69
436.949	343.69
437.17	337.69
437.392	337.69
437.614	347.69
437.835	366.69
438.057	446.69
438.278	515.69
438.5	490.69
438.721	531.69
438.943	510.69
439.165	406.69
439.386	384.69
439.608	375.69
439.829	366.69
440.05	397.69
440.272	418.69
440.493	386.69
440.715	363.69
440.936	329.69
441.158	344.69
441.379	343.69
441.6	343.69
441.822	362.69
442.043	396.69
442.264	446.69
442.486	441.69
442.707	397.69
442.928	365.69
443.149	375.69
443.371	405.69
443.592	422.69
443.813	470.69
444.034	478.69
444.255	405.69
444.476	354.69
444.698	353.69
444.919	350.69
445.14	442.69
445.361	423.69
445.582	400.69
445.803	446.69
446.024	509.69
446.245	490.69
446.466	471.69
446.687	389.69
446.908	363.69
447.129	360.69
447.35	345.69
447.571	332.69
447.792	321.69
448.013	341.69
448.234	346.69
448.455	404.69
448.675	463.69
448.896	527.69
449.117	440.69
449.338	444.69
449.559	502.69
449.779	527.69
450	437.69
450.221	361.69
450.442	346.69
450.662	322.69
450.883	327.69
451.104	344.69
451.324	347.69
451.545	318.69
451.766	328.69
451.986	305.69
452.207	300.69
452.428	280.69
452.648	283.69
452.869	310.69
453.089	326.69
453.31	315.69
453.53	322.69
453.751	319.69
453.971	319.69
454.192	330.69
454.412	327.69
454.633	315.69
454.853	309.69
455.073	300.69
455.294	322.69
455.514	378.69
455.734	349.69
455.955	305.69
456.175	295.69
456.395	292.69
456.616	297.69
456.836	291.69
457.056	263.69
457.276	268.69
457.497	271.69
457.717	283.69
457.937	279.69
458.157	279.69
458.377	287.69
458.598	325.69
458.818	348.69
459.038	389.69
459.258	401.69
459.478	331.69
459.698	329.69
459.918	326.69
460.138	310.69
460.358	303.69
460.578	313.69
460.798	309.69
461.018	306.69
461.238	301.69
461.458	313.69
461.678	286.69
461.898	300.69
462.118	291.69
462.338	307.69
462.558	300.69
462.777	300.69
462.997	334.69
463.217	316.69
463.437	303.69
463.657	319.69
463.876	307.69
464.096	315.69
464.316	291.69
464.536	328.69
464.755	333.69
464.975	345.69
465.195	373.69
465.414	415.69
465.634	372.69
465.854	328.69
466.073	331.69
466.293	298.69
466.512	299.69
466.732	314.69
466.951	299.69
467.171	292.69
467.391	289.69
467.61	312.69
467.829	315.69
468.049	291.69
468.268	295.69
468.488	311.69
468.707	302.69
468.927	295.69
469.146	278.69
469.365	300.69
469.585	299.69
469.804	297.69
470.023	315.69
470.243	300.69
470.462	321.69
470.681	317.69
470.901	325.69
471.12	321.69
471.339	315.69
471.558	289.69
471.777	309.69
471.997	297.69
472.216	302.69
472.435	317.69
472.654	327.69
472.873	306.69
473.092	291.69
473.311	311.69
473.53	293.69
473.749	318.69
473.968	337.69
474.187	424.69
474.406	427.69
474.625	363.69
474.844	316.69
475.063	300.69
475.282	319.69
475.501	326.69
475.72	318.69
475.939	298.69
476.158	298.69
476.377	309.69
476.596	315.69
476.814	325.69
477.033	314.69
477.252	327.69
477.471	326.69
477.69	323.69
477.908	333.69
478.127	330.69
478.346	317.69
478.564	322.69
478.783	327.69
479.002	330.69
479.22	327.69
479.439	350.69
479.658	356.69
479.876	378.69
480.095	365.69
480.313	376.69
480.532	383.69
480.751	356.69
480.969	379.69
481.188	426.69
481.406	451.69
481.624	383.69
481.843	389.69
482.061	355.69
482.28	360.69
482.498	350.69
482.717	344.69
482.935	335.69
483.153	339.69
483.372	373.69
483.59	359.69
483.808	349.69
484.027	337.69
484.245	352.69
484.463	357.69
484.681	358.69
484.9	373.69
485.118	347.69
485.336	357.69
485.554	367.69
485.772	354.69
485.99	365.69
486.209	374.69
486.427	369.69
486.645	381.69
486.863	365.69
487.081	359.69
487.299	384.69
487.517	385.69
487.735	381.69
487.953	359.69
488.171	394.69
488.389	381.69
488.607	373.69
488.825	378.69
489.043	384.69
489.261	385.69
489.479	382.69
489.696	362.69
489.914	399.69
490.132	391.69
490.35	390.69
490.568	406.69
490.786	410.69
491.003	435.69
491.221	413.69
491.439	445.69
491.657	416.69
491.874	418.69
492.092	427.69
492.31	422.69
492.527	438.69
492.745	437.69
492.963	438.69
493.18	439.69
493.398	455.69
493.615	446.69
493.833	438.69
494.05	427.69
494.268	446.69
494.485	452.69
494.703	414.69
494.92	438.69
495.138	466.69
495.355	462.69
495.573	446.69
495.79	435.69
496.008	429.69
496.225	428.69
496.442	427.69
496.66	437.69
496.877	459.69
497.094	451.69
497.312	447.69
497.529	462.69
497.746	477.69
497.963	457.69
498.181	451.69
498.398	482.69
498.615	474.69
498.832	478.69
499.049	457.69
499.267	512.69
499.484	501.69
499.701	491.69
499.918	524.69
500.135	523.69
500.352	537.69
500.569	536.69
500.786	554.69
501.003	531.69
501.22	524.69
501.437	523.69
501.654	524.69
501.871	531.69
502.088	515.69
