Data from 1982.PennyLincolnUp.Lamp.En5.5.200Scan.071819.P1_HRD10591_16-45-01-961.txt Node
Date: Thu Jul 18 16:45:01 EDT 2019
User: cochatt
Spectrometer: HR+D1059
Trigger mode: 1
Integration Time (sec): 1.000000E-1
Scans to average: 1
Electric dark correction enabled: true
Nonlinearity correction enabled: false
Boxcar width: 0
XAxis mode: Wavelengths
Number of Pixels in Spectrum: 2048
>>>>>Begin Spectral Data<<<<<
223.165	-20
223.4	-20
223.635	-20
223.869	-13
224.104	-20
224.338	-5
224.573	-18
224.808	-21
225.042	-3
225.277	-4
225.511	3
225.746	10
225.98	-1
226.215	12
226.449	9
226.683	24
226.918	23
227.152	24
227.387	36
227.621	28
227.856	37
228.09	35
228.324	44
228.559	51
228.793	67
229.027	78
229.262	98
229.496	76
229.73	101
229.964	107
230.199	85
230.433	95
230.667	87
230.901	83
231.136	90
231.37	93
231.604	94
231.838	96
232.072	98
232.306	93
232.541	99
232.775	92
233.009	87
233.243	85
233.477	106
233.711	104
233.945	99
234.179	89
234.413	85
234.647	92
234.881	98
235.115	97
235.349	88
235.583	102
235.817	108
236.051	88
236.285	109
236.519	96
236.753	98
236.987	105
237.221	127
237.455	143
237.689	135
237.922	115
238.156	106
238.39	106
238.624	111
238.858	98
239.091	89
239.325	105
239.559	109
239.793	108
240.027	104
240.26	120
240.494	123
240.728	98
240.961	108
241.195	124
241.429	115
241.662	100
241.896	103
242.13	106
242.363	102
242.597	106
242.83	107
243.064	112
243.298	109
243.531	108
243.765	97
243.998	102
244.232	104
244.465	102
244.699	105
244.932	101
245.166	125
245.399	109
245.633	95
245.866	100
246.099	115
246.333	113
246.566	117
246.8	122
247.033	119
247.266	118
247.5	120
247.733	124
247.966	129
248.2	127
248.433	123
248.666	126
248.899	128
249.133	147
249.366	148
249.599	145
249.832	125
250.066	132
250.299	129
250.532	126
250.765	129
250.998	145
251.231	149
251.465	155
251.698	138
251.931	138
252.164	148
252.397	147
252.63	142
252.863	132
253.096	145
253.329	163
253.562	164
253.795	168
254.028	165
254.261	159
254.494	151
254.727	167
254.96	164
255.193	175
255.426	176
255.659	160
255.892	177
256.124	170
256.357	157
256.59	164
256.823	137
257.056	151
257.289	170
257.521	160
257.754	143
257.987	159
258.22	161
258.452	159
258.685	156
258.918	139
259.151	159
259.383	144
259.616	133
259.849	159
260.081	178
260.314	166
260.547	181
260.779	167
261.012	155
261.244	157
261.477	165
261.71	170
261.942	160
262.175	168
262.407	146
262.64	160
262.872	162
263.105	165
263.337	153
263.57	147
263.802	137
264.035	149
264.267	153
264.499	150
264.732	155
264.964	143
265.197	144
265.429	156
265.661	155
265.894	173
266.126	161
266.358	145
266.591	151
266.823	161
267.055	147
267.287	155
267.52	152
267.752	163
267.984	160
268.216	163
268.448	163
268.681	180
268.913	151
269.145	170
269.377	204
269.609	194
269.841	175
270.073	177
270.306	195
270.538	201
270.77	199
271.002	195
271.234	185
271.466	209
271.698	194
271.93	226
272.162	205
272.394	209
272.626	198
272.858	200
273.09	195
273.322	175
273.553	175
273.785	171
274.017	180
274.249	197
274.481	181
274.713	177
274.945	178
275.176	184
275.408	183
275.64	188
275.872	195
276.104	197
276.335	192
276.567	179
276.799	195
277.031	213
277.262	194
277.494	205
277.726	191
277.957	196
278.189	189
278.421	183
278.652	187
278.884	174
279.115	195
279.347	183
279.579	171
279.81	189
280.042	168
280.273	194
280.505	175
280.736	179
280.968	170
281.199	177
281.431	202
281.662	178
281.894	188
282.125	186
282.356	203
282.588	207
282.819	197
283.051	192
283.282	187
283.513	192
283.745	172
283.976	186
284.207	193
284.439	188
284.67	170
284.901	183
285.132	184
285.364	204
285.595	195
285.826	197
286.057	202
286.288	188
286.52	194
286.751	197
286.982	194
287.213	196
287.444	196
287.675	188
287.906	192
288.138	198
288.369	197
288.6	205
288.831	195
289.062	186
289.293	222
289.524	177
289.755	193
289.986	184
290.217	190
290.448	184
290.679	188
290.91	189
291.141	187
291.371	194
291.602	188
291.833	197
292.064	195
292.295	192
292.526	201
292.757	194
292.987	182
293.218	193
293.449	193
293.68	204
293.91	193
294.141	188
294.372	197
294.603	215
294.833	204
295.064	192
295.295	201
295.525	192
295.756	187
295.987	198
296.217	230
296.448	220
296.679	186
296.909	187
297.14	187
297.37	207
297.601	210
297.831	198
298.062	191
298.292	197
298.523	211
298.753	209
298.984	219
299.214	202
299.445	191
299.675	200
299.905	207
300.136	191
300.366	204
300.597	207
300.827	204
301.057	214
301.288	212
301.518	213
301.748	220
301.979	209
302.209	217
302.439	214
302.669	228
302.9	215
303.13	231
303.36	196
303.59	212
303.82	214
304.051	215
304.281	211
304.511	208
304.741	227
304.971	225
305.201	207
305.431	215
305.661	224
305.891	219
306.121	204
306.352	205
306.582	212
306.812	228
307.042	214
307.272	216
307.502	219
307.731	226
307.961	218
308.191	230
308.421	234
308.651	231
308.881	221
309.111	237
309.341	215
309.571	233
309.8	240
310.03	236
310.26	223
310.49	241
310.72	246
310.949	258
311.179	256
311.409	243
311.639	241
311.868	241
312.098	256
312.328	253
312.557	246
312.787	261
313.017	261
313.246	254
313.476	264
313.706	252
313.935	248
314.165	257
314.394	267
314.624	268
314.853	243
315.083	237
315.312	240
315.542	247
315.771	237
316.001	240
316.23	239
316.46	241
316.689	220
316.919	250
317.148	253
317.377	234
317.607	229
317.836	256
318.065	235
318.295	217
318.524	236
318.753	240
318.983	242
319.212	253
319.441	235
319.67	243
319.9	246
320.129	235
320.358	258
320.587	250
320.816	247
321.046	244
321.275	255
321.504	259
321.733	260
321.962	268
322.191	261
322.42	269
322.649	317
322.878	291
323.108	294
323.337	295
323.566	321
323.795	329
324.024	364
324.253	455
324.482	645
324.71	981
324.939	1250
325.168	993
325.397	555
325.626	402
325.855	335
326.084	324
326.313	313
326.542	329
326.77	371
326.999	430
327.228	583
327.457	810
327.686	924
327.914	612
328.143	463
328.372	385
328.6	355
328.829	365
329.058	331
329.287	359
329.515	323
329.744	316
329.972	305
330.201	323
330.43	354
330.658	362
330.887	349
331.115	354
331.344	331
331.572	298
331.801	308
332.03	300
332.258	297
332.486	278
332.715	271
332.943	298
333.172	291
333.4	291
333.629	292
333.857	283
334.085	316
334.314	331
334.542	299
334.771	310
334.999	299
335.227	292
335.455	281
335.684	277
335.912	288
336.14	303
336.369	270
336.597	279
336.825	288
337.053	278
337.281	284
337.51	277
337.738	269
337.966	264
338.194	290
338.422	290
338.65	268
338.878	281
339.106	260
339.334	261
339.562	267
339.79	252
340.018	261
340.246	263
340.474	269
340.702	277
340.93	292
341.158	241
341.386	282
341.614	266
341.842	263
342.07	283
342.298	266
342.526	278
342.754	255
342.981	261
343.209	272
343.437	268
343.665	279
343.893	255
344.12	259
344.348	273
344.576	271
344.804	258
345.031	268
345.259	279
345.487	274
345.714	260
345.942	274
346.17	263
346.397	259
346.625	252
346.853	239
347.08	268
347.308	250
347.535	276
347.763	260
347.99	265
348.218	263
348.445	267
348.673	279
348.9	252
349.128	267
349.355	241
349.583	248
349.81	237
350.037	259
350.265	242
350.492	261
350.72	259
350.947	243
351.174	248
351.402	272
351.629	270
351.856	275
352.083	268
352.311	276
352.538	281
352.765	267
352.992	269
353.22	267
353.447	263
353.674	262
353.901	270
354.128	248
354.355	260
354.583	248
354.81	231
355.037	258
355.264	255
355.491	232
355.718	236
355.945	243
356.172	242
356.399	250
356.626	216
356.853	232
357.08	251
357.307	239
357.534	241
357.761	254
357.988	236
358.215	244
358.441	240
358.668	234
358.895	237
359.122	245
359.349	260
359.576	256
359.802	253
360.029	291
360.256	275
360.483	291
360.709	254
360.936	265
361.163	248
361.39	263
361.616	248
361.843	255
362.07	264
362.296	263
362.523	246
362.749	235
362.976	257
363.203	275
363.429	256
363.656	260
363.882	227
364.109	258
364.335	261
364.562	249
364.788	252
365.015	222
365.241	248
365.468	245
365.694	242
365.92	259
366.147	260
366.373	243
366.599	242
366.826	262
367.052	237
367.278	234
367.505	241
367.731	257
367.957	247
368.184	258
368.41	231
368.636	272
368.862	264
369.089	239
369.315	233
369.541	225
369.767	248
369.993	255
370.219	248
370.445	249
370.672	239
370.898	231
371.124	235
371.35	245
371.576	247
371.802	228
372.028	241
372.254	242
372.48	237
372.706	235
372.932	247
373.158	235
373.384	255
373.61	222
373.835	241
374.061	241
374.287	227
374.513	263
374.739	255
374.965	266
375.191	260
375.416	234
375.642	243
375.868	255
376.094	242
376.319	245
376.545	236
376.771	239
376.997	233
377.222	240
377.448	240
377.674	220
377.899	240
378.125	241
378.35	234
378.576	222
378.802	240
379.027	256
379.253	222
379.478	234
379.704	240
379.929	228
380.155	249
380.38	243
380.606	248
380.831	261
381.057	243
381.282	246
381.507	251
381.733	241
381.958	242
382.184	256
382.409	247
382.634	241
382.86	240
383.085	246
383.31	234
383.535	234
383.761	237
383.986	244
384.211	258
384.436	259
384.662	245
384.887	243
385.112	233
385.337	246
385.562	247
385.787	248
386.013	247
386.238	263
386.463	260
386.688	255
386.913	239
387.138	234
387.363	236
387.588	264
387.813	239
388.038	260
388.263	257
388.488	266
388.713	262
388.938	260
389.163	235
389.387	257
389.612	257
389.837	250
390.062	235
390.287	261
390.512	256
390.736	263
390.961	256
391.186	240
391.411	238
391.636	257
391.86	251
392.085	247
392.31	261
392.534	263
392.759	234
392.984	259
393.208	275
393.433	272
393.658	258
393.882	233
394.107	237
394.331	245
394.556	246
394.78	265
395.005	273
395.229	245
395.454	260
395.678	267
395.903	256
396.127	269
396.352	265
396.576	284
396.801	261
397.025	267
397.249	272
397.474	259
397.698	288
397.922	274
398.147	293
398.371	273
398.595	280
398.82	281
399.044	289
399.268	310
399.492	289
399.717	312
399.941	325
400.165	333
400.389	322
400.613	320
400.837	279
401.062	283
401.286	275
401.51	268
401.734	261
401.958	280
402.182	283
402.406	276
402.63	284
402.854	289
403.078	271
403.302	290
403.526	283
403.75	265
403.974	261
404.198	274
404.422	293
404.645	289
404.869	296
405.093	291
405.317	320
405.541	326
405.765	311
405.988	301
406.212	299
406.436	305
406.66	333
406.883	313
407.107	318
407.331	321
407.555	358
407.778	359
408.002	346
408.226	311
408.449	326
408.673	314
408.896	323
409.12	342
409.344	316
409.567	300
409.791	288
410.014	294
410.238	272
410.461	293
410.685	282
410.908	285
411.132	312
411.355	347
411.578	307
411.802	298
412.025	270
412.249	278
412.472	319
412.695	305
412.919	305
413.142	278
413.365	271
413.589	281
413.812	291
414.035	259
414.258	264
414.482	268
414.705	266
414.928	262
415.151	268
415.374	268
415.597	269
415.821	275
416.044	299
416.267	275
416.49	277
416.713	269
416.936	265
417.159	281
417.382	262
417.605	278
417.828	283
418.051	274
418.274	292
418.497	286
418.72	282
418.943	271
419.166	274
419.389	285
419.611	281
419.834	293
420.057	273
420.28	307
420.503	280
420.726	279
420.948	292
421.171	286
421.394	320
421.617	284
421.839	289
422.062	282
422.285	295
422.507	315
422.73	351
422.953	338
423.175	312
423.398	277
423.621	302
423.843	282
424.066	294
424.288	292
424.511	304
424.733	335
424.956	375
425.178	358
425.401	357
425.623	361
425.846	319
426.068	307
426.291	288
426.513	301
426.735	315
426.958	343
427.18	361
427.402	439
427.625	460
427.847	406
428.069	372
428.292	335
428.514	297
428.736	290
428.958	292
429.181	284
429.403	270
429.625	277
429.847	299
430.069	324
430.292	355
430.514	274
430.736	289
430.958	296
431.18	284
431.402	263
431.624	263
431.846	264
432.068	264
432.29	276
432.512	257
432.734	262
432.956	272
433.178	255
433.4	288
433.622	259
433.844	259
434.066	254
434.287	262
434.509	258
434.731	269
434.953	266
435.175	283
435.397	288
435.618	298
435.84	315
436.062	390
436.284	403
436.505	349
436.727	302
436.949	293
437.17	293
437.392	275
437.614	295
437.835	305
438.057	374
438.278	396
438.5	401
438.721	434
438.943	421
439.165	332
439.386	312
439.608	315
439.829	315
440.05	333
440.272	348
440.493	333
440.715	300
440.936	303
441.158	269
441.379	300
441.6	301
441.822	311
442.043	318
442.264	362
442.486	394
442.707	347
442.928	309
443.149	298
443.371	341
443.592	347
443.813	408
444.034	408
444.255	330
444.476	319
444.698	306
444.919	299
445.14	375
445.361	362
445.582	319
445.803	359
446.024	423
446.245	419
446.466	376
446.687	337
446.908	299
447.129	289
447.35	260
447.571	293
447.792	291
448.013	273
448.234	291
448.455	338
448.675	385
448.896	417
449.117	349
449.338	355
449.559	415
449.779	447
450	376
450.221	311
450.442	303
450.662	292
450.883	289
451.104	260
451.324	281
451.545	260
451.766	258
451.986	272
452.207	249
452.428	265
452.648	259
452.869	255
453.089	263
453.31	266
453.53	275
453.751	248
453.971	250
454.192	277
454.412	255
454.633	256
454.853	245
455.073	258
455.294	260
455.514	312
455.734	301
455.955	260
456.175	233
456.395	252
456.616	246
456.836	224
457.056	243
457.276	227
457.497	250
457.717	225
457.937	263
458.157	243
458.377	248
458.598	279
458.818	301
459.038	321
459.258	326
459.478	280
459.698	270
459.918	257
460.138	266
460.358	247
460.578	289
460.798	285
461.018	274
461.238	269
461.458	280
461.678	264
461.898	262
462.118	277
462.338	279
462.558	269
462.777	273
462.997	292
463.217	294
463.437	288
463.657	279
463.876	287
464.096	278
464.316	290
464.536	283
464.755	310
464.975	283
465.195	301
465.414	351
465.634	291
465.854	297
466.073	268
466.293	281
466.512	282
466.732	253
466.951	259
467.171	261
467.391	260
467.61	272
467.829	269
468.049	272
468.268	266
468.488	269
468.707	237
468.927	254
469.146	263
469.365	268
469.585	240
469.804	260
470.023	258
470.243	276
470.462	260
470.681	294
470.901	267
471.12	262
471.339	265
471.558	265
471.777	267
471.997	253
472.216	268
472.435	280
472.654	278
472.873	267
473.092	255
473.311	259
473.53	253
473.749	275
473.968	295
474.187	346
474.406	351
474.625	300
474.844	275
475.063	272
475.282	250
475.501	285
475.72	269
475.939	270
476.158	277
476.377	278
476.596	260
476.814	277
477.033	263
477.252	263
477.471	282
477.69	276
477.908	282
478.127	282
478.346	286
478.564	291
478.783	288
479.002	295
479.22	293
479.439	290
479.658	309
479.876	317
480.095	316
480.313	328
480.532	315
480.751	326
480.969	331
481.188	327
481.406	356
481.624	312
481.843	311
482.061	313
482.28	319
482.498	307
482.717	307
482.935	296
483.153	304
483.372	305
483.59	322
483.808	292
484.027	321
484.245	305
484.463	313
484.681	312
484.9	313
485.118	315
485.336	306
485.554	307
485.772	319
485.99	321
486.209	322
486.427	313
486.645	303
486.863	337
487.081	320
487.299	320
487.517	313
487.735	331
487.953	299
488.171	317
488.389	323
488.607	324
488.825	312
489.043	320
489.261	326
489.479	323
489.696	338
489.914	331
490.132	346
490.35	340
490.568	356
490.786	358
491.003	330
491.221	353
491.439	338
491.657	356
491.874	346
492.092	360
492.31	364
492.527	362
492.745	376
492.963	341
493.18	365
493.398	374
493.615	391
493.833	380
494.05	379
494.268	367
494.485	361
494.703	375
494.92	380
495.138	392
495.355	397
495.573	386
495.79	372
496.008	396
496.225	389
496.442	375
496.66	378
496.877	377
497.094	374
497.312	376
497.529	391
497.746	397
497.963	404
498.181	404
498.398	411
498.615	402
498.832	414
499.049	416
499.267	418
499.484	418
499.701	440
499.918	461
500.135	466
500.352	466
500.569	495
500.786	491
501.003	481
501.22	477
501.437	467
501.654	455
501.871	429
502.088	444
502.305	431
502.522	416
502.739	411
502.956	377
503.172	390
503.389	395
503.606	392
503.823	391
504.04	397
504.256	398
504.473	374
504.69	387
504.907	363
505.123	363
505.34	370
505.557	371
505.773	387
505.99	361
506.207	371
506.423	363
506.64	363
506.856	360
507.073	352
507.289	342
507.506	349
507.722	352
507.939	357
508.155	356
508.372	342
508.588	343
508.805	360
509.021	354
509.238	353
509.454	372
509.67	359
509.887	333
510.103	355
510.319	355
510.536	402
510.752	616
510.968	520
511.184	371
511.401	326
511.617	350
511.833	340
512.049	322
512.265	314
512.481	335
512.698	327
512.914	320
513.13	337
513.346	335
513.562	338
513.778	333
513.994	311
514.21	318
514.426	344
514.642	385
514.858	377
515.074	415
515.29	496
515.506	663
515.721	527
515.937	392
516.153	357
516.369	373
516.585	340
516.801	343
517.016	334
517.232	339
517.448	339
517.664	319
517.879	341
518.095	339
518.311	333
518.527	347
518.742	327
518.958	336
519.173	332
519.389	350
519.605	332
519.82	321
520.036	347
520.251	344
520.467	353
520.682	358
520.898	347
521.113	370
521.329	381
521.544	436
521.76	545
521.975	850
522.19	839
522.406	481
522.621	390
522.836	339
523.052	349
523.267	315
523.482	317
523.698	318
523.913	321
524.128	311
524.343	318
524.559	301
524.774	307
524.989	309
525.204	321
525.419	311
525.634	282
525.849	288
526.064	296
526.28	282
526.495	272
526.71	289
526.925	280
527.14	275
527.355	272
527.57	300
527.785	278
527.999	278
528.214	287
528.429	281
528.644	280
528.859	283
529.074	289
529.289	292
529.503	329
529.718	321
529.933	295
530.148	293
530.363	284
530.577	258
530.792	273
531.007	260
531.221	278
531.436	273
531.651	269
531.865	264
532.08	275
532.295	256
532.509	251
532.724	271
532.938	281
533.153	269
533.367	265
533.582	259
533.796	269
534.011	273
534.225	266
534.44	255
534.654	261
534.868	261
535.083	274
535.297	258
535.511	260
535.726	268
535.94	275
536.154	277
536.369	268
536.583	262
536.797	260
537.011	254
537.225	256
537.44	244
537.654	256
537.868	244
538.082	251
538.296	240
538.51	253
538.724	259
538.938	257
539.153	265
539.367	276
539.581	261
539.795	257
540.009	253
540.222	262
540.436	261
540.65	265
540.864	284
541.078	274
541.292	264
541.506	260
541.72	251
541.934	230
542.147	263
542.361	266
542.575	252
542.789	252
543.002	255
543.216	263
543.43	269
543.644	267
543.857	268
544.071	263
544.285	259
544.498	239
544.712	261
544.925	267
545.139	275
545.352	253
545.566	253
545.779	256
545.993	259
546.206	249
546.42	275
546.633	269
546.847	249
547.06	262
547.274	240
547.487	247
547.7	243
547.914	262
548.127	258
548.34	239
548.554	233
548.767	263
548.98	248
549.193	242
549.407	227
549.62	259
549.833	256
550.046	245
550.259	242
550.473	248
550.686	267
550.899	244
551.112	243
551.325	234
551.538	245
551.751	226
551.964	234
552.177	258
552.39	239
552.603	249
552.816	248
553.029	255
553.242	239
553.455	239
553.667	261
553.88	241
554.093	255
554.306	248
554.519	253
554.732	246
554.944	241
555.157	250
555.37	223
555.583	239
555.795	240
556.008	230
556.221	227
556.433	233
556.646	238
556.859	232
557.071	217
557.284	235
557.496	223
557.709	219
557.921	231
558.134	212
558.346	216
558.559	233
558.771	224
558.984	220
559.196	220
559.409	215
559.621	230
559.833	216
560.046	217
560.258	228
560.47	224
560.683	227
560.895	214
561.107	216
561.32	218
561.532	216
561.744	233
561.956	228
562.168	227
562.381	221
562.593	221
562.805	213
563.017	212
563.229	224
563.441	218
563.653	212
563.865	233
564.077	235
564.289	223
