Data from 1982.PennyLincolnUp.Lamp.En5.5.200Scan.071819.P1_HRD10591_16-45-36-961.txt Node
Date: Thu Jul 18 16:45:36 EDT 2019
User: cochatt
Spectrometer: HR+D1059
Trigger mode: 1
Integration Time (sec): 1.000000E-1
Scans to average: 1
Electric dark correction enabled: true
Nonlinearity correction enabled: false
Boxcar width: 0
XAxis mode: Wavelengths
Number of Pixels in Spectrum: 2048
>>>>>Begin Spectral Data<<<<<
223.165	-4.5
223.4	-4.5
223.635	-4.5
223.869	-13.5
224.104	-19.5
224.338	-2.5
224.573	-8.5
224.808	-19.5
225.042	-10.5
225.277	-10.5
225.511	-5.5
225.746	13.5
225.98	10.5
226.215	4.5
226.449	5.5
226.683	12.5
226.918	18.5
227.152	29.5
227.387	37.5
227.621	42.5
227.856	46.5
228.09	55.5
228.324	57.5
228.559	52.5
228.793	66.5
229.027	82.5
229.262	91.5
229.496	99.5
229.73	111.5
229.964	111.5
230.199	101.5
230.433	102.5
230.667	101.5
230.901	80.5
231.136	91.5
231.37	90.5
231.604	78.5
231.838	108.5
232.072	101.5
232.306	97.5
232.541	91.5
232.775	103.5
233.009	100.5
233.243	87.5
233.477	99.5
233.711	97.5
233.945	99.5
234.179	108.5
234.413	106.5
234.647	94.5
234.881	95.5
235.115	104.5
235.349	92.5
235.583	107.5
235.817	112.5
236.051	104.5
236.285	108.5
236.519	114.5
236.753	105.5
236.987	123.5
237.221	127.5
237.455	145.5
237.689	134.5
237.922	109.5
238.156	122.5
238.39	96.5
238.624	115.5
238.858	101.5
239.091	109.5
239.325	98.5
239.559	85.5
239.793	98.5
240.027	106.5
240.26	122.5
240.494	120.5
240.728	115.5
240.961	91.5
241.195	115.5
241.429	115.5
241.662	107.5
241.896	108.5
242.13	106.5
242.363	113.5
242.597	111.5
242.83	109.5
243.064	122.5
243.298	108.5
243.531	115.5
243.765	115.5
243.998	106.5
244.232	122.5
244.465	111.5
244.699	111.5
244.932	131.5
245.166	119.5
245.399	115.5
245.633	121.5
245.866	109.5
246.099	104.5
246.333	118.5
246.566	133.5
246.8	123.5
247.033	123.5
247.266	124.5
247.5	125.5
247.733	136.5
247.966	124.5
248.2	118.5
248.433	128.5
248.666	147.5
248.899	135.5
249.133	136.5
249.366	146.5
249.599	141.5
249.832	153.5
250.066	132.5
250.299	138.5
250.532	151.5
250.765	136.5
250.998	152.5
251.231	173.5
251.465	146.5
251.698	152.5
251.931	152.5
252.164	145.5
252.397	142.5
252.63	155.5
252.863	162.5
253.096	153.5
253.329	156.5
253.562	154.5
253.795	162.5
254.028	156.5
254.261	159.5
254.494	175.5
254.727	183.5
254.96	181.5
255.193	202.5
255.426	162.5
255.659	167.5
255.892	189.5
256.124	158.5
256.357	181.5
256.59	168.5
256.823	165.5
257.056	152.5
257.289	159.5
257.521	144.5
257.754	152.5
257.987	150.5
258.22	150.5
258.452	155.5
258.685	165.5
258.918	157.5
259.151	165.5
259.383	170.5
259.616	177.5
259.849	151.5
260.081	172.5
260.314	179.5
260.547	180.5
260.779	166.5
261.012	160.5
261.244	162.5
261.477	171.5
261.71	172.5
261.942	166.5
262.175	163.5
262.407	164.5
262.64	166.5
262.872	163.5
263.105	161.5
263.337	157.5
263.57	159.5
263.802	152.5
264.035	149.5
264.267	149.5
264.499	148.5
264.732	153.5
264.964	152.5
265.197	169.5
265.429	160.5
265.661	155.5
265.894	150.5
266.126	164.5
266.358	153.5
266.591	162.5
266.823	177.5
267.055	166.5
267.287	167.5
267.52	163.5
267.752	151.5
267.984	154.5
268.216	165.5
268.448	172.5
268.681	169.5
268.913	183.5
269.145	204.5
269.377	189.5
269.609	190.5
269.841	207.5
270.073	186.5
270.306	191.5
270.538	231.5
270.77	218.5
271.002	215.5
271.234	173.5
271.466	204.5
271.698	231.5
271.93	221.5
272.162	236.5
272.394	208.5
272.626	214.5
272.858	219.5
273.09	190.5
273.322	200.5
273.553	188.5
273.785	193.5
274.017	186.5
274.249	194.5
274.481	179.5
274.713	175.5
274.945	185.5
275.176	185.5
275.408	172.5
275.64	183.5
275.872	176.5
276.104	175.5
276.335	189.5
276.567	197.5
276.799	184.5
277.031	221.5
277.262	221.5
277.494	198.5
277.726	214.5
277.957	199.5
278.189	183.5
278.421	195.5
278.652	190.5
278.884	194.5
279.115	206.5
279.347	202.5
279.579	193.5
279.81	182.5
280.042	169.5
280.273	184.5
280.505	197.5
280.736	194.5
280.968	188.5
281.199	177.5
281.431	181.5
281.662	186.5
281.894	189.5
282.125	197.5
282.356	195.5
282.588	193.5
282.819	194.5
283.051	187.5
283.282	172.5
283.513	187.5
283.745	187.5
283.976	182.5
284.207	192.5
284.439	219.5
284.67	179.5
284.901	201.5
285.132	179.5
285.364	191.5
285.595	190.5
285.826	175.5
286.057	196.5
286.288	188.5
286.52	179.5
286.751	180.5
286.982	186.5
287.213	192.5
287.444	202.5
287.675	209.5
287.906	199.5
288.138	192.5
288.369	205.5
288.6	207.5
288.831	188.5
289.062	201.5
289.293	188.5
289.524	185.5
289.755	200.5
289.986	199.5
290.217	193.5
290.448	192.5
290.679	197.5
290.91	196.5
291.141	179.5
291.371	202.5
291.602	191.5
291.833	189.5
292.064	169.5
292.295	188.5
292.526	224.5
292.757	213.5
292.987	199.5
293.218	172.5
293.449	197.5
293.68	197.5
293.91	210.5
294.141	186.5
294.372	196.5
294.603	186.5
294.833	195.5
295.064	193.5
295.295	205.5
295.525	205.5
295.756	213.5
295.987	197.5
296.217	213.5
296.448	225.5
296.679	190.5
296.909	202.5
297.14	207.5
297.37	189.5
297.601	200.5
297.831	197.5
298.062	200.5
298.292	205.5
298.523	208.5
298.753	191.5
298.984	202.5
299.214	184.5
299.445	207.5
299.675	200.5
299.905	209.5
300.136	205.5
300.366	191.5
300.597	197.5
300.827	215.5
301.057	219.5
301.288	211.5
301.518	204.5
301.748	206.5
301.979	202.5
302.209	221.5
302.439	199.5
302.669	211.5
302.9	196.5
303.13	196.5
303.36	207.5
303.59	225.5
303.82	218.5
304.051	224.5
304.281	201.5
304.511	216.5
304.741	235.5
304.971	200.5
305.201	216.5
305.431	222.5
305.661	233.5
305.891	207.5
306.121	213.5
306.352	223.5
306.582	208.5
306.812	212.5
307.042	215.5
307.272	206.5
307.502	219.5
307.731	219.5
307.961	208.5
308.191	219.5
308.421	207.5
308.651	224.5
308.881	231.5
309.111	224.5
309.341	225.5
309.571	251.5
309.8	264.5
310.03	237.5
310.26	236.5
310.49	259.5
310.72	263.5
310.949	271.5
311.179	264.5
311.409	260.5
311.639	257.5
311.868	247.5
312.098	239.5
312.328	270.5
312.557	268.5
312.787	273.5
313.017	272.5
313.246	257.5
313.476	241.5
313.706	264.5
313.935	264.5
314.165	264.5
314.394	252.5
314.624	254.5
314.853	248.5
315.083	251.5
315.312	241.5
315.542	246.5
315.771	263.5
316.001	246.5
316.23	235.5
316.46	249.5
316.689	234.5
316.919	260.5
317.148	245.5
317.377	256.5
317.607	255.5
317.836	250.5
318.065	245.5
318.295	265.5
318.524	253.5
318.753	251.5
318.983	256.5
319.212	239.5
319.441	251.5
319.67	274.5
319.9	268.5
320.129	251.5
320.358	248.5
320.587	250.5
320.816	275.5
321.046	264.5
321.275	240.5
321.504	262.5
321.733	253.5
321.962	267.5
322.191	259.5
322.42	282.5
322.649	305.5
322.878	296.5
323.108	303.5
323.337	328.5
323.566	317.5
323.795	365.5
324.024	416.5
324.253	495.5
324.482	741.5
324.71	1065.5
324.939	1400.5
325.168	1123.5
325.397	625.5
325.626	418.5
325.855	371.5
326.084	353.5
326.313	334.5
326.542	347.5
326.77	376.5
326.999	457.5
327.228	652.5
327.457	923.5
327.686	1014.5
327.914	665.5
328.143	475.5
328.372	411.5
328.6	388.5
328.829	379.5
329.058	394.5
329.287	383.5
329.515	345.5
329.744	357.5
329.972	356.5
330.201	345.5
330.43	377.5
330.658	390.5
330.887	386.5
331.115	370.5
331.344	325.5
331.572	327.5
331.801	313.5
332.03	321.5
332.258	314.5
332.486	290.5
332.715	293.5
332.943	284.5
333.172	299.5
333.4	271.5
333.629	291.5
333.857	305.5
334.085	291.5
334.314	330.5
334.542	320.5
334.771	334.5
334.999	309.5
335.227	283.5
335.455	277.5
335.684	298.5
335.912	271.5
336.14	275.5
336.369	292.5
336.597	288.5
336.825	280.5
337.053	297.5
337.281	272.5
337.51	265.5
337.738	284.5
337.966	292.5
338.194	287.5
338.422	279.5
338.65	286.5
338.878	275.5
339.106	275.5
339.334	274.5
339.562	269.5
339.79	270.5
340.018	283.5
340.246	275.5
340.474	289.5
340.702	293.5
340.93	267.5
341.158	274.5
341.386	267.5
341.614	269.5
341.842	269.5
342.07	273.5
342.298	267.5
342.526	250.5
342.754	256.5
342.981	258.5
343.209	278.5
343.437	242.5
343.665	283.5
343.893	267.5
344.12	272.5
344.348	262.5
344.576	256.5
344.804	275.5
345.031	277.5
345.259	290.5
345.487	275.5
345.714	275.5
345.942	246.5
346.17	232.5
346.397	243.5
346.625	267.5
346.853	257.5
347.08	248.5
347.308	270.5
347.535	261.5
347.763	268.5
347.99	285.5
348.218	271.5
348.445	271.5
348.673	275.5
348.9	261.5
349.128	250.5
349.355	249.5
349.583	255.5
349.81	243.5
350.037	270.5
350.265	253.5
350.492	261.5
350.72	236.5
350.947	253.5
351.174	263.5
351.402	273.5
351.629	269.5
351.856	256.5
352.083	263.5
352.311	268.5
352.538	272.5
352.765	267.5
352.992	255.5
353.22	260.5
353.447	263.5
353.674	257.5
353.901	244.5
354.128	240.5
354.355	245.5
354.583	255.5
354.81	236.5
355.037	248.5
355.264	239.5
355.491	255.5
355.718	229.5
355.945	249.5
356.172	229.5
356.399	255.5
356.626	248.5
356.853	247.5
357.08	241.5
357.307	234.5
357.534	233.5
357.761	224.5
357.988	237.5
358.215	229.5
358.441	240.5
358.668	239.5
358.895	241.5
359.122	257.5
359.349	270.5
359.576	276.5
359.802	289.5
360.029	293.5
360.256	305.5
360.483	272.5
360.709	262.5
360.936	245.5
361.163	252.5
361.39	248.5
361.616	259.5
361.843	262.5
362.07	264.5
362.296	272.5
362.523	259.5
362.749	245.5
362.976	239.5
363.203	236.5
363.429	263.5
363.656	248.5
363.882	256.5
364.109	260.5
364.335	234.5
364.562	228.5
364.788	233.5
365.015	245.5
365.241	243.5
365.468	236.5
365.694	256.5
365.92	250.5
366.147	257.5
366.373	236.5
366.599	222.5
366.826	232.5
367.052	233.5
367.278	224.5
367.505	251.5
367.731	253.5
367.957	226.5
368.184	234.5
368.41	245.5
368.636	247.5
368.862	243.5
369.089	243.5
369.315	230.5
369.541	244.5
369.767	243.5
369.993	256.5
370.219	239.5
370.445	241.5
370.672	246.5
370.898	225.5
371.124	231.5
371.35	240.5
371.576	231.5
371.802	236.5
372.028	234.5
372.254	231.5
372.48	241.5
372.706	235.5
372.932	247.5
373.158	225.5
373.384	224.5
373.61	249.5
373.835	233.5
374.061	265.5
374.287	236.5
374.513	243.5
374.739	244.5
374.965	224.5
375.191	248.5
375.416	232.5
375.642	213.5
375.868	248.5
376.094	232.5
376.319	227.5
376.545	227.5
376.771	227.5
376.997	239.5
377.222	237.5
377.448	245.5
377.674	236.5
377.899	240.5
378.125	224.5
378.35	232.5
378.576	218.5
378.802	239.5
379.027	229.5
379.253	241.5
379.478	235.5
379.704	232.5
379.929	222.5
380.155	232.5
380.38	233.5
380.606	229.5
380.831	239.5
381.057	225.5
381.282	230.5
381.507	239.5
381.733	238.5
381.958	244.5
382.184	228.5
382.409	235.5
382.634	252.5
382.86	234.5
383.085	237.5
383.31	239.5
383.535	237.5
383.761	237.5
383.986	237.5
384.211	247.5
384.436	229.5
384.662	222.5
384.887	226.5
385.112	219.5
385.337	243.5
385.562	229.5
385.787	253.5
386.013	245.5
386.238	256.5
386.463	256.5
386.688	241.5
386.913	232.5
387.138	225.5
387.363	229.5
387.588	234.5
387.813	243.5
388.038	250.5
388.263	259.5
388.488	245.5
388.713	256.5
388.938	249.5
389.163	244.5
389.387	250.5
389.612	242.5
389.837	242.5
390.062	255.5
390.287	253.5
390.512	259.5
390.736	233.5
390.961	256.5
391.186	241.5
391.411	242.5
391.636	237.5
391.86	245.5
392.085	237.5
392.31	238.5
392.534	249.5
392.759	229.5
392.984	226.5
393.208	236.5
393.433	242.5
393.658	233.5
393.882	244.5
394.107	228.5
394.331	242.5
394.556	256.5
394.78	239.5
395.005	246.5
395.229	242.5
395.454	227.5
395.678	265.5
395.903	231.5
396.127	273.5
396.352	281.5
396.576	233.5
396.801	245.5
397.025	258.5
397.249	251.5
397.474	253.5
397.698	249.5
397.922	262.5
398.147	268.5
398.371	282.5
398.595	262.5
398.82	271.5
399.044	257.5
399.268	264.5
399.492	281.5
399.717	308.5
399.941	302.5
400.165	308.5
400.389	329.5
400.613	293.5
400.837	282.5
401.062	290.5
401.286	266.5
401.51	263.5
401.734	256.5
401.958	265.5
402.182	268.5
402.406	276.5
402.63	287.5
402.854	285.5
403.078	278.5
403.302	266.5
403.526	271.5
403.75	282.5
403.974	264.5
404.198	261.5
404.422	275.5
404.645	272.5
404.869	286.5
405.093	313.5
405.317	330.5
405.541	328.5
405.765	289.5
405.988	289.5
406.212	269.5
406.436	311.5
406.66	291.5
406.883	287.5
407.107	312.5
407.331	305.5
407.555	359.5
407.778	355.5
408.002	323.5
408.226	292.5
408.449	321.5
408.673	303.5
408.896	317.5
409.12	324.5
409.344	317.5
409.567	284.5
409.791	257.5
410.014	277.5
410.238	279.5
410.461	300.5
410.685	295.5
410.908	290.5
411.132	314.5
411.355	327.5
411.578	301.5
411.802	292.5
412.025	266.5
412.249	276.5
412.472	279.5
412.695	317.5
412.919	276.5
413.142	273.5
413.365	264.5
413.589	267.5
413.812	257.5
414.035	261.5
414.258	265.5
414.482	259.5
414.705	281.5
414.928	268.5
415.151	250.5
415.374	269.5
415.597	268.5
415.821	261.5
416.044	256.5
416.267	269.5
416.49	270.5
416.713	256.5
416.936	256.5
417.159	257.5
417.382	243.5
417.605	268.5
417.828	296.5
418.051	288.5
418.274	283.5
418.497	261.5
418.72	266.5
418.943	253.5
419.166	270.5
419.389	280.5
419.611	277.5
419.834	251.5
420.057	269.5
420.28	284.5
420.503	279.5
420.726	269.5
420.948	263.5
421.171	305.5
421.394	327.5
421.617	287.5
421.839	281.5
422.062	261.5
422.285	279.5
422.507	314.5
422.73	356.5
422.953	326.5
423.175	289.5
423.398	291.5
423.621	282.5
423.843	295.5
424.066	280.5
424.288	308.5
424.511	326.5
424.733	351.5
424.956	376.5
425.178	369.5
425.401	353.5
425.623	370.5
425.846	317.5
426.068	304.5
426.291	299.5
426.513	306.5
426.735	293.5
426.958	360.5
427.18	377.5
427.402	442.5
427.625	471.5
427.847	433.5
428.069	363.5
428.292	333.5
428.514	291.5
428.736	282.5
428.958	284.5
429.181	271.5
429.403	278.5
429.625	293.5
429.847	311.5
430.069	341.5
430.292	332.5
430.514	285.5
430.736	292.5
430.958	298.5
431.18	255.5
431.402	248.5
431.624	254.5
431.846	248.5
432.068	242.5
432.29	246.5
432.512	259.5
432.734	277.5
432.956	261.5
433.178	275.5
433.4	285.5
433.622	264.5
433.844	262.5
434.066	267.5
434.287	273.5
434.509	267.5
434.731	257.5
434.953	266.5
435.175	290.5
435.397	299.5
435.618	318.5
435.84	332.5
436.062	356.5
436.284	393.5
436.505	342.5
436.727	315.5
436.949	298.5
437.17	285.5
437.392	278.5
437.614	281.5
437.835	310.5
438.057	377.5
438.278	407.5
438.5	403.5
438.721	431.5
438.943	413.5
439.165	337.5
439.386	307.5
439.608	298.5
439.829	317.5
440.05	315.5
440.272	334.5
440.493	329.5
440.715	298.5
440.936	299.5
441.158	284.5
441.379	273.5
441.6	284.5
441.822	301.5
442.043	313.5
442.264	371.5
442.486	368.5
442.707	327.5
442.928	313.5
443.149	317.5
443.371	330.5
443.592	353.5
443.813	374.5
444.034	419.5
444.255	350.5
444.476	307.5
444.698	287.5
444.919	294.5
445.14	374.5
445.361	334.5
445.582	327.5
445.803	391.5
446.024	401.5
446.245	427.5
446.466	357.5
446.687	343.5
446.908	317.5
447.129	302.5
447.35	270.5
447.571	288.5
447.792	277.5
448.013	279.5
448.234	308.5
448.455	332.5
448.675	389.5
448.896	419.5
449.117	374.5
449.338	357.5
449.559	409.5
449.779	452.5
450	364.5
450.221	309.5
450.442	263.5
450.662	287.5
450.883	282.5
451.104	292.5
451.324	270.5
451.545	252.5
451.766	278.5
451.986	261.5
452.207	248.5
452.428	240.5
452.648	243.5
452.869	246.5
453.089	249.5
453.31	253.5
453.53	260.5
453.751	248.5
453.971	264.5
454.192	269.5
454.412	268.5
454.633	265.5
454.853	246.5
455.073	257.5
455.294	266.5
455.514	305.5
455.734	292.5
455.955	248.5
456.175	263.5
456.395	247.5
456.616	239.5
456.836	227.5
457.056	234.5
457.276	233.5
457.497	231.5
457.717	228.5
457.937	224.5
458.157	241.5
458.377	232.5
458.598	274.5
458.818	278.5
459.038	345.5
459.258	338.5
459.478	265.5
459.698	273.5
459.918	268.5
460.138	271.5
460.358	251.5
460.578	260.5
460.798	261.5
461.018	264.5
461.238	269.5
461.458	264.5
461.678	257.5
461.898	258.5
462.118	267.5
462.338	255.5
462.558	270.5
462.777	257.5
462.997	269.5
463.217	274.5
463.437	280.5
463.657	259.5
463.876	282.5
464.096	245.5
464.316	273.5
464.536	283.5
464.755	275.5
464.975	288.5
465.195	325.5
465.414	335.5
465.634	305.5
465.854	281.5
466.073	255.5
466.293	260.5
466.512	255.5
466.732	254.5
466.951	268.5
467.171	270.5
467.391	256.5
467.61	277.5
467.829	261.5
468.049	242.5
468.268	253.5
468.488	246.5
468.707	246.5
468.927	240.5
469.146	240.5
469.365	266.5
469.585	275.5
469.804	259.5
470.023	260.5
470.243	278.5
470.462	264.5
470.681	280.5
470.901	294.5
471.12	259.5
471.339	257.5
471.558	259.5
471.777	262.5
471.997	261.5
472.216	266.5
472.435	283.5
472.654	280.5
472.873	265.5
473.092	267.5
473.311	250.5
473.53	236.5
473.749	261.5
473.968	298.5
474.187	356.5
474.406	357.5
474.625	293.5
474.844	268.5
475.063	266.5
475.282	283.5
475.501	256.5
475.72	275.5
475.939	266.5
476.158	283.5
476.377	256.5
476.596	262.5
476.814	276.5
477.033	292.5
477.252	267.5
477.471	277.5
477.69	280.5
477.908	281.5
478.127	278.5
478.346	273.5
478.564	269.5
478.783	285.5
479.002	284.5
479.22	261.5
479.439	307.5
479.658	308.5
479.876	315.5
480.095	316.5
480.313	311.5
480.532	320.5
480.751	307.5
480.969	321.5
481.188	339.5
481.406	351.5
481.624	354.5
481.843	292.5
482.061	301.5
482.28	313.5
482.498	297.5
482.717	301.5
482.935	297.5
483.153	292.5
483.372	289.5
483.59	300.5
483.808	297.5
484.027	300.5
484.245	309.5
484.463	314.5
484.681	305.5
484.9	294.5
485.118	287.5
485.336	313.5
485.554	305.5
485.772	292.5
485.99	303.5
486.209	311.5
486.427	319.5
486.645	321.5
486.863	325.5
487.081	320.5
487.299	329.5
487.517	311.5
487.735	311.5
487.953	319.5
488.171	307.5
488.389	300.5
488.607	329.5
488.825	324.5
489.043	303.5
489.261	307.5
489.479	316.5
489.696	311.5
489.914	324.5
490.132	333.5
490.35	331.5
490.568	330.5
490.786	346.5
491.003	345.5
491.221	340.5
491.439	363.5
491.657	345.5
491.874	340.5
492.092	362.5
492.31	367.5
492.527	354.5
492.745	359.5
492.963	373.5
493.18	357.5
493.398	377.5
493.615	377.5
493.833	357.5
494.05	375.5
494.268	373.5
494.485	370.5
494.703	378.5
494.92	384.5
495.138	379.5
495.355	380.5
495.573	373.5
495.79	374.5
496.008	358.5
496.225	357.5
496.442	369.5
496.66	379.5
496.877	388.5
497.094	382.5
497.312	376.5
497.529	378.5
497.746	391.5
497.963	379.5
498.181	394.5
498.398	409.5
498.615	413.5
498.832	409.5
499.049	418.5
499.267	413.5
499.484	401.5
499.701	410.5
499.918	429.5
500.135	424.5
500.352	439.5
500.569	451.5
500.786	455.5
501.003	453.5
501.22	445.5
501.437	444.5
501.654	455.5
501.871	456.5
502.088	429.5
502.305	417.5
502.522	384.5
502.739	409.5
502.956	396.5
503.172	387.5
503.389	379.5
503.606	394.5
503.823	370.5
504.04	363.5
504.256	377.5
504.473	367.5
504.69	371.5
504.907	373.5
505.123	355.5
505.34	359.5
505.557	381.5
505.773	376.5
505.99	375.5
506.207	356.5
506.423	369.5
506.64	361.5
506.856	349.5
507.073	370.5
507.289	364.5
507.506	355.5
507.722	389.5
507.939	355.5
508.155	359.5
508.372	369.5
508.588	362.5
508.805	355.5
509.021	353.5
509.238	354.5
509.454	375.5
509.67	357.5
509.887	354.5
510.103	362.5
510.319	355.5
510.536	432.5
510.752	660.5
510.968	531.5
511.184	356.5
511.401	343.5
511.617	316.5
511.833	329.5
512.049	336.5
512.265	325.5
512.481	341.5
512.698	348.5
512.914	359.5
513.13	325.5
513.346	345.5
513.562	342.5
513.778	344.5
513.994	332.5
514.21	332.5
514.426	374.5
514.642	379.5
514.858	402.5
515.074	412.5
515.29	529.5
515.506	727.5
515.721	591.5
515.937	399.5
516.153	366.5
516.369	352.5
516.585	343.5
516.801	344.5
517.016	364.5
517.232	345.5
517.448	329.5
517.664	347.5
517.879	319.5
518.095	320.5
518.311	320.5
518.527	316.5
518.742	331.5
518.958	332.5
519.173	332.5
519.389	327.5
519.605	326.5
519.82	329.5
520.036	344.5
520.251	360.5
