Data from 1982.PennyLincolnUp.Lamp.En5.5.200Scan.071819.P1_HRD10591_16-47-00-962.txt Node
Date: Thu Jul 18 16:47:00 EDT 2019
User: cochatt
Spectrometer: HR+D1059
Trigger mode: 1
Integration Time (sec): 1.000000E-1
Scans to average: 1
Electric dark correction enabled: true
Nonlinearity correction enabled: false
Boxcar width: 0
XAxis mode: Wavelengths
Number of Pixels in Spectrum: 2048
>>>>>Begin Spectral Data<<<<<
223.165	-14
223.4	-14
223.635	-14
223.869	-10
224.104	-28
224.338	-13
224.573	-18
224.808	-17
225.042	-19
225.277	-10
225.511	-13
225.746	2
225.98	17
226.215	26
226.449	29
226.683	10
226.918	31
227.152	27
227.387	35
227.621	41
227.856	40
228.09	50
228.324	57
228.559	55
228.793	76
229.027	98
229.262	107
229.496	93
229.73	116
229.964	152
230.199	117
230.433	102
230.667	112
230.901	122
231.136	97
231.37	114
231.604	106
231.838	103
232.072	103
232.306	101
232.541	110
232.775	98
233.009	92
233.243	100
233.477	109
233.711	93
233.945	116
234.179	102
234.413	95
234.647	113
234.881	106
235.115	100
235.349	103
235.583	118
235.817	105
236.051	101
236.285	113
236.519	107
236.753	106
236.987	130
237.221	162
237.455	186
237.689	153
237.922	121
238.156	134
238.39	98
238.624	120
238.858	107
239.091	116
239.325	97
239.559	119
239.793	102
240.027	120
240.26	119
240.494	133
240.728	122
240.961	131
241.195	129
241.429	118
241.662	116
241.896	124
242.13	114
242.363	119
242.597	105
242.83	115
243.064	119
243.298	113
243.531	123
243.765	131
243.998	126
244.232	119
244.465	129
244.699	132
244.932	132
245.166	125
245.399	130
245.633	121
245.866	121
246.099	124
246.333	130
246.566	126
246.8	133
247.033	133
247.266	141
247.5	133
247.733	140
247.966	129
248.2	149
248.433	138
248.666	165
248.899	165
249.133	174
249.366	178
249.599	167
249.832	163
250.066	147
250.299	153
250.532	162
250.765	164
250.998	185
251.231	187
251.465	178
251.698	165
251.931	167
252.164	170
252.397	177
252.63	165
252.863	166
253.096	192
253.329	189
253.562	183
253.795	159
254.028	198
254.261	180
254.494	185
254.727	207
254.96	234
255.193	222
255.426	198
255.659	174
255.892	189
256.124	182
256.357	202
256.59	185
256.823	180
257.056	167
257.289	173
257.521	185
257.754	181
257.987	186
258.22	190
258.452	161
258.685	185
258.918	171
259.151	174
259.383	196
259.616	173
259.849	175
260.081	182
260.314	204
260.547	211
260.779	207
261.012	200
261.244	214
261.477	195
261.71	183
261.942	186
262.175	205
262.407	186
262.64	186
262.872	178
263.105	180
263.337	180
263.57	173
263.802	162
264.035	172
264.267	182
264.499	184
264.732	161
264.964	169
265.197	186
265.429	168
265.661	189
265.894	157
266.126	177
266.358	171
266.591	163
266.823	181
267.055	169
267.287	175
267.52	186
267.752	177
267.984	170
268.216	184
268.448	192
268.681	183
268.913	204
269.145	218
269.377	227
269.609	219
269.841	227
270.073	250
270.306	242
270.538	265
270.77	261
271.002	236
271.234	239
271.466	248
271.698	241
271.93	245
272.162	251
272.394	266
272.626	253
272.858	240
273.09	230
273.322	239
273.553	204
273.785	220
274.017	215
274.249	207
274.481	213
274.713	230
274.945	214
275.176	211
275.408	231
275.64	213
275.872	229
276.104	219
276.335	237
276.567	222
276.799	227
277.031	248
277.262	261
277.494	236
277.726	236
277.957	245
278.189	209
278.421	223
278.652	218
278.884	207
279.115	213
279.347	220
279.579	210
279.81	206
280.042	216
280.273	220
280.505	202
280.736	218
280.968	203
281.199	209
281.431	201
281.662	217
281.894	221
282.125	214
282.356	242
282.588	238
282.819	239
283.051	226
283.282	209
283.513	210
283.745	212
283.976	222
284.207	223
284.439	216
284.67	217
284.901	237
285.132	211
285.364	213
285.595	228
285.826	215
286.057	236
286.288	223
286.52	207
286.751	238
286.982	232
287.213	227
287.444	219
287.675	230
287.906	243
288.138	236
288.369	237
288.6	226
288.831	250
289.062	222
289.293	237
289.524	227
289.755	234
289.986	224
290.217	233
290.448	229
290.679	250
290.91	227
291.141	233
291.371	214
291.602	226
291.833	232
292.064	217
292.295	213
292.526	221
292.757	219
292.987	215
293.218	215
293.449	227
293.68	224
293.91	217
294.141	233
294.372	239
294.603	223
294.833	233
295.064	224
295.295	230
295.525	239
295.756	235
295.987	225
296.217	250
296.448	261
296.679	241
296.909	236
297.14	232
297.37	228
297.601	238
297.831	242
298.062	238
298.292	228
298.523	228
298.753	225
298.984	230
299.214	240
299.445	242
299.675	238
299.905	259
300.136	239
300.366	234
300.597	260
300.827	247
301.057	249
301.288	265
301.518	243
301.748	248
301.979	235
302.209	281
302.439	250
302.669	257
302.9	257
303.13	263
303.36	268
303.59	266
303.82	249
304.051	257
304.281	250
304.511	268
304.741	254
304.971	254
305.201	234
305.431	230
305.661	251
305.891	255
306.121	261
306.352	251
306.582	253
306.812	246
307.042	264
307.272	277
307.502	250
307.731	269
307.961	255
308.191	249
308.421	246
308.651	247
308.881	265
309.111	279
309.341	246
309.571	300
309.8	267
310.03	291
310.26	283
310.49	310
310.72	311
310.949	300
311.179	315
311.409	300
311.639	292
311.868	295
312.098	315
312.328	322
312.557	332
312.787	323
313.017	321
313.246	306
313.476	302
313.706	309
313.935	331
314.165	288
314.394	313
314.624	303
314.853	311
315.083	290
315.312	317
315.542	286
315.771	293
316.001	300
316.23	290
316.46	291
316.689	287
316.919	294
317.148	324
317.377	316
317.607	296
317.836	305
318.065	303
318.295	294
318.524	297
318.753	296
318.983	303
319.212	291
319.441	301
319.67	299
319.9	298
320.129	283
320.358	295
320.587	300
320.816	293
321.046	319
321.275	319
321.504	319
321.733	319
321.962	327
322.191	323
322.42	350
322.649	358
322.878	360
323.108	389
323.337	393
323.566	409
323.795	435
324.024	494
324.253	609
324.482	939
324.71	1378
324.939	1797
325.168	1494
325.397	792
325.626	534
325.855	431
326.084	409
326.313	412
326.542	422
326.77	459
326.999	591
327.228	811
327.457	1153
327.686	1331
327.914	848
328.143	579
328.372	517
328.6	482
328.829	466
329.058	482
329.287	462
329.515	441
329.744	438
329.972	403
330.201	442
330.43	465
330.658	462
330.887	485
331.115	480
331.344	401
331.572	390
331.801	398
332.03	397
332.258	375
332.486	351
332.715	339
332.943	359
333.172	336
333.4	334
333.629	373
333.857	368
334.085	387
334.314	379
334.542	402
334.771	416
334.999	400
335.227	353
335.455	354
335.684	346
335.912	345
336.14	334
336.369	362
336.597	350
336.825	342
337.053	333
337.281	325
337.51	343
337.738	343
337.966	324
338.194	335
338.422	328
338.65	316
338.878	332
339.106	314
339.334	325
339.562	323
339.79	326
340.018	321
340.246	314
340.474	328
340.702	302
340.93	322
341.158	323
341.386	330
341.614	336
341.842	324
342.07	327
342.298	326
342.526	321
342.754	322
342.981	307
343.209	322
343.437	310
343.665	305
343.893	314
344.12	308
344.348	329
344.576	305
344.804	313
345.031	330
345.259	345
345.487	341
345.714	318
345.942	317
346.17	309
346.397	323
346.625	312
346.853	300
347.08	312
347.308	312
347.535	323
347.763	320
347.99	317
348.218	321
348.445	321
348.673	335
348.9	315
349.128	302
349.355	321
349.583	305
349.81	306
350.037	310
350.265	300
350.492	284
350.72	299
350.947	298
351.174	315
351.402	313
351.629	313
351.856	317
352.083	329
352.311	334
352.538	341
352.765	334
352.992	342
353.22	324
353.447	310
353.674	299
353.901	297
354.128	294
354.355	282
354.583	284
354.81	276
355.037	285
355.264	285
355.491	275
355.718	289
355.945	291
356.172	274
356.399	286
356.626	291
356.853	276
357.08	267
357.307	281
357.534	278
357.761	261
357.988	286
358.215	293
358.441	285
358.668	298
358.895	302
359.122	298
359.349	302
359.576	311
359.802	337
360.029	370
360.256	349
360.483	337
360.709	326
360.936	309
361.163	301
361.39	291
361.616	305
361.843	288
362.07	319
362.296	317
362.523	310
362.749	310
362.976	315
363.203	290
363.429	311
363.656	293
363.882	285
364.109	289
364.335	275
364.562	265
364.788	292
365.015	303
365.241	308
365.468	317
365.694	305
365.92	295
366.147	278
366.373	283
366.599	268
366.826	295
367.052	285
367.278	295
367.505	298
367.731	285
367.957	298
368.184	297
368.41	285
368.636	307
368.862	309
369.089	292
369.315	291
369.541	278
369.767	295
369.993	293
370.219	282
370.445	283
370.672	272
370.898	283
371.124	275
371.35	270
371.576	283
371.802	277
372.028	266
372.254	283
372.48	269
372.706	287
372.932	289
373.158	274
373.384	273
373.61	292
373.835	276
374.061	288
374.287	289
374.513	285
374.739	287
374.965	287
375.191	297
375.416	293
375.642	267
375.868	267
376.094	274
376.319	259
376.545	267
376.771	283
376.997	297
377.222	283
377.448	279
377.674	278
377.899	274
378.125	285
378.35	272
378.576	269
378.802	277
379.027	289
379.253	277
379.478	269
379.704	258
379.929	267
380.155	271
380.38	266
380.606	284
380.831	285
381.057	289
381.282	289
381.507	266
381.733	275
381.958	265
382.184	290
382.409	274
382.634	286
382.86	284
383.085	277
383.31	294
383.535	291
383.761	295
383.986	281
384.211	290
384.436	276
384.662	284
384.887	271
385.112	292
385.337	290
385.562	295
385.787	276
386.013	285
386.238	295
386.463	307
386.688	293
386.913	296
387.138	293
387.363	291
387.588	318
387.813	285
388.038	305
388.263	286
388.488	275
388.713	275
388.938	283
389.163	288
389.387	293
389.612	297
389.837	286
390.062	286
390.287	282
390.512	295
390.736	276
390.961	301
391.186	292
391.411	299
391.636	298
391.86	301
392.085	284
392.31	305
392.534	284
392.759	310
392.984	298
393.208	295
393.433	302
393.658	284
393.882	286
394.107	286
394.331	305
394.556	291
394.78	277
395.005	274
395.229	301
395.454	287
395.678	296
395.903	297
396.127	316
396.352	318
396.576	302
396.801	295
397.025	285
397.249	278
397.474	321
397.698	295
397.922	301
398.147	323
398.371	330
398.595	329
398.82	328
399.044	336
399.268	313
399.492	327
399.717	353
399.941	393
400.165	370
400.389	384
400.613	370
400.837	351
401.062	323
401.286	330
401.51	315
401.734	338
401.958	325
402.182	328
402.406	315
402.63	326
402.854	332
403.078	313
403.302	328
403.526	334
403.75	328
403.974	344
404.198	333
404.422	331
404.645	308
404.869	320
405.093	350
405.317	381
405.541	399
405.765	366
405.988	360
406.212	372
406.436	360
406.66	375
406.883	362
407.107	374
407.331	403
407.555	445
407.778	427
408.002	400
408.226	379
408.449	367
408.673	351
408.896	367
409.12	398
409.344	374
409.567	363
409.791	346
410.014	345
410.238	323
410.461	319
410.685	341
410.908	349
411.132	370
411.355	374
411.578	366
411.802	345
412.025	330
412.249	331
412.472	353
412.695	375
412.919	369
413.142	350
413.365	334
413.589	320
413.812	320
414.035	326
414.258	317
414.482	316
414.705	322
414.928	311
415.151	314
415.374	317
415.597	285
415.821	302
416.044	323
416.267	312
416.49	307
416.713	328
416.936	316
417.159	330
417.382	321
417.605	316
417.828	333
418.051	337
418.274	317
418.497	322
418.72	321
418.943	316
419.166	326
419.389	314
419.611	330
419.834	322
420.057	343
420.28	334
420.503	334
420.726	316
420.948	347
421.171	369
421.394	382
421.617	350
421.839	335
422.062	340
422.285	342
422.507	393
422.73	418
422.953	413
423.175	353
423.398	333
423.621	363
423.843	360
424.066	361
424.288	355
424.511	354
424.733	403
424.956	470
425.178	418
425.401	436
425.623	437
425.846	383
426.068	369
426.291	352
426.513	343
426.735	355
426.958	412
427.18	463
427.402	539
427.625	595
427.847	517
428.069	468
428.292	403
428.514	358
428.736	359
428.958	342
429.181	343
429.403	326
429.625	361
429.847	363
430.069	385
430.292	397
430.514	335
430.736	313
430.958	326
431.18	333
431.402	333
431.624	318
431.846	315
432.068	297
432.29	318
432.512	309
432.734	321
432.956	338
433.178	316
433.4	320
433.622	325
433.844	306
434.066	298
434.287	300
434.509	311
434.731	330
434.953	328
435.175	335
435.397	337
435.618	358
435.84	404
436.062	443
436.284	521
436.505	399
436.727	382
436.949	351
437.17	344
437.392	343
437.614	330
437.835	382
438.057	436
438.278	502
438.5	500
438.721	544
438.943	506
439.165	387
439.386	391
439.608	360
439.829	353
440.05	407
440.272	427
440.493	394
440.715	361
440.936	353
441.158	336
441.379	321
441.6	355
441.822	360
442.043	398
442.264	441
442.486	466
442.707	399
442.928	380
443.149	370
443.371	389
443.592	418
443.813	482
444.034	496
444.255	399
444.476	361
444.698	369
444.919	338
445.14	436
445.361	405
445.582	399
445.803	428
446.024	502
446.245	509
446.466	460
446.687	416
446.908	369
447.129	354
447.35	345
447.571	330
447.792	334
448.013	343
448.234	337
448.455	393
448.675	458
448.896	517
449.117	466
449.338	442
449.559	516
449.779	563
450	439
450.221	375
450.442	351
450.662	325
450.883	330
451.104	343
451.324	345
451.545	331
451.766	306
451.986	309
452.207	302
452.428	292
452.648	297
452.869	319
453.089	313
453.31	324
453.53	303
453.751	298
453.971	310
454.192	321
454.412	334
454.633	325
454.853	298
455.073	321
455.294	328
455.514	364
455.734	353
455.955	315
456.175	295
456.395	290
456.616	280
456.836	273
457.056	298
457.276	278
457.497	292
457.717	286
457.937	297
458.157	301
458.377	302
458.598	330
458.818	361
459.038	409
459.258	409
459.478	343
459.698	325
459.918	306
460.138	292
460.358	297
460.578	315
460.798	308
461.018	324
461.238	310
461.458	305
461.678	322
461.898	313
462.118	322
462.338	303
462.558	312
462.777	311
462.997	311
463.217	339
463.437	315
463.657	317
463.876	310
464.096	310
464.316	305
464.536	335
464.755	349
464.975	325
465.195	369
465.414	401
465.634	362
465.854	332
466.073	345
466.293	327
466.512	326
466.732	309
466.951	307
467.171	309
467.391	298
467.61	321
467.829	333
468.049	334
468.268	307
468.488	314
468.707	296
468.927	297
469.146	291
469.365	294
469.585	301
469.804	309
470.023	305
470.243	301
470.462	324
470.681	335
470.901	316
471.12	309
471.339	293
471.558	308
471.777	294
471.997	297
472.216	313
472.435	323
472.654	336
472.873	307
473.092	322
473.311	324
473.53	319
473.749	333
473.968	332
474.187	423
474.406	441
474.625	366
474.844	310
475.063	320
475.282	332
475.501	324
475.72	330
475.939	310
476.158	321
476.377	337
476.596	312
476.814	319
477.033	324
477.252	345
477.471	325
477.69	319
477.908	322
478.127	327
478.346	343
478.564	330
478.783	343
479.002	340
479.22	359
479.439	351
479.658	356
479.876	345
480.095	378
480.313	381
480.532	383
480.751	376
480.969	377
481.188	415
481.406	434
481.624	397
481.843	373
482.061	367
482.28	371
482.498	365
482.717	346
482.935	345
483.153	373
483.372	358
483.59	359
483.808	361
484.027	374
484.245	365
484.463	345
484.681	377
484.9	360
485.118	360
485.336	354
485.554	373
485.772	383
485.99	379
486.209	391
486.427	373
486.645	377
486.863	388
487.081	381
487.299	397
487.517	378
487.735	389
487.953	373
488.171	390
488.389	378
488.607	384
488.825	374
489.043	396
489.261	376
489.479	385
489.696	390
489.914	396
490.132	398
490.35	413
490.568	405
490.786	413
491.003	405
491.221	408
491.439	426
491.657	428
491.874	434
492.092	434
492.31	435
492.527	456
492.745	452
492.963	454
493.18	446
493.398	442
493.615	454
493.833	425
494.05	442
494.268	431
494.485	435
494.703	430
494.92	454
495.138	459
495.355	450
495.573	468
495.79	453
496.008	441
496.225	435
496.442	455
496.66	432
496.877	435
497.094	443
497.312	449
497.529	451
497.746	450
497.963	471
498.181	492
498.398	462
498.615	481
498.832	485
499.049	480
499.267	492
499.484	516
499.701	534
499.918	522
500.135	537
500.352	542
500.569	534
500.786	567
501.003	547
501.22	549
501.437	522
501.654	549
501.871	550
502.088	528
502.305	509
502.522	486
502.739	472
502.956	465
503.172	436
503.389	471
503.606	473
503.823	462
504.04	458
504.256	462
504.473	432
504.69	449
504.907	461
505.123	454
505.34	421
505.557	421
505.773	433
505.99	439
506.207	435
506.423	423
506.64	457
506.856	436
507.073	426
507.289	425
507.506	414
507.722	452
507.939	443
508.155	461
508.372	439
508.588	420
508.805	431
509.021	411
509.238	418
509.454	435
509.67	441
509.887	418
510.103	423
510.319	429
510.536	512
510.752	853
510.968	646
511.184	457
511.401	405
511.617	423
511.833	391
512.049	393
512.265	402
512.481	401
512.698	387
512.914	409
513.13	389
513.346	414
513.562	413
513.778	406
513.994	416
514.21	422
514.426	444
514.642	457
514.858	476
515.074	514
515.29	610
515.506	930
515.721	730
515.937	490
516.153	450
516.369	429
516.585	415
516.801	409
517.016	407
517.232	392
517.448	408
517.664	404
517.879	410
518.095	407
518.311	410
518.527	393
518.742	419
518.958	408
519.173	412
519.389	420
519.605	405
519.82	414
520.036	409
520.251	430
520.467	451
520.682	456
520.898	465
521.113	463
521.329	496
521.544	547
521.76	755
521.975	1224
522.19	1112
522.406	626
522.621	497
522.836	451
523.052	426
523.267	405
523.482	397
523.698	374
523.913	373
524.128	363
524.343	372
524.559	378
524.774	349
524.989	348
525.204	362
525.419	368
525.634	371
525.849	335
526.064	327
526.28	319
526.495	338
526.71	340
526.925	329
527.14	360
527.355	337
527.57	333
527.785	326
527.999	321
528.214	325
528.429	327
528.644	326
528.859	308
529.074	322
529.289	374
529.503	433
529.718	369
529.933	336
530.148	334
530.363	318
530.577	305
530.792	327
531.007	328
531.221	337
531.436	330
531.651	318
531.865	314
532.08	311
532.295	316
532.509	321
532.724	299
532.938	300
533.153	305
533.367	300
533.582	299
533.796	296
534.011	309
534.225	317
534.44	302
534.654	317
534.868	285
535.083	300
535.297	300
535.511	337
535.726	332
535.94	325
536.154	302
536.369	295
536.583	289
536.797	314
537.011	299
537.225	307
537.44	291
537.654	295
537.868	290
538.082	289
538.296	314
538.51	291
538.724	297
538.938	290
539.153	297
539.367	306
539.581	301
539.795	304
540.009	274
540.222	313
540.436	297
540.65	301
540.864	300
541.078	303
541.292	299
541.506	307
541.72	306
541.934	304
542.147	294
542.361	306
542.575	302
542.789	299
543.002	290
543.216	297
543.43	290
543.644	290
543.857	306
544.071	305
544.285	304
544.498	282
544.712	297
544.925	275
545.139	282
545.352	299
545.566	326
545.779	298
545.993	300
546.206	299
546.42	302
546.633	286
546.847	290
547.06	297
547.274	270
547.487	284
547.7	289
547.914	296
548.127	282
548.34	284
548.554	286
548.767	276
548.98	285
549.193	271
549.407	292
549.62	282
549.833	281
550.046	269
550.259	292
550.473	273
550.686	263
550.899	277
551.112	260
551.325	282
551.538	271
551.751	262
551.964	282
552.177	279
552.39	267
552.603	278
552.816	268
553.029	276
553.242	283
553.455	294
553.667	284
553.88	282
554.093	295
554.306	287
554.519	279
554.732	278
554.944	284
555.157	265
555.37	265
555.583	285
555.795	280
556.008	271
556.221	243
556.433	266
556.646	260
556.859	259
557.071	276
557.284	243
557.496	261
557.709	264
557.921	262
558.134	241
558.346	255
558.559	271
558.771	258
558.984	257
559.196	241
559.409	259
559.621	255
559.833	259
560.046	248
560.258	236
560.47	246
560.683	263
560.895	258
561.107	255
561.32	259
561.532	259
561.744	253
561.956	244
562.168	262
562.381	270
562.593	254
562.805	250
563.017	260
563.229	261
563.441	237
563.653	235
