Data from 1982.PennyLincolnUp.Lamp.En5.5.200Scan.071819.P1_HRD10591_16-46-13-961.txt Node
Date: Thu Jul 18 16:46:13 EDT 2019
User: cochatt
Spectrometer: HR+D1059
Trigger mode: 1
Integration Time (sec): 1.000000E-1
Scans to average: 1
Electric dark correction enabled: true
Nonlinearity correction enabled: false
Boxcar width: 0
XAxis mode: Wavelengths
Number of Pixels in Spectrum: 2048
>>>>>Begin Spectral Data<<<<<
223.165	-10.31
223.4	-10.31
223.635	-10.31
223.869	-30.31
224.104	-18.31
224.338	-15.31
224.573	-19.31
224.808	2.69
225.042	-2.31
225.277	-15.31
225.511	-14.31
225.746	-4.31
225.98	6.69
226.215	8.69
226.449	18.69
226.683	28.69
226.918	28.69
227.152	35.69
227.387	25.69
227.621	38.69
227.856	33.69
228.09	49.69
228.324	46.69
228.559	50.69
228.793	72.69
229.027	87.69
229.262	108.69
229.496	97.69
229.73	110.69
229.964	121.69
230.199	99.69
230.433	106.69
230.667	100.69
230.901	107.69
231.136	109.69
231.37	98.69
231.604	81.69
231.838	91.69
232.072	109.69
232.306	110.69
232.541	93.69
232.775	102.69
233.009	116.69
233.243	88.69
233.477	87.69
233.711	104.69
233.945	119.69
234.179	104.69
234.413	107.69
234.647	104.69
234.881	98.69
235.115	108.69
235.349	107.69
235.583	106.69
235.817	108.69
236.051	110.69
236.285	104.69
236.519	94.69
236.753	123.69
236.987	123.69
237.221	169.69
237.455	192.69
237.689	154.69
237.922	130.69
238.156	106.69
238.39	104.69
238.624	109.69
238.858	114.69
239.091	108.69
239.325	101.69
239.559	104.69
239.793	120.69
240.027	121.69
240.26	124.69
240.494	128.69
240.728	123.69
240.961	122.69
241.195	130.69
241.429	114.69
241.662	127.69
241.896	121.69
242.13	107.69
242.363	102.69
242.597	108.69
242.83	112.69
243.064	116.69
243.298	109.69
243.531	108.69
243.765	118.69
243.998	110.69
244.232	116.69
244.465	140.69
244.699	116.69
244.932	108.69
245.166	114.69
245.399	114.69
245.633	123.69
245.866	127.69
246.099	125.69
246.333	112.69
246.566	122.69
246.8	126.69
247.033	133.69
247.266	135.69
247.5	132.69
247.733	128.69
247.966	144.69
248.2	132.69
248.433	156.69
248.666	148.69
248.899	142.69
249.133	150.69
249.366	159.69
249.599	160.69
249.832	147.69
250.066	155.69
250.299	150.69
250.532	166.69
250.765	155.69
250.998	184.69
251.231	162.69
251.465	167.69
251.698	165.69
251.931	165.69
252.164	166.69
252.397	158.69
252.63	160.69
252.863	164.69
253.096	153.69
253.329	186.69
253.562	176.69
253.795	168.69
254.028	180.69
254.261	184.69
254.494	180.69
254.727	191.69
254.96	222.69
255.193	223.69
255.426	213.69
255.659	188.69
255.892	200.69
256.124	189.69
256.357	192.69
256.59	176.69
256.823	184.69
257.056	163.69
257.289	160.69
257.521	178.69
257.754	173.69
257.987	176.69
258.22	176.69
258.452	180.69
258.685	172.69
258.918	172.69
259.151	172.69
259.383	186.69
259.616	177.69
259.849	194.69
260.081	196.69
260.314	201.69
260.547	228.69
260.779	204.69
261.012	170.69
261.244	182.69
261.477	186.69
261.71	185.69
261.942	178.69
262.175	182.69
262.407	177.69
262.64	161.69
262.872	166.69
263.105	170.69
263.337	172.69
263.57	156.69
263.802	172.69
264.035	155.69
264.267	188.69
264.499	177.69
264.732	180.69
264.964	173.69
265.197	156.69
265.429	165.69
265.661	149.69
265.894	169.69
266.126	178.69
266.358	178.69
266.591	170.69
266.823	178.69
267.055	199.69
267.287	181.69
267.52	175.69
267.752	177.69
267.984	178.69
268.216	187.69
268.448	180.69
268.681	200.69
268.913	191.69
269.145	221.69
269.377	226.69
269.609	216.69
269.841	212.69
270.073	228.69
270.306	234.69
270.538	237.69
270.77	247.69
271.002	233.69
271.234	240.69
271.466	234.69
271.698	244.69
271.93	227.69
272.162	228.69
272.394	243.69
272.626	240.69
272.858	228.69
273.09	212.69
273.322	234.69
273.553	211.69
273.785	198.69
274.017	193.69
274.249	204.69
274.481	206.69
274.713	200.69
274.945	195.69
275.176	200.69
275.408	217.69
275.64	230.69
275.872	197.69
276.104	203.69
276.335	214.69
276.567	202.69
276.799	230.69
277.031	252.69
277.262	242.69
277.494	259.69
277.726	239.69
277.957	233.69
278.189	226.69
278.421	214.69
278.652	230.69
278.884	190.69
279.115	210.69
279.347	205.69
279.579	200.69
279.81	198.69
280.042	188.69
280.273	205.69
280.505	220.69
280.736	199.69
280.968	194.69
281.199	188.69
281.431	204.69
281.662	219.69
281.894	213.69
282.125	205.69
282.356	219.69
282.588	225.69
282.819	240.69
283.051	204.69
283.282	205.69
283.513	229.69
283.745	214.69
283.976	210.69
284.207	225.69
284.439	223.69
284.67	208.69
284.901	230.69
285.132	217.69
285.364	219.69
285.595	221.69
285.826	218.69
286.057	211.69
286.288	192.69
286.52	204.69
286.751	209.69
286.982	215.69
287.213	213.69
287.444	214.69
287.675	202.69
287.906	234.69
288.138	235.69
288.369	226.69
288.6	245.69
288.831	225.69
289.062	222.69
289.293	224.69
289.524	227.69
289.755	236.69
289.986	209.69
290.217	215.69
290.448	201.69
290.679	225.69
290.91	212.69
291.141	226.69
291.371	220.69
291.602	219.69
291.833	226.69
292.064	224.69
292.295	227.69
292.526	219.69
292.757	218.69
292.987	224.69
293.218	226.69
293.449	226.69
293.68	205.69
293.91	233.69
294.141	227.69
294.372	230.69
294.603	235.69
294.833	218.69
295.064	230.69
295.295	226.69
295.525	236.69
295.756	212.69
295.987	226.69
296.217	240.69
296.448	262.69
296.679	224.69
296.909	221.69
297.14	235.69
297.37	220.69
297.601	233.69
297.831	233.69
298.062	228.69
298.292	224.69
298.523	246.69
298.753	224.69
298.984	226.69
299.214	223.69
299.445	232.69
299.675	241.69
299.905	237.69
300.136	221.69
300.366	237.69
300.597	230.69
300.827	245.69
301.057	235.69
301.288	252.69
301.518	233.69
301.748	263.69
301.979	256.69
302.209	235.69
302.439	235.69
302.669	236.69
302.9	248.69
303.13	243.69
303.36	228.69
303.59	265.69
303.82	259.69
304.051	255.69
304.281	242.69
304.511	252.69
304.741	252.69
304.971	249.69
305.201	236.69
305.431	250.69
305.661	268.69
305.891	229.69
306.121	248.69
306.352	268.69
306.582	255.69
306.812	260.69
307.042	246.69
307.272	248.69
307.502	253.69
307.731	251.69
307.961	255.69
308.191	260.69
308.421	242.69
308.651	270.69
308.881	274.69
309.111	263.69
309.341	248.69
309.571	263.69
309.8	283.69
310.03	274.69
310.26	282.69
310.49	267.69
310.72	297.69
310.949	326.69
311.179	316.69
311.409	302.69
311.639	286.69
311.868	292.69
312.098	283.69
312.328	302.69
312.557	302.69
312.787	329.69
313.017	308.69
313.246	286.69
313.476	289.69
313.706	290.69
313.935	283.69
314.165	315.69
314.394	305.69
314.624	278.69
314.853	297.69
315.083	296.69
315.312	283.69
315.542	282.69
315.771	282.69
316.001	280.69
316.23	296.69
316.46	270.69
316.689	304.69
316.919	290.69
317.148	298.69
317.377	305.69
317.607	281.69
317.836	289.69
318.065	271.69
318.295	290.69
318.524	293.69
318.753	285.69
318.983	280.69
319.212	276.69
319.441	309.69
319.67	301.69
319.9	300.69
320.129	286.69
320.358	275.69
320.587	280.69
320.816	278.69
321.046	307.69
321.275	314.69
321.504	306.69
321.733	314.69
321.962	312.69
322.191	346.69
322.42	327.69
322.649	349.69
322.878	357.69
323.108	367.69
323.337	383.69
323.566	391.69
323.795	419.69
324.024	465.69
324.253	600.69
324.482	870.69
324.71	1307.69
324.939	1718.69
325.168	1392.69
325.397	742.69
325.626	486.69
325.855	433.69
326.084	401.69
326.313	390.69
326.542	418.69
326.77	445.69
326.999	556.69
327.228	774.69
327.457	1089.69
327.686	1208.69
327.914	828.69
328.143	572.69
328.372	461.69
328.6	471.69
328.829	446.69
329.058	447.69
329.287	440.69
329.515	420.69
329.744	404.69
329.972	399.69
330.201	385.69
330.43	420.69
330.658	469.69
330.887	458.69
331.115	438.69
331.344	393.69
331.572	372.69
331.801	380.69
332.03	363.69
332.258	344.69
332.486	352.69
332.715	330.69
332.943	326.69
333.172	310.69
333.4	357.69
333.629	348.69
333.857	354.69
334.085	360.69
334.314	377.69
334.542	395.69
334.771	391.69
334.999	368.69
335.227	331.69
335.455	347.69
335.684	350.69
335.912	340.69
336.14	330.69
336.369	324.69
336.597	329.69
336.825	343.69
337.053	342.69
337.281	310.69
337.51	327.69
337.738	328.69
337.966	323.69
338.194	324.69
338.422	340.69
338.65	309.69
338.878	316.69
339.106	330.69
339.334	331.69
339.562	313.69
339.79	313.69
340.018	328.69
340.246	329.69
340.474	329.69
340.702	322.69
340.93	311.69
341.158	301.69
341.386	296.69
341.614	315.69
341.842	316.69
342.07	304.69
342.298	294.69
342.526	311.69
342.754	300.69
342.981	300.69
343.209	302.69
343.437	313.69
343.665	313.69
343.893	296.69
344.12	295.69
344.348	334.69
344.576	310.69
344.804	323.69
345.031	324.69
345.259	327.69
345.487	330.69
345.714	309.69
345.942	312.69
346.17	299.69
346.397	324.69
346.625	303.69
346.853	314.69
347.08	308.69
347.308	330.69
347.535	311.69
347.763	313.69
347.99	326.69
348.218	312.69
348.445	314.69
348.673	324.69
348.9	312.69
349.128	303.69
349.355	267.69
349.583	315.69
349.81	291.69
350.037	295.69
350.265	290.69
350.492	290.69
350.72	310.69
350.947	285.69
351.174	298.69
351.402	328.69
351.629	299.69
351.856	315.69
352.083	320.69
352.311	326.69
352.538	320.69
352.765	314.69
352.992	316.69
353.22	314.69
353.447	313.69
353.674	298.69
353.901	300.69
354.128	267.69
354.355	268.69
354.583	281.69
354.81	299.69
355.037	265.69
355.264	278.69
355.491	275.69
355.718	294.69
355.945	285.69
356.172	274.69
356.399	264.69
356.626	276.69
356.853	271.69
357.08	267.69
357.307	269.69
357.534	289.69
357.761	296.69
357.988	266.69
358.215	278.69
358.441	275.69
358.668	287.69
358.895	294.69
359.122	285.69
359.349	288.69
359.576	306.69
359.802	313.69
360.029	340.69
360.256	344.69
360.483	326.69
360.709	306.69
360.936	300.69
361.163	311.69
361.39	304.69
361.616	298.69
361.843	309.69
362.07	296.69
362.296	285.69
362.523	328.69
362.749	309.69
362.976	301.69
363.203	313.69
363.429	298.69
363.656	291.69
363.882	293.69
364.109	291.69
364.335	284.69
364.562	265.69
364.788	282.69
365.015	286.69
365.241	276.69
365.468	295.69
365.694	288.69
365.92	293.69
366.147	304.69
366.373	295.69
366.599	276.69
366.826	292.69
367.052	295.69
367.278	291.69
367.505	271.69
367.731	292.69
367.957	305.69
368.184	290.69
368.41	290.69
368.636	272.69
368.862	286.69
369.089	305.69
369.315	276.69
369.541	297.69
369.767	292.69
369.993	295.69
370.219	273.69
370.445	283.69
370.672	285.69
370.898	275.69
371.124	269.69
371.35	284.69
371.576	268.69
371.802	269.69
372.028	281.69
372.254	288.69
372.48	266.69
372.706	285.69
372.932	273.69
373.158	264.69
373.384	278.69
373.61	263.69
373.835	273.69
374.061	277.69
374.287	277.69
374.513	266.69
374.739	248.69
374.965	297.69
375.191	267.69
375.416	280.69
375.642	270.69
375.868	280.69
376.094	261.69
376.319	276.69
376.545	280.69
376.771	282.69
376.997	273.69
377.222	267.69
377.448	266.69
377.674	258.69
377.899	262.69
378.125	272.69
378.35	270.69
378.576	288.69
378.802	241.69
379.027	261.69
379.253	266.69
379.478	277.69
379.704	271.69
379.929	268.69
380.155	267.69
380.38	279.69
380.606	267.69
380.831	262.69
381.057	281.69
381.282	272.69
381.507	283.69
381.733	258.69
381.958	278.69
382.184	260.69
382.409	278.69
382.634	292.69
382.86	264.69
383.085	259.69
383.31	279.69
383.535	291.69
383.761	279.69
383.986	270.69
384.211	265.69
384.436	265.69
384.662	307.69
384.887	275.69
385.112	264.69
385.337	256.69
385.562	281.69
385.787	290.69
386.013	285.69
386.238	293.69
386.463	281.69
386.688	306.69
386.913	286.69
387.138	270.69
387.363	275.69
387.588	290.69
387.813	286.69
388.038	290.69
388.263	271.69
388.488	284.69
388.713	274.69
388.938	268.69
389.163	265.69
389.387	297.69
389.612	294.69
389.837	285.69
390.062	279.69
390.287	273.69
390.512	277.69
390.736	275.69
390.961	299.69
391.186	293.69
391.411	273.69
391.636	295.69
391.86	289.69
392.085	293.69
392.31	287.69
392.534	281.69
392.759	275.69
392.984	275.69
393.208	286.69
393.433	294.69
393.658	290.69
393.882	273.69
394.107	259.69
394.331	260.69
394.556	275.69
394.78	285.69
395.005	276.69
395.229	291.69
395.454	288.69
395.678	280.69
395.903	292.69
396.127	293.69
396.352	302.69
396.576	274.69
396.801	291.69
397.025	291.69
397.249	282.69
397.474	293.69
397.698	296.69
397.922	298.69
398.147	316.69
398.371	322.69
398.595	307.69
398.82	292.69
399.044	330.69
399.268	334.69
399.492	340.69
399.717	325.69
399.941	355.69
400.165	376.69
400.389	362.69
400.613	343.69
400.837	329.69
401.062	306.69
401.286	320.69
401.51	317.69
401.734	306.69
401.958	333.69
402.182	324.69
402.406	317.69
402.63	323.69
402.854	310.69
403.078	321.69
403.302	324.69
403.526	322.69
403.75	308.69
403.974	330.69
404.198	306.69
404.422	322.69
404.645	326.69
404.869	328.69
405.093	351.69
405.317	371.69
405.541	362.69
405.765	362.69
405.988	363.69
406.212	364.69
406.436	348.69
406.66	361.69
406.883	348.69
407.107	373.69
407.331	393.69
407.555	413.69
407.778	420.69
408.002	384.69
408.226	360.69
408.449	357.69
408.673	365.69
408.896	375.69
409.12	378.69
409.344	376.69
409.567	332.69
409.791	310.69
410.014	326.69
410.238	325.69
410.461	313.69
410.685	325.69
410.908	337.69
411.132	359.69
411.355	360.69
411.578	371.69
411.802	322.69
412.025	322.69
412.249	349.69
412.472	352.69
412.695	363.69
412.919	344.69
413.142	314.69
413.365	330.69
413.589	313.69
413.812	313.69
414.035	295.69
414.258	306.69
414.482	317.69
414.705	321.69
414.928	296.69
415.151	288.69
415.374	301.69
415.597	278.69
415.821	297.69
416.044	297.69
416.267	309.69
416.49	306.69
416.713	295.69
416.936	311.69
417.159	301.69
417.382	309.69
417.605	316.69
417.828	315.69
418.051	331.69
418.274	317.69
418.497	294.69
418.72	311.69
418.943	302.69
419.166	302.69
419.389	329.69
419.611	318.69
419.834	312.69
420.057	335.69
420.28	309.69
420.503	320.69
420.726	307.69
420.948	336.69
421.171	350.69
421.394	388.69
421.617	330.69
421.839	330.69
422.062	315.69
422.285	330.69
422.507	357.69
422.73	412.69
422.953	390.69
423.175	345.69
423.398	352.69
423.621	353.69
423.843	344.69
424.066	328.69
424.288	345.69
424.511	349.69
424.733	400.69
424.956	432.69
425.178	436.69
425.401	420.69
425.623	434.69
425.846	394.69
426.068	358.69
426.291	347.69
426.513	350.69
426.735	352.69
426.958	388.69
427.18	446.69
427.402	489.69
427.625	549.69
427.847	489.69
428.069	431.69
428.292	393.69
428.514	330.69
428.736	335.69
428.958	355.69
429.181	318.69
429.403	309.69
429.625	325.69
429.847	345.69
430.069	376.69
430.292	403.69
430.514	332.69
430.736	320.69
430.958	325.69
431.18	304.69
431.402	304.69
431.624	301.69
431.846	293.69
432.068	299.69
432.29	294.69
432.512	280.69
432.734	315.69
432.956	312.69
433.178	316.69
433.4	331.69
433.622	284.69
433.844	300.69
434.066	305.69
434.287	306.69
434.509	311.69
434.731	308.69
434.953	328.69
435.175	319.69
435.397	349.69
435.618	364.69
435.84	382.69
436.062	432.69
436.284	484.69
436.505	401.69
436.727	365.69
436.949	344.69
437.17	325.69
437.392	325.69
437.614	341.69
437.835	361.69
438.057	430.69
438.278	452.69
438.5	474.69
438.721	517.69
438.943	476.69
439.165	386.69
439.386	374.69
439.608	347.69
439.829	370.69
440.05	381.69
440.272	394.69
440.493	384.69
440.715	332.69
440.936	340.69
441.158	341.69
441.379	338.69
441.6	346.69
441.822	345.69
442.043	363.69
442.264	425.69
442.486	448.69
442.707	376.69
442.928	355.69
443.149	370.69
443.371	362.69
443.592	406.69
443.813	435.69
444.034	483.69
444.255	410.69
444.476	361.69
444.698	347.69
444.919	335.69
445.14	436.69
445.361	406.69
445.582	371.69
445.803	416.69
446.024	487.69
446.245	489.69
446.466	444.69
446.687	382.69
446.908	345.69
447.129	325.69
447.35	322.69
447.571	318.69
447.792	324.69
448.013	345.69
448.234	344.69
448.455	385.69
448.675	425.69
448.896	498.69
449.117	440.69
449.338	422.69
449.559	480.69
449.779	529.69
450	432.69
450.221	358.69
450.442	331.69
450.662	328.69
450.883	337.69
451.104	349.69
451.324	335.69
451.545	315.69
451.766	305.69
451.986	301.69
452.207	294.69
452.428	271.69
452.648	299.69
452.869	299.69
453.089	326.69
453.31	305.69
453.53	299.69
453.751	293.69
453.971	301.69
454.192	298.69
454.412	291.69
454.633	293.69
454.853	315.69
455.073	290.69
455.294	314.69
455.514	368.69
455.734	348.69
455.955	308.69
456.175	289.69
456.395	284.69
456.616	257.69
456.836	268.69
457.056	276.69
457.276	272.69
457.497	283.69
457.717	284.69
457.937	285.69
458.157	302.69
458.377	294.69
458.598	322.69
458.818	348.69
459.038	387.69
459.258	411.69
459.478	320.69
459.698	291.69
459.918	306.69
460.138	312.69
460.358	315.69
460.578	306.69
460.798	303.69
461.018	326.69
461.238	306.69
461.458	303.69
461.678	308.69
461.898	308.69
462.118	290.69
462.338	318.69
462.558	323.69
462.777	320.69
462.997	315.69
463.217	312.69
463.437	296.69
463.657	317.69
463.876	320.69
464.096	314.69
464.316	320.69
464.536	331.69
464.755	336.69
464.975	343.69
465.195	362.69
465.414	406.69
465.634	377.69
465.854	332.69
466.073	300.69
466.293	320.69
466.512	291.69
466.732	304.69
466.951	284.69
467.171	296.69
467.391	293.69
467.61	323.69
467.829	321.69
468.049	310.69
468.268	292.69
468.488	286.69
468.707	294.69
468.927	282.69
469.146	282.69
469.365	287.69
469.585	283.69
469.804	285.69
470.023	288.69
470.243	285.69
470.462	312.69
470.681	331.69
470.901	317.69
471.12	307.69
471.339	296.69
471.558	293.69
471.777	307.69
471.997	303.69
472.216	313.69
472.435	308.69
472.654	328.69
472.873	295.69
473.092	320.69
473.311	289.69
473.53	296.69
473.749	325.69
473.968	349.69
474.187	404.69
474.406	416.69
474.625	330.69
474.844	318.69
475.063	297.69
475.282	313.69
475.501	315.69
475.72	305.69
475.939	280.69
476.158	297.69
476.377	299.69
476.596	305.69
476.814	317.69
477.033	328.69
477.252	315.69
477.471	307.69
477.69	319.69
477.908	311.69
478.127	324.69
478.346	330.69
478.564	303.69
478.783	309.69
479.002	324.69
479.22	323.69
479.439	350.69
479.658	365.69
479.876	333.69
480.095	368.69
480.313	382.69
480.532	374.69
480.751	359.69
480.969	385.69
481.188	396.69
481.406	435.69
481.624	381.69
481.843	374.69
482.061	349.69
482.28	350.69
482.498	352.69
482.717	349.69
482.935	342.69
483.153	345.69
483.372	339.69
483.59	354.69
483.808	345.69
484.027	352.69
484.245	350.69
484.463	356.69
484.681	364.69
484.9	339.69
485.118	355.69
485.336	358.69
485.554	359.69
485.772	343.69
485.99	354.69
486.209	340.69
486.427	354.69
486.645	368.69
486.863	370.69
487.081	366.69
487.299	370.69
487.517	377.69
487.735	358.69
487.953	367.69
488.171	388.69
488.389	382.69
488.607	377.69
488.825	370.69
489.043	372.69
489.261	370.69
489.479	384.69
489.696	376.69
489.914	387.69
490.132	395.69
490.35	405.69
490.568	384.69
490.786	389.69
491.003	410.69
491.221	420.69
491.439	410.69
491.657	417.69
491.874	413.69
492.092	420.69
492.31	422.69
492.527	429.69
492.745	435.69
492.963	429.69
493.18	432.69
493.398	408.69
493.615	432.69
493.833	423.69
494.05	407.69
494.268	420.69
494.485	409.69
494.703	438.69
494.92	440.69
495.138	429.69
495.355	436.69
495.573	436.69
495.79	435.69
496.008	444.69
496.225	437.69
496.442	440.69
496.66	437.69
496.877	433.69
497.094	456.69
497.312	440.69
497.529	453.69
497.746	436.69
497.963	444.69
498.181	455.69
498.398	470.69
498.615	466.69
498.832	472.69
499.049	489.69
499.267	482.69
499.484	490.69
499.701	510.69
499.918	507.69
500.135	510.69
500.352	527.69
500.569	534.69
500.786	561.69
501.003	558.69
501.22	522.69
501.437	497.69
501.654	539.69
501.871	525.69
502.088	515.69
