Data from 1982.PennyLincolnUp.Lamp.En5.5.200Scan.071819.P1_HRD10591_16-45-26-961.txt Node
Date: Thu Jul 18 16:45:26 EDT 2019
User: cochatt
Spectrometer: HR+D1059
Trigger mode: 1
Integration Time (sec): 1.000000E-1
Scans to average: 1
Electric dark correction enabled: true
Nonlinearity correction enabled: false
Boxcar width: 0
XAxis mode: Wavelengths
Number of Pixels in Spectrum: 2048
>>>>>Begin Spectral Data<<<<<
223.165	-18.38
223.4	-18.38
223.635	-18.38
223.869	-17.38
224.104	-31.38
224.338	-15.38
224.573	-7.38
224.808	-11.38
225.042	-14.38
225.277	8.62
225.511	-11.38
225.746	1.62
225.98	9.62
226.215	4.62
226.449	16.62
226.683	32.62
226.918	22.62
227.152	30.62
227.387	10.62
227.621	33.62
227.856	29.62
228.09	44.62
228.324	41.62
228.559	50.62
228.793	48.62
229.027	80.62
229.262	88.62
229.496	89.62
229.73	99.62
229.964	116.62
230.199	109.62
230.433	92.62
230.667	97.62
230.901	97.62
231.136	101.62
231.37	104.62
231.604	100.62
231.838	108.62
232.072	103.62
232.306	78.62
232.541	94.62
232.775	84.62
233.009	110.62
233.243	105.62
233.477	99.62
233.711	111.62
233.945	101.62
234.179	94.62
234.413	104.62
234.647	96.62
234.881	107.62
235.115	119.62
235.349	82.62
235.583	98.62
235.817	104.62
236.051	106.62
236.285	106.62
236.519	115.62
236.753	88.62
236.987	108.62
237.221	138.62
237.455	161.62
237.689	135.62
237.922	107.62
238.156	99.62
238.39	110.62
238.624	106.62
238.858	109.62
239.091	117.62
239.325	112.62
239.559	102.62
239.793	103.62
240.027	106.62
240.26	114.62
240.494	124.62
240.728	127.62
240.961	125.62
241.195	124.62
241.429	123.62
241.662	105.62
241.896	109.62
242.13	112.62
242.363	104.62
242.597	107.62
242.83	118.62
243.064	126.62
243.298	113.62
243.531	113.62
243.765	115.62
243.998	115.62
244.232	125.62
244.465	116.62
244.699	116.62
244.932	113.62
245.166	128.62
245.399	108.62
245.633	113.62
245.866	116.62
246.099	121.62
246.333	122.62
246.566	135.62
246.8	130.62
247.033	126.62
247.266	115.62
247.5	121.62
247.733	127.62
247.966	133.62
248.2	132.62
248.433	137.62
248.666	142.62
248.899	143.62
249.133	141.62
249.366	148.62
249.599	151.62
249.832	142.62
250.066	154.62
250.299	132.62
250.532	158.62
250.765	161.62
250.998	180.62
251.231	176.62
251.465	162.62
251.698	169.62
251.931	149.62
252.164	160.62
252.397	157.62
252.63	171.62
252.863	160.62
253.096	171.62
253.329	186.62
253.562	156.62
253.795	174.62
254.028	177.62
254.261	173.62
254.494	188.62
254.727	205.62
254.96	202.62
255.193	201.62
255.426	180.62
255.659	168.62
255.892	182.62
256.124	164.62
256.357	168.62
256.59	186.62
256.823	167.62
257.056	158.62
257.289	166.62
257.521	168.62
257.754	156.62
257.987	149.62
258.22	152.62
258.452	139.62
258.685	160.62
258.918	163.62
259.151	178.62
259.383	179.62
259.616	165.62
259.849	167.62
260.081	171.62
260.314	193.62
260.547	192.62
260.779	187.62
261.012	150.62
261.244	157.62
261.477	175.62
261.71	178.62
261.942	170.62
262.175	178.62
262.407	161.62
262.64	175.62
262.872	160.62
263.105	158.62
263.337	162.62
263.57	164.62
263.802	153.62
264.035	176.62
264.267	172.62
264.499	157.62
264.732	161.62
264.964	152.62
265.197	142.62
265.429	168.62
265.661	148.62
265.894	161.62
266.126	168.62
266.358	156.62
266.591	154.62
266.823	173.62
267.055	176.62
267.287	167.62
267.52	154.62
267.752	145.62
267.984	178.62
268.216	184.62
268.448	168.62
268.681	185.62
268.913	183.62
269.145	196.62
269.377	205.62
269.609	205.62
269.841	184.62
270.073	218.62
270.306	216.62
270.538	225.62
270.77	227.62
271.002	226.62
271.234	230.62
271.466	206.62
271.698	227.62
271.93	218.62
272.162	233.62
272.394	220.62
272.626	223.62
272.858	198.62
273.09	211.62
273.322	198.62
273.553	200.62
273.785	215.62
274.017	194.62
274.249	190.62
274.481	188.62
274.713	189.62
274.945	206.62
275.176	188.62
275.408	201.62
275.64	198.62
275.872	204.62
276.104	194.62
276.335	189.62
276.567	193.62
276.799	203.62
277.031	209.62
277.262	220.62
277.494	218.62
277.726	209.62
277.957	208.62
278.189	201.62
278.421	208.62
278.652	185.62
278.884	200.62
279.115	203.62
279.347	207.62
279.579	186.62
279.81	201.62
280.042	193.62
280.273	205.62
280.505	188.62
280.736	188.62
280.968	198.62
281.199	183.62
281.431	208.62
281.662	190.62
281.894	200.62
282.125	198.62
282.356	206.62
282.588	206.62
282.819	235.62
283.051	199.62
283.282	208.62
283.513	208.62
283.745	203.62
283.976	196.62
284.207	204.62
284.439	213.62
284.67	215.62
284.901	191.62
285.132	194.62
285.364	209.62
285.595	194.62
285.826	185.62
286.057	204.62
286.288	197.62
286.52	208.62
286.751	209.62
286.982	198.62
287.213	213.62
287.444	192.62
287.675	206.62
287.906	209.62
288.138	205.62
288.369	210.62
288.6	207.62
288.831	222.62
289.062	222.62
289.293	211.62
289.524	203.62
289.755	203.62
289.986	191.62
290.217	188.62
290.448	198.62
290.679	201.62
290.91	204.62
291.141	210.62
291.371	204.62
291.602	201.62
291.833	209.62
292.064	208.62
292.295	191.62
292.526	211.62
292.757	215.62
292.987	185.62
293.218	197.62
293.449	188.62
293.68	230.62
293.91	207.62
294.141	195.62
294.372	212.62
294.603	201.62
294.833	204.62
295.064	205.62
295.295	209.62
295.525	194.62
295.756	220.62
295.987	209.62
296.217	225.62
296.448	228.62
296.679	226.62
296.909	219.62
297.14	208.62
297.37	215.62
297.601	225.62
297.831	208.62
298.062	213.62
298.292	214.62
298.523	216.62
298.753	213.62
298.984	220.62
299.214	197.62
299.445	200.62
299.675	213.62
299.905	214.62
300.136	216.62
300.366	221.62
300.597	224.62
300.827	220.62
301.057	220.62
301.288	230.62
301.518	248.62
301.748	212.62
301.979	234.62
302.209	240.62
302.439	228.62
302.669	226.62
302.9	220.62
303.13	219.62
303.36	219.62
303.59	221.62
303.82	234.62
304.051	219.62
304.281	229.62
304.511	226.62
304.741	226.62
304.971	239.62
305.201	232.62
305.431	222.62
305.661	228.62
305.891	217.62
306.121	224.62
306.352	237.62
306.582	233.62
306.812	214.62
307.042	234.62
307.272	235.62
307.502	243.62
307.731	227.62
307.961	232.62
308.191	226.62
308.421	218.62
308.651	215.62
308.881	224.62
309.111	228.62
309.341	234.62
309.571	253.62
309.8	258.62
310.03	264.62
310.26	257.62
310.49	262.62
310.72	270.62
310.949	288.62
311.179	276.62
311.409	258.62
311.639	260.62
311.868	284.62
312.098	277.62
312.328	267.62
312.557	266.62
312.787	285.62
313.017	300.62
313.246	259.62
313.476	268.62
313.706	280.62
313.935	274.62
314.165	264.62
314.394	286.62
314.624	276.62
314.853	270.62
315.083	275.62
315.312	256.62
315.542	257.62
315.771	246.62
316.001	256.62
316.23	265.62
316.46	261.62
316.689	267.62
316.919	273.62
317.148	262.62
317.377	273.62
317.607	274.62
317.836	270.62
318.065	274.62
318.295	265.62
318.524	286.62
318.753	282.62
318.983	266.62
319.212	249.62
319.441	265.62
319.67	278.62
319.9	270.62
320.129	276.62
320.358	288.62
320.587	262.62
320.816	271.62
321.046	264.62
321.275	272.62
321.504	294.62
321.733	292.62
321.962	300.62
322.191	301.62
322.42	302.62
322.649	314.62
322.878	324.62
323.108	334.62
323.337	342.62
323.566	370.62
323.795	372.62
324.024	405.62
324.253	522.62
324.482	800.62
324.71	1155.62
324.939	1461.62
325.168	1165.62
325.397	632.62
325.626	457.62
325.855	395.62
326.084	355.62
326.313	373.62
326.542	359.62
326.77	393.62
326.999	475.62
327.228	675.62
327.457	948.62
327.686	1063.62
327.914	725.62
328.143	488.62
328.372	445.62
328.6	406.62
328.829	394.62
329.058	404.62
329.287	410.62
329.515	361.62
329.744	370.62
329.972	342.62
330.201	372.62
330.43	389.62
330.658	404.62
330.887	438.62
331.115	404.62
331.344	369.62
331.572	346.62
331.801	319.62
332.03	338.62
332.258	323.62
332.486	305.62
332.715	316.62
332.943	305.62
333.172	302.62
333.4	285.62
333.629	299.62
333.857	323.62
334.085	336.62
334.314	318.62
334.542	330.62
334.771	358.62
334.999	340.62
335.227	323.62
335.455	302.62
335.684	291.62
335.912	292.62
336.14	284.62
336.369	296.62
336.597	305.62
336.825	310.62
337.053	302.62
337.281	290.62
337.51	291.62
337.738	271.62
337.966	291.62
338.194	307.62
338.422	294.62
338.65	282.62
338.878	284.62
339.106	284.62
339.334	285.62
339.562	300.62
339.79	275.62
340.018	286.62
340.246	294.62
340.474	277.62
340.702	293.62
340.93	273.62
341.158	279.62
341.386	276.62
341.614	279.62
341.842	297.62
342.07	284.62
342.298	306.62
342.526	290.62
342.754	284.62
342.981	282.62
343.209	291.62
343.437	289.62
343.665	281.62
343.893	299.62
344.12	306.62
344.348	302.62
344.576	297.62
344.804	301.62
345.031	271.62
345.259	299.62
345.487	291.62
345.714	274.62
345.942	280.62
346.17	282.62
346.397	294.62
346.625	283.62
346.853	279.62
347.08	285.62
347.308	293.62
347.535	282.62
347.763	302.62
347.99	274.62
348.218	300.62
348.445	299.62
348.673	298.62
348.9	292.62
349.128	283.62
349.355	259.62
349.583	268.62
349.81	258.62
350.037	263.62
350.265	286.62
350.492	280.62
350.72	282.62
350.947	273.62
351.174	290.62
351.402	308.62
351.629	297.62
351.856	286.62
352.083	297.62
352.311	307.62
352.538	279.62
352.765	289.62
352.992	281.62
353.22	280.62
353.447	290.62
353.674	261.62
353.901	289.62
354.128	270.62
354.355	267.62
354.583	265.62
354.81	269.62
355.037	256.62
355.264	254.62
355.491	268.62
355.718	257.62
355.945	245.62
356.172	243.62
356.399	251.62
356.626	265.62
356.853	268.62
357.08	264.62
357.307	250.62
357.534	273.62
357.761	251.62
357.988	253.62
358.215	241.62
358.441	245.62
358.668	250.62
358.895	243.62
359.122	272.62
359.349	268.62
359.576	281.62
359.802	280.62
360.029	308.62
360.256	325.62
360.483	298.62
360.709	267.62
360.936	276.62
361.163	277.62
361.39	276.62
361.616	279.62
361.843	280.62
362.07	286.62
362.296	284.62
362.523	264.62
362.749	275.62
362.976	266.62
363.203	276.62
363.429	269.62
363.656	280.62
363.882	274.62
364.109	282.62
364.335	280.62
364.562	265.62
364.788	243.62
365.015	274.62
365.241	273.62
365.468	254.62
365.694	269.62
365.92	292.62
366.147	271.62
366.373	262.62
366.599	263.62
366.826	253.62
367.052	241.62
367.278	263.62
367.505	266.62
367.731	278.62
367.957	256.62
368.184	251.62
368.41	278.62
368.636	290.62
368.862	267.62
369.089	253.62
369.315	255.62
369.541	259.62
369.767	277.62
369.993	263.62
370.219	252.62
370.445	251.62
370.672	262.62
370.898	249.62
371.124	258.62
371.35	248.62
371.576	232.62
371.802	256.62
372.028	266.62
372.254	264.62
372.48	257.62
372.706	249.62
372.932	239.62
373.158	265.62
373.384	253.62
373.61	234.62
373.835	261.62
374.061	246.62
374.287	248.62
374.513	268.62
374.739	272.62
374.965	246.62
375.191	272.62
375.416	254.62
375.642	264.62
375.868	245.62
376.094	249.62
376.319	234.62
376.545	247.62
376.771	254.62
376.997	247.62
377.222	242.62
377.448	234.62
377.674	245.62
377.899	241.62
378.125	261.62
378.35	255.62
378.576	263.62
378.802	262.62
379.027	242.62
379.253	258.62
379.478	228.62
379.704	244.62
379.929	266.62
380.155	253.62
380.38	237.62
380.606	253.62
380.831	254.62
381.057	247.62
381.282	259.62
381.507	252.62
381.733	259.62
381.958	250.62
382.184	232.62
382.409	242.62
382.634	256.62
382.86	264.62
383.085	256.62
383.31	245.62
383.535	238.62
383.761	254.62
383.986	260.62
384.211	253.62
384.436	250.62
384.662	245.62
384.887	251.62
385.112	260.62
385.337	251.62
385.562	252.62
385.787	246.62
386.013	284.62
386.238	272.62
386.463	267.62
386.688	267.62
386.913	280.62
387.138	260.62
387.363	266.62
387.588	263.62
387.813	254.62
388.038	269.62
388.263	258.62
388.488	260.62
388.713	254.62
388.938	273.62
389.163	264.62
389.387	242.62
389.612	253.62
389.837	244.62
390.062	261.62
390.287	266.62
390.512	255.62
390.736	262.62
390.961	266.62
391.186	260.62
391.411	281.62
391.636	257.62
391.86	272.62
392.085	278.62
392.31	265.62
392.534	262.62
392.759	268.62
392.984	272.62
393.208	260.62
393.433	265.62
393.658	269.62
393.882	258.62
394.107	271.62
394.331	252.62
394.556	249.62
394.78	261.62
395.005	286.62
395.229	261.62
395.454	266.62
395.678	256.62
395.903	288.62
396.127	276.62
396.352	285.62
396.576	285.62
396.801	273.62
397.025	271.62
397.249	270.62
397.474	278.62
397.698	287.62
397.922	276.62
398.147	270.62
398.371	282.62
398.595	290.62
398.82	267.62
399.044	289.62
399.268	303.62
399.492	306.62
399.717	306.62
399.941	313.62
400.165	346.62
400.389	364.62
400.613	323.62
400.837	317.62
401.062	288.62
401.286	294.62
401.51	292.62
401.734	288.62
401.958	270.62
402.182	286.62
402.406	293.62
402.63	293.62
402.854	305.62
403.078	289.62
403.302	295.62
403.526	313.62
403.75	297.62
403.974	290.62
404.198	297.62
404.422	302.62
404.645	295.62
404.869	304.62
405.093	307.62
405.317	330.62
405.541	344.62
405.765	345.62
405.988	322.62
406.212	319.62
406.436	330.62
406.66	336.62
406.883	323.62
407.107	348.62
407.331	353.62
407.555	394.62
407.778	388.62
408.002	365.62
408.226	326.62
408.449	332.62
408.673	340.62
408.896	340.62
409.12	354.62
409.344	343.62
409.567	304.62
409.791	306.62
410.014	295.62
410.238	306.62
410.461	293.62
410.685	297.62
410.908	303.62
411.132	316.62
411.355	345.62
411.578	319.62
411.802	310.62
412.025	293.62
412.249	310.62
412.472	322.62
412.695	324.62
412.919	314.62
413.142	299.62
413.365	304.62
413.589	296.62
413.812	291.62
414.035	284.62
414.258	290.62
414.482	304.62
414.705	280.62
414.928	290.62
415.151	276.62
415.374	282.62
415.597	274.62
415.821	283.62
416.044	278.62
416.267	285.62
416.49	261.62
416.713	281.62
416.936	269.62
417.159	289.62
417.382	292.62
417.605	288.62
417.828	304.62
418.051	276.62
418.274	298.62
418.497	292.62
418.72	295.62
418.943	274.62
419.166	286.62
419.389	300.62
419.611	302.62
419.834	281.62
420.057	298.62
420.28	288.62
420.503	267.62
420.726	301.62
420.948	325.62
421.171	342.62
421.394	333.62
421.617	305.62
421.839	292.62
422.062	288.62
422.285	311.62
422.507	331.62
422.73	375.62
422.953	363.62
423.175	315.62
423.398	299.62
423.621	297.62
423.843	314.62
424.066	321.62
424.288	314.62
424.511	331.62
424.733	372.62
424.956	402.62
425.178	408.62
425.401	382.62
425.623	389.62
425.846	330.62
426.068	322.62
426.291	320.62
426.513	305.62
426.735	332.62
426.958	340.62
427.18	378.62
427.402	458.62
427.625	526.62
427.847	450.62
428.069	386.62
428.292	355.62
428.514	320.62
428.736	313.62
428.958	307.62
429.181	296.62
429.403	315.62
429.625	306.62
429.847	313.62
430.069	348.62
430.292	359.62
430.514	314.62
430.736	305.62
430.958	285.62
431.18	285.62
431.402	266.62
431.624	290.62
431.846	285.62
432.068	283.62
432.29	281.62
432.512	280.62
432.734	261.62
432.956	284.62
433.178	290.62
433.4	276.62
433.622	278.62
433.844	259.62
434.066	301.62
434.287	298.62
434.509	299.62
434.731	301.62
434.953	284.62
435.175	294.62
435.397	314.62
435.618	339.62
435.84	338.62
436.062	407.62
436.284	434.62
436.505	380.62
436.727	332.62
436.949	304.62
437.17	311.62
437.392	308.62
437.614	323.62
437.835	331.62
438.057	394.62
438.278	437.62
438.5	441.62
438.721	485.62
438.943	457.62
439.165	356.62
439.386	336.62
439.608	329.62
439.829	355.62
440.05	350.62
440.272	378.62
440.493	342.62
440.715	334.62
440.936	321.62
441.158	312.62
441.379	312.62
441.6	313.62
441.822	324.62
442.043	355.62
442.264	381.62
442.486	390.62
442.707	350.62
442.928	327.62
443.149	339.62
443.371	343.62
443.592	371.62
443.813	425.62
444.034	454.62
444.255	372.62
444.476	345.62
444.698	331.62
444.919	322.62
445.14	408.62
445.361	361.62
445.582	346.62
445.803	397.62
446.024	439.62
446.245	468.62
446.466	416.62
446.687	361.62
446.908	336.62
447.129	296.62
447.35	296.62
447.571	301.62
447.792	297.62
448.013	327.62
448.234	316.62
448.455	334.62
448.675	423.62
448.896	466.62
449.117	389.62
449.338	410.62
449.559	453.62
449.779	460.62
450	388.62
450.221	331.62
450.442	324.62
450.662	304.62
450.883	293.62
451.104	311.62
451.324	304.62
451.545	294.62
451.766	284.62
451.986	297.62
452.207	279.62
452.428	257.62
452.648	269.62
452.869	264.62
453.089	288.62
453.31	284.62
453.53	270.62
453.751	267.62
453.971	270.62
454.192	287.62
454.412	296.62
454.633	291.62
454.853	272.62
455.073	267.62
455.294	288.62
455.514	337.62
455.734	330.62
455.955	263.62
456.175	247.62
456.395	228.62
456.616	252.62
456.836	258.62
457.056	276.62
457.276	243.62
457.497	263.62
457.717	270.62
457.937	254.62
458.157	289.62
458.377	265.62
458.598	282.62
458.818	305.62
459.038	348.62
459.258	350.62
459.478	316.62
459.698	290.62
459.918	286.62
460.138	256.62
460.358	261.62
460.578	280.62
460.798	258.62
461.018	275.62
461.238	269.62
461.458	286.62
461.678	281.62
461.898	281.62
462.118	281.62
462.338	287.62
462.558	279.62
462.777	284.62
462.997	285.62
463.217	296.62
463.437	307.62
463.657	300.62
463.876	276.62
464.096	269.62
464.316	299.62
464.536	308.62
464.755	313.62
464.975	312.62
465.195	328.62
465.414	366.62
465.634	345.62
465.854	312.62
466.073	289.62
466.293	268.62
466.512	274.62
466.732	264.62
466.951	284.62
467.171	292.62
467.391	256.62
467.61	274.62
467.829	282.62
468.049	285.62
468.268	275.62
468.488	269.62
468.707	263.62
468.927	276.62
469.146	263.62
469.365	276.62
469.585	274.62
469.804	280.62
470.023	282.62
470.243	282.62
470.462	295.62
470.681	313.62
470.901	290.62
471.12	293.62
471.339	260.62
471.558	285.62
471.777	281.62
471.997	266.62
472.216	283.62
472.435	296.62
472.654	265.62
472.873	278.62
473.092	260.62
473.311	252.62
473.53	304.62
473.749	284.62
473.968	299.62
474.187	366.62
474.406	386.62
474.625	322.62
474.844	287.62
475.063	284.62
475.282	277.62
475.501	280.62
475.72	293.62
475.939	298.62
476.158	286.62
476.377	302.62
476.596	276.62
476.814	280.62
477.033	296.62
477.252	282.62
477.471	290.62
477.69	297.62
477.908	268.62
478.127	284.62
478.346	285.62
478.564	301.62
478.783	310.62
479.002	317.62
479.22	332.62
479.439	310.62
479.658	339.62
479.876	352.62
480.095	330.62
480.313	340.62
480.532	347.62
480.751	340.62
480.969	334.62
481.188	358.62
481.406	387.62
481.624	348.62
481.843	329.62
482.061	309.62
482.28	334.62
482.498	327.62
482.717	324.62
482.935	330.62
483.153	338.62
483.372	327.62
483.59	312.62
483.808	318.62
484.027	334.62
484.245	309.62
484.463	320.62
484.681	324.62
484.9	319.62
485.118	345.62
485.336	337.62
485.554	334.62
485.772	322.62
485.99	332.62
486.209	317.62
486.427	336.62
486.645	346.62
486.863	346.62
487.081	334.62
487.299	341.62
487.517	355.62
487.735	356.62
487.953	352.62
488.171	335.62
488.389	347.62
488.607	360.62
488.825	334.62
489.043	337.62
489.261	340.62
489.479	354.62
489.696	356.62
489.914	338.62
490.132	345.62
490.35	361.62
490.568	368.62
490.786	361.62
491.003	372.62
491.221	365.62
491.439	382.62
491.657	400.62
491.874	377.62
492.092	375.62
492.31	392.62
492.527	372.62
492.745	377.62
492.963	380.62
493.18	394.62
493.398	399.62
493.615	400.62
493.833	412.62
494.05	396.62
494.268	402.62
494.485	404.62
494.703	390.62
494.92	396.62
495.138	400.62
495.355	419.62
495.573	409.62
495.79	384.62
496.008	408.62
496.225	396.62
496.442	420.62
496.66	381.62
496.877	389.62
497.094	406.62
497.312	404.62
497.529	426.62
497.746	418.62
497.963	423.62
498.181	424.62
498.398	413.62
498.615	432.62
498.832	440.62
499.049	442.62
499.267	443.62
499.484	448.62
499.701	448.62
499.918	464.62
500.135	511.62
500.352	494.62
500.569	499.62
500.786	491.62
501.003	516.62
501.22	493.62
501.437	492.62
501.654	480.62
501.871	457.62
502.088	476.62
