Data from 1982.PennyLincolnUp.Lamp.En5.5.200Scan.071819.P1_HRD10591_16-45-21-961.txt Node
Date: Thu Jul 18 16:45:21 EDT 2019
User: cochatt
Spectrometer: HR+D1059
Trigger mode: 1
Integration Time (sec): 1.000000E-1
Scans to average: 1
Electric dark correction enabled: true
Nonlinearity correction enabled: false
Boxcar width: 0
XAxis mode: Wavelengths
Number of Pixels in Spectrum: 2048
>>>>>Begin Spectral Data<<<<<
223.165	-12.31
223.4	-12.31
223.635	-12.31
223.869	-18.31
224.104	-26.31
224.338	-4.31
224.573	-8.31
224.808	-19.31
225.042	-4.31
225.277	-18.31
225.511	-1.31
225.746	15.69
225.98	6.69
226.215	7.69
226.449	25.69
226.683	1.69
226.918	27.69
227.152	27.69
227.387	45.69
227.621	65.69
227.856	65.69
228.09	42.69
228.324	41.69
228.559	60.69
228.793	67.69
229.027	96.69
229.262	97.69
229.496	95.69
229.73	105.69
229.964	123.69
230.199	112.69
230.433	93.69
230.667	92.69
230.901	100.69
231.136	100.69
231.37	89.69
231.604	106.69
231.838	107.69
232.072	112.69
232.306	105.69
232.541	96.69
232.775	101.69
233.009	105.69
233.243	107.69
233.477	109.69
233.711	115.69
233.945	114.69
234.179	104.69
234.413	100.69
234.647	97.69
234.881	93.69
235.115	133.69
235.349	110.69
235.583	111.69
235.817	107.69
236.051	122.69
236.285	113.69
236.519	114.69
236.753	105.69
236.987	118.69
237.221	148.69
237.455	164.69
237.689	149.69
237.922	125.69
238.156	122.69
238.39	113.69
238.624	115.69
238.858	98.69
239.091	122.69
239.325	107.69
239.559	116.69
239.793	116.69
240.027	129.69
240.26	123.69
240.494	130.69
240.728	135.69
240.961	124.69
241.195	135.69
241.429	122.69
241.662	124.69
241.896	111.69
242.13	104.69
242.363	113.69
242.597	115.69
242.83	110.69
243.064	119.69
243.298	123.69
243.531	121.69
243.765	123.69
243.998	122.69
244.232	133.69
244.465	119.69
244.699	124.69
244.932	125.69
245.166	125.69
245.399	136.69
245.633	116.69
245.866	147.69
246.099	145.69
246.333	125.69
246.566	114.69
246.8	139.69
247.033	124.69
247.266	132.69
247.5	133.69
247.733	145.69
247.966	149.69
248.2	142.69
248.433	151.69
248.666	154.69
248.899	149.69
249.133	173.69
249.366	171.69
249.599	161.69
249.832	144.69
250.066	158.69
250.299	159.69
250.532	162.69
250.765	161.69
250.998	170.69
251.231	191.69
251.465	179.69
251.698	150.69
251.931	163.69
252.164	166.69
252.397	155.69
252.63	165.69
252.863	167.69
253.096	171.69
253.329	185.69
253.562	173.69
253.795	195.69
254.028	179.69
254.261	180.69
254.494	199.69
254.727	188.69
254.96	211.69
255.193	200.69
255.426	197.69
255.659	187.69
255.892	200.69
256.124	170.69
256.357	182.69
256.59	178.69
256.823	175.69
257.056	158.69
257.289	157.69
257.521	191.69
257.754	161.69
257.987	173.69
258.22	175.69
258.452	180.69
258.685	161.69
258.918	160.69
259.151	175.69
259.383	181.69
259.616	166.69
259.849	189.69
260.081	189.69
260.314	187.69
260.547	185.69
260.779	200.69
261.012	179.69
261.244	202.69
261.477	187.69
261.71	178.69
261.942	186.69
262.175	192.69
262.407	197.69
262.64	189.69
262.872	181.69
263.105	187.69
263.337	182.69
263.57	170.69
263.802	164.69
264.035	156.69
264.267	172.69
264.499	169.69
264.732	155.69
264.964	183.69
265.197	173.69
265.429	177.69
265.661	165.69
265.894	169.69
266.126	179.69
266.358	164.69
266.591	172.69
266.823	191.69
267.055	162.69
267.287	185.69
267.52	190.69
267.752	187.69
267.984	180.69
268.216	178.69
268.448	192.69
268.681	203.69
268.913	188.69
269.145	210.69
269.377	216.69
269.609	199.69
269.841	216.69
270.073	208.69
270.306	214.69
270.538	239.69
270.77	217.69
271.002	234.69
271.234	226.69
271.466	212.69
271.698	234.69
271.93	239.69
272.162	244.69
272.394	250.69
272.626	220.69
272.858	226.69
273.09	203.69
273.322	213.69
273.553	217.69
273.785	206.69
274.017	208.69
274.249	190.69
274.481	189.69
274.713	203.69
274.945	207.69
275.176	221.69
275.408	193.69
275.64	201.69
275.872	208.69
276.104	189.69
276.335	215.69
276.567	198.69
276.799	219.69
277.031	236.69
277.262	242.69
277.494	228.69
277.726	215.69
277.957	217.69
278.189	193.69
278.421	196.69
278.652	190.69
278.884	204.69
279.115	201.69
279.347	183.69
279.579	200.69
279.81	197.69
280.042	205.69
280.273	213.69
280.505	201.69
280.736	214.69
280.968	198.69
281.199	212.69
281.431	191.69
281.662	203.69
281.894	214.69
282.125	206.69
282.356	209.69
282.588	230.69
282.819	234.69
283.051	199.69
283.282	193.69
283.513	220.69
283.745	211.69
283.976	201.69
284.207	205.69
284.439	216.69
284.67	234.69
284.901	205.69
285.132	226.69
285.364	200.69
285.595	213.69
285.826	199.69
286.057	203.69
286.288	210.69
286.52	218.69
286.751	208.69
286.982	208.69
287.213	221.69
287.444	229.69
287.675	220.69
287.906	223.69
288.138	211.69
288.369	212.69
288.6	213.69
288.831	218.69
289.062	209.69
289.293	215.69
289.524	233.69
289.755	216.69
289.986	227.69
290.217	221.69
290.448	218.69
290.679	194.69
290.91	233.69
291.141	217.69
291.371	207.69
291.602	220.69
291.833	207.69
292.064	223.69
292.295	212.69
292.526	226.69
292.757	211.69
292.987	208.69
293.218	224.69
293.449	223.69
293.68	221.69
293.91	207.69
294.141	215.69
294.372	199.69
294.603	209.69
294.833	206.69
295.064	231.69
295.295	208.69
295.525	205.69
295.756	231.69
295.987	224.69
296.217	237.69
296.448	240.69
296.679	220.69
296.909	226.69
297.14	211.69
297.37	215.69
297.601	219.69
297.831	224.69
298.062	231.69
298.292	220.69
298.523	222.69
298.753	236.69
298.984	226.69
299.214	230.69
299.445	226.69
299.675	226.69
299.905	248.69
300.136	222.69
300.366	240.69
300.597	216.69
300.827	231.69
301.057	249.69
301.288	250.69
301.518	239.69
301.748	242.69
301.979	250.69
302.209	236.69
302.439	238.69
302.669	242.69
302.9	228.69
303.13	235.69
303.36	241.69
303.59	254.69
303.82	244.69
304.051	255.69
304.281	252.69
304.511	243.69
304.741	244.69
304.971	231.69
305.201	239.69
305.431	268.69
305.661	248.69
305.891	239.69
306.121	227.69
306.352	248.69
306.582	247.69
306.812	247.69
307.042	250.69
307.272	234.69
307.502	240.69
307.731	252.69
307.961	231.69
308.191	249.69
308.421	259.69
308.651	248.69
308.881	251.69
309.111	246.69
309.341	244.69
309.571	258.69
309.8	277.69
310.03	266.69
310.26	270.69
310.49	280.69
310.72	291.69
310.949	292.69
311.179	292.69
311.409	275.69
311.639	284.69
311.868	281.69
312.098	285.69
312.328	292.69
312.557	308.69
312.787	299.69
313.017	303.69
313.246	298.69
313.476	284.69
313.706	277.69
313.935	288.69
314.165	284.69
314.394	297.69
314.624	275.69
314.853	283.69
315.083	287.69
315.312	263.69
315.542	271.69
315.771	264.69
316.001	274.69
316.23	270.69
316.46	266.69
316.689	276.69
316.919	291.69
317.148	283.69
317.377	297.69
317.607	273.69
317.836	284.69
318.065	275.69
318.295	282.69
318.524	274.69
318.753	281.69
318.983	289.69
319.212	288.69
319.441	277.69
319.67	296.69
319.9	284.69
320.129	264.69
320.358	287.69
320.587	275.69
320.816	295.69
321.046	281.69
321.275	291.69
321.504	283.69
321.733	288.69
321.962	306.69
322.191	305.69
322.42	330.69
322.649	321.69
322.878	329.69
323.108	336.69
323.337	339.69
323.566	354.69
323.795	382.69
324.024	424.69
324.253	548.69
324.482	770.69
324.71	1134.69
324.939	1515.69
325.168	1204.69
325.397	667.69
325.626	459.69
325.855	412.69
326.084	362.69
326.313	373.69
326.542	381.69
326.77	417.69
326.999	485.69
327.228	711.69
327.457	977.69
327.686	1100.69
327.914	729.69
328.143	490.69
328.372	452.69
328.6	442.69
328.829	398.69
329.058	406.69
329.287	422.69
329.515	391.69
329.744	367.69
329.972	363.69
330.201	364.69
330.43	379.69
330.658	405.69
330.887	428.69
331.115	412.69
331.344	363.69
331.572	352.69
331.801	358.69
332.03	353.69
332.258	327.69
332.486	322.69
332.715	308.69
332.943	319.69
333.172	327.69
333.4	321.69
333.629	320.69
333.857	345.69
334.085	336.69
334.314	333.69
334.542	375.69
334.771	373.69
334.999	349.69
335.227	319.69
335.455	337.69
335.684	325.69
335.912	325.69
336.14	312.69
336.369	321.69
336.597	314.69
336.825	322.69
337.053	316.69
337.281	337.69
337.51	317.69
337.738	299.69
337.966	301.69
338.194	310.69
338.422	316.69
338.65	306.69
338.878	276.69
339.106	299.69
339.334	303.69
339.562	303.69
339.79	290.69
340.018	295.69
340.246	287.69
340.474	306.69
340.702	304.69
340.93	298.69
341.158	302.69
341.386	304.69
341.614	307.69
341.842	315.69
342.07	298.69
342.298	293.69
342.526	312.69
342.754	278.69
342.981	298.69
343.209	280.69
343.437	281.69
343.665	298.69
343.893	321.69
344.12	283.69
344.348	297.69
344.576	299.69
344.804	303.69
345.031	304.69
345.259	319.69
345.487	306.69
345.714	307.69
345.942	299.69
346.17	295.69
346.397	297.69
346.625	291.69
346.853	291.69
347.08	288.69
347.308	285.69
347.535	312.69
347.763	299.69
347.99	298.69
348.218	308.69
348.445	306.69
348.673	306.69
348.9	299.69
349.128	296.69
349.355	287.69
349.583	285.69
349.81	283.69
350.037	302.69
350.265	283.69
350.492	285.69
350.72	286.69
350.947	280.69
351.174	308.69
351.402	293.69
351.629	307.69
351.856	290.69
352.083	299.69
352.311	324.69
352.538	332.69
352.765	290.69
352.992	319.69
353.22	307.69
353.447	311.69
353.674	299.69
353.901	291.69
354.128	280.69
354.355	249.69
354.583	272.69
354.81	283.69
355.037	283.69
355.264	274.69
355.491	268.69
355.718	266.69
355.945	252.69
356.172	275.69
356.399	266.69
356.626	264.69
356.853	285.69
357.08	278.69
357.307	279.69
357.534	277.69
357.761	285.69
357.988	291.69
358.215	285.69
358.441	275.69
358.668	282.69
358.895	269.69
359.122	280.69
359.349	288.69
359.576	291.69
359.802	298.69
360.029	319.69
360.256	333.69
360.483	314.69
360.709	291.69
360.936	280.69
361.163	299.69
361.39	273.69
361.616	282.69
361.843	287.69
362.07	299.69
362.296	294.69
362.523	303.69
362.749	291.69
362.976	276.69
363.203	287.69
363.429	271.69
363.656	279.69
363.882	270.69
364.109	297.69
364.335	281.69
364.562	288.69
364.788	281.69
365.015	267.69
365.241	262.69
365.468	274.69
365.694	269.69
365.92	302.69
366.147	287.69
366.373	275.69
366.599	242.69
366.826	264.69
367.052	284.69
367.278	268.69
367.505	282.69
367.731	288.69
367.957	275.69
368.184	271.69
368.41	281.69
368.636	267.69
368.862	277.69
369.089	265.69
369.315	265.69
369.541	266.69
369.767	273.69
369.993	268.69
370.219	272.69
370.445	255.69
370.672	273.69
370.898	272.69
371.124	270.69
371.35	264.69
371.576	253.69
371.802	265.69
372.028	257.69
372.254	259.69
372.48	282.69
372.706	270.69
372.932	265.69
373.158	265.69
373.384	286.69
373.61	263.69
373.835	269.69
374.061	281.69
374.287	254.69
374.513	263.69
374.739	283.69
374.965	265.69
375.191	292.69
375.416	265.69
375.642	275.69
375.868	260.69
376.094	257.69
376.319	275.69
376.545	285.69
376.771	282.69
376.997	280.69
377.222	278.69
377.448	268.69
377.674	250.69
377.899	262.69
378.125	266.69
378.35	270.69
378.576	245.69
378.802	261.69
379.027	267.69
379.253	296.69
379.478	238.69
379.704	270.69
379.929	258.69
380.155	279.69
380.38	270.69
380.606	262.69
380.831	282.69
381.057	271.69
381.282	271.69
381.507	267.69
381.733	292.69
381.958	261.69
382.184	267.69
382.409	269.69
382.634	258.69
382.86	265.69
383.085	271.69
383.31	295.69
383.535	271.69
383.761	277.69
383.986	274.69
384.211	296.69
384.436	276.69
384.662	280.69
384.887	277.69
385.112	277.69
385.337	277.69
385.562	287.69
385.787	259.69
386.013	304.69
386.238	293.69
386.463	283.69
386.688	283.69
386.913	277.69
387.138	268.69
387.363	271.69
387.588	288.69
387.813	290.69
388.038	288.69
388.263	290.69
388.488	284.69
388.713	275.69
388.938	289.69
389.163	287.69
389.387	274.69
389.612	271.69
389.837	267.69
390.062	276.69
390.287	260.69
390.512	258.69
390.736	273.69
390.961	265.69
391.186	282.69
391.411	291.69
391.636	265.69
391.86	290.69
392.085	289.69
392.31	281.69
392.534	280.69
392.759	285.69
392.984	279.69
393.208	280.69
393.433	263.69
393.658	271.69
393.882	267.69
394.107	275.69
394.331	275.69
394.556	281.69
394.78	259.69
395.005	286.69
395.229	268.69
395.454	294.69
395.678	283.69
395.903	306.69
396.127	289.69
396.352	307.69
396.576	291.69
396.801	309.69
397.025	281.69
397.249	295.69
397.474	285.69
397.698	305.69
397.922	296.69
398.147	300.69
398.371	286.69
398.595	298.69
398.82	283.69
399.044	307.69
399.268	324.69
399.492	328.69
399.717	339.69
399.941	345.69
400.165	368.69
400.389	374.69
400.613	322.69
400.837	327.69
401.062	332.69
401.286	323.69
401.51	324.69
401.734	305.69
401.958	311.69
402.182	299.69
402.406	316.69
402.63	319.69
402.854	301.69
403.078	293.69
403.302	314.69
403.526	316.69
403.75	295.69
403.974	288.69
404.198	315.69
404.422	324.69
404.645	317.69
404.869	324.69
405.093	319.69
405.317	359.69
405.541	348.69
405.765	355.69
405.988	333.69
406.212	341.69
406.436	349.69
406.66	354.69
406.883	346.69
407.107	343.69
407.331	383.69
407.555	411.69
407.778	419.69
408.002	363.69
408.226	343.69
408.449	331.69
408.673	361.69
408.896	366.69
409.12	381.69
409.344	355.69
409.567	315.69
409.791	325.69
410.014	302.69
410.238	332.69
410.461	318.69
410.685	319.69
410.908	319.69
411.132	351.69
411.355	369.69
411.578	340.69
411.802	312.69
412.025	306.69
412.249	332.69
412.472	343.69
412.695	340.69
412.919	335.69
413.142	320.69
413.365	302.69
413.589	293.69
413.812	306.69
414.035	295.69
414.258	275.69
414.482	290.69
414.705	297.69
414.928	315.69
415.151	287.69
415.374	288.69
415.597	304.69
415.821	301.69
416.044	296.69
416.267	295.69
416.49	296.69
416.713	290.69
416.936	296.69
417.159	275.69
417.382	290.69
417.605	315.69
417.828	297.69
418.051	293.69
418.274	319.69
418.497	289.69
418.72	303.69
418.943	289.69
419.166	295.69
419.389	293.69
419.611	292.69
419.834	303.69
420.057	311.69
420.28	321.69
420.503	315.69
420.726	333.69
420.948	315.69
421.171	332.69
421.394	356.69
421.617	328.69
421.839	321.69
422.062	314.69
422.285	333.69
422.507	355.69
422.73	389.69
422.953	384.69
423.175	334.69
423.398	330.69
423.621	331.69
423.843	315.69
424.066	340.69
424.288	326.69
424.511	352.69
424.733	373.69
424.956	411.69
425.178	390.69
425.401	417.69
425.623	393.69
425.846	366.69
426.068	321.69
426.291	348.69
426.513	359.69
426.735	331.69
426.958	355.69
427.18	419.69
427.402	475.69
427.625	526.69
427.847	468.69
428.069	407.69
428.292	360.69
428.514	330.69
428.736	333.69
428.958	323.69
429.181	315.69
429.403	314.69
429.625	314.69
429.847	343.69
430.069	366.69
430.292	372.69
430.514	314.69
430.736	305.69
430.958	317.69
431.18	297.69
431.402	289.69
431.624	326.69
431.846	280.69
432.068	296.69
432.29	296.69
432.512	314.69
432.734	291.69
432.956	306.69
433.178	304.69
433.4	306.69
433.622	309.69
433.844	277.69
434.066	288.69
434.287	296.69
434.509	293.69
434.731	301.69
434.953	297.69
435.175	301.69
435.397	328.69
435.618	327.69
435.84	354.69
436.062	422.69
436.284	435.69
436.505	381.69
436.727	350.69
436.949	307.69
437.17	287.69
437.392	320.69
437.614	319.69
437.835	334.69
438.057	403.69
438.278	432.69
438.5	451.69
438.721	503.69
438.943	460.69
439.165	379.69
439.386	356.69
439.608	349.69
439.829	340.69
440.05	359.69
440.272	405.69
440.493	340.69
440.715	321.69
440.936	318.69
441.158	313.69
441.379	345.69
441.6	332.69
441.822	342.69
442.043	355.69
442.264	414.69
442.486	425.69
442.707	365.69
442.928	338.69
443.149	367.69
443.371	365.69
443.592	382.69
443.813	445.69
444.034	450.69
444.255	388.69
444.476	354.69
444.698	333.69
444.919	340.69
445.14	428.69
445.361	381.69
445.582	366.69
445.803	399.69
446.024	468.69
446.245	459.69
446.466	431.69
446.687	371.69
446.908	341.69
447.129	343.69
447.35	323.69
447.571	315.69
447.792	314.69
448.013	312.69
448.234	323.69
448.455	372.69
448.675	417.69
448.896	463.69
449.117	419.69
449.338	397.69
449.559	449.69
449.779	485.69
450	414.69
450.221	346.69
450.442	298.69
450.662	315.69
450.883	323.69
451.104	313.69
451.324	318.69
451.545	292.69
451.766	303.69
451.986	281.69
452.207	294.69
452.428	303.69
452.648	302.69
452.869	294.69
453.089	292.69
453.31	288.69
453.53	276.69
453.751	292.69
453.971	290.69
454.192	295.69
454.412	293.69
454.633	288.69
454.853	289.69
455.073	284.69
455.294	301.69
455.514	335.69
455.734	333.69
455.955	293.69
456.175	283.69
456.395	266.69
456.616	263.69
456.836	274.69
457.056	271.69
457.276	264.69
457.497	272.69
457.717	262.69
457.937	274.69
458.157	277.69
458.377	280.69
458.598	284.69
458.818	337.69
459.038	379.69
459.258	359.69
459.478	334.69
459.698	297.69
459.918	262.69
460.138	283.69
460.358	293.69
460.578	300.69
460.798	315.69
461.018	302.69
461.238	305.69
461.458	299.69
461.678	288.69
461.898	293.69
462.118	303.69
462.338	294.69
462.558	304.69
462.777	307.69
462.997	297.69
463.217	299.69
463.437	320.69
463.657	318.69
463.876	313.69
464.096	319.69
464.316	305.69
464.536	320.69
464.755	305.69
464.975	312.69
465.195	349.69
465.414	393.69
465.634	344.69
465.854	304.69
466.073	312.69
466.293	303.69
466.512	303.69
466.732	293.69
466.951	279.69
467.171	277.69
467.391	283.69
467.61	275.69
467.829	311.69
468.049	286.69
468.268	313.69
468.488	297.69
468.707	260.69
468.927	292.69
469.146	276.69
469.365	271.69
469.585	295.69
469.804	274.69
470.023	295.69
470.243	289.69
470.462	290.69
470.681	306.69
470.901	311.69
471.12	289.69
471.339	292.69
471.558	300.69
471.777	303.69
471.997	298.69
472.216	282.69
472.435	298.69
472.654	299.69
472.873	289.69
473.092	303.69
473.311	287.69
473.53	284.69
473.749	284.69
473.968	324.69
474.187	403.69
474.406	391.69
474.625	315.69
474.844	317.69
475.063	298.69
475.282	305.69
475.501	281.69
475.72	291.69
475.939	308.69
476.158	289.69
476.377	302.69
476.596	300.69
476.814	303.69
477.033	317.69
477.252	323.69
477.471	298.69
477.69	313.69
477.908	304.69
478.127	303.69
478.346	321.69
478.564	333.69
478.783	325.69
479.002	344.69
479.22	332.69
479.439	340.69
479.658	328.69
479.876	346.69
480.095	346.69
480.313	360.69
480.532	351.69
480.751	357.69
480.969	342.69
481.188	387.69
481.406	395.69
481.624	366.69
481.843	331.69
482.061	337.69
482.28	313.69
482.498	335.69
482.717	338.69
482.935	320.69
483.153	341.69
483.372	344.69
483.59	343.69
483.808	334.69
484.027	336.69
484.245	332.69
484.463	330.69
484.681	336.69
484.9	356.69
485.118	346.69
485.336	339.69
485.554	340.69
485.772	347.69
485.99	349.69
486.209	352.69
486.427	333.69
486.645	361.69
486.863	354.69
487.081	366.69
487.299	363.69
487.517	345.69
487.735	354.69
487.953	358.69
488.171	360.69
488.389	357.69
488.607	358.69
488.825	362.69
489.043	353.69
489.261	366.69
489.479	365.69
489.696	384.69
489.914	357.69
490.132	359.69
490.35	379.69
490.568	354.69
490.786	383.69
491.003	389.69
491.221	389.69
491.439	375.69
491.657	414.69
491.874	386.69
492.092	413.69
492.31	409.69
492.527	405.69
492.745	424.69
492.963	400.69
493.18	385.69
493.398	407.69
493.615	402.69
493.833	418.69
494.05	420.69
494.268	409.69
494.485	405.69
494.703	409.69
494.92	409.69
495.138	423.69
495.355	413.69
495.573	422.69
495.79	420.69
496.008	415.69
496.225	409.69
496.442	415.69
496.66	415.69
496.877	394.69
497.094	424.69
497.312	422.69
497.529	418.69
497.746	427.69
497.963	432.69
498.181	464.69
498.398	450.69
498.615	458.69
498.832	443.69
499.049	476.69
499.267	445.69
499.484	466.69
499.701	493.69
499.918	487.69
500.135	495.69
500.352	509.69
500.569	527.69
500.786	528.69
501.003	516.69
501.22	518.69
501.437	500.69
501.654	505.69
501.871	506.69
502.088	479.69
