Data from 1982.PennyLincolnUp.Lamp.En5.5.200Scan.071819.P1_HRD10591_16-45-27-961.txt Node
Date: Thu Jul 18 16:45:27 EDT 2019
User: cochatt
Spectrometer: HR+D1059
Trigger mode: 1
Integration Time (sec): 1.000000E-1
Scans to average: 1
Electric dark correction enabled: true
Nonlinearity correction enabled: false
Boxcar width: 0
XAxis mode: Wavelengths
Number of Pixels in Spectrum: 2048
>>>>>Begin Spectral Data<<<<<
223.165	-4.62
223.4	-4.62
223.635	-4.62
223.869	-10.62
224.104	-20.62
224.338	-10.62
224.573	-14.62
224.808	-12.62
225.042	-19.62
225.277	-19.62
225.511	-5.62
225.746	4.38
225.98	11.38
226.215	11.38
226.449	11.38
226.683	16.38
226.918	29.38
227.152	34.38
227.387	37.38
227.621	48.38
227.856	58.38
228.09	44.38
228.324	58.38
228.559	53.38
228.793	54.38
229.027	80.38
229.262	83.38
229.496	107.38
229.73	112.38
229.964	112.38
230.199	118.38
230.433	107.38
230.667	94.38
230.901	115.38
231.136	99.38
231.37	101.38
231.604	96.38
231.838	97.38
232.072	93.38
232.306	99.38
232.541	89.38
232.775	90.38
233.009	88.38
233.243	100.38
233.477	97.38
233.711	94.38
233.945	90.38
234.179	90.38
234.413	93.38
234.647	108.38
234.881	103.38
235.115	95.38
235.349	84.38
235.583	94.38
235.817	113.38
236.051	91.38
236.285	96.38
236.519	108.38
236.753	120.38
236.987	126.38
237.221	131.38
237.455	176.38
237.689	151.38
237.922	103.38
238.156	110.38
238.39	114.38
238.624	128.38
238.858	99.38
239.091	102.38
239.325	111.38
239.559	104.38
239.793	99.38
240.027	109.38
240.26	121.38
240.494	128.38
240.728	113.38
240.961	115.38
241.195	105.38
241.429	101.38
241.662	116.38
241.896	108.38
242.13	114.38
242.363	118.38
242.597	121.38
242.83	112.38
243.064	103.38
243.298	119.38
243.531	105.38
243.765	110.38
243.998	109.38
244.232	119.38
244.465	106.38
244.699	100.38
244.932	117.38
245.166	130.38
245.399	117.38
245.633	112.38
245.866	124.38
246.099	114.38
246.333	125.38
246.566	124.38
246.8	124.38
247.033	120.38
247.266	147.38
247.5	127.38
247.733	125.38
247.966	136.38
248.2	136.38
248.433	153.38
248.666	137.38
248.899	136.38
249.133	157.38
249.366	180.38
249.599	152.38
249.832	132.38
250.066	133.38
250.299	133.38
250.532	163.38
250.765	168.38
250.998	171.38
251.231	204.38
251.465	166.38
251.698	148.38
251.931	152.38
252.164	158.38
252.397	150.38
252.63	180.38
252.863	176.38
253.096	168.38
253.329	188.38
253.562	177.38
253.795	176.38
254.028	163.38
254.261	168.38
254.494	172.38
254.727	186.38
254.96	216.38
255.193	196.38
255.426	189.38
255.659	164.38
255.892	182.38
256.124	173.38
256.357	194.38
256.59	170.38
256.823	157.38
257.056	169.38
257.289	148.38
257.521	151.38
257.754	165.38
257.987	156.38
258.22	150.38
258.452	163.38
258.685	164.38
258.918	178.38
259.151	178.38
259.383	178.38
259.616	171.38
259.849	182.38
260.081	190.38
260.314	194.38
260.547	212.38
260.779	184.38
261.012	187.38
261.244	173.38
261.477	192.38
261.71	184.38
261.942	186.38
262.175	181.38
262.407	181.38
262.64	172.38
262.872	157.38
263.105	164.38
263.337	179.38
263.57	180.38
263.802	163.38
264.035	162.38
264.267	171.38
264.499	163.38
264.732	159.38
264.964	155.38
265.197	160.38
265.429	164.38
265.661	156.38
265.894	163.38
266.126	168.38
266.358	181.38
266.591	180.38
266.823	182.38
267.055	169.38
267.287	165.38
267.52	154.38
267.752	172.38
267.984	176.38
268.216	168.38
268.448	171.38
268.681	167.38
268.913	188.38
269.145	212.38
269.377	191.38
269.609	201.38
269.841	192.38
270.073	198.38
270.306	223.38
270.538	241.38
270.77	238.38
271.002	220.38
271.234	217.38
271.466	221.38
271.698	231.38
271.93	242.38
272.162	232.38
272.394	228.38
272.626	214.38
272.858	201.38
273.09	211.38
273.322	206.38
273.553	215.38
273.785	206.38
274.017	185.38
274.249	214.38
274.481	212.38
274.713	214.38
274.945	201.38
275.176	206.38
275.408	193.38
275.64	199.38
275.872	195.38
276.104	210.38
276.335	206.38
276.567	206.38
276.799	205.38
277.031	228.38
277.262	238.38
277.494	250.38
277.726	235.38
277.957	214.38
278.189	208.38
278.421	210.38
278.652	204.38
278.884	180.38
279.115	213.38
279.347	211.38
279.579	222.38
279.81	208.38
280.042	194.38
280.273	196.38
280.505	196.38
280.736	206.38
280.968	184.38
281.199	188.38
281.431	208.38
281.662	209.38
281.894	186.38
282.125	209.38
282.356	206.38
282.588	228.38
282.819	238.38
283.051	200.38
283.282	212.38
283.513	210.38
283.745	196.38
283.976	211.38
284.207	214.38
284.439	188.38
284.67	211.38
284.901	205.38
285.132	189.38
285.364	213.38
285.595	195.38
285.826	211.38
286.057	202.38
286.288	224.38
286.52	203.38
286.751	203.38
286.982	221.38
287.213	221.38
287.444	200.38
287.675	216.38
287.906	218.38
288.138	231.38
288.369	209.38
288.6	212.38
288.831	221.38
289.062	220.38
289.293	240.38
289.524	214.38
289.755	213.38
289.986	211.38
290.217	219.38
290.448	204.38
290.679	200.38
290.91	213.38
291.141	213.38
291.371	205.38
291.602	234.38
291.833	212.38
292.064	206.38
292.295	202.38
292.526	195.38
292.757	195.38
292.987	198.38
293.218	211.38
293.449	197.38
293.68	215.38
293.91	202.38
294.141	212.38
294.372	214.38
294.603	214.38
294.833	210.38
295.064	226.38
295.295	218.38
295.525	202.38
295.756	217.38
295.987	230.38
296.217	229.38
296.448	229.38
296.679	224.38
296.909	224.38
297.14	217.38
297.37	222.38
297.601	226.38
297.831	228.38
298.062	215.38
298.292	228.38
298.523	214.38
298.753	216.38
298.984	213.38
299.214	215.38
299.445	213.38
299.675	219.38
299.905	226.38
300.136	230.38
300.366	234.38
300.597	233.38
300.827	222.38
301.057	224.38
301.288	243.38
301.518	235.38
301.748	235.38
301.979	236.38
302.209	245.38
302.439	240.38
302.669	237.38
302.9	246.38
303.13	220.38
303.36	249.38
303.59	241.38
303.82	239.38
304.051	252.38
304.281	226.38
304.511	236.38
304.741	237.38
304.971	241.38
305.201	237.38
305.431	245.38
305.661	240.38
305.891	239.38
306.121	246.38
306.352	246.38
306.582	236.38
306.812	238.38
307.042	243.38
307.272	230.38
307.502	253.38
307.731	245.38
307.961	248.38
308.191	259.38
308.421	244.38
308.651	243.38
308.881	260.38
309.111	264.38
309.341	254.38
309.571	256.38
309.8	243.38
310.03	264.38
310.26	280.38
310.49	264.38
310.72	277.38
310.949	273.38
311.179	284.38
311.409	272.38
311.639	281.38
311.868	280.38
312.098	266.38
312.328	284.38
312.557	305.38
312.787	295.38
313.017	290.38
313.246	287.38
313.476	279.38
313.706	282.38
313.935	271.38
314.165	284.38
314.394	304.38
314.624	289.38
314.853	293.38
315.083	283.38
315.312	268.38
315.542	276.38
315.771	273.38
316.001	281.38
316.23	273.38
316.46	264.38
316.689	272.38
316.919	279.38
317.148	291.38
317.377	297.38
317.607	295.38
317.836	270.38
318.065	281.38
318.295	278.38
318.524	250.38
318.753	268.38
318.983	272.38
319.212	268.38
319.441	270.38
319.67	261.38
319.9	280.38
320.129	292.38
320.358	298.38
320.587	266.38
320.816	278.38
321.046	297.38
321.275	282.38
321.504	293.38
321.733	279.38
321.962	298.38
322.191	316.38
322.42	310.38
322.649	309.38
322.878	324.38
323.108	344.38
323.337	356.38
323.566	379.38
323.795	397.38
324.024	438.38
324.253	542.38
324.482	776.38
324.71	1176.38
324.939	1572.38
325.168	1223.38
325.397	686.38
325.626	487.38
325.855	413.38
326.084	362.38
326.313	390.38
326.542	360.38
326.77	427.38
326.999	524.38
327.228	731.38
327.457	981.38
327.686	1129.38
327.914	765.38
328.143	492.38
328.372	448.38
328.6	422.38
328.829	401.38
329.058	417.38
329.287	410.38
329.515	393.38
329.744	371.38
329.972	365.38
330.201	369.38
330.43	384.38
330.658	422.38
330.887	412.38
331.115	419.38
331.344	389.38
331.572	360.38
331.801	345.38
332.03	330.38
332.258	342.38
332.486	312.38
332.715	313.38
332.943	324.38
333.172	336.38
333.4	326.38
333.629	326.38
333.857	329.38
334.085	334.38
334.314	357.38
334.542	365.38
334.771	369.38
334.999	348.38
335.227	325.38
335.455	303.38
335.684	309.38
335.912	311.38
336.14	302.38
336.369	320.38
336.597	316.38
336.825	338.38
337.053	316.38
337.281	304.38
337.51	302.38
337.738	298.38
337.966	319.38
338.194	325.38
338.422	318.38
338.65	304.38
338.878	298.38
339.106	309.38
339.334	289.38
339.562	303.38
339.79	305.38
340.018	299.38
340.246	314.38
340.474	300.38
340.702	285.38
340.93	308.38
341.158	280.38
341.386	282.38
341.614	287.38
341.842	303.38
342.07	313.38
342.298	311.38
342.526	296.38
342.754	293.38
342.981	297.38
343.209	298.38
343.437	293.38
343.665	290.38
343.893	296.38
344.12	304.38
344.348	301.38
344.576	308.38
344.804	305.38
345.031	327.38
345.259	330.38
345.487	304.38
345.714	310.38
345.942	312.38
346.17	310.38
346.397	296.38
346.625	289.38
346.853	286.38
347.08	274.38
347.308	301.38
347.535	311.38
347.763	314.38
347.99	296.38
348.218	316.38
348.445	295.38
348.673	300.38
348.9	311.38
349.128	301.38
349.355	295.38
349.583	306.38
349.81	282.38
350.037	287.38
350.265	282.38
350.492	277.38
350.72	276.38
350.947	283.38
351.174	291.38
351.402	293.38
351.629	296.38
351.856	285.38
352.083	302.38
352.311	306.38
352.538	319.38
352.765	307.38
352.992	301.38
353.22	294.38
353.447	293.38
353.674	287.38
353.901	279.38
354.128	267.38
354.355	288.38
354.583	277.38
354.81	291.38
355.037	284.38
355.264	265.38
355.491	260.38
355.718	276.38
355.945	269.38
356.172	264.38
356.399	264.38
356.626	258.38
356.853	249.38
357.08	265.38
357.307	269.38
357.534	265.38
357.761	261.38
357.988	279.38
358.215	274.38
358.441	274.38
358.668	284.38
358.895	293.38
359.122	280.38
359.349	284.38
359.576	287.38
359.802	308.38
360.029	336.38
360.256	304.38
360.483	316.38
360.709	294.38
360.936	296.38
361.163	295.38
361.39	285.38
361.616	288.38
361.843	314.38
362.07	283.38
362.296	291.38
362.523	290.38
362.749	291.38
362.976	274.38
363.203	300.38
363.429	252.38
363.656	263.38
363.882	285.38
364.109	269.38
364.335	286.38
364.562	260.38
364.788	256.38
365.015	279.38
365.241	274.38
365.468	288.38
365.694	282.38
365.92	270.38
366.147	274.38
366.373	268.38
366.599	276.38
366.826	264.38
367.052	263.38
367.278	261.38
367.505	266.38
367.731	266.38
367.957	289.38
368.184	278.38
368.41	286.38
368.636	274.38
368.862	269.38
369.089	280.38
369.315	280.38
369.541	267.38
369.767	282.38
369.993	258.38
370.219	268.38
370.445	273.38
370.672	277.38
370.898	281.38
371.124	270.38
371.35	277.38
371.576	264.38
371.802	262.38
372.028	260.38
372.254	276.38
372.48	271.38
372.706	244.38
372.932	269.38
373.158	264.38
373.384	258.38
373.61	282.38
373.835	278.38
374.061	274.38
374.287	268.38
374.513	268.38
374.739	270.38
374.965	272.38
375.191	270.38
375.416	268.38
375.642	274.38
375.868	270.38
376.094	262.38
376.319	271.38
376.545	271.38
376.771	263.38
376.997	262.38
377.222	253.38
377.448	279.38
377.674	255.38
377.899	259.38
378.125	263.38
378.35	251.38
378.576	265.38
378.802	268.38
379.027	282.38
379.253	265.38
379.478	251.38
379.704	252.38
379.929	258.38
380.155	278.38
380.38	270.38
380.606	239.38
380.831	277.38
381.057	256.38
381.282	262.38
381.507	260.38
381.733	257.38
381.958	266.38
382.184	263.38
382.409	277.38
382.634	282.38
382.86	267.38
383.085	278.38
383.31	268.38
383.535	264.38
383.761	268.38
383.986	261.38
384.211	286.38
384.436	267.38
384.662	274.38
384.887	284.38
385.112	266.38
385.337	289.38
385.562	268.38
385.787	279.38
386.013	276.38
386.238	302.38
386.463	293.38
386.688	279.38
386.913	284.38
387.138	272.38
387.363	268.38
387.588	282.38
387.813	267.38
388.038	269.38
388.263	278.38
388.488	288.38
388.713	276.38
388.938	278.38
389.163	284.38
389.387	281.38
389.612	268.38
389.837	253.38
390.062	265.38
390.287	283.38
390.512	273.38
390.736	250.38
390.961	261.38
391.186	278.38
391.411	276.38
391.636	285.38
391.86	288.38
392.085	286.38
392.31	274.38
392.534	286.38
392.759	279.38
392.984	277.38
393.208	286.38
393.433	279.38
393.658	282.38
393.882	286.38
394.107	282.38
394.331	281.38
394.556	287.38
394.78	274.38
395.005	289.38
395.229	277.38
395.454	298.38
395.678	293.38
395.903	282.38
396.127	305.38
396.352	311.38
396.576	283.38
396.801	273.38
397.025	269.38
397.249	280.38
397.474	274.38
397.698	276.38
397.922	295.38
398.147	304.38
398.371	301.38
398.595	310.38
398.82	305.38
399.044	315.38
399.268	317.38
399.492	325.38
399.717	336.38
399.941	330.38
400.165	360.38
400.389	371.38
400.613	346.38
400.837	334.38
401.062	307.38
401.286	321.38
401.51	318.38
401.734	291.38
401.958	306.38
402.182	309.38
402.406	333.38
402.63	323.38
402.854	312.38
403.078	312.38
403.302	305.38
403.526	323.38
403.75	309.38
403.974	300.38
404.198	317.38
404.422	322.38
404.645	315.38
404.869	318.38
405.093	354.38
405.317	341.38
405.541	375.38
405.765	344.38
405.988	331.38
406.212	316.38
406.436	364.38
406.66	350.38
406.883	343.38
407.107	334.38
407.331	377.38
407.555	423.38
407.778	388.38
408.002	376.38
408.226	354.38
408.449	341.38
408.673	348.38
408.896	357.38
409.12	367.38
409.344	343.38
409.567	314.38
409.791	314.38
410.014	329.38
410.238	306.38
410.461	318.38
410.685	341.38
410.908	355.38
411.132	341.38
411.355	364.38
411.578	347.38
411.802	298.38
412.025	303.38
412.249	328.38
412.472	332.38
412.695	346.38
412.919	341.38
413.142	304.38
413.365	298.38
413.589	281.38
413.812	288.38
414.035	304.38
414.258	302.38
414.482	308.38
414.705	300.38
414.928	304.38
415.151	280.38
415.374	286.38
415.597	300.38
415.821	297.38
416.044	301.38
416.267	294.38
416.49	299.38
416.713	296.38
416.936	293.38
417.159	292.38
417.382	299.38
417.605	289.38
417.828	280.38
418.051	309.38
418.274	318.38
418.497	280.38
418.72	289.38
418.943	294.38
419.166	290.38
419.389	294.38
419.611	300.38
419.834	307.38
420.057	314.38
420.28	288.38
420.503	310.38
420.726	302.38
420.948	314.38
421.171	340.38
421.394	376.38
421.617	320.38
421.839	313.38
422.062	322.38
422.285	318.38
422.507	362.38
422.73	393.38
422.953	366.38
423.175	341.38
423.398	333.38
423.621	313.38
423.843	323.38
424.066	327.38
424.288	337.38
424.511	348.38
424.733	379.38
424.956	420.38
425.178	410.38
425.401	379.38
425.623	419.38
425.846	354.38
426.068	338.38
426.291	329.38
426.513	337.38
426.735	352.38
426.958	362.38
427.18	411.38
427.402	493.38
427.625	534.38
427.847	447.38
428.069	379.38
428.292	361.38
428.514	345.38
428.736	331.38
428.958	340.38
429.181	299.38
429.403	313.38
429.625	325.38
429.847	347.38
430.069	376.38
430.292	380.38
430.514	323.38
430.736	319.38
430.958	297.38
431.18	308.38
431.402	294.38
431.624	269.38
431.846	316.38
432.068	291.38
432.29	288.38
432.512	304.38
432.734	294.38
432.956	297.38
433.178	317.38
433.4	308.38
433.622	288.38
433.844	285.38
434.066	298.38
434.287	283.38
434.509	285.38
434.731	312.38
434.953	304.38
435.175	314.38
435.397	344.38
435.618	354.38
435.84	363.38
436.062	425.38
436.284	462.38
436.505	390.38
436.727	358.38
436.949	317.38
437.17	326.38
437.392	293.38
437.614	317.38
437.835	347.38
438.057	410.38
438.278	457.38
438.5	461.38
438.721	501.38
438.943	459.38
439.165	381.38
439.386	345.38
439.608	352.38
439.829	330.38
440.05	359.38
440.272	397.38
440.493	365.38
440.715	331.38
440.936	318.38
441.158	325.38
441.379	319.38
441.6	334.38
441.822	335.38
442.043	358.38
442.264	402.38
442.486	438.38
442.707	360.38
442.928	350.38
443.149	351.38
443.371	366.38
443.592	402.38
443.813	444.38
444.034	458.38
444.255	382.38
444.476	343.38
444.698	336.38
444.919	330.38
445.14	420.38
445.361	371.38
445.582	373.38
445.803	407.38
446.024	452.38
446.245	447.38
446.466	420.38
446.687	369.38
446.908	333.38
447.129	329.38
447.35	333.38
447.571	320.38
447.792	296.38
448.013	331.38
448.234	332.38
448.455	381.38
448.675	432.38
448.896	473.38
449.117	428.38
449.338	414.38
449.559	492.38
449.779	516.38
450	412.38
450.221	362.38
450.442	334.38
450.662	329.38
450.883	313.38
451.104	336.38
451.324	308.38
451.545	294.38
451.766	291.38
451.986	304.38
452.207	282.38
452.428	284.38
452.648	288.38
452.869	275.38
453.089	312.38
453.31	319.38
453.53	305.38
453.751	286.38
453.971	291.38
454.192	302.38
454.412	288.38
454.633	291.38
454.853	274.38
455.073	289.38
455.294	288.38
455.514	337.38
455.734	332.38
455.955	304.38
456.175	269.38
456.395	268.38
456.616	280.38
456.836	285.38
457.056	275.38
457.276	259.38
457.497	272.38
457.717	274.38
457.937	281.38
458.157	263.38
458.377	261.38
458.598	309.38
458.818	325.38
459.038	362.38
459.258	367.38
459.478	324.38
459.698	298.38
459.918	294.38
460.138	331.38
460.358	291.38
460.578	301.38
460.798	300.38
461.018	290.38
461.238	292.38
461.458	298.38
461.678	278.38
461.898	269.38
462.118	303.38
462.338	316.38
462.558	289.38
462.777	300.38
462.997	313.38
463.217	321.38
463.437	298.38
463.657	310.38
463.876	308.38
464.096	317.38
464.316	308.38
464.536	318.38
464.755	300.38
464.975	312.38
465.195	335.38
465.414	376.38
465.634	339.38
465.854	331.38
466.073	311.38
466.293	321.38
466.512	295.38
466.732	298.38
466.951	296.38
467.171	285.38
467.391	277.38
467.61	286.38
467.829	297.38
468.049	280.38
468.268	297.38
468.488	272.38
468.707	285.38
468.927	293.38
469.146	282.38
469.365	290.38
469.585	295.38
469.804	268.38
470.023	292.38
470.243	284.38
470.462	294.38
470.681	308.38
470.901	304.38
471.12	294.38
471.339	291.38
471.558	300.38
471.777	313.38
471.997	310.38
472.216	293.38
472.435	315.38
472.654	318.38
472.873	292.38
473.092	285.38
473.311	283.38
473.53	294.38
473.749	318.38
473.968	337.38
474.187	373.38
474.406	390.38
474.625	345.38
474.844	308.38
475.063	295.38
475.282	312.38
475.501	306.38
475.72	320.38
475.939	305.38
476.158	288.38
476.377	313.38
476.596	297.38
476.814	295.38
477.033	318.38
477.252	300.38
477.471	321.38
477.69	320.38
477.908	306.38
478.127	313.38
478.346	313.38
478.564	318.38
478.783	310.38
479.002	306.38
479.22	333.38
479.439	325.38
479.658	337.38
479.876	331.38
480.095	340.38
480.313	372.38
480.532	358.38
480.751	341.38
480.969	375.38
481.188	362.38
481.406	395.38
481.624	334.38
481.843	348.38
482.061	346.38
482.28	341.38
482.498	310.38
482.717	321.38
482.935	322.38
483.153	331.38
483.372	352.38
483.59	316.38
483.808	335.38
484.027	334.38
484.245	329.38
484.463	340.38
484.681	358.38
484.9	354.38
485.118	338.38
485.336	357.38
485.554	354.38
485.772	340.38
485.99	341.38
486.209	342.38
486.427	350.38
486.645	358.38
486.863	377.38
487.081	360.38
487.299	365.38
487.517	340.38
487.735	348.38
487.953	358.38
488.171	380.38
488.389	349.38
488.607	360.38
488.825	366.38
489.043	348.38
489.261	367.38
489.479	360.38
489.696	369.38
489.914	361.38
490.132	361.38
490.35	388.38
490.568	388.38
490.786	385.38
491.003	358.38
491.221	388.38
491.439	383.38
491.657	386.38
491.874	410.38
492.092	411.38
492.31	413.38
492.527	404.38
492.745	393.38
492.963	415.38
493.18	399.38
493.398	404.38
493.615	386.38
493.833	413.38
494.05	414.38
494.268	406.38
494.485	421.38
494.703	426.38
494.92	425.38
495.138	419.38
495.355	426.38
495.573	427.38
495.79	432.38
496.008	432.38
496.225	429.38
496.442	425.38
496.66	422.38
496.877	423.38
497.094	436.38
497.312	438.38
497.529	418.38
497.746	425.38
497.963	444.38
498.181	444.38
498.398	445.38
498.615	425.38
498.832	463.38
499.049	470.38
499.267	472.38
499.484	470.38
499.701	482.38
499.918	499.38
500.135	512.38
500.352	515.38
500.569	533.38
500.786	531.38
501.003	550.38
501.22	534.38
501.437	493.38
501.654	509.38
501.871	510.38
502.088	503.38
502.305	454.38
