Data from 1982.PennyLincolnUp.Lamp.En5.5.200Scan.071819.P1_HRD10591_16-45-13-961.txt Node
Date: Thu Jul 18 16:45:13 EDT 2019
User: cochatt
Spectrometer: HR+D1059
Trigger mode: 1
Integration Time (sec): 1.000000E-1
Scans to average: 1
Electric dark correction enabled: true
Nonlinearity correction enabled: false
Boxcar width: 0
XAxis mode: Wavelengths
Number of Pixels in Spectrum: 2048
>>>>>Begin Spectral Data<<<<<
223.165	-23.19
223.4	-23.19
223.635	-23.19
223.869	-20.19
224.104	-18.19
224.338	7.81
224.573	-13.19
224.808	-11.19
225.042	13.81
225.277	-11.19
225.511	-3.19
225.746	-5.19
225.98	0.81
226.215	0.81
226.449	12.81
226.683	23.81
226.918	27.81
227.152	17.81
227.387	35.81
227.621	28.81
227.856	45.81
228.09	43.81
228.324	53.81
228.559	50.81
228.793	66.81
229.027	96.81
229.262	93.81
229.496	94.81
229.73	116.81
229.964	104.81
230.199	116.81
230.433	88.81
230.667	89.81
230.901	94.81
231.136	75.81
231.37	96.81
231.604	101.81
231.838	98.81
232.072	109.81
232.306	99.81
232.541	97.81
232.775	97.81
233.009	122.81
233.243	107.81
233.477	93.81
233.711	83.81
233.945	98.81
234.179	104.81
234.413	89.81
234.647	99.81
234.881	109.81
235.115	102.81
235.349	87.81
235.583	104.81
235.817	110.81
236.051	96.81
236.285	96.81
236.519	110.81
236.753	92.81
236.987	116.81
237.221	139.81
237.455	161.81
237.689	145.81
237.922	110.81
238.156	119.81
238.39	104.81
238.624	104.81
238.858	107.81
239.091	118.81
239.325	107.81
239.559	96.81
239.793	113.81
240.027	116.81
240.26	103.81
240.494	122.81
240.728	116.81
240.961	102.81
241.195	118.81
241.429	106.81
241.662	113.81
241.896	108.81
242.13	114.81
242.363	102.81
242.597	123.81
242.83	117.81
243.064	120.81
243.298	104.81
243.531	117.81
243.765	100.81
243.998	104.81
244.232	98.81
244.465	121.81
244.699	113.81
244.932	102.81
245.166	119.81
245.399	99.81
245.633	117.81
245.866	122.81
246.099	119.81
246.333	129.81
246.566	120.81
246.8	114.81
247.033	113.81
247.266	135.81
247.5	116.81
247.733	124.81
247.966	141.81
248.2	137.81
248.433	132.81
248.666	141.81
248.899	148.81
249.133	144.81
249.366	154.81
249.599	139.81
249.832	140.81
250.066	144.81
250.299	137.81
250.532	132.81
250.765	160.81
250.998	150.81
251.231	173.81
251.465	156.81
251.698	166.81
251.931	165.81
252.164	154.81
252.397	160.81
252.63	140.81
252.863	164.81
253.096	153.81
253.329	152.81
253.562	142.81
253.795	168.81
254.028	164.81
254.261	159.81
254.494	162.81
254.727	192.81
254.96	187.81
255.193	176.81
255.426	161.81
255.659	170.81
255.892	185.81
256.124	176.81
256.357	171.81
256.59	182.81
256.823	176.81
257.056	158.81
257.289	156.81
257.521	161.81
257.754	164.81
257.987	160.81
258.22	144.81
258.452	138.81
258.685	164.81
258.918	151.81
259.151	157.81
259.383	161.81
259.616	157.81
259.849	168.81
260.081	182.81
260.314	186.81
260.547	180.81
260.779	178.81
261.012	169.81
261.244	144.81
261.477	188.81
261.71	162.81
261.942	176.81
262.175	162.81
262.407	170.81
262.64	164.81
262.872	147.81
263.105	165.81
263.337	155.81
263.57	132.81
263.802	150.81
264.035	154.81
264.267	144.81
264.499	142.81
264.732	160.81
264.964	140.81
265.197	165.81
265.429	153.81
265.661	162.81
265.894	152.81
266.126	169.81
266.358	160.81
266.591	162.81
266.823	160.81
267.055	177.81
267.287	171.81
267.52	152.81
267.752	161.81
267.984	168.81
268.216	155.81
268.448	171.81
268.681	177.81
268.913	180.81
269.145	187.81
269.377	198.81
269.609	167.81
269.841	202.81
270.073	184.81
270.306	198.81
270.538	204.81
270.77	226.81
271.002	213.81
271.234	205.81
271.466	221.81
271.698	218.81
271.93	206.81
272.162	215.81
272.394	217.81
272.626	195.81
272.858	216.81
273.09	202.81
273.322	194.81
273.553	181.81
273.785	195.81
274.017	211.81
274.249	201.81
274.481	192.81
274.713	157.81
274.945	190.81
275.176	198.81
275.408	205.81
275.64	201.81
275.872	188.81
276.104	190.81
276.335	185.81
276.567	207.81
276.799	181.81
277.031	195.81
277.262	207.81
277.494	217.81
277.726	216.81
277.957	195.81
278.189	211.81
278.421	190.81
278.652	199.81
278.884	185.81
279.115	200.81
279.347	169.81
279.579	173.81
279.81	196.81
280.042	194.81
280.273	187.81
280.505	193.81
280.736	176.81
280.968	200.81
281.199	195.81
281.431	181.81
281.662	179.81
281.894	198.81
282.125	186.81
282.356	211.81
282.588	217.81
282.819	220.81
283.051	194.81
283.282	184.81
283.513	193.81
283.745	194.81
283.976	187.81
284.207	197.81
284.439	184.81
284.67	187.81
284.901	194.81
285.132	191.81
285.364	203.81
285.595	186.81
285.826	180.81
286.057	199.81
286.288	193.81
286.52	188.81
286.751	199.81
286.982	182.81
287.213	178.81
287.444	185.81
287.675	212.81
287.906	214.81
288.138	216.81
288.369	191.81
288.6	217.81
288.831	204.81
289.062	223.81
289.293	201.81
289.524	201.81
289.755	213.81
289.986	207.81
290.217	213.81
290.448	199.81
290.679	197.81
290.91	193.81
291.141	198.81
291.371	211.81
291.602	212.81
291.833	193.81
292.064	205.81
292.295	206.81
292.526	205.81
292.757	185.81
292.987	199.81
293.218	200.81
293.449	189.81
293.68	201.81
293.91	194.81
294.141	202.81
294.372	197.81
294.603	196.81
294.833	194.81
295.064	201.81
295.295	200.81
295.525	196.81
295.756	214.81
295.987	206.81
296.217	211.81
296.448	217.81
296.679	221.81
296.909	231.81
297.14	206.81
297.37	214.81
297.601	218.81
297.831	214.81
298.062	210.81
298.292	199.81
298.523	205.81
298.753	196.81
298.984	197.81
299.214	215.81
299.445	211.81
299.675	219.81
299.905	208.81
300.136	216.81
300.366	223.81
300.597	226.81
300.827	230.81
301.057	216.81
301.288	216.81
301.518	212.81
301.748	235.81
301.979	210.81
302.209	224.81
302.439	225.81
302.669	226.81
302.9	226.81
303.13	221.81
303.36	232.81
303.59	223.81
303.82	220.81
304.051	227.81
304.281	224.81
304.511	216.81
304.741	200.81
304.971	219.81
305.201	221.81
305.431	234.81
305.661	224.81
305.891	219.81
306.121	222.81
306.352	227.81
306.582	228.81
306.812	220.81
307.042	230.81
307.272	227.81
307.502	243.81
307.731	228.81
307.961	228.81
308.191	214.81
308.421	210.81
308.651	240.81
308.881	230.81
309.111	232.81
309.341	216.81
309.571	249.81
309.8	240.81
310.03	252.81
310.26	264.81
310.49	263.81
310.72	251.81
310.949	248.81
311.179	264.81
311.409	244.81
311.639	260.81
311.868	244.81
312.098	247.81
312.328	268.81
312.557	279.81
312.787	267.81
313.017	274.81
313.246	254.81
313.476	256.81
313.706	255.81
313.935	267.81
314.165	265.81
314.394	263.81
314.624	265.81
314.853	259.81
315.083	248.81
315.312	267.81
315.542	261.81
315.771	240.81
316.001	243.81
316.23	260.81
316.46	254.81
316.689	257.81
316.919	269.81
317.148	270.81
317.377	272.81
317.607	253.81
317.836	271.81
318.065	265.81
318.295	248.81
318.524	248.81
318.753	255.81
318.983	263.81
319.212	233.81
319.441	270.81
319.67	267.81
319.9	249.81
320.129	274.81
320.358	264.81
320.587	258.81
320.816	243.81
321.046	267.81
321.275	276.81
321.504	269.81
321.733	264.81
321.962	274.81
322.191	309.81
322.42	294.81
322.649	293.81
322.878	299.81
323.108	317.81
323.337	327.81
323.566	346.81
323.795	386.81
324.024	408.81
324.253	486.81
324.482	704.81
324.71	1055.81
324.939	1348.81
325.168	1110.81
325.397	604.81
325.626	434.81
325.855	373.81
326.084	336.81
326.313	320.81
326.542	351.81
326.77	398.81
326.999	448.81
327.228	638.81
327.457	929.81
327.686	978.81
327.914	679.81
328.143	462.81
328.372	398.81
328.6	392.81
328.829	373.81
329.058	372.81
329.287	363.81
329.515	361.81
329.744	347.81
329.972	333.81
330.201	374.81
330.43	370.81
330.658	370.81
330.887	377.81
331.115	377.81
331.344	318.81
331.572	325.81
331.801	323.81
332.03	332.81
332.258	312.81
332.486	292.81
332.715	302.81
332.943	305.81
333.172	292.81
333.4	298.81
333.629	291.81
333.857	313.81
334.085	309.81
334.314	300.81
334.542	323.81
334.771	348.81
334.999	311.81
335.227	320.81
335.455	295.81
335.684	292.81
335.912	297.81
336.14	297.81
336.369	288.81
336.597	290.81
336.825	306.81
337.053	275.81
337.281	292.81
337.51	278.81
337.738	296.81
337.966	304.81
338.194	294.81
338.422	296.81
338.65	281.81
338.878	299.81
339.106	272.81
339.334	276.81
339.562	266.81
339.79	284.81
340.018	285.81
340.246	283.81
340.474	278.81
340.702	270.81
340.93	269.81
341.158	262.81
341.386	269.81
341.614	289.81
341.842	295.81
342.07	286.81
342.298	297.81
342.526	268.81
342.754	262.81
342.981	278.81
343.209	261.81
343.437	279.81
343.665	268.81
343.893	304.81
344.12	295.81
344.348	268.81
344.576	293.81
344.804	280.81
345.031	283.81
345.259	294.81
345.487	275.81
345.714	277.81
345.942	284.81
346.17	275.81
346.397	294.81
346.625	272.81
346.853	272.81
347.08	256.81
347.308	269.81
347.535	286.81
347.763	276.81
347.99	289.81
348.218	280.81
348.445	288.81
348.673	277.81
348.9	292.81
349.128	294.81
349.355	263.81
349.583	264.81
349.81	268.81
350.037	256.81
350.265	264.81
350.492	256.81
350.72	285.81
350.947	271.81
351.174	294.81
351.402	279.81
351.629	276.81
351.856	291.81
352.083	273.81
352.311	291.81
352.538	278.81
352.765	269.81
352.992	268.81
353.22	282.81
353.447	290.81
353.674	261.81
353.901	262.81
354.128	259.81
354.355	258.81
354.583	270.81
354.81	273.81
355.037	260.81
355.264	248.81
355.491	261.81
355.718	258.81
355.945	240.81
356.172	244.81
356.399	246.81
356.626	232.81
356.853	270.81
357.08	245.81
357.307	271.81
357.534	252.81
357.761	246.81
357.988	260.81
358.215	228.81
358.441	255.81
358.668	271.81
358.895	258.81
359.122	248.81
359.349	253.81
359.576	269.81
359.802	283.81
360.029	288.81
360.256	306.81
360.483	271.81
360.709	269.81
360.936	280.81
361.163	270.81
361.39	270.81
361.616	258.81
361.843	260.81
362.07	280.81
362.296	270.81
362.523	258.81
362.749	248.81
362.976	246.81
363.203	261.81
363.429	235.81
363.656	248.81
363.882	272.81
364.109	270.81
364.335	260.81
364.562	249.81
364.788	250.81
365.015	247.81
365.241	245.81
365.468	257.81
365.694	259.81
365.92	264.81
366.147	256.81
366.373	241.81
366.599	251.81
366.826	275.81
367.052	260.81
367.278	262.81
367.505	252.81
367.731	249.81
367.957	245.81
368.184	257.81
368.41	261.81
368.636	263.81
368.862	265.81
369.089	266.81
369.315	258.81
369.541	266.81
369.767	240.81
369.993	270.81
370.219	262.81
370.445	250.81
370.672	238.81
370.898	256.81
371.124	251.81
371.35	248.81
371.576	236.81
371.802	243.81
372.028	242.81
372.254	241.81
372.48	268.81
372.706	257.81
372.932	259.81
373.158	257.81
373.384	247.81
373.61	258.81
373.835	256.81
374.061	268.81
374.287	262.81
374.513	269.81
374.739	260.81
374.965	263.81
375.191	241.81
375.416	237.81
375.642	258.81
375.868	254.81
376.094	245.81
376.319	247.81
376.545	242.81
376.771	227.81
376.997	241.81
377.222	240.81
377.448	242.81
377.674	245.81
377.899	242.81
378.125	262.81
378.35	257.81
378.576	234.81
378.802	254.81
379.027	242.81
379.253	230.81
379.478	251.81
379.704	235.81
379.929	251.81
380.155	258.81
380.38	241.81
380.606	245.81
380.831	267.81
381.057	271.81
381.282	245.81
381.507	248.81
381.733	245.81
381.958	246.81
382.184	247.81
382.409	272.81
382.634	264.81
382.86	254.81
383.085	241.81
383.31	258.81
383.535	240.81
383.761	249.81
383.986	266.81
384.211	250.81
384.436	267.81
384.662	249.81
384.887	260.81
385.112	237.81
385.337	260.81
385.562	256.81
385.787	259.81
386.013	262.81
386.238	272.81
386.463	259.81
386.688	257.81
386.913	244.81
387.138	273.81
387.363	262.81
387.588	247.81
387.813	241.81
388.038	257.81
388.263	267.81
388.488	242.81
388.713	244.81
388.938	240.81
389.163	254.81
389.387	250.81
389.612	274.81
389.837	245.81
390.062	257.81
390.287	242.81
390.512	262.81
390.736	258.81
390.961	256.81
391.186	264.81
391.411	265.81
391.636	263.81
391.86	257.81
392.085	262.81
392.31	257.81
392.534	250.81
392.759	262.81
392.984	266.81
393.208	252.81
393.433	255.81
393.658	232.81
393.882	244.81
394.107	261.81
394.331	251.81
394.556	252.81
394.78	266.81
395.005	281.81
395.229	241.81
395.454	268.81
395.678	274.81
395.903	263.81
396.127	294.81
396.352	285.81
396.576	269.81
396.801	262.81
397.025	285.81
397.249	264.81
397.474	270.81
397.698	283.81
397.922	264.81
398.147	277.81
398.371	278.81
398.595	267.81
398.82	282.81
399.044	273.81
399.268	293.81
399.492	290.81
399.717	311.81
399.941	315.81
400.165	337.81
400.389	349.81
400.613	323.81
400.837	292.81
401.062	286.81
401.286	285.81
401.51	293.81
401.734	275.81
401.958	273.81
402.182	290.81
402.406	278.81
402.63	304.81
402.854	289.81
403.078	268.81
403.302	262.81
403.526	291.81
403.75	287.81
403.974	285.81
404.198	296.81
404.422	308.81
404.645	300.81
404.869	326.81
405.093	294.81
405.317	323.81
405.541	342.81
405.765	306.81
405.988	324.81
406.212	311.81
406.436	321.81
406.66	327.81
406.883	327.81
407.107	315.81
407.331	345.81
407.555	377.81
407.778	368.81
408.002	330.81
408.226	312.81
408.449	330.81
408.673	326.81
408.896	341.81
409.12	378.81
409.344	350.81
409.567	321.81
409.791	311.81
410.014	274.81
410.238	277.81
410.461	281.81
410.685	288.81
410.908	307.81
411.132	333.81
411.355	341.81
411.578	313.81
411.802	305.81
412.025	286.81
412.249	292.81
412.472	308.81
412.695	301.81
412.919	320.81
413.142	302.81
413.365	280.81
413.589	274.81
413.812	296.81
414.035	284.81
414.258	290.81
414.482	264.81
414.705	280.81
414.928	286.81
415.151	285.81
415.374	259.81
415.597	288.81
415.821	288.81
416.044	263.81
416.267	273.81
416.49	275.81
416.713	268.81
416.936	290.81
417.159	259.81
417.382	266.81
417.605	288.81
417.828	279.81
418.051	280.81
418.274	269.81
418.497	277.81
418.72	288.81
418.943	284.81
419.166	285.81
419.389	292.81
419.611	292.81
419.834	294.81
420.057	286.81
420.28	280.81
420.503	283.81
420.726	283.81
420.948	294.81
421.171	309.81
421.394	322.81
421.617	297.81
421.839	308.81
422.062	291.81
422.285	284.81
422.507	316.81
422.73	360.81
422.953	324.81
423.175	309.81
423.398	318.81
423.621	320.81
423.843	325.81
424.066	310.81
424.288	308.81
424.511	311.81
424.733	346.81
424.956	392.81
425.178	398.81
425.401	359.81
425.623	370.81
425.846	349.81
426.068	316.81
426.291	299.81
426.513	317.81
426.735	318.81
426.958	332.81
427.18	405.81
427.402	444.81
427.625	484.81
427.847	434.81
428.069	364.81
428.292	343.81
428.514	312.81
428.736	287.81
428.958	304.81
429.181	292.81
429.403	298.81
429.625	306.81
429.847	309.81
430.069	331.81
430.292	345.81
430.514	309.81
430.736	301.81
430.958	310.81
431.18	270.81
431.402	267.81
431.624	263.81
431.846	271.81
432.068	277.81
432.29	265.81
432.512	275.81
432.734	276.81
432.956	293.81
433.178	277.81
433.4	285.81
433.622	281.81
433.844	279.81
434.066	289.81
434.287	283.81
434.509	284.81
434.731	279.81
434.953	285.81
435.175	296.81
435.397	321.81
435.618	314.81
435.84	360.81
436.062	390.81
436.284	396.81
436.505	345.81
436.727	316.81
436.949	302.81
437.17	295.81
437.392	284.81
437.614	293.81
437.835	335.81
438.057	352.81
438.278	417.81
438.5	424.81
438.721	466.81
438.943	407.81
439.165	358.81
439.386	320.81
439.608	325.81
439.829	304.81
440.05	354.81
440.272	351.81
440.493	342.81
440.715	313.81
440.936	291.81
441.158	304.81
441.379	284.81
441.6	289.81
441.822	297.81
442.043	349.81
442.264	377.81
442.486	393.81
442.707	349.81
442.928	324.81
443.149	315.81
443.371	336.81
443.592	356.81
443.813	394.81
444.034	413.81
444.255	388.81
444.476	328.81
444.698	305.81
444.919	308.81
445.14	378.81
445.361	362.81
445.582	328.81
445.803	371.81
446.024	416.81
446.245	432.81
446.466	397.81
446.687	342.81
446.908	322.81
447.129	296.81
447.35	304.81
447.571	287.81
447.792	292.81
448.013	317.81
448.234	316.81
448.455	355.81
448.675	408.81
448.896	448.81
449.117	371.81
449.338	391.81
449.559	420.81
449.779	468.81
450	384.81
450.221	325.81
450.442	308.81
450.662	301.81
450.883	289.81
451.104	295.81
451.324	275.81
451.545	274.81
451.766	282.81
451.986	266.81
452.207	278.81
452.428	266.81
452.648	264.81
452.869	276.81
453.089	279.81
453.31	282.81
453.53	280.81
453.751	267.81
453.971	280.81
454.192	290.81
454.412	292.81
454.633	252.81
454.853	261.81
455.073	264.81
455.294	280.81
455.514	307.81
455.734	301.81
455.955	301.81
456.175	281.81
456.395	258.81
456.616	240.81
456.836	248.81
457.056	248.81
457.276	240.81
457.497	248.81
457.717	238.81
457.937	260.81
458.157	269.81
458.377	248.81
458.598	280.81
458.818	317.81
459.038	350.81
459.258	341.81
459.478	293.81
459.698	276.81
459.918	277.81
460.138	266.81
460.358	265.81
460.578	272.81
460.798	276.81
461.018	280.81
461.238	276.81
461.458	259.81
461.678	294.81
461.898	274.81
462.118	276.81
462.338	264.81
462.558	288.81
462.777	282.81
462.997	286.81
463.217	290.81
463.437	290.81
463.657	284.81
463.876	279.81
464.096	292.81
464.316	285.81
464.536	279.81
464.755	271.81
464.975	308.81
465.195	310.81
465.414	364.81
465.634	317.81
465.854	292.81
466.073	276.81
466.293	255.81
466.512	263.81
466.732	252.81
466.951	259.81
467.171	256.81
467.391	290.81
467.61	286.81
467.829	280.81
468.049	262.81
468.268	265.81
468.488	253.81
468.707	280.81
468.927	261.81
469.146	262.81
469.365	268.81
469.585	269.81
469.804	268.81
470.023	274.81
470.243	288.81
470.462	274.81
470.681	294.81
470.901	280.81
471.12	269.81
471.339	269.81
471.558	274.81
471.777	274.81
471.997	278.81
472.216	276.81
472.435	287.81
472.654	268.81
472.873	272.81
473.092	274.81
473.311	268.81
473.53	288.81
473.749	265.81
473.968	324.81
474.187	369.81
474.406	364.81
474.625	299.81
474.844	273.81
475.063	283.81
475.282	286.81
475.501	278.81
475.72	287.81
475.939	268.81
476.158	294.81
476.377	275.81
476.596	298.81
476.814	276.81
477.033	286.81
477.252	290.81
477.471	282.81
477.69	291.81
477.908	293.81
478.127	285.81
478.346	301.81
478.564	304.81
478.783	297.81
479.002	304.81
479.22	290.81
479.439	313.81
479.658	338.81
479.876	293.81
480.095	317.81
480.313	323.81
480.532	329.81
480.751	323.81
480.969	325.81
481.188	358.81
481.406	380.81
481.624	324.81
481.843	317.81
482.061	322.81
482.28	298.81
482.498	312.81
482.717	308.81
482.935	322.81
483.153	311.81
483.372	310.81
483.59	315.81
483.808	324.81
484.027	325.81
484.245	307.81
484.463	318.81
484.681	318.81
484.9	321.81
485.118	323.81
485.336	307.81
485.554	319.81
485.772	319.81
485.99	329.81
486.209	332.81
486.427	305.81
486.645	320.81
486.863	341.81
487.081	336.81
487.299	339.81
487.517	326.81
487.735	329.81
487.953	333.81
488.171	337.81
488.389	324.81
488.607	332.81
488.825	330.81
489.043	362.81
489.261	347.81
489.479	349.81
489.696	344.81
489.914	335.81
490.132	352.81
490.35	355.81
490.568	339.81
490.786	369.81
491.003	352.81
491.221	354.81
491.439	370.81
491.657	372.81
491.874	380.81
492.092	391.81
492.31	388.81
492.527	381.81
492.745	380.81
492.963	397.81
493.18	388.81
493.398	394.81
493.615	392.81
493.833	384.81
494.05	389.81
494.268	384.81
494.485	376.81
494.703	381.81
494.92	398.81
495.138	391.81
495.355	369.81
495.573	379.81
495.79	395.81
496.008	416.81
496.225	408.81
496.442	393.81
496.66	398.81
496.877	369.81
497.094	397.81
497.312	401.81
497.529	388.81
497.746	416.81
497.963	409.81
498.181	422.81
498.398	425.81
498.615	430.81
498.832	459.81
499.049	421.81
499.267	434.81
499.484	448.81
499.701	441.81
499.918	476.81
500.135	480.81
500.352	459.81
500.569	475.81
500.786	496.81
501.003	483.81
501.22	492.81
501.437	484.81
501.654	460.81
501.871	461.81
502.088	446.81
502.305	446.81
