Data from 1982.PennyLincolnUp.Lamp.En5.5.200Scan.071819.P1_HRD10591_16-45-54-962.txt Node
Date: Thu Jul 18 16:45:54 EDT 2019
User: cochatt
Spectrometer: HR+D1059
Trigger mode: 1
Integration Time (sec): 1.000000E-1
Scans to average: 1
Electric dark correction enabled: true
Nonlinearity correction enabled: false
Boxcar width: 0
XAxis mode: Wavelengths
Number of Pixels in Spectrum: 2048
>>>>>Begin Spectral Data<<<<<
223.165	-22.38
223.4	-22.38
223.635	-22.38
223.869	-11.38
224.104	-12.38
224.338	-5.38
224.573	-11.38
224.808	-14.38
225.042	-18.38
225.277	-15.38
225.511	-2.38
225.746	-0.38
225.98	3.62
226.215	8.62
226.449	13.62
226.683	27.62
226.918	35.62
227.152	24.62
227.387	34.62
227.621	30.62
227.856	46.62
228.09	51.62
228.324	48.62
228.559	63.62
228.793	65.62
229.027	89.62
229.262	105.62
229.496	114.62
229.73	117.62
229.964	135.62
230.199	110.62
230.433	89.62
230.667	104.62
230.901	95.62
231.136	98.62
231.37	112.62
231.604	97.62
231.838	86.62
232.072	115.62
232.306	107.62
232.541	107.62
232.775	90.62
233.009	104.62
233.243	103.62
233.477	99.62
233.711	111.62
233.945	93.62
234.179	114.62
234.413	99.62
234.647	92.62
234.881	97.62
235.115	106.62
235.349	100.62
235.583	105.62
235.817	117.62
236.051	109.62
236.285	100.62
236.519	105.62
236.753	111.62
236.987	122.62
237.221	143.62
237.455	161.62
237.689	148.62
237.922	126.62
238.156	113.62
238.39	104.62
238.624	123.62
238.858	121.62
239.091	109.62
239.325	113.62
239.559	95.62
239.793	111.62
240.027	110.62
240.26	108.62
240.494	122.62
240.728	112.62
240.961	127.62
241.195	118.62
241.429	125.62
241.662	116.62
241.896	113.62
242.13	119.62
242.363	98.62
242.597	103.62
242.83	123.62
243.064	119.62
243.298	115.62
243.531	122.62
243.765	123.62
243.998	108.62
244.232	132.62
244.465	125.62
244.699	111.62
244.932	121.62
245.166	101.62
245.399	129.62
245.633	134.62
245.866	129.62
246.099	119.62
246.333	134.62
246.566	119.62
246.8	124.62
247.033	135.62
247.266	137.62
247.5	129.62
247.733	139.62
247.966	143.62
248.2	139.62
248.433	139.62
248.666	138.62
248.899	140.62
249.133	155.62
249.366	177.62
249.599	161.62
249.832	155.62
250.066	151.62
250.299	141.62
250.532	154.62
250.765	155.62
250.998	175.62
251.231	173.62
251.465	175.62
251.698	156.62
251.931	159.62
252.164	171.62
252.397	168.62
252.63	157.62
252.863	170.62
253.096	166.62
253.329	178.62
253.562	163.62
253.795	156.62
254.028	166.62
254.261	178.62
254.494	167.62
254.727	201.62
254.96	229.62
255.193	199.62
255.426	187.62
255.659	187.62
255.892	184.62
256.124	177.62
256.357	171.62
256.59	171.62
256.823	163.62
257.056	177.62
257.289	170.62
257.521	166.62
257.754	178.62
257.987	159.62
258.22	154.62
258.452	167.62
258.685	168.62
258.918	159.62
259.151	167.62
259.383	181.62
259.616	174.62
259.849	180.62
260.081	183.62
260.314	189.62
260.547	205.62
260.779	188.62
261.012	174.62
261.244	181.62
261.477	189.62
261.71	170.62
261.942	185.62
262.175	177.62
262.407	174.62
262.64	179.62
262.872	179.62
263.105	167.62
263.337	182.62
263.57	178.62
263.802	182.62
264.035	187.62
264.267	170.62
264.499	177.62
264.732	168.62
264.964	174.62
265.197	158.62
265.429	165.62
265.661	176.62
265.894	171.62
266.126	172.62
266.358	157.62
266.591	166.62
266.823	163.62
267.055	186.62
267.287	186.62
267.52	173.62
267.752	180.62
267.984	190.62
268.216	182.62
268.448	188.62
268.681	182.62
268.913	195.62
269.145	203.62
269.377	214.62
269.609	211.62
269.841	221.62
270.073	215.62
270.306	236.62
270.538	235.62
270.77	222.62
271.002	239.62
271.234	214.62
271.466	230.62
271.698	226.62
271.93	246.62
272.162	233.62
272.394	235.62
272.626	230.62
272.858	227.62
273.09	220.62
273.322	204.62
273.553	226.62
273.785	204.62
274.017	193.62
274.249	221.62
274.481	206.62
274.713	197.62
274.945	209.62
275.176	210.62
275.408	213.62
275.64	207.62
275.872	197.62
276.104	214.62
276.335	209.62
276.567	207.62
276.799	215.62
277.031	235.62
277.262	219.62
277.494	235.62
277.726	249.62
277.957	232.62
278.189	211.62
278.421	217.62
278.652	204.62
278.884	220.62
279.115	199.62
279.347	212.62
279.579	217.62
279.81	219.62
280.042	215.62
280.273	205.62
280.505	212.62
280.736	218.62
280.968	212.62
281.199	194.62
281.431	201.62
281.662	201.62
281.894	215.62
282.125	205.62
282.356	216.62
282.588	229.62
282.819	222.62
283.051	215.62
283.282	213.62
283.513	213.62
283.745	225.62
283.976	227.62
284.207	210.62
284.439	209.62
284.67	248.62
284.901	208.62
285.132	217.62
285.364	227.62
285.595	204.62
285.826	211.62
286.057	209.62
286.288	205.62
286.52	209.62
286.751	218.62
286.982	215.62
287.213	210.62
287.444	196.62
287.675	236.62
287.906	229.62
288.138	237.62
288.369	233.62
288.6	228.62
288.831	221.62
289.062	229.62
289.293	220.62
289.524	222.62
289.755	214.62
289.986	218.62
290.217	205.62
290.448	222.62
290.679	215.62
290.91	221.62
291.141	213.62
291.371	223.62
291.602	226.62
291.833	224.62
292.064	230.62
292.295	205.62
292.526	220.62
292.757	224.62
292.987	222.62
293.218	221.62
293.449	223.62
293.68	231.62
293.91	227.62
294.141	217.62
294.372	213.62
294.603	226.62
294.833	222.62
295.064	229.62
295.295	207.62
295.525	214.62
295.756	240.62
295.987	226.62
296.217	245.62
296.448	251.62
296.679	228.62
296.909	213.62
297.14	227.62
297.37	242.62
297.601	226.62
297.831	226.62
298.062	226.62
298.292	222.62
298.523	201.62
298.753	238.62
298.984	208.62
299.214	219.62
299.445	223.62
299.675	223.62
299.905	236.62
300.136	228.62
300.366	230.62
300.597	244.62
300.827	243.62
301.057	241.62
301.288	228.62
301.518	238.62
301.748	235.62
301.979	238.62
302.209	240.62
302.439	261.62
302.669	248.62
302.9	246.62
303.13	232.62
303.36	229.62
303.59	238.62
303.82	252.62
304.051	246.62
304.281	243.62
304.511	241.62
304.741	237.62
304.971	245.62
305.201	230.62
305.431	242.62
305.661	238.62
305.891	243.62
306.121	263.62
306.352	251.62
306.582	246.62
306.812	241.62
307.042	243.62
307.272	246.62
307.502	250.62
307.731	256.62
307.961	256.62
308.191	268.62
308.421	243.62
308.651	237.62
308.881	255.62
309.111	253.62
309.341	272.62
309.571	261.62
309.8	267.62
310.03	265.62
310.26	269.62
310.49	280.62
310.72	292.62
310.949	307.62
311.179	308.62
311.409	292.62
311.639	284.62
311.868	288.62
312.098	279.62
312.328	285.62
312.557	308.62
312.787	301.62
313.017	302.62
313.246	289.62
313.476	311.62
313.706	275.62
313.935	285.62
314.165	310.62
314.394	301.62
314.624	309.62
314.853	283.62
315.083	284.62
315.312	272.62
315.542	267.62
315.771	280.62
316.001	252.62
316.23	286.62
316.46	293.62
316.689	279.62
316.919	294.62
317.148	307.62
317.377	301.62
317.607	276.62
317.836	296.62
318.065	300.62
318.295	285.62
318.524	269.62
318.753	296.62
318.983	290.62
319.212	293.62
319.441	301.62
319.67	280.62
319.9	286.62
320.129	260.62
320.358	271.62
320.587	281.62
320.816	301.62
321.046	302.62
321.275	308.62
321.504	304.62
321.733	307.62
321.962	313.62
322.191	310.62
322.42	338.62
322.649	329.62
322.878	364.62
323.108	338.62
323.337	380.62
323.566	397.62
323.795	433.62
324.024	472.62
324.253	605.62
324.482	829.62
324.71	1253.62
324.939	1629.62
325.168	1342.62
325.397	727.62
325.626	501.62
325.855	417.62
326.084	403.62
326.313	370.62
326.542	399.62
326.77	431.62
326.999	542.62
327.228	742.62
327.457	1045.62
327.686	1197.62
327.914	794.62
328.143	549.62
328.372	464.62
328.6	449.62
328.829	437.62
329.058	421.62
329.287	433.62
329.515	401.62
329.744	386.62
329.972	379.62
330.201	379.62
330.43	426.62
330.658	439.62
330.887	453.62
331.115	447.62
331.344	382.62
331.572	371.62
331.801	377.62
332.03	357.62
332.258	337.62
332.486	351.62
332.715	355.62
332.943	349.62
333.172	340.62
333.4	332.62
333.629	350.62
333.857	360.62
334.085	349.62
334.314	362.62
334.542	371.62
334.771	395.62
334.999	377.62
335.227	337.62
335.455	335.62
335.684	322.62
335.912	317.62
336.14	308.62
336.369	337.62
336.597	316.62
336.825	330.62
337.053	299.62
337.281	324.62
337.51	333.62
337.738	326.62
337.966	291.62
338.194	307.62
338.422	310.62
338.65	305.62
338.878	305.62
339.106	310.62
339.334	317.62
339.562	316.62
339.79	287.62
340.018	317.62
340.246	304.62
340.474	317.62
340.702	310.62
340.93	321.62
341.158	315.62
341.386	325.62
341.614	309.62
341.842	315.62
342.07	323.62
342.298	300.62
342.526	318.62
342.754	301.62
342.981	293.62
343.209	289.62
343.437	284.62
343.665	314.62
343.893	301.62
344.12	311.62
344.348	299.62
344.576	325.62
344.804	325.62
345.031	331.62
345.259	331.62
345.487	315.62
345.714	300.62
345.942	296.62
346.17	288.62
346.397	300.62
346.625	279.62
346.853	297.62
347.08	299.62
347.308	305.62
347.535	315.62
347.763	306.62
347.99	294.62
348.218	303.62
348.445	318.62
348.673	302.62
348.9	309.62
349.128	319.62
349.355	289.62
349.583	286.62
349.81	281.62
350.037	308.62
350.265	294.62
350.492	302.62
350.72	281.62
350.947	292.62
351.174	290.62
351.402	311.62
351.629	309.62
351.856	308.62
352.083	304.62
352.311	317.62
352.538	305.62
352.765	324.62
352.992	300.62
353.22	294.62
353.447	300.62
353.674	309.62
353.901	289.62
354.128	273.62
354.355	273.62
354.583	288.62
354.81	276.62
355.037	265.62
355.264	281.62
355.491	270.62
355.718	261.62
355.945	281.62
356.172	269.62
356.399	280.62
356.626	262.62
356.853	273.62
357.08	293.62
357.307	279.62
357.534	267.62
357.761	277.62
357.988	277.62
358.215	292.62
358.441	286.62
358.668	260.62
358.895	283.62
359.122	283.62
359.349	297.62
359.576	309.62
359.802	323.62
360.029	349.62
360.256	346.62
360.483	317.62
360.709	296.62
360.936	313.62
361.163	313.62
361.39	301.62
361.616	291.62
361.843	289.62
362.07	286.62
362.296	307.62
362.523	271.62
362.749	294.62
362.976	276.62
363.203	271.62
363.429	281.62
363.656	283.62
363.882	281.62
364.109	279.62
364.335	290.62
364.562	272.62
364.788	290.62
365.015	273.62
365.241	262.62
365.468	281.62
365.694	293.62
365.92	271.62
366.147	290.62
366.373	282.62
366.599	278.62
366.826	289.62
367.052	267.62
367.278	272.62
367.505	263.62
367.731	283.62
367.957	265.62
368.184	269.62
368.41	278.62
368.636	289.62
368.862	311.62
369.089	280.62
369.315	266.62
369.541	260.62
369.767	271.62
369.993	302.62
370.219	269.62
370.445	267.62
370.672	281.62
370.898	270.62
371.124	275.62
371.35	260.62
371.576	272.62
371.802	265.62
372.028	266.62
372.254	277.62
372.48	283.62
372.706	270.62
372.932	252.62
373.158	266.62
373.384	277.62
373.61	283.62
373.835	281.62
374.061	300.62
374.287	278.62
374.513	254.62
374.739	284.62
374.965	268.62
375.191	269.62
375.416	283.62
375.642	281.62
375.868	289.62
376.094	266.62
376.319	265.62
376.545	280.62
376.771	268.62
376.997	265.62
377.222	271.62
377.448	276.62
377.674	273.62
377.899	246.62
378.125	249.62
378.35	244.62
378.576	261.62
378.802	269.62
379.027	262.62
379.253	281.62
379.478	252.62
379.704	261.62
379.929	256.62
380.155	267.62
380.38	263.62
380.606	270.62
380.831	280.62
381.057	269.62
381.282	252.62
381.507	246.62
381.733	295.62
381.958	273.62
382.184	265.62
382.409	269.62
382.634	271.62
382.86	270.62
383.085	263.62
383.31	276.62
383.535	281.62
383.761	291.62
383.986	280.62
384.211	269.62
384.436	248.62
384.662	260.62
384.887	276.62
385.112	291.62
385.337	274.62
385.562	254.62
385.787	268.62
386.013	295.62
386.238	294.62
386.463	280.62
386.688	275.62
386.913	263.62
387.138	273.62
387.363	290.62
387.588	281.62
387.813	283.62
388.038	278.62
388.263	291.62
388.488	288.62
388.713	294.62
388.938	298.62
389.163	281.62
389.387	266.62
389.612	271.62
389.837	266.62
390.062	272.62
390.287	281.62
390.512	281.62
390.736	277.62
390.961	276.62
391.186	271.62
391.411	283.62
391.636	282.62
391.86	281.62
392.085	288.62
392.31	295.62
392.534	291.62
392.759	277.62
392.984	284.62
393.208	276.62
393.433	292.62
393.658	283.62
393.882	294.62
394.107	266.62
394.331	254.62
394.556	275.62
394.78	299.62
395.005	276.62
395.229	272.62
395.454	266.62
395.678	286.62
395.903	290.62
396.127	303.62
396.352	305.62
396.576	297.62
396.801	289.62
397.025	296.62
397.249	295.62
397.474	287.62
397.698	296.62
397.922	303.62
398.147	304.62
398.371	307.62
398.595	323.62
398.82	297.62
399.044	313.62
399.268	306.62
399.492	317.62
399.717	350.62
399.941	360.62
400.165	380.62
400.389	371.62
400.613	343.62
400.837	323.62
401.062	324.62
401.286	303.62
401.51	306.62
401.734	295.62
401.958	303.62
402.182	321.62
402.406	323.62
402.63	313.62
402.854	309.62
403.078	326.62
403.302	318.62
403.526	316.62
403.75	311.62
403.974	325.62
404.198	314.62
404.422	328.62
404.645	315.62
404.869	317.62
405.093	347.62
405.317	344.62
405.541	374.62
405.765	365.62
405.988	320.62
406.212	354.62
406.436	349.62
406.66	354.62
406.883	347.62
407.107	365.62
407.331	370.62
407.555	413.62
407.778	391.62
408.002	377.62
408.226	349.62
408.449	345.62
408.673	347.62
408.896	367.62
409.12	395.62
409.344	351.62
409.567	325.62
409.791	319.62
410.014	301.62
410.238	326.62
410.461	322.62
410.685	321.62
410.908	348.62
411.132	358.62
411.355	349.62
411.578	356.62
411.802	321.62
412.025	315.62
412.249	317.62
412.472	342.62
412.695	371.62
412.919	344.62
413.142	317.62
413.365	323.62
413.589	321.62
413.812	314.62
414.035	322.62
414.258	301.62
414.482	309.62
414.705	321.62
414.928	309.62
415.151	314.62
415.374	300.62
415.597	311.62
415.821	290.62
416.044	310.62
416.267	294.62
416.49	292.62
416.713	295.62
416.936	309.62
417.159	279.62
417.382	298.62
417.605	310.62
417.828	321.62
418.051	331.62
418.274	315.62
418.497	299.62
418.72	308.62
418.943	299.62
419.166	299.62
419.389	316.62
419.611	311.62
419.834	293.62
420.057	323.62
420.28	313.62
420.503	302.62
420.726	309.62
420.948	309.62
421.171	355.62
421.394	366.62
421.617	335.62
421.839	315.62
422.062	322.62
422.285	309.62
422.507	362.62
422.73	398.62
422.953	369.62
423.175	326.62
423.398	334.62
423.621	344.62
423.843	345.62
424.066	337.62
424.288	345.62
424.511	366.62
424.733	391.62
424.956	431.62
425.178	408.62
425.401	413.62
425.623	403.62
425.846	372.62
426.068	363.62
426.291	342.62
426.513	343.62
426.735	340.62
426.958	356.62
427.18	408.62
427.402	500.62
427.625	547.62
427.847	468.62
428.069	431.62
428.292	374.62
428.514	332.62
428.736	348.62
428.958	338.62
429.181	338.62
429.403	310.62
429.625	323.62
429.847	342.62
430.069	377.62
430.292	379.62
430.514	337.62
430.736	323.62
430.958	298.62
431.18	296.62
431.402	305.62
431.624	290.62
431.846	296.62
432.068	306.62
432.29	284.62
432.512	298.62
432.734	291.62
432.956	309.62
433.178	305.62
433.4	317.62
433.622	317.62
433.844	309.62
434.066	302.62
434.287	303.62
434.509	333.62
434.731	299.62
434.953	333.62
435.175	308.62
435.397	322.62
435.618	328.62
435.84	371.62
436.062	417.62
436.284	475.62
436.505	393.62
436.727	355.62
436.949	313.62
437.17	314.62
437.392	300.62
437.614	335.62
437.835	369.62
438.057	401.62
438.278	449.62
438.5	486.62
438.721	499.62
438.943	473.62
439.165	397.62
439.386	378.62
439.608	366.62
439.829	351.62
440.05	372.62
440.272	407.62
440.493	378.62
440.715	337.62
440.936	340.62
441.158	334.62
441.379	309.62
441.6	342.62
441.822	356.62
442.043	362.62
442.264	426.62
442.486	421.62
442.707	366.62
442.928	365.62
443.149	356.62
443.371	379.62
443.592	389.62
443.813	459.62
444.034	487.62
444.255	380.62
444.476	357.62
444.698	345.62
444.919	337.62
445.14	454.62
445.361	391.62
445.582	375.62
445.803	415.62
446.024	463.62
446.245	457.62
446.466	437.62
446.687	373.62
446.908	343.62
447.129	343.62
447.35	306.62
447.571	346.62
447.792	324.62
448.013	305.62
448.234	347.62
448.455	383.62
448.675	454.62
448.896	507.62
449.117	435.62
449.338	422.62
449.559	447.62
449.779	515.62
450	461.62
450.221	355.62
450.442	334.62
450.662	321.62
450.883	333.62
451.104	319.62
451.324	305.62
451.545	306.62
451.766	292.62
451.986	280.62
452.207	293.62
452.428	284.62
452.648	302.62
452.869	298.62
453.089	313.62
453.31	298.62
453.53	309.62
453.751	292.62
453.971	296.62
454.192	318.62
454.412	298.62
454.633	293.62
454.853	282.62
455.073	293.62
455.294	307.62
455.514	338.62
455.734	351.62
455.955	293.62
456.175	281.62
456.395	289.62
456.616	258.62
456.836	263.62
457.056	272.62
457.276	276.62
457.497	267.62
457.717	269.62
457.937	290.62
458.157	287.62
458.377	286.62
458.598	299.62
458.818	344.62
459.038	389.62
459.258	390.62
459.478	330.62
459.698	298.62
459.918	293.62
460.138	305.62
460.358	273.62
460.578	292.62
460.798	303.62
461.018	304.62
461.238	311.62
461.458	296.62
461.678	312.62
461.898	302.62
462.118	301.62
462.338	297.62
462.558	290.62
462.777	293.62
462.997	320.62
463.217	321.62
463.437	337.62
463.657	317.62
463.876	305.62
464.096	317.62
464.316	318.62
464.536	314.62
464.755	312.62
464.975	335.62
465.195	342.62
465.414	381.62
465.634	348.62
465.854	317.62
466.073	310.62
466.293	293.62
466.512	291.62
466.732	288.62
466.951	287.62
467.171	291.62
467.391	295.62
467.61	286.62
467.829	323.62
468.049	300.62
468.268	303.62
468.488	303.62
468.707	284.62
468.927	284.62
469.146	299.62
469.365	306.62
469.585	285.62
469.804	302.62
470.023	301.62
470.243	295.62
470.462	303.62
470.681	306.62
470.901	291.62
471.12	305.62
471.339	289.62
471.558	302.62
471.777	301.62
471.997	294.62
472.216	316.62
472.435	321.62
472.654	320.62
472.873	295.62
473.092	290.62
473.311	300.62
473.53	324.62
473.749	305.62
473.968	344.62
474.187	395.62
474.406	417.62
474.625	325.62
474.844	331.62
475.063	304.62
475.282	313.62
475.501	299.62
475.72	294.62
475.939	313.62
476.158	313.62
476.377	311.62
476.596	296.62
476.814	307.62
477.033	294.62
477.252	313.62
477.471	334.62
477.69	321.62
477.908	328.62
478.127	324.62
478.346	325.62
478.564	317.62
478.783	339.62
479.002	326.62
479.22	327.62
479.439	348.62
479.658	353.62
479.876	342.62
480.095	341.62
480.313	362.62
480.532	361.62
480.751	354.62
480.969	363.62
481.188	402.62
481.406	400.62
481.624	383.62
481.843	361.62
482.061	363.62
482.28	341.62
482.498	345.62
482.717	341.62
482.935	360.62
483.153	336.62
483.372	341.62
483.59	331.62
483.808	349.62
484.027	337.62
484.245	340.62
484.463	358.62
484.681	334.62
484.9	361.62
485.118	357.62
485.336	340.62
485.554	358.62
485.772	348.62
485.99	350.62
486.209	372.62
486.427	356.62
486.645	366.62
486.863	370.62
487.081	364.62
487.299	342.62
487.517	371.62
487.735	373.62
487.953	370.62
488.171	366.62
488.389	357.62
488.607	354.62
488.825	382.62
489.043	383.62
489.261	355.62
489.479	350.62
489.696	362.62
489.914	389.62
490.132	372.62
490.35	380.62
490.568	384.62
490.786	394.62
491.003	403.62
491.221	439.62
491.439	417.62
491.657	424.62
491.874	422.62
492.092	411.62
492.31	414.62
492.527	414.62
492.745	405.62
492.963	403.62
493.18	409.62
493.398	428.62
493.615	422.62
493.833	434.62
494.05	433.62
494.268	427.62
494.485	439.62
494.703	439.62
494.92	433.62
495.138	445.62
495.355	449.62
495.573	442.62
495.79	439.62
496.008	422.62
496.225	436.62
496.442	421.62
496.66	441.62
496.877	421.62
497.094	433.62
497.312	428.62
497.529	429.62
497.746	436.62
497.963	438.62
498.181	470.62
498.398	461.62
498.615	475.62
498.832	476.62
499.049	478.62
499.267	455.62
499.484	475.62
499.701	489.62
499.918	527.62
500.135	517.62
500.352	551.62
500.569	543.62
500.786	544.62
501.003	543.62
501.22	531.62
501.437	522.62
501.654	511.62
501.871	521.62
502.088	501.62
