Data from 1982.PennyLincolnUp.Lamp.En5.5.200Scan.071819.P1_HRD10591_16-47-19-962.txt Node
Date: Thu Jul 18 16:47:19 EDT 2019
User: cochatt
Spectrometer: HR+D1059
Trigger mode: 1
Integration Time (sec): 1.000000E-1
Scans to average: 1
Electric dark correction enabled: true
Nonlinearity correction enabled: false
Boxcar width: 0
XAxis mode: Wavelengths
Number of Pixels in Spectrum: 2048
>>>>>Begin Spectral Data<<<<<
223.165	-15.69
223.4	-15.69
223.635	-15.69
223.869	-5.69
224.104	-12.69
224.338	-25.69
224.573	-26.69
224.808	-10.69
225.042	4.31
225.277	-3.69
225.511	-3.69
225.746	1.31
225.98	1.31
226.215	18.31
226.449	15.31
226.683	25.31
226.918	21.31
227.152	17.31
227.387	33.31
227.621	41.31
227.856	43.31
228.09	35.31
228.324	45.31
228.559	42.31
228.793	68.31
229.027	91.31
229.262	96.31
229.496	92.31
229.73	112.31
229.964	113.31
230.199	111.31
230.433	91.31
230.667	91.31
230.901	94.31
231.136	100.31
231.37	99.31
231.604	91.31
231.838	92.31
232.072	92.31
232.306	93.31
232.541	90.31
232.775	96.31
233.009	103.31
233.243	98.31
233.477	99.31
233.711	98.31
233.945	106.31
234.179	111.31
234.413	119.31
234.647	87.31
234.881	90.31
235.115	108.31
235.349	92.31
235.583	118.31
235.817	100.31
236.051	119.31
236.285	101.31
236.519	92.31
236.753	119.31
236.987	141.31
237.221	137.31
237.455	190.31
237.689	152.31
237.922	115.31
238.156	117.31
238.39	94.31
238.624	123.31
238.858	108.31
239.091	104.31
239.325	116.31
239.559	109.31
239.793	118.31
240.027	121.31
240.26	127.31
240.494	156.31
240.728	120.31
240.961	112.31
241.195	132.31
241.429	128.31
241.662	105.31
241.896	122.31
242.13	124.31
242.363	119.31
242.597	124.31
242.83	111.31
243.064	109.31
243.298	98.31
243.531	115.31
243.765	128.31
243.998	115.31
244.232	122.31
244.465	126.31
244.699	118.31
244.932	109.31
245.166	112.31
245.399	120.31
245.633	121.31
245.866	124.31
246.099	127.31
246.333	114.31
246.566	110.31
246.8	111.31
247.033	126.31
247.266	117.31
247.5	132.31
247.733	130.31
247.966	136.31
248.2	128.31
248.433	148.31
248.666	140.31
248.899	154.31
249.133	168.31
249.366	170.31
249.599	161.31
249.832	139.31
250.066	136.31
250.299	146.31
250.532	171.31
250.765	162.31
250.998	160.31
251.231	193.31
251.465	164.31
251.698	174.31
251.931	157.31
252.164	147.31
252.397	144.31
252.63	157.31
252.863	155.31
253.096	172.31
253.329	184.31
253.562	185.31
253.795	172.31
254.028	174.31
254.261	170.31
254.494	196.31
254.727	212.31
254.96	226.31
255.193	200.31
255.426	212.31
255.659	189.31
255.892	193.31
256.124	183.31
256.357	198.31
256.59	197.31
256.823	166.31
257.056	174.31
257.289	164.31
257.521	158.31
257.754	170.31
257.987	177.31
258.22	166.31
258.452	160.31
258.685	171.31
258.918	188.31
259.151	161.31
259.383	168.31
259.616	174.31
259.849	186.31
260.081	197.31
260.314	196.31
260.547	184.31
260.779	203.31
261.012	187.31
261.244	188.31
261.477	188.31
261.71	173.31
261.942	186.31
262.175	181.31
262.407	178.31
262.64	185.31
262.872	174.31
263.105	183.31
263.337	174.31
263.57	164.31
263.802	171.31
264.035	168.31
264.267	165.31
264.499	170.31
264.732	169.31
264.964	176.31
265.197	171.31
265.429	170.31
265.661	160.31
265.894	161.31
266.126	160.31
266.358	167.31
266.591	172.31
266.823	178.31
267.055	182.31
267.287	183.31
267.52	191.31
267.752	182.31
267.984	170.31
268.216	177.31
268.448	203.31
268.681	206.31
268.913	209.31
269.145	228.31
269.377	228.31
269.609	208.31
269.841	216.31
270.073	216.31
270.306	230.31
270.538	250.31
270.77	272.31
271.002	219.31
271.234	228.31
271.466	224.31
271.698	245.31
271.93	252.31
272.162	269.31
272.394	251.31
272.626	246.31
272.858	217.31
273.09	220.31
273.322	226.31
273.553	206.31
273.785	222.31
274.017	196.31
274.249	187.31
274.481	213.31
274.713	221.31
274.945	215.31
275.176	203.31
275.408	218.31
275.64	204.31
275.872	213.31
276.104	216.31
276.335	213.31
276.567	219.31
276.799	242.31
277.031	242.31
277.262	249.31
277.494	256.31
277.726	254.31
277.957	224.31
278.189	213.31
278.421	214.31
278.652	212.31
278.884	202.31
279.115	218.31
279.347	211.31
279.579	217.31
279.81	198.31
280.042	201.31
280.273	207.31
280.505	193.31
280.736	183.31
280.968	226.31
281.199	212.31
281.431	204.31
281.662	208.31
281.894	224.31
282.125	209.31
282.356	217.31
282.588	235.31
282.819	243.31
283.051	222.31
283.282	215.31
283.513	204.31
283.745	224.31
283.976	210.31
284.207	224.31
284.439	235.31
284.67	213.31
284.901	216.31
285.132	212.31
285.364	213.31
285.595	230.31
285.826	214.31
286.057	202.31
286.288	224.31
286.52	212.31
286.751	198.31
286.982	219.31
287.213	221.31
287.444	210.31
287.675	239.31
287.906	224.31
288.138	212.31
288.369	229.31
288.6	235.31
288.831	236.31
289.062	211.31
289.293	222.31
289.524	216.31
289.755	212.31
289.986	209.31
290.217	226.31
290.448	229.31
290.679	232.31
290.91	221.31
291.141	212.31
291.371	212.31
291.602	220.31
291.833	204.31
292.064	230.31
292.295	225.31
292.526	214.31
292.757	238.31
292.987	221.31
293.218	217.31
293.449	221.31
293.68	213.31
293.91	210.31
294.141	219.31
294.372	222.31
294.603	215.31
294.833	221.31
295.064	240.31
295.295	224.31
295.525	242.31
295.756	237.31
295.987	244.31
296.217	262.31
296.448	256.31
296.679	230.31
296.909	207.31
297.14	221.31
297.37	223.31
297.601	232.31
297.831	238.31
298.062	236.31
298.292	213.31
298.523	214.31
298.753	217.31
298.984	241.31
299.214	231.31
299.445	230.31
299.675	232.31
299.905	237.31
300.136	226.31
300.366	247.31
300.597	231.31
300.827	245.31
301.057	229.31
301.288	241.31
301.518	230.31
301.748	238.31
301.979	233.31
302.209	251.31
302.439	233.31
302.669	257.31
302.9	246.31
303.13	229.31
303.36	261.31
303.59	265.31
303.82	250.31
304.051	245.31
304.281	241.31
304.511	232.31
304.741	246.31
304.971	248.31
305.201	236.31
305.431	237.31
305.661	243.31
305.891	226.31
306.121	258.31
306.352	246.31
306.582	252.31
306.812	247.31
307.042	246.31
307.272	249.31
307.502	258.31
307.731	248.31
307.961	246.31
308.191	217.31
308.421	256.31
308.651	250.31
308.881	257.31
309.111	253.31
309.341	270.31
309.571	270.31
309.8	269.31
310.03	288.31
310.26	285.31
310.49	301.31
310.72	294.31
310.949	312.31
311.179	297.31
311.409	289.31
311.639	278.31
311.868	304.31
312.098	292.31
312.328	301.31
312.557	319.31
312.787	320.31
313.017	321.31
313.246	302.31
313.476	306.31
313.706	290.31
313.935	296.31
314.165	301.31
314.394	316.31
314.624	294.31
314.853	335.31
315.083	291.31
315.312	291.31
315.542	288.31
315.771	267.31
316.001	291.31
316.23	295.31
316.46	276.31
316.689	276.31
316.919	292.31
317.148	285.31
317.377	307.31
317.607	278.31
317.836	301.31
318.065	286.31
318.295	296.31
318.524	291.31
318.753	288.31
318.983	285.31
319.212	285.31
319.441	294.31
319.67	298.31
319.9	297.31
320.129	280.31
320.358	298.31
320.587	286.31
320.816	309.31
321.046	298.31
321.275	329.31
321.504	337.31
321.733	316.31
321.962	296.31
322.191	340.31
322.42	338.31
322.649	349.31
322.878	342.31
323.108	374.31
323.337	388.31
323.566	402.31
323.795	435.31
324.024	478.31
324.253	616.31
324.482	917.31
324.71	1367.31
324.939	1778.31
325.168	1444.31
325.397	796.31
325.626	511.31
325.855	408.31
326.084	416.31
326.313	392.31
326.542	411.31
326.77	436.31
326.999	575.31
327.228	803.31
327.457	1140.31
327.686	1306.31
327.914	870.31
328.143	604.31
328.372	492.31
328.6	465.31
328.829	455.31
329.058	464.31
329.287	492.31
329.515	429.31
329.744	381.31
329.972	410.31
330.201	448.31
330.43	469.31
330.658	470.31
330.887	472.31
331.115	483.31
331.344	390.31
331.572	374.31
331.801	365.31
332.03	376.31
332.258	357.31
332.486	337.31
332.715	340.31
332.943	354.31
333.172	318.31
333.4	326.31
333.629	337.31
333.857	370.31
334.085	359.31
334.314	367.31
334.542	384.31
334.771	388.31
334.999	368.31
335.227	342.31
335.455	346.31
335.684	316.31
335.912	328.31
336.14	313.31
336.369	313.31
336.597	332.31
336.825	328.31
337.053	308.31
337.281	338.31
337.51	331.31
337.738	342.31
337.966	312.31
338.194	320.31
338.422	339.31
338.65	299.31
338.878	304.31
339.106	310.31
339.334	319.31
339.562	305.31
339.79	312.31
340.018	329.31
340.246	309.31
340.474	336.31
340.702	330.31
340.93	323.31
341.158	304.31
341.386	308.31
341.614	326.31
341.842	321.31
342.07	324.31
342.298	295.31
342.526	318.31
342.754	292.31
342.981	304.31
343.209	316.31
343.437	307.31
343.665	308.31
343.893	303.31
344.12	322.31
344.348	305.31
344.576	334.31
344.804	313.31
345.031	314.31
345.259	338.31
345.487	315.31
345.714	299.31
345.942	313.31
346.17	316.31
346.397	310.31
346.625	298.31
346.853	297.31
347.08	293.31
347.308	302.31
347.535	309.31
347.763	326.31
347.99	303.31
348.218	305.31
348.445	323.31
348.673	325.31
348.9	299.31
349.128	305.31
349.355	291.31
349.583	299.31
349.81	312.31
350.037	305.31
350.265	299.31
350.492	303.31
350.72	294.31
350.947	282.31
351.174	315.31
351.402	311.31
351.629	312.31
351.856	307.31
352.083	306.31
352.311	311.31
352.538	329.31
352.765	319.31
352.992	308.31
353.22	295.31
353.447	297.31
353.674	285.31
353.901	291.31
354.128	301.31
354.355	318.31
354.583	272.31
354.81	288.31
355.037	285.31
355.264	279.31
355.491	272.31
355.718	271.31
355.945	260.31
356.172	258.31
356.399	278.31
356.626	264.31
356.853	267.31
357.08	274.31
357.307	269.31
357.534	256.31
357.761	271.31
357.988	280.31
358.215	285.31
358.441	281.31
358.668	281.31
358.895	267.31
359.122	281.31
359.349	299.31
359.576	311.31
359.802	318.31
360.029	341.31
360.256	327.31
360.483	317.31
360.709	302.31
360.936	317.31
361.163	296.31
361.39	322.31
361.616	315.31
361.843	281.31
362.07	298.31
362.296	292.31
362.523	289.31
362.749	282.31
362.976	300.31
363.203	294.31
363.429	250.31
363.656	272.31
363.882	276.31
364.109	291.31
364.335	276.31
364.562	301.31
364.788	276.31
365.015	285.31
365.241	293.31
365.468	291.31
365.694	279.31
365.92	298.31
366.147	288.31
366.373	265.31
366.599	283.31
366.826	263.31
367.052	262.31
367.278	290.31
367.505	265.31
367.731	275.31
367.957	300.31
368.184	271.31
368.41	300.31
368.636	297.31
368.862	275.31
369.089	281.31
369.315	300.31
369.541	278.31
369.767	279.31
369.993	273.31
370.219	268.31
370.445	280.31
370.672	267.31
370.898	248.31
371.124	280.31
371.35	280.31
371.576	256.31
371.802	262.31
372.028	264.31
372.254	269.31
372.48	281.31
372.706	269.31
372.932	261.31
373.158	261.31
373.384	264.31
373.61	256.31
373.835	276.31
374.061	278.31
374.287	273.31
374.513	280.31
374.739	289.31
374.965	280.31
375.191	265.31
375.416	265.31
375.642	277.31
375.868	262.31
376.094	288.31
376.319	284.31
376.545	256.31
376.771	260.31
376.997	272.31
377.222	269.31
377.448	256.31
377.674	253.31
377.899	239.31
378.125	279.31
378.35	260.31
378.576	276.31
378.802	270.31
379.027	259.31
379.253	267.31
379.478	256.31
379.704	257.31
379.929	289.31
380.155	281.31
380.38	267.31
380.606	260.31
380.831	286.31
381.057	282.31
381.282	261.31
381.507	274.31
381.733	278.31
381.958	267.31
382.184	292.31
382.409	261.31
382.634	280.31
382.86	256.31
383.085	272.31
383.31	257.31
383.535	291.31
383.761	271.31
383.986	278.31
384.211	286.31
384.436	271.31
384.662	271.31
384.887	269.31
385.112	269.31
385.337	287.31
385.562	258.31
385.787	268.31
386.013	278.31
386.238	296.31
386.463	275.31
386.688	279.31
386.913	260.31
387.138	260.31
387.363	270.31
387.588	280.31
387.813	268.31
388.038	275.31
388.263	258.31
388.488	274.31
388.713	260.31
388.938	284.31
389.163	289.31
389.387	284.31
389.612	272.31
389.837	270.31
390.062	268.31
390.287	268.31
390.512	285.31
390.736	268.31
390.961	278.31
391.186	278.31
391.411	264.31
391.636	284.31
391.86	280.31
392.085	283.31
392.31	267.31
392.534	265.31
392.759	285.31
392.984	276.31
393.208	283.31
393.433	290.31
393.658	280.31
393.882	274.31
394.107	292.31
394.331	267.31
394.556	272.31
394.78	280.31
395.005	265.31
395.229	283.31
395.454	297.31
395.678	301.31
395.903	296.31
396.127	288.31
396.352	275.31
396.576	280.31
396.801	287.31
397.025	306.31
397.249	285.31
397.474	282.31
397.698	299.31
397.922	295.31
398.147	309.31
398.371	309.31
398.595	307.31
398.82	298.31
399.044	304.31
399.268	311.31
399.492	314.31
399.717	325.31
399.941	353.31
400.165	368.31
400.389	374.31
400.613	342.31
400.837	324.31
401.062	299.31
401.286	305.31
401.51	313.31
401.734	293.31
401.958	306.31
402.182	318.31
402.406	315.31
402.63	325.31
402.854	312.31
403.078	302.31
403.302	307.31
403.526	318.31
403.75	322.31
403.974	309.31
404.198	323.31
404.422	319.31
404.645	328.31
404.869	323.31
405.093	349.31
405.317	361.31
405.541	385.31
405.765	351.31
405.988	344.31
406.212	342.31
406.436	372.31
406.66	362.31
406.883	350.31
407.107	347.31
407.331	370.31
407.555	421.31
407.778	422.31
408.002	374.31
408.226	364.31
408.449	339.31
408.673	346.31
408.896	362.31
409.12	374.31
409.344	352.31
409.567	339.31
409.791	324.31
410.014	305.31
410.238	298.31
410.461	308.31
410.685	323.31
410.908	345.31
411.132	362.31
411.355	341.31
411.578	355.31
411.802	318.31
412.025	309.31
412.249	322.31
412.472	334.31
412.695	365.31
412.919	355.31
413.142	337.31
413.365	314.31
413.589	295.31
413.812	293.31
414.035	297.31
414.258	282.31
414.482	295.31
414.705	292.31
414.928	301.31
415.151	280.31
415.374	298.31
415.597	296.31
415.821	292.31
416.044	278.31
416.267	301.31
416.49	308.31
416.713	293.31
416.936	309.31
417.159	297.31
417.382	293.31
417.605	301.31
417.828	307.31
418.051	330.31
418.274	310.31
418.497	296.31
418.72	292.31
418.943	295.31
419.166	313.31
419.389	309.31
419.611	318.31
419.834	330.31
420.057	335.31
420.28	314.31
420.503	337.31
420.726	311.31
420.948	328.31
421.171	331.31
421.394	369.31
421.617	292.31
421.839	312.31
422.062	308.31
422.285	327.31
422.507	357.31
422.73	409.31
422.953	386.31
423.175	346.31
423.398	331.31
423.621	350.31
423.843	352.31
424.066	327.31
424.288	346.31
424.511	362.31
424.733	390.31
424.956	448.31
425.178	435.31
425.401	420.31
425.623	385.31
425.846	386.31
426.068	345.31
426.291	342.31
426.513	341.31
426.735	361.31
426.958	371.31
427.18	435.31
427.402	514.31
427.625	555.31
427.847	494.31
428.069	436.31
428.292	374.31
428.514	362.31
428.736	324.31
428.958	336.31
429.181	318.31
429.403	323.31
429.625	329.31
429.847	358.31
430.069	372.31
430.292	386.31
430.514	320.31
430.736	313.31
430.958	308.31
431.18	321.31
431.402	318.31
431.624	314.31
431.846	288.31
432.068	310.31
432.29	294.31
432.512	301.31
432.734	314.31
432.956	318.31
433.178	314.31
433.4	326.31
433.622	294.31
433.844	302.31
434.066	285.31
434.287	312.31
434.509	291.31
434.731	311.31
434.953	292.31
435.175	326.31
435.397	348.31
435.618	348.31
435.84	372.31
436.062	450.31
436.284	472.31
436.505	380.31
436.727	356.31
436.949	338.31
437.17	324.31
437.392	320.31
437.614	333.31
437.835	359.31
438.057	397.31
438.278	498.31
438.5	491.31
438.721	510.31
438.943	480.31
439.165	408.31
439.386	376.31
439.608	365.31
439.829	364.31
440.05	398.31
440.272	426.31
440.493	386.31
440.715	342.31
440.936	357.31
441.158	331.31
441.379	325.31
441.6	331.31
441.822	362.31
442.043	395.31
442.264	397.31
442.486	449.31
442.707	389.31
442.928	358.31
443.149	353.31
443.371	369.31
443.592	415.31
443.813	451.31
444.034	476.31
444.255	406.31
444.476	348.31
444.698	324.31
444.919	328.31
445.14	416.31
445.361	423.31
445.582	392.31
445.803	422.31
446.024	504.31
446.245	472.31
446.466	462.31
446.687	381.31
446.908	353.31
447.129	324.31
447.35	313.31
447.571	342.31
447.792	320.31
448.013	334.31
448.234	350.31
448.455	374.31
448.675	448.31
448.896	489.31
449.117	436.31
449.338	436.31
449.559	471.31
449.779	523.31
450	424.31
450.221	378.31
450.442	329.31
450.662	324.31
450.883	327.31
451.104	331.31
451.324	336.31
451.545	306.31
451.766	298.31
451.986	290.31
452.207	320.31
452.428	295.31
452.648	297.31
452.869	293.31
453.089	292.31
453.31	311.31
453.53	299.31
453.751	292.31
453.971	302.31
454.192	319.31
454.412	314.31
454.633	321.31
454.853	304.31
455.073	292.31
455.294	320.31
455.514	344.31
455.734	350.31
455.955	308.31
456.175	286.31
456.395	268.31
456.616	279.31
456.836	280.31
457.056	268.31
457.276	258.31
457.497	258.31
457.717	279.31
457.937	269.31
458.157	286.31
458.377	291.31
458.598	308.31
458.818	372.31
459.038	396.31
459.258	393.31
459.478	358.31
459.698	312.31
459.918	293.31
460.138	297.31
460.358	299.31
460.578	309.31
460.798	292.31
461.018	296.31
461.238	286.31
461.458	301.31
461.678	290.31
461.898	282.31
462.118	295.31
462.338	301.31
462.558	296.31
462.777	296.31
462.997	300.31
463.217	298.31
463.437	317.31
463.657	305.31
463.876	310.31
464.096	308.31
464.316	308.31
464.536	300.31
464.755	313.31
464.975	333.31
465.195	363.31
465.414	407.31
465.634	374.31
465.854	320.31
466.073	312.31
466.293	296.31
466.512	285.31
466.732	276.31
466.951	295.31
467.171	299.31
467.391	269.31
467.61	315.31
467.829	309.31
468.049	279.31
468.268	295.31
468.488	281.31
468.707	288.31
468.927	275.31
469.146	271.31
469.365	281.31
469.585	283.31
469.804	307.31
470.023	297.31
470.243	292.31
470.462	279.31
470.681	311.31
470.901	316.31
471.12	283.31
471.339	289.31
471.558	310.31
471.777	296.31
471.997	308.31
472.216	300.31
472.435	317.31
472.654	330.31
472.873	310.31
473.092	304.31
473.311	293.31
473.53	294.31
473.749	305.31
473.968	357.31
474.187	404.31
474.406	413.31
474.625	330.31
474.844	312.31
475.063	315.31
475.282	280.31
475.501	286.31
475.72	322.31
475.939	292.31
476.158	327.31
476.377	286.31
476.596	314.31
476.814	324.31
477.033	315.31
477.252	312.31
477.471	291.31
477.69	293.31
477.908	312.31
478.127	308.31
478.346	316.31
478.564	309.31
478.783	312.31
479.002	306.31
479.22	336.31
479.439	349.31
479.658	335.31
479.876	357.31
480.095	372.31
480.313	368.31
480.532	348.31
480.751	373.31
480.969	365.31
481.188	402.31
481.406	424.31
481.624	356.31
481.843	365.31
482.061	342.31
482.28	337.31
482.498	341.31
482.717	352.31
482.935	358.31
483.153	356.31
483.372	341.31
483.59	342.31
483.808	330.31
484.027	339.31
484.245	331.31
484.463	337.31
484.681	339.31
484.9	344.31
485.118	361.31
485.336	364.31
485.554	356.31
485.772	353.31
485.99	348.31
486.209	362.31
486.427	348.31
486.645	343.31
486.863	358.31
487.081	378.31
487.299	374.31
487.517	359.31
487.735	366.31
487.953	366.31
488.171	377.31
488.389	362.31
488.607	370.31
488.825	372.31
489.043	353.31
489.261	379.31
489.479	382.31
489.696	376.31
489.914	363.31
490.132	376.31
490.35	372.31
490.568	373.31
490.786	383.31
491.003	382.31
491.221	396.31
491.439	393.31
491.657	398.31
491.874	408.31
492.092	433.31
492.31	413.31
492.527	445.31
492.745	427.31
492.963	432.31
493.18	451.31
493.398	419.31
493.615	418.31
493.833	424.31
494.05	428.31
494.268	441.31
494.485	438.31
494.703	439.31
494.92	442.31
495.138	429.31
495.355	442.31
495.573	448.31
495.79	417.31
496.008	441.31
496.225	432.31
496.442	423.31
496.66	432.31
496.877	408.31
497.094	449.31
497.312	435.31
497.529	453.31
497.746	454.31
497.963	422.31
498.181	456.31
498.398	466.31
498.615	467.31
498.832	458.31
499.049	457.31
499.267	470.31
499.484	482.31
499.701	490.31
499.918	509.31
500.135	510.31
500.352	522.31
500.569	527.31
500.786	532.31
501.003	511.31
501.22	512.31
501.437	508.31
501.654	497.31
501.871	514.31
502.088	499.31
502.305	488.31
