Data from 1982.PennyLincolnUp.Lamp.En5.5.200Scan.071819.P1_HRD10591_16-47-07-963.txt Node
Date: Thu Jul 18 16:47:07 EDT 2019
User: cochatt
Spectrometer: HR+D1059
Trigger mode: 1
Integration Time (sec): 1.000000E-1
Scans to average: 1
Electric dark correction enabled: true
Nonlinearity correction enabled: false
Boxcar width: 0
XAxis mode: Wavelengths
Number of Pixels in Spectrum: 2048
>>>>>Begin Spectral Data<<<<<
223.165	-15.94
223.4	-15.94
223.635	-15.94
223.869	-11.94
224.104	-18.94
224.338	-11.94
224.573	1.06
224.808	-16.94
225.042	-13.94
225.277	-4.94
225.511	-4.94
225.746	6.06
225.98	-4.94
226.215	20.06
226.449	15.06
226.683	22.06
226.918	21.06
227.152	19.06
227.387	32.06
227.621	50.06
227.856	32.06
228.09	37.06
228.324	44.06
228.559	70.06
228.793	54.06
229.027	75.06
229.262	82.06
229.496	88.06
229.73	116.06
229.964	127.06
230.199	110.06
230.433	107.06
230.667	99.06
230.901	101.06
231.136	99.06
231.37	97.06
231.604	101.06
231.838	108.06
232.072	114.06
232.306	97.06
232.541	103.06
232.775	102.06
233.009	107.06
233.243	106.06
233.477	101.06
233.711	89.06
233.945	114.06
234.179	102.06
234.413	107.06
234.647	106.06
234.881	88.06
235.115	90.06
235.349	105.06
235.583	112.06
235.817	106.06
236.051	105.06
236.285	113.06
236.519	115.06
236.753	131.06
236.987	116.06
237.221	167.06
237.455	197.06
237.689	166.06
237.922	118.06
238.156	99.06
238.39	126.06
238.624	116.06
238.858	97.06
239.091	103.06
239.325	107.06
239.559	112.06
239.793	106.06
240.027	117.06
240.26	120.06
240.494	131.06
240.728	130.06
240.961	118.06
241.195	123.06
241.429	113.06
241.662	118.06
241.896	114.06
242.13	113.06
242.363	117.06
242.597	107.06
242.83	118.06
243.064	99.06
243.298	114.06
243.531	120.06
243.765	123.06
243.998	108.06
244.232	128.06
244.465	131.06
244.699	129.06
244.932	122.06
245.166	129.06
245.399	115.06
245.633	138.06
245.866	120.06
246.099	133.06
246.333	138.06
246.566	123.06
246.8	128.06
247.033	127.06
247.266	127.06
247.5	134.06
247.733	136.06
247.966	132.06
248.2	134.06
248.433	130.06
248.666	158.06
248.899	160.06
249.133	161.06
249.366	163.06
249.599	152.06
249.832	151.06
250.066	161.06
250.299	150.06
250.532	177.06
250.765	144.06
250.998	170.06
251.231	180.06
251.465	162.06
251.698	156.06
251.931	165.06
252.164	156.06
252.397	155.06
252.63	172.06
252.863	176.06
253.096	180.06
253.329	176.06
253.562	162.06
253.795	179.06
254.028	172.06
254.261	184.06
254.494	182.06
254.727	214.06
254.96	218.06
255.193	222.06
255.426	186.06
255.659	172.06
255.892	209.06
256.124	180.06
256.357	178.06
256.59	177.06
256.823	181.06
257.056	170.06
257.289	165.06
257.521	177.06
257.754	177.06
257.987	158.06
258.22	181.06
258.452	178.06
258.685	187.06
258.918	175.06
259.151	160.06
259.383	169.06
259.616	168.06
259.849	188.06
260.081	195.06
260.314	196.06
260.547	199.06
260.779	192.06
261.012	199.06
261.244	185.06
261.477	183.06
261.71	179.06
261.942	187.06
262.175	182.06
262.407	186.06
262.64	164.06
262.872	178.06
263.105	171.06
263.337	170.06
263.57	173.06
263.802	174.06
264.035	170.06
264.267	169.06
264.499	168.06
264.732	172.06
264.964	190.06
265.197	172.06
265.429	180.06
265.661	163.06
265.894	171.06
266.126	167.06
266.358	167.06
266.591	187.06
266.823	163.06
267.055	176.06
267.287	195.06
267.52	166.06
267.752	177.06
267.984	178.06
268.216	178.06
268.448	180.06
268.681	182.06
268.913	186.06
269.145	209.06
269.377	202.06
269.609	219.06
269.841	220.06
270.073	223.06
270.306	231.06
270.538	250.06
270.77	247.06
271.002	252.06
271.234	224.06
271.466	233.06
271.698	246.06
271.93	248.06
272.162	249.06
272.394	237.06
272.626	238.06
272.858	238.06
273.09	242.06
273.322	232.06
273.553	197.06
273.785	210.06
274.017	194.06
274.249	196.06
274.481	199.06
274.713	211.06
274.945	232.06
275.176	214.06
275.408	200.06
275.64	208.06
275.872	223.06
276.104	211.06
276.335	209.06
276.567	210.06
276.799	257.06
277.031	245.06
277.262	251.06
277.494	243.06
277.726	237.06
277.957	240.06
278.189	233.06
278.421	205.06
278.652	210.06
278.884	221.06
279.115	209.06
279.347	202.06
279.579	205.06
279.81	225.06
280.042	213.06
280.273	195.06
280.505	213.06
280.736	196.06
280.968	227.06
281.199	198.06
281.431	196.06
281.662	225.06
281.894	217.06
282.125	226.06
282.356	238.06
282.588	243.06
282.819	225.06
283.051	214.06
283.282	208.06
283.513	196.06
283.745	209.06
283.976	206.06
284.207	214.06
284.439	217.06
284.67	203.06
284.901	226.06
285.132	197.06
285.364	204.06
285.595	197.06
285.826	205.06
286.057	207.06
286.288	219.06
286.52	213.06
286.751	212.06
286.982	205.06
287.213	215.06
287.444	217.06
287.675	216.06
287.906	236.06
288.138	224.06
288.369	233.06
288.6	233.06
288.831	227.06
289.062	226.06
289.293	224.06
289.524	217.06
289.755	226.06
289.986	204.06
290.217	210.06
290.448	211.06
290.679	217.06
290.91	221.06
291.141	225.06
291.371	227.06
291.602	211.06
291.833	226.06
292.064	209.06
292.295	216.06
292.526	204.06
292.757	220.06
292.987	228.06
293.218	202.06
293.449	226.06
293.68	241.06
293.91	215.06
294.141	207.06
294.372	209.06
294.603	206.06
294.833	219.06
295.064	218.06
295.295	233.06
295.525	229.06
295.756	219.06
295.987	240.06
296.217	236.06
296.448	238.06
296.679	230.06
296.909	206.06
297.14	225.06
297.37	225.06
297.601	211.06
297.831	237.06
298.062	233.06
298.292	226.06
298.523	223.06
298.753	200.06
298.984	222.06
299.214	220.06
299.445	236.06
299.675	221.06
299.905	211.06
300.136	219.06
300.366	209.06
300.597	232.06
300.827	235.06
301.057	233.06
301.288	259.06
301.518	225.06
301.748	244.06
301.979	236.06
302.209	245.06
302.439	252.06
302.669	233.06
302.9	233.06
303.13	246.06
303.36	235.06
303.59	244.06
303.82	265.06
304.051	245.06
304.281	246.06
304.511	231.06
304.741	243.06
304.971	235.06
305.201	224.06
305.431	226.06
305.661	237.06
305.891	255.06
306.121	237.06
306.352	259.06
306.582	248.06
306.812	262.06
307.042	244.06
307.272	251.06
307.502	257.06
307.731	238.06
307.961	242.06
308.191	241.06
308.421	266.06
308.651	265.06
308.881	264.06
309.111	266.06
309.341	265.06
309.571	278.06
309.8	262.06
310.03	273.06
310.26	268.06
310.49	284.06
310.72	288.06
310.949	290.06
311.179	299.06
311.409	292.06
311.639	285.06
311.868	296.06
312.098	285.06
312.328	304.06
312.557	301.06
312.787	322.06
313.017	304.06
313.246	292.06
313.476	277.06
313.706	279.06
313.935	282.06
314.165	307.06
314.394	301.06
314.624	321.06
314.853	312.06
315.083	294.06
315.312	285.06
315.542	273.06
315.771	292.06
316.001	280.06
316.23	280.06
316.46	282.06
316.689	298.06
316.919	287.06
317.148	289.06
317.377	313.06
317.607	283.06
317.836	280.06
318.065	280.06
318.295	283.06
318.524	280.06
318.753	285.06
318.983	268.06
319.212	293.06
319.441	313.06
319.67	293.06
319.9	279.06
320.129	306.06
320.358	294.06
320.587	306.06
320.816	312.06
321.046	295.06
321.275	310.06
321.504	305.06
321.733	315.06
321.962	313.06
322.191	314.06
322.42	332.06
322.649	369.06
322.878	348.06
323.108	362.06
323.337	380.06
323.566	378.06
323.795	416.06
324.024	492.06
324.253	604.06
324.482	924.06
324.71	1341.06
324.939	1746.06
325.168	1402.06
325.397	746.06
325.626	496.06
325.855	433.06
326.084	404.06
326.313	386.06
326.542	410.06
326.77	451.06
326.999	564.06
327.228	788.06
327.457	1148.06
327.686	1249.06
327.914	829.06
328.143	560.06
328.372	511.06
328.6	475.06
328.829	455.06
329.058	475.06
329.287	457.06
329.515	417.06
329.744	404.06
329.972	378.06
330.201	413.06
330.43	455.06
330.658	462.06
330.887	478.06
331.115	448.06
331.344	402.06
331.572	371.06
331.801	358.06
332.03	355.06
332.258	344.06
332.486	339.06
332.715	320.06
332.943	328.06
333.172	341.06
333.4	332.06
333.629	334.06
333.857	338.06
334.085	366.06
334.314	369.06
334.542	381.06
334.771	378.06
334.999	352.06
335.227	350.06
335.455	333.06
335.684	330.06
335.912	319.06
336.14	327.06
336.369	331.06
336.597	323.06
336.825	323.06
337.053	302.06
337.281	325.06
337.51	325.06
337.738	331.06
337.966	321.06
338.194	329.06
338.422	314.06
338.65	309.06
338.878	312.06
339.106	295.06
339.334	320.06
339.562	310.06
339.79	296.06
340.018	298.06
340.246	310.06
340.474	332.06
340.702	302.06
340.93	317.06
341.158	294.06
341.386	310.06
341.614	326.06
341.842	317.06
342.07	312.06
342.298	295.06
342.526	297.06
342.754	297.06
342.981	298.06
343.209	306.06
343.437	294.06
343.665	289.06
343.893	309.06
344.12	308.06
344.348	302.06
344.576	304.06
344.804	293.06
345.031	314.06
345.259	326.06
345.487	329.06
345.714	314.06
345.942	300.06
346.17	296.06
346.397	290.06
346.625	309.06
346.853	299.06
347.08	309.06
347.308	285.06
347.535	325.06
347.763	312.06
347.99	319.06
348.218	310.06
348.445	293.06
348.673	304.06
348.9	313.06
349.128	310.06
349.355	277.06
349.583	297.06
349.81	293.06
350.037	280.06
350.265	286.06
350.492	292.06
350.72	296.06
350.947	295.06
351.174	300.06
351.402	287.06
351.629	290.06
351.856	315.06
352.083	301.06
352.311	293.06
352.538	329.06
352.765	309.06
352.992	307.06
353.22	289.06
353.447	294.06
353.674	297.06
353.901	299.06
354.128	295.06
354.355	273.06
354.583	281.06
354.81	292.06
355.037	272.06
355.264	257.06
355.491	271.06
355.718	279.06
355.945	262.06
356.172	279.06
356.399	272.06
356.626	247.06
356.853	268.06
357.08	264.06
357.307	278.06
357.534	262.06
357.761	242.06
357.988	271.06
358.215	269.06
358.441	260.06
358.668	267.06
358.895	271.06
359.122	291.06
359.349	292.06
359.576	302.06
359.802	325.06
360.029	356.06
360.256	337.06
360.483	335.06
360.709	300.06
360.936	289.06
361.163	284.06
361.39	309.06
361.616	304.06
361.843	302.06
362.07	301.06
362.296	305.06
362.523	288.06
362.749	310.06
362.976	275.06
363.203	317.06
363.429	273.06
363.656	283.06
363.882	273.06
364.109	278.06
364.335	280.06
364.562	277.06
364.788	278.06
365.015	268.06
365.241	280.06
365.468	296.06
365.694	304.06
365.92	278.06
366.147	296.06
366.373	269.06
366.599	287.06
366.826	254.06
367.052	274.06
367.278	258.06
367.505	260.06
367.731	267.06
367.957	283.06
368.184	274.06
368.41	268.06
368.636	285.06
368.862	297.06
369.089	298.06
369.315	286.06
369.541	283.06
369.767	287.06
369.993	274.06
370.219	259.06
370.445	274.06
370.672	272.06
370.898	288.06
371.124	252.06
371.35	272.06
371.576	265.06
371.802	277.06
372.028	255.06
372.254	271.06
372.48	260.06
372.706	268.06
372.932	265.06
373.158	259.06
373.384	260.06
373.61	279.06
373.835	272.06
374.061	259.06
374.287	274.06
374.513	271.06
374.739	283.06
374.965	268.06
375.191	276.06
375.416	265.06
375.642	278.06
375.868	260.06
376.094	272.06
376.319	267.06
376.545	260.06
376.771	260.06
376.997	258.06
377.222	265.06
377.448	245.06
377.674	261.06
377.899	277.06
378.125	271.06
378.35	258.06
378.576	244.06
378.802	258.06
379.027	265.06
379.253	256.06
379.478	270.06
379.704	261.06
379.929	249.06
380.155	241.06
380.38	251.06
380.606	261.06
380.831	266.06
381.057	255.06
381.282	270.06
381.507	253.06
381.733	264.06
381.958	249.06
382.184	260.06
382.409	252.06
382.634	256.06
382.86	253.06
383.085	277.06
383.31	278.06
383.535	258.06
383.761	262.06
383.986	273.06
384.211	248.06
384.436	270.06
384.662	282.06
384.887	262.06
385.112	268.06
385.337	263.06
385.562	256.06
385.787	260.06
386.013	270.06
386.238	265.06
386.463	265.06
386.688	272.06
386.913	270.06
387.138	275.06
387.363	274.06
387.588	261.06
387.813	261.06
388.038	273.06
388.263	275.06
388.488	281.06
388.713	257.06
388.938	260.06
389.163	268.06
389.387	269.06
389.612	268.06
389.837	272.06
390.062	284.06
390.287	279.06
390.512	288.06
390.736	277.06
390.961	270.06
391.186	269.06
391.411	270.06
391.636	272.06
391.86	294.06
392.085	301.06
392.31	280.06
392.534	274.06
392.759	278.06
392.984	276.06
393.208	282.06
393.433	266.06
393.658	282.06
393.882	272.06
394.107	245.06
394.331	264.06
394.556	265.06
394.78	260.06
395.005	265.06
395.229	266.06
395.454	266.06
395.678	269.06
395.903	289.06
396.127	297.06
396.352	305.06
396.576	272.06
396.801	276.06
397.025	282.06
397.249	278.06
397.474	280.06
397.698	282.06
397.922	307.06
398.147	294.06
398.371	307.06
398.595	321.06
398.82	301.06
399.044	304.06
399.268	297.06
399.492	316.06
399.717	331.06
399.941	372.06
400.165	368.06
400.389	349.06
400.613	326.06
400.837	314.06
401.062	302.06
401.286	314.06
401.51	300.06
401.734	301.06
401.958	293.06
402.182	310.06
402.406	317.06
402.63	306.06
402.854	277.06
403.078	298.06
403.302	304.06
403.526	322.06
403.75	308.06
403.974	306.06
404.198	283.06
404.422	299.06
404.645	327.06
404.869	324.06
405.093	357.06
405.317	360.06
405.541	348.06
405.765	348.06
405.988	338.06
406.212	346.06
406.436	351.06
406.66	380.06
406.883	354.06
407.107	357.06
407.331	381.06
407.555	420.06
407.778	422.06
408.002	362.06
408.226	341.06
408.449	357.06
408.673	328.06
408.896	357.06
409.12	369.06
409.344	362.06
409.567	328.06
409.791	318.06
410.014	322.06
410.238	306.06
410.461	325.06
410.685	320.06
410.908	325.06
411.132	338.06
411.355	370.06
411.578	355.06
411.802	332.06
412.025	320.06
412.249	317.06
412.472	314.06
412.695	369.06
412.919	344.06
413.142	310.06
413.365	299.06
413.589	297.06
413.812	292.06
414.035	300.06
414.258	296.06
414.482	289.06
414.705	292.06
414.928	285.06
415.151	280.06
415.374	295.06
415.597	293.06
415.821	298.06
416.044	296.06
416.267	284.06
416.49	300.06
416.713	302.06
416.936	297.06
417.159	291.06
417.382	306.06
417.605	301.06
417.828	316.06
418.051	316.06
418.274	319.06
418.497	296.06
418.72	294.06
418.943	282.06
419.166	294.06
419.389	315.06
419.611	303.06
419.834	295.06
420.057	312.06
420.28	310.06
420.503	307.06
420.726	305.06
420.948	317.06
421.171	337.06
421.394	352.06
421.617	310.06
421.839	309.06
422.062	302.06
422.285	335.06
422.507	361.06
422.73	395.06
422.953	394.06
423.175	350.06
423.398	337.06
423.621	351.06
423.843	333.06
424.066	332.06
424.288	358.06
424.511	353.06
424.733	384.06
424.956	422.06
425.178	420.06
425.401	390.06
425.623	405.06
425.846	363.06
426.068	335.06
426.291	332.06
426.513	340.06
426.735	341.06
426.958	387.06
427.18	440.06
427.402	482.06
427.625	531.06
427.847	490.06
428.069	412.06
428.292	371.06
428.514	348.06
428.736	320.06
428.958	324.06
429.181	327.06
429.403	326.06
429.625	329.06
429.847	346.06
430.069	382.06
430.292	369.06
430.514	338.06
430.736	313.06
430.958	304.06
431.18	297.06
431.402	314.06
431.624	306.06
431.846	278.06
432.068	297.06
432.29	284.06
432.512	276.06
432.734	309.06
432.956	317.06
433.178	308.06
433.4	322.06
433.622	306.06
433.844	311.06
434.066	314.06
434.287	281.06
434.509	293.06
434.731	301.06
434.953	300.06
435.175	312.06
435.397	337.06
435.618	360.06
435.84	376.06
436.062	434.06
436.284	459.06
436.505	388.06
436.727	360.06
436.949	326.06
437.17	326.06
437.392	316.06
437.614	328.06
437.835	370.06
438.057	428.06
438.278	451.06
438.5	463.06
438.721	511.06
438.943	463.06
439.165	385.06
439.386	386.06
439.608	361.06
439.829	367.06
440.05	369.06
440.272	421.06
440.493	377.06
440.715	344.06
440.936	340.06
441.158	332.06
441.379	327.06
441.6	329.06
441.822	351.06
442.043	379.06
442.264	422.06
442.486	438.06
442.707	375.06
442.928	351.06
443.149	350.06
443.371	371.06
443.592	393.06
443.813	466.06
444.034	456.06
444.255	405.06
444.476	361.06
444.698	344.06
444.919	331.06
445.14	448.06
445.361	371.06
445.582	354.06
445.803	404.06
446.024	477.06
446.245	484.06
446.466	459.06
446.687	386.06
446.908	360.06
447.129	329.06
447.35	320.06
447.571	325.06
447.792	326.06
448.013	326.06
448.234	351.06
448.455	393.06
448.675	428.06
448.896	491.06
449.117	444.06
449.338	396.06
449.559	481.06
449.779	506.06
450	402.06
450.221	365.06
450.442	338.06
450.662	313.06
450.883	312.06
451.104	344.06
451.324	327.06
451.545	294.06
451.766	318.06
451.986	286.06
452.207	279.06
452.428	277.06
452.648	297.06
452.869	285.06
453.089	293.06
453.31	312.06
453.53	308.06
453.751	296.06
453.971	283.06
454.192	302.06
454.412	290.06
454.633	287.06
454.853	288.06
455.073	290.06
455.294	321.06
455.514	353.06
455.734	334.06
455.955	269.06
456.175	294.06
456.395	259.06
456.616	256.06
456.836	272.06
457.056	276.06
457.276	269.06
457.497	271.06
457.717	268.06
457.937	267.06
458.157	269.06
458.377	308.06
458.598	301.06
458.818	336.06
459.038	402.06
459.258	388.06
459.478	317.06
459.698	310.06
459.918	290.06
460.138	293.06
460.358	280.06
460.578	284.06
460.798	297.06
461.018	310.06
461.238	285.06
461.458	299.06
461.678	300.06
461.898	290.06
462.118	285.06
462.338	296.06
462.558	300.06
462.777	292.06
462.997	289.06
463.217	302.06
463.437	313.06
463.657	302.06
463.876	283.06
464.096	296.06
464.316	302.06
464.536	325.06
464.755	327.06
464.975	316.06
465.195	368.06
465.414	391.06
465.634	357.06
465.854	336.06
466.073	314.06
466.293	304.06
466.512	286.06
466.732	276.06
466.951	280.06
467.171	293.06
467.391	304.06
467.61	291.06
467.829	304.06
468.049	297.06
468.268	297.06
468.488	293.06
468.707	276.06
468.927	278.06
469.146	261.06
469.365	293.06
469.585	280.06
469.804	286.06
470.023	289.06
470.243	299.06
470.462	290.06
470.681	314.06
470.901	313.06
471.12	297.06
471.339	301.06
471.558	310.06
471.777	291.06
471.997	294.06
472.216	300.06
472.435	317.06
472.654	327.06
472.873	301.06
473.092	292.06
473.311	288.06
473.53	294.06
473.749	316.06
473.968	332.06
474.187	407.06
474.406	420.06
474.625	361.06
474.844	296.06
475.063	296.06
475.282	289.06
475.501	305.06
475.72	301.06
475.939	306.06
476.158	296.06
476.377	305.06
476.596	310.06
476.814	293.06
477.033	312.06
477.252	312.06
477.471	309.06
477.69	301.06
477.908	315.06
478.127	309.06
478.346	326.06
478.564	319.06
478.783	319.06
479.002	323.06
479.22	310.06
479.439	331.06
479.658	345.06
479.876	341.06
480.095	345.06
480.313	381.06
480.532	354.06
480.751	338.06
480.969	355.06
481.188	408.06
481.406	420.06
481.624	368.06
481.843	353.06
482.061	343.06
482.28	344.06
482.498	338.06
482.717	343.06
482.935	315.06
483.153	321.06
483.372	336.06
483.59	336.06
483.808	325.06
484.027	332.06
484.245	332.06
484.463	352.06
484.681	335.06
484.9	346.06
485.118	356.06
485.336	354.06
485.554	335.06
485.772	370.06
485.99	351.06
486.209	341.06
486.427	342.06
486.645	339.06
486.863	354.06
487.081	378.06
487.299	361.06
487.517	363.06
487.735	356.06
487.953	377.06
488.171	384.06
488.389	384.06
488.607	364.06
488.825	376.06
489.043	360.06
489.261	362.06
489.479	372.06
489.696	368.06
489.914	382.06
490.132	365.06
490.35	384.06
490.568	378.06
490.786	381.06
491.003	378.06
491.221	401.06
491.439	397.06
491.657	418.06
491.874	424.06
492.092	423.06
492.31	409.06
492.527	405.06
492.745	412.06
492.963	411.06
493.18	414.06
493.398	419.06
493.615	428.06
493.833	429.06
494.05	416.06
494.268	415.06
494.485	412.06
494.703	419.06
494.92	414.06
495.138	430.06
495.355	429.06
495.573	446.06
495.79	414.06
496.008	441.06
496.225	418.06
496.442	425.06
496.66	427.06
496.877	433.06
497.094	409.06
497.312	436.06
497.529	426.06
497.746	424.06
497.963	454.06
498.181	461.06
498.398	465.06
498.615	458.06
498.832	459.06
499.049	458.06
499.267	460.06
499.484	460.06
499.701	484.06
499.918	491.06
500.135	508.06
500.352	500.06
500.569	521.06
500.786	531.06
501.003	526.06
501.22	508.06
501.437	512.06
501.654	501.06
501.871	517.06
502.088	476.06
