Data from 1982.PennyLincolnUp.Lamp.En5.5.200Scan.071819.P1_HRD10591_16-47-12-963.txt Node
Date: Thu Jul 18 16:47:12 EDT 2019
User: cochatt
Spectrometer: HR+D1059
Trigger mode: 1
Integration Time (sec): 1.000000E-1
Scans to average: 1
Electric dark correction enabled: true
Nonlinearity correction enabled: false
Boxcar width: 0
XAxis mode: Wavelengths
Number of Pixels in Spectrum: 2048
>>>>>Begin Spectral Data<<<<<
223.165	-11.19
223.4	-11.19
223.635	-11.19
223.869	-11.19
224.104	-29.19
224.338	-21.19
224.573	-9.19
224.808	-16.19
225.042	5.81
225.277	-12.19
225.511	-8.19
225.746	9.81
225.98	8.81
226.215	11.81
226.449	0.81
226.683	15.81
226.918	35.81
227.152	29.81
227.387	34.81
227.621	37.81
227.856	54.81
228.09	57.81
228.324	69.81
228.559	66.81
228.793	72.81
229.027	85.81
229.262	110.81
229.496	111.81
229.73	122.81
229.964	127.81
230.199	107.81
230.433	105.81
230.667	115.81
230.901	109.81
231.136	99.81
231.37	113.81
231.604	115.81
231.838	113.81
232.072	116.81
232.306	103.81
232.541	117.81
232.775	104.81
233.009	109.81
233.243	98.81
233.477	121.81
233.711	112.81
233.945	109.81
234.179	103.81
234.413	91.81
234.647	109.81
234.881	108.81
235.115	116.81
235.349	94.81
235.583	114.81
235.817	106.81
236.051	103.81
236.285	125.81
236.519	119.81
236.753	126.81
236.987	123.81
237.221	155.81
237.455	197.81
237.689	164.81
237.922	124.81
238.156	113.81
238.39	106.81
238.624	126.81
238.858	121.81
239.091	105.81
239.325	120.81
239.559	110.81
239.793	97.81
240.027	101.81
240.26	107.81
240.494	136.81
240.728	125.81
240.961	135.81
241.195	137.81
241.429	127.81
241.662	129.81
241.896	110.81
242.13	108.81
242.363	114.81
242.597	105.81
242.83	117.81
243.064	116.81
243.298	126.81
243.531	121.81
243.765	103.81
243.998	115.81
244.232	123.81
244.465	121.81
244.699	110.81
244.932	123.81
245.166	131.81
245.399	129.81
245.633	116.81
245.866	122.81
246.099	133.81
246.333	122.81
246.566	131.81
246.8	123.81
247.033	126.81
247.266	148.81
247.5	141.81
247.733	134.81
247.966	139.81
248.2	148.81
248.433	150.81
248.666	149.81
248.899	147.81
249.133	153.81
249.366	178.81
249.599	181.81
249.832	154.81
250.066	157.81
250.299	152.81
250.532	152.81
250.765	171.81
250.998	198.81
251.231	191.81
251.465	169.81
251.698	165.81
251.931	165.81
252.164	163.81
252.397	162.81
252.63	168.81
252.863	166.81
253.096	173.81
253.329	187.81
253.562	174.81
253.795	182.81
254.028	177.81
254.261	172.81
254.494	187.81
254.727	210.81
254.96	226.81
255.193	232.81
255.426	207.81
255.659	193.81
255.892	182.81
256.124	199.81
256.357	199.81
256.59	196.81
256.823	170.81
257.056	174.81
257.289	181.81
257.521	167.81
257.754	170.81
257.987	181.81
258.22	165.81
258.452	180.81
258.685	170.81
258.918	161.81
259.151	170.81
259.383	181.81
259.616	182.81
259.849	182.81
260.081	198.81
260.314	202.81
260.547	206.81
260.779	196.81
261.012	203.81
261.244	193.81
261.477	183.81
261.71	187.81
261.942	182.81
262.175	205.81
262.407	199.81
262.64	182.81
262.872	183.81
263.105	163.81
263.337	181.81
263.57	160.81
263.802	169.81
264.035	189.81
264.267	181.81
264.499	180.81
264.732	186.81
264.964	174.81
265.197	179.81
265.429	166.81
265.661	171.81
265.894	181.81
266.126	173.81
266.358	188.81
266.591	177.81
266.823	182.81
267.055	161.81
267.287	186.81
267.52	188.81
267.752	164.81
267.984	185.81
268.216	193.81
268.448	180.81
268.681	203.81
268.913	207.81
269.145	202.81
269.377	226.81
269.609	238.81
269.841	208.81
270.073	227.81
270.306	228.81
270.538	245.81
270.77	257.81
271.002	237.81
271.234	260.81
271.466	257.81
271.698	249.81
271.93	261.81
272.162	251.81
272.394	251.81
272.626	228.81
272.858	244.81
273.09	232.81
273.322	230.81
273.553	225.81
273.785	228.81
274.017	216.81
274.249	206.81
274.481	210.81
274.713	224.81
274.945	222.81
275.176	219.81
275.408	205.81
275.64	201.81
275.872	206.81
276.104	207.81
276.335	218.81
276.567	215.81
276.799	235.81
277.031	219.81
277.262	243.81
277.494	263.81
277.726	257.81
277.957	239.81
278.189	241.81
278.421	216.81
278.652	209.81
278.884	206.81
279.115	213.81
279.347	217.81
279.579	225.81
279.81	222.81
280.042	213.81
280.273	228.81
280.505	225.81
280.736	212.81
280.968	204.81
281.199	228.81
281.431	203.81
281.662	201.81
281.894	217.81
282.125	221.81
282.356	234.81
282.588	238.81
282.819	249.81
283.051	233.81
283.282	212.81
283.513	203.81
283.745	197.81
283.976	233.81
284.207	228.81
284.439	228.81
284.67	225.81
284.901	215.81
285.132	207.81
285.364	223.81
285.595	238.81
285.826	215.81
286.057	219.81
286.288	217.81
286.52	218.81
286.751	219.81
286.982	217.81
287.213	238.81
287.444	238.81
287.675	214.81
287.906	229.81
288.138	238.81
288.369	220.81
288.6	233.81
288.831	240.81
289.062	244.81
289.293	224.81
289.524	228.81
289.755	225.81
289.986	217.81
290.217	220.81
290.448	215.81
290.679	225.81
290.91	206.81
291.141	236.81
291.371	228.81
291.602	202.81
291.833	212.81
292.064	212.81
292.295	229.81
292.526	235.81
292.757	229.81
292.987	202.81
293.218	222.81
293.449	225.81
293.68	221.81
293.91	246.81
294.141	243.81
294.372	204.81
294.603	234.81
294.833	232.81
295.064	220.81
295.295	208.81
295.525	227.81
295.756	245.81
295.987	241.81
296.217	254.81
296.448	261.81
296.679	237.81
296.909	219.81
297.14	224.81
297.37	223.81
297.601	231.81
297.831	226.81
298.062	253.81
298.292	237.81
298.523	236.81
298.753	249.81
298.984	232.81
299.214	238.81
299.445	236.81
299.675	228.81
299.905	264.81
300.136	242.81
300.366	250.81
300.597	238.81
300.827	257.81
301.057	245.81
301.288	253.81
301.518	247.81
301.748	257.81
301.979	255.81
302.209	250.81
302.439	262.81
302.669	260.81
302.9	244.81
303.13	236.81
303.36	271.81
303.59	257.81
303.82	262.81
304.051	261.81
304.281	264.81
304.511	268.81
304.741	261.81
304.971	246.81
305.201	262.81
305.431	257.81
305.661	269.81
305.891	260.81
306.121	241.81
306.352	269.81
306.582	267.81
306.812	263.81
307.042	255.81
307.272	246.81
307.502	252.81
307.731	264.81
307.961	265.81
308.191	272.81
308.421	261.81
308.651	261.81
308.881	281.81
309.111	271.81
309.341	276.81
309.571	287.81
309.8	294.81
310.03	285.81
310.26	310.81
310.49	301.81
310.72	305.81
310.949	297.81
311.179	310.81
311.409	296.81
311.639	312.81
311.868	305.81
312.098	303.81
312.328	329.81
312.557	319.81
312.787	326.81
313.017	340.81
313.246	305.81
313.476	291.81
313.706	283.81
313.935	293.81
314.165	306.81
314.394	322.81
314.624	318.81
314.853	295.81
315.083	295.81
315.312	282.81
315.542	296.81
315.771	287.81
316.001	292.81
316.23	293.81
316.46	298.81
316.689	309.81
316.919	307.81
317.148	316.81
317.377	329.81
317.607	311.81
317.836	298.81
318.065	281.81
318.295	289.81
318.524	311.81
318.753	313.81
318.983	289.81
319.212	283.81
319.441	315.81
319.67	331.81
319.9	292.81
320.129	298.81
320.358	296.81
320.587	293.81
320.816	324.81
321.046	318.81
321.275	329.81
321.504	327.81
321.733	331.81
321.962	337.81
322.191	348.81
322.42	326.81
322.649	362.81
322.878	390.81
323.108	385.81
323.337	398.81
323.566	406.81
323.795	461.81
324.024	494.81
324.253	634.81
324.482	967.81
324.71	1421.81
324.939	1863.81
325.168	1547.81
325.397	795.81
325.626	542.81
325.855	455.81
326.084	430.81
326.313	420.81
326.542	424.81
326.77	470.81
326.999	593.81
327.228	821.81
327.457	1199.81
327.686	1355.81
327.914	877.81
328.143	603.81
328.372	524.81
328.6	490.81
328.829	480.81
329.058	479.81
329.287	469.81
329.515	454.81
329.744	421.81
329.972	430.81
330.201	426.81
330.43	470.81
330.658	497.81
330.887	481.81
331.115	478.81
331.344	415.81
331.572	379.81
331.801	383.81
332.03	386.81
332.258	370.81
332.486	348.81
332.715	334.81
332.943	348.81
333.172	345.81
333.4	345.81
333.629	373.81
333.857	362.81
334.085	375.81
334.314	397.81
334.542	427.81
334.771	407.81
334.999	374.81
335.227	374.81
335.455	366.81
335.684	343.81
335.912	357.81
336.14	341.81
336.369	335.81
336.597	348.81
336.825	341.81
337.053	328.81
337.281	349.81
337.51	327.81
337.738	342.81
337.966	345.81
338.194	337.81
338.422	357.81
338.65	339.81
338.878	331.81
339.106	332.81
339.334	348.81
339.562	330.81
339.79	332.81
340.018	322.81
340.246	325.81
340.474	317.81
340.702	322.81
340.93	331.81
341.158	313.81
341.386	325.81
341.614	337.81
341.842	325.81
342.07	325.81
342.298	315.81
342.526	311.81
342.754	317.81
342.981	298.81
343.209	313.81
343.437	313.81
343.665	326.81
343.893	317.81
344.12	328.81
344.348	317.81
344.576	326.81
344.804	322.81
345.031	330.81
345.259	337.81
345.487	322.81
345.714	346.81
345.942	310.81
346.17	323.81
346.397	309.81
346.625	313.81
346.853	309.81
347.08	312.81
347.308	309.81
347.535	316.81
347.763	323.81
347.99	319.81
348.218	334.81
348.445	331.81
348.673	327.81
348.9	303.81
349.128	315.81
349.355	306.81
349.583	292.81
349.81	312.81
350.037	283.81
350.265	314.81
350.492	307.81
350.72	316.81
350.947	283.81
351.174	321.81
351.402	302.81
351.629	298.81
351.856	317.81
352.083	322.81
352.311	339.81
352.538	333.81
352.765	323.81
352.992	331.81
353.22	323.81
353.447	311.81
353.674	317.81
353.901	305.81
354.128	279.81
354.355	311.81
354.583	290.81
354.81	302.81
355.037	299.81
355.264	296.81
355.491	295.81
355.718	296.81
355.945	279.81
356.172	271.81
356.399	287.81
356.626	257.81
356.853	282.81
357.08	280.81
357.307	291.81
357.534	290.81
357.761	284.81
357.988	298.81
358.215	277.81
358.441	292.81
358.668	279.81
358.895	282.81
359.122	280.81
359.349	308.81
359.576	327.81
359.802	342.81
360.029	338.81
360.256	350.81
360.483	328.81
360.709	311.81
360.936	314.81
361.163	323.81
361.39	306.81
361.616	299.81
361.843	313.81
362.07	301.81
362.296	303.81
362.523	316.81
362.749	318.81
362.976	314.81
363.203	292.81
363.429	274.81
363.656	307.81
363.882	299.81
364.109	314.81
364.335	301.81
364.562	274.81
364.788	288.81
365.015	287.81
365.241	289.81
365.468	308.81
365.694	289.81
365.92	281.81
366.147	290.81
366.373	292.81
366.599	284.81
366.826	280.81
367.052	272.81
367.278	289.81
367.505	289.81
367.731	287.81
367.957	303.81
368.184	300.81
368.41	281.81
368.636	292.81
368.862	293.81
369.089	298.81
369.315	291.81
369.541	287.81
369.767	294.81
369.993	302.81
370.219	276.81
370.445	300.81
370.672	290.81
370.898	291.81
371.124	268.81
371.35	284.81
371.576	289.81
371.802	276.81
372.028	272.81
372.254	271.81
372.48	267.81
372.706	290.81
372.932	284.81
373.158	283.81
373.384	288.81
373.61	287.81
373.835	287.81
374.061	270.81
374.287	264.81
374.513	269.81
374.739	293.81
374.965	272.81
375.191	286.81
375.416	285.81
375.642	261.81
375.868	274.81
376.094	293.81
376.319	271.81
376.545	277.81
376.771	276.81
376.997	269.81
377.222	272.81
377.448	278.81
377.674	279.81
377.899	273.81
378.125	268.81
378.35	261.81
378.576	259.81
378.802	265.81
379.027	271.81
379.253	280.81
379.478	289.81
379.704	292.81
379.929	299.81
380.155	282.81
380.38	293.81
380.606	289.81
380.831	278.81
381.057	264.81
381.282	272.81
381.507	275.81
381.733	280.81
381.958	270.81
382.184	265.81
382.409	270.81
382.634	281.81
382.86	281.81
383.085	289.81
383.31	282.81
383.535	288.81
383.761	285.81
383.986	272.81
384.211	293.81
384.436	267.81
384.662	286.81
384.887	297.81
385.112	270.81
385.337	283.81
385.562	289.81
385.787	292.81
386.013	287.81
386.238	293.81
386.463	302.81
386.688	298.81
386.913	278.81
387.138	278.81
387.363	290.81
387.588	283.81
387.813	277.81
388.038	295.81
388.263	292.81
388.488	274.81
388.713	300.81
388.938	282.81
389.163	287.81
389.387	284.81
389.612	296.81
389.837	297.81
390.062	290.81
390.287	308.81
390.512	265.81
390.736	298.81
390.961	282.81
391.186	292.81
391.411	287.81
391.636	286.81
391.86	297.81
392.085	287.81
392.31	269.81
392.534	284.81
392.759	284.81
392.984	277.81
393.208	285.81
393.433	292.81
393.658	283.81
393.882	295.81
394.107	271.81
394.331	297.81
394.556	275.81
394.78	274.81
395.005	275.81
395.229	285.81
395.454	274.81
395.678	297.81
395.903	314.81
396.127	311.81
396.352	310.81
396.576	290.81
396.801	313.81
397.025	312.81
397.249	316.81
397.474	315.81
397.698	298.81
397.922	311.81
398.147	313.81
398.371	332.81
398.595	318.81
398.82	305.81
399.044	314.81
399.268	325.81
399.492	343.81
399.717	350.81
399.941	357.81
400.165	383.81
400.389	374.81
400.613	357.81
400.837	336.81
401.062	319.81
401.286	316.81
401.51	324.81
401.734	310.81
401.958	330.81
402.182	316.81
402.406	317.81
402.63	319.81
402.854	331.81
403.078	338.81
403.302	341.81
403.526	342.81
403.75	326.81
403.974	348.81
404.198	341.81
404.422	358.81
404.645	355.81
404.869	351.81
405.093	370.81
405.317	380.81
405.541	416.81
405.765	360.81
405.988	343.81
406.212	366.81
406.436	375.81
406.66	373.81
406.883	359.81
407.107	365.81
407.331	407.81
407.555	424.81
407.778	413.81
408.002	413.81
408.226	358.81
408.449	342.81
408.673	381.81
408.896	375.81
409.12	370.81
409.344	364.81
409.567	345.81
409.791	331.81
410.014	307.81
410.238	325.81
410.461	333.81
410.685	343.81
410.908	341.81
411.132	375.81
411.355	381.81
411.578	370.81
411.802	342.81
412.025	339.81
412.249	336.81
412.472	369.81
412.695	363.81
412.919	371.81
413.142	342.81
413.365	327.81
413.589	322.81
413.812	314.81
414.035	316.81
414.258	293.81
414.482	300.81
414.705	299.81
414.928	298.81
415.151	318.81
415.374	311.81
415.597	293.81
415.821	311.81
416.044	315.81
416.267	301.81
416.49	332.81
416.713	317.81
416.936	332.81
417.159	313.81
417.382	318.81
417.605	311.81
417.828	334.81
418.051	316.81
418.274	350.81
418.497	331.81
418.72	286.81
418.943	321.81
419.166	315.81
419.389	315.81
419.611	328.81
419.834	318.81
420.057	316.81
420.28	332.81
420.503	345.81
420.726	321.81
420.948	339.81
421.171	353.81
421.394	376.81
421.617	352.81
421.839	335.81
422.062	341.81
422.285	332.81
422.507	385.81
422.73	415.81
422.953	382.81
423.175	361.81
423.398	361.81
423.621	350.81
423.843	357.81
424.066	371.81
424.288	357.81
424.511	362.81
424.733	409.81
424.956	452.81
425.178	425.81
425.401	446.81
425.623	429.81
425.846	387.81
426.068	371.81
426.291	365.81
426.513	358.81
426.735	372.81
426.958	413.81
427.18	440.81
427.402	528.81
427.625	566.81
427.847	518.81
428.069	462.81
428.292	393.81
428.514	345.81
428.736	363.81
428.958	334.81
429.181	350.81
429.403	323.81
429.625	339.81
429.847	358.81
430.069	392.81
430.292	373.81
430.514	361.81
430.736	327.81
430.958	325.81
431.18	329.81
431.402	300.81
431.624	317.81
431.846	317.81
432.068	309.81
432.29	301.81
432.512	311.81
432.734	323.81
432.956	325.81
433.178	340.81
433.4	333.81
433.622	326.81
433.844	299.81
434.066	309.81
434.287	295.81
434.509	321.81
434.731	316.81
434.953	326.81
435.175	342.81
435.397	348.81
435.618	378.81
435.84	397.81
436.062	457.81
436.284	470.81
436.505	414.81
436.727	377.81
436.949	358.81
437.17	329.81
437.392	350.81
437.614	352.81
437.835	377.81
438.057	437.81
438.278	493.81
438.5	492.81
438.721	524.81
438.943	494.81
439.165	411.81
439.386	381.81
439.608	360.81
439.829	389.81
440.05	373.81
440.272	426.81
440.493	395.81
440.715	365.81
440.936	346.81
441.158	323.81
441.379	331.81
441.6	359.81
441.822	348.81
442.043	397.81
442.264	441.81
442.486	452.81
442.707	394.81
442.928	385.81
443.149	366.81
443.371	401.81
443.592	430.81
443.813	509.81
444.034	484.81
444.255	430.81
444.476	363.81
444.698	377.81
444.919	334.81
445.14	441.81
445.361	415.81
445.582	371.81
445.803	418.81
446.024	501.81
446.245	503.81
446.466	455.81
446.687	399.81
446.908	381.81
447.129	346.81
447.35	336.81
447.571	349.81
447.792	333.81
448.013	326.81
448.234	330.81
448.455	363.81
448.675	462.81
448.896	525.81
449.117	444.81
449.338	419.81
449.559	517.81
449.779	530.81
450	437.81
450.221	380.81
450.442	361.81
450.662	336.81
450.883	330.81
451.104	347.81
451.324	314.81
451.545	327.81
451.766	311.81
451.986	307.81
452.207	303.81
452.428	315.81
452.648	312.81
452.869	307.81
453.089	300.81
453.31	327.81
453.53	303.81
453.751	313.81
453.971	312.81
454.192	330.81
454.412	323.81
454.633	313.81
454.853	297.81
455.073	319.81
455.294	326.81
455.514	359.81
455.734	354.81
455.955	316.81
456.175	296.81
456.395	288.81
456.616	288.81
456.836	279.81
457.056	269.81
457.276	286.81
457.497	265.81
457.717	298.81
457.937	291.81
458.157	291.81
458.377	292.81
458.598	327.81
458.818	367.81
459.038	399.81
459.258	407.81
459.478	348.81
459.698	324.81
459.918	300.81
460.138	291.81
460.358	310.81
460.578	300.81
460.798	298.81
461.018	317.81
461.238	315.81
461.458	304.81
461.678	299.81
461.898	307.81
462.118	307.81
462.338	318.81
462.558	312.81
462.777	326.81
462.997	326.81
463.217	318.81
463.437	323.81
463.657	325.81
463.876	329.81
464.096	339.81
464.316	335.81
464.536	332.81
464.755	327.81
464.975	315.81
465.195	365.81
465.414	415.81
465.634	353.81
465.854	350.81
466.073	327.81
466.293	313.81
466.512	303.81
466.732	300.81
466.951	307.81
467.171	307.81
467.391	293.81
467.61	319.81
467.829	305.81
468.049	321.81
468.268	312.81
468.488	302.81
468.707	286.81
468.927	293.81
469.146	299.81
469.365	285.81
469.585	296.81
469.804	310.81
470.023	318.81
470.243	292.81
470.462	307.81
470.681	323.81
470.901	321.81
471.12	298.81
471.339	314.81
471.558	324.81
471.777	305.81
471.997	298.81
472.216	318.81
472.435	325.81
472.654	335.81
472.873	301.81
473.092	299.81
473.311	317.81
473.53	304.81
473.749	326.81
473.968	359.81
474.187	442.81
474.406	451.81
474.625	361.81
474.844	317.81
475.063	306.81
475.282	315.81
475.501	319.81
475.72	316.81
475.939	313.81
476.158	313.81
476.377	327.81
476.596	311.81
476.814	311.81
477.033	318.81
477.252	334.81
477.471	326.81
477.69	322.81
477.908	325.81
478.127	343.81
478.346	321.81
478.564	312.81
478.783	323.81
479.002	345.81
479.22	331.81
479.439	366.81
479.658	385.81
479.876	375.81
480.095	381.81
480.313	396.81
480.532	373.81
480.751	372.81
480.969	359.81
481.188	416.81
481.406	433.81
481.624	381.81
481.843	359.81
482.061	378.81
482.28	366.81
482.498	367.81
482.717	359.81
482.935	346.81
483.153	354.81
483.372	348.81
483.59	361.81
483.808	350.81
484.027	374.81
484.245	358.81
484.463	367.81
484.681	359.81
484.9	360.81
485.118	369.81
485.336	376.81
485.554	360.81
485.772	369.81
485.99	385.81
486.209	394.81
486.427	383.81
486.645	373.81
486.863	380.81
487.081	396.81
487.299	383.81
487.517	372.81
487.735	381.81
487.953	365.81
488.171	380.81
488.389	381.81
488.607	390.81
488.825	377.81
489.043	396.81
489.261	385.81
489.479	370.81
489.696	379.81
489.914	413.81
490.132	395.81
490.35	402.81
490.568	379.81
490.786	402.81
491.003	413.81
491.221	410.81
491.439	423.81
491.657	419.81
491.874	436.81
492.092	459.81
492.31	445.81
492.527	449.81
492.745	435.81
492.963	429.81
493.18	445.81
493.398	445.81
493.615	437.81
493.833	455.81
494.05	435.81
494.268	450.81
494.485	461.81
494.703	445.81
494.92	454.81
495.138	437.81
495.355	461.81
495.573	450.81
495.79	430.81
496.008	444.81
496.225	455.81
496.442	446.81
496.66	451.81
496.877	433.81
497.094	460.81
497.312	452.81
497.529	445.81
497.746	469.81
497.963	459.81
498.181	474.81
498.398	463.81
498.615	473.81
498.832	498.81
499.049	465.81
499.267	489.81
499.484	483.81
499.701	516.81
499.918	504.81
500.135	539.81
500.352	566.81
500.569	537.81
500.786	550.81
501.003	561.81
501.22	545.81
501.437	537.81
501.654	540.81
501.871	521.81
502.088	537.81
