Data from 1982.PennyLincolnUp.Lamp.En5.5.200Scan.071819.P1_HRD10591_16-45-43-961.txt Node
Date: Thu Jul 18 16:45:43 EDT 2019
User: cochatt
Spectrometer: HR+D1059
Trigger mode: 1
Integration Time (sec): 1.000000E-1
Scans to average: 1
Electric dark correction enabled: true
Nonlinearity correction enabled: false
Boxcar width: 0
XAxis mode: Wavelengths
Number of Pixels in Spectrum: 2048
>>>>>Begin Spectral Data<<<<<
223.165	-18.06
223.4	-18.06
223.635	-18.06
223.869	-8.06
224.104	-13.06
224.338	-18.06
224.573	-3.06
224.808	-16.06
225.042	-11.06
225.277	-4.06
225.511	-5.06
225.746	2.94
225.98	3.94
226.215	7.94
226.449	8.94
226.683	27.94
226.918	15.94
227.152	28.94
227.387	40.94
227.621	24.94
227.856	38.94
228.09	43.94
228.324	52.94
228.559	61.94
228.793	56.94
229.027	89.94
229.262	97.94
229.496	95.94
229.73	102.94
229.964	126.94
230.199	108.94
230.433	91.94
230.667	101.94
230.901	91.94
231.136	107.94
231.37	108.94
231.604	92.94
231.838	88.94
232.072	95.94
232.306	92.94
232.541	102.94
232.775	108.94
233.009	87.94
233.243	82.94
233.477	106.94
233.711	92.94
233.945	106.94
234.179	106.94
234.413	115.94
234.647	115.94
234.881	120.94
235.115	120.94
235.349	95.94
235.583	100.94
235.817	109.94
236.051	119.94
236.285	101.94
236.519	93.94
236.753	117.94
236.987	117.94
237.221	154.94
237.455	171.94
237.689	146.94
237.922	126.94
238.156	110.94
238.39	104.94
238.624	104.94
238.858	103.94
239.091	111.94
239.325	113.94
239.559	121.94
239.793	103.94
240.027	110.94
240.26	124.94
240.494	127.94
240.728	123.94
240.961	124.94
241.195	113.94
241.429	115.94
241.662	117.94
241.896	101.94
242.13	119.94
242.363	125.94
242.597	111.94
242.83	107.94
243.064	106.94
243.298	116.94
243.531	99.94
243.765	119.94
243.998	99.94
244.232	109.94
244.465	129.94
244.699	115.94
244.932	132.94
245.166	112.94
245.399	123.94
245.633	119.94
245.866	122.94
246.099	123.94
246.333	131.94
246.566	109.94
246.8	122.94
247.033	126.94
247.266	129.94
247.5	127.94
247.733	138.94
247.966	119.94
248.2	139.94
248.433	147.94
248.666	141.94
248.899	125.94
249.133	151.94
249.366	152.94
249.599	173.94
249.832	145.94
250.066	138.94
250.299	147.94
250.532	162.94
250.765	163.94
250.998	166.94
251.231	179.94
251.465	164.94
251.698	169.94
251.931	180.94
252.164	165.94
252.397	160.94
252.63	151.94
252.863	171.94
253.096	192.94
253.329	183.94
253.562	178.94
253.795	182.94
254.028	170.94
254.261	172.94
254.494	164.94
254.727	181.94
254.96	222.94
255.193	202.94
255.426	185.94
255.659	173.94
255.892	170.94
256.124	178.94
256.357	168.94
256.59	182.94
256.823	166.94
257.056	169.94
257.289	181.94
257.521	183.94
257.754	162.94
257.987	160.94
258.22	168.94
258.452	158.94
258.685	163.94
258.918	170.94
259.151	170.94
259.383	184.94
259.616	170.94
259.849	165.94
260.081	169.94
260.314	196.94
260.547	184.94
260.779	186.94
261.012	183.94
261.244	167.94
261.477	177.94
261.71	176.94
261.942	180.94
262.175	194.94
262.407	199.94
262.64	180.94
262.872	171.94
263.105	173.94
263.337	172.94
263.57	160.94
263.802	168.94
264.035	156.94
264.267	164.94
264.499	187.94
264.732	179.94
264.964	168.94
265.197	163.94
265.429	160.94
265.661	164.94
265.894	190.94
266.126	168.94
266.358	176.94
266.591	166.94
266.823	174.94
267.055	164.94
267.287	199.94
267.52	187.94
267.752	188.94
267.984	197.94
268.216	191.94
268.448	173.94
268.681	200.94
268.913	189.94
269.145	196.94
269.377	235.94
269.609	205.94
269.841	204.94
270.073	206.94
270.306	227.94
270.538	237.94
270.77	240.94
271.002	232.94
271.234	230.94
271.466	210.94
271.698	224.94
271.93	222.94
272.162	244.94
272.394	235.94
272.626	231.94
272.858	226.94
273.09	224.94
273.322	215.94
273.553	196.94
273.785	207.94
274.017	203.94
274.249	201.94
274.481	213.94
274.713	204.94
274.945	216.94
275.176	205.94
275.408	206.94
275.64	196.94
275.872	201.94
276.104	202.94
276.335	207.94
276.567	210.94
276.799	204.94
277.031	234.94
277.262	228.94
277.494	242.94
277.726	231.94
277.957	217.94
278.189	194.94
278.421	205.94
278.652	197.94
278.884	213.94
279.115	206.94
279.347	189.94
279.579	202.94
279.81	203.94
280.042	210.94
280.273	202.94
280.505	206.94
280.736	208.94
280.968	208.94
281.199	211.94
281.431	202.94
281.662	195.94
281.894	196.94
282.125	204.94
282.356	221.94
282.588	212.94
282.819	222.94
283.051	201.94
283.282	205.94
283.513	210.94
283.745	205.94
283.976	208.94
284.207	218.94
284.439	214.94
284.67	222.94
284.901	212.94
285.132	221.94
285.364	205.94
285.595	206.94
285.826	204.94
286.057	202.94
286.288	214.94
286.52	210.94
286.751	210.94
286.982	196.94
287.213	206.94
287.444	215.94
287.675	219.94
287.906	242.94
288.138	222.94
288.369	229.94
288.6	227.94
288.831	238.94
289.062	215.94
289.293	212.94
289.524	219.94
289.755	209.94
289.986	214.94
290.217	208.94
290.448	224.94
290.679	213.94
290.91	210.94
291.141	221.94
291.371	199.94
291.602	201.94
291.833	208.94
292.064	214.94
292.295	204.94
292.526	213.94
292.757	220.94
292.987	215.94
293.218	221.94
293.449	218.94
293.68	211.94
293.91	227.94
294.141	225.94
294.372	210.94
294.603	234.94
294.833	233.94
295.064	223.94
295.295	221.94
295.525	229.94
295.756	213.94
295.987	227.94
296.217	240.94
296.448	242.94
296.679	233.94
296.909	236.94
297.14	218.94
297.37	229.94
297.601	209.94
297.831	222.94
298.062	225.94
298.292	247.94
298.523	231.94
298.753	226.94
298.984	231.94
299.214	205.94
299.445	211.94
299.675	211.94
299.905	247.94
300.136	235.94
300.366	221.94
300.597	229.94
300.827	242.94
301.057	226.94
301.288	253.94
301.518	235.94
301.748	238.94
301.979	226.94
302.209	232.94
302.439	234.94
302.669	260.94
302.9	247.94
303.13	234.94
303.36	219.94
303.59	244.94
303.82	244.94
304.051	261.94
304.281	248.94
304.511	224.94
304.741	230.94
304.971	221.94
305.201	234.94
305.431	233.94
305.661	236.94
305.891	244.94
306.121	240.94
306.352	237.94
306.582	223.94
306.812	256.94
307.042	245.94
307.272	237.94
307.502	246.94
307.731	234.94
307.961	240.94
308.191	242.94
308.421	249.94
308.651	249.94
308.881	254.94
309.111	265.94
309.341	269.94
309.571	270.94
309.8	281.94
310.03	277.94
310.26	281.94
310.49	280.94
310.72	296.94
310.949	306.94
311.179	293.94
311.409	301.94
311.639	278.94
311.868	284.94
312.098	288.94
312.328	297.94
312.557	316.94
312.787	302.94
313.017	308.94
313.246	296.94
313.476	281.94
313.706	265.94
313.935	295.94
314.165	307.94
314.394	308.94
314.624	297.94
314.853	297.94
315.083	294.94
315.312	282.94
315.542	276.94
315.771	267.94
316.001	283.94
316.23	271.94
316.46	280.94
316.689	268.94
316.919	282.94
317.148	296.94
317.377	288.94
317.607	292.94
317.836	291.94
318.065	267.94
318.295	261.94
318.524	270.94
318.753	292.94
318.983	279.94
319.212	271.94
319.441	284.94
319.67	286.94
319.9	290.94
320.129	286.94
320.358	293.94
320.587	283.94
320.816	294.94
321.046	296.94
321.275	304.94
321.504	299.94
321.733	298.94
321.962	316.94
322.191	318.94
322.42	320.94
322.649	330.94
322.878	345.94
323.108	344.94
323.337	349.94
323.566	395.94
323.795	409.94
324.024	458.94
324.253	566.94
324.482	839.94
324.71	1238.94
324.939	1632.94
325.168	1325.94
325.397	708.94
325.626	496.94
325.855	417.94
326.084	367.94
326.313	372.94
326.542	392.94
326.77	433.94
326.999	516.94
327.228	736.94
327.457	1076.94
327.686	1179.94
327.914	798.94
328.143	524.94
328.372	467.94
328.6	436.94
328.829	437.94
329.058	422.94
329.287	422.94
329.515	414.94
329.744	376.94
329.972	383.94
330.201	410.94
330.43	424.94
330.658	427.94
330.887	433.94
331.115	424.94
331.344	380.94
331.572	377.94
331.801	377.94
332.03	365.94
332.258	347.94
332.486	347.94
332.715	336.94
332.943	316.94
333.172	334.94
333.4	330.94
333.629	345.94
333.857	339.94
334.085	351.94
334.314	365.94
334.542	392.94
334.771	386.94
334.999	351.94
335.227	334.94
335.455	318.94
335.684	339.94
335.912	333.94
336.14	316.94
336.369	332.94
336.597	312.94
336.825	334.94
337.053	324.94
337.281	299.94
337.51	311.94
337.738	307.94
337.966	312.94
338.194	319.94
338.422	313.94
338.65	322.94
338.878	326.94
339.106	294.94
339.334	297.94
339.562	297.94
339.79	297.94
340.018	311.94
340.246	297.94
340.474	312.94
340.702	321.94
340.93	322.94
341.158	315.94
341.386	320.94
341.614	301.94
341.842	310.94
342.07	304.94
342.298	305.94
342.526	293.94
342.754	301.94
342.981	306.94
343.209	306.94
343.437	317.94
343.665	304.94
343.893	300.94
344.12	318.94
344.348	305.94
344.576	298.94
344.804	332.94
345.031	310.94
345.259	309.94
345.487	324.94
345.714	305.94
345.942	291.94
346.17	298.94
346.397	293.94
346.625	312.94
346.853	298.94
347.08	310.94
347.308	317.94
347.535	321.94
347.763	317.94
347.99	320.94
348.218	323.94
348.445	300.94
348.673	303.94
348.9	305.94
349.128	293.94
349.355	273.94
349.583	284.94
349.81	252.94
350.037	280.94
350.265	284.94
350.492	277.94
350.72	292.94
350.947	283.94
351.174	302.94
351.402	309.94
351.629	314.94
351.856	302.94
352.083	309.94
352.311	301.94
352.538	322.94
352.765	322.94
352.992	305.94
353.22	307.94
353.447	298.94
353.674	301.94
353.901	261.94
354.128	300.94
354.355	286.94
354.583	273.94
354.81	256.94
355.037	266.94
355.264	286.94
355.491	271.94
355.718	280.94
355.945	282.94
356.172	275.94
356.399	288.94
356.626	260.94
356.853	267.94
357.08	273.94
357.307	294.94
357.534	258.94
357.761	273.94
357.988	261.94
358.215	261.94
358.441	280.94
358.668	280.94
358.895	274.94
359.122	266.94
359.349	288.94
359.576	296.94
359.802	314.94
360.029	323.94
360.256	312.94
360.483	321.94
360.709	306.94
360.936	295.94
361.163	309.94
361.39	278.94
361.616	295.94
361.843	304.94
362.07	290.94
362.296	310.94
362.523	294.94
362.749	281.94
362.976	295.94
363.203	292.94
363.429	273.94
363.656	300.94
363.882	269.94
364.109	281.94
364.335	290.94
364.562	289.94
364.788	266.94
365.015	265.94
365.241	282.94
365.468	282.94
365.694	288.94
365.92	288.94
366.147	269.94
366.373	271.94
366.599	272.94
366.826	280.94
367.052	279.94
367.278	267.94
367.505	270.94
367.731	275.94
367.957	252.94
368.184	269.94
368.41	284.94
368.636	287.94
368.862	299.94
369.089	278.94
369.315	276.94
369.541	284.94
369.767	253.94
369.993	275.94
370.219	282.94
370.445	298.94
370.672	287.94
370.898	261.94
371.124	261.94
371.35	274.94
371.576	250.94
371.802	249.94
372.028	283.94
372.254	276.94
372.48	260.94
372.706	278.94
372.932	283.94
373.158	270.94
373.384	268.94
373.61	262.94
373.835	276.94
374.061	291.94
374.287	276.94
374.513	265.94
374.739	263.94
374.965	267.94
375.191	274.94
375.416	257.94
375.642	247.94
375.868	272.94
376.094	276.94
376.319	281.94
376.545	273.94
376.771	257.94
376.997	269.94
377.222	282.94
377.448	269.94
377.674	277.94
377.899	260.94
378.125	274.94
378.35	275.94
378.576	272.94
378.802	258.94
379.027	266.94
379.253	279.94
379.478	250.94
379.704	271.94
379.929	272.94
380.155	251.94
380.38	256.94
380.606	272.94
380.831	263.94
381.057	265.94
381.282	286.94
381.507	277.94
381.733	264.94
381.958	266.94
382.184	280.94
382.409	268.94
382.634	280.94
382.86	268.94
383.085	267.94
383.31	263.94
383.535	285.94
383.761	274.94
383.986	281.94
384.211	267.94
384.436	271.94
384.662	259.94
384.887	264.94
385.112	275.94
385.337	296.94
385.562	277.94
385.787	280.94
386.013	283.94
386.238	266.94
386.463	267.94
386.688	268.94
386.913	264.94
387.138	275.94
387.363	262.94
387.588	268.94
387.813	274.94
388.038	257.94
388.263	277.94
388.488	243.94
388.713	278.94
388.938	287.94
389.163	262.94
389.387	290.94
389.612	276.94
389.837	282.94
390.062	261.94
390.287	282.94
390.512	282.94
390.736	287.94
390.961	293.94
391.186	264.94
391.411	289.94
391.636	297.94
391.86	279.94
392.085	305.94
392.31	287.94
392.534	284.94
392.759	291.94
392.984	276.94
393.208	284.94
393.433	261.94
393.658	280.94
393.882	291.94
394.107	282.94
394.331	272.94
394.556	291.94
394.78	273.94
395.005	280.94
395.229	276.94
395.454	260.94
395.678	275.94
395.903	296.94
396.127	301.94
396.352	300.94
396.576	294.94
396.801	282.94
397.025	284.94
397.249	298.94
397.474	297.94
397.698	293.94
397.922	299.94
398.147	312.94
398.371	285.94
398.595	298.94
398.82	289.94
399.044	305.94
399.268	312.94
399.492	329.94
399.717	340.94
399.941	330.94
400.165	368.94
400.389	378.94
400.613	366.94
400.837	325.94
401.062	322.94
401.286	329.94
401.51	308.94
401.734	298.94
401.958	313.94
402.182	318.94
402.406	315.94
402.63	291.94
402.854	310.94
403.078	304.94
403.302	291.94
403.526	314.94
403.75	318.94
403.974	316.94
404.198	301.94
404.422	304.94
404.645	320.94
404.869	323.94
405.093	353.94
405.317	352.94
405.541	360.94
405.765	350.94
405.988	346.94
406.212	358.94
406.436	362.94
406.66	342.94
406.883	357.94
407.107	362.94
407.331	375.94
407.555	412.94
407.778	413.94
408.002	380.94
408.226	365.94
408.449	345.94
408.673	348.94
408.896	354.94
409.12	372.94
409.344	354.94
409.567	336.94
409.791	317.94
410.014	320.94
410.238	308.94
410.461	308.94
410.685	338.94
410.908	334.94
411.132	347.94
411.355	381.94
411.578	363.94
411.802	323.94
412.025	299.94
412.249	310.94
412.472	330.94
412.695	354.94
412.919	356.94
413.142	320.94
413.365	319.94
413.589	301.94
413.812	304.94
414.035	293.94
414.258	306.94
414.482	307.94
414.705	305.94
414.928	297.94
415.151	290.94
415.374	299.94
415.597	294.94
415.821	292.94
416.044	306.94
416.267	293.94
416.49	289.94
416.713	304.94
416.936	291.94
417.159	295.94
417.382	303.94
417.605	306.94
417.828	311.94
418.051	310.94
418.274	317.94
418.497	297.94
418.72	302.94
418.943	290.94
419.166	311.94
419.389	316.94
419.611	307.94
419.834	321.94
420.057	295.94
420.28	318.94
420.503	322.94
420.726	313.94
420.948	317.94
421.171	361.94
421.394	365.94
421.617	340.94
421.839	316.94
422.062	321.94
422.285	343.94
422.507	348.94
422.73	386.94
422.953	396.94
423.175	339.94
423.398	327.94
423.621	313.94
423.843	327.94
424.066	344.94
424.288	354.94
424.511	358.94
424.733	394.94
424.956	427.94
425.178	402.94
425.401	412.94
425.623	423.94
425.846	346.94
426.068	354.94
426.291	350.94
426.513	333.94
426.735	359.94
426.958	368.94
427.18	422.94
427.402	513.94
427.625	555.94
427.847	486.94
428.069	406.94
428.292	369.94
428.514	349.94
428.736	323.94
428.958	328.94
429.181	321.94
429.403	301.94
429.625	327.94
429.847	340.94
430.069	384.94
430.292	380.94
430.514	334.94
430.736	321.94
430.958	310.94
431.18	281.94
431.402	309.94
431.624	292.94
431.846	280.94
432.068	297.94
432.29	313.94
432.512	301.94
432.734	306.94
432.956	304.94
433.178	321.94
433.4	311.94
433.622	302.94
433.844	312.94
434.066	288.94
434.287	287.94
434.509	304.94
434.731	298.94
434.953	304.94
435.175	313.94
435.397	340.94
435.618	326.94
435.84	377.94
436.062	420.94
436.284	453.94
436.505	382.94
436.727	383.94
436.949	340.94
437.17	310.94
437.392	313.94
437.614	321.94
437.835	339.94
438.057	402.94
438.278	468.94
438.5	459.94
438.721	480.94
438.943	452.94
439.165	395.94
439.386	357.94
439.608	353.94
439.829	355.94
440.05	372.94
440.272	375.94
440.493	383.94
440.715	335.94
440.936	325.94
441.158	320.94
441.379	340.94
441.6	340.94
441.822	332.94
442.043	344.94
442.264	410.94
442.486	434.94
442.707	390.94
442.928	368.94
443.149	339.94
443.371	363.94
443.592	418.94
443.813	432.94
444.034	475.94
444.255	407.94
444.476	352.94
444.698	332.94
444.919	325.94
445.14	419.94
445.361	392.94
445.582	389.94
445.803	435.94
446.024	484.94
446.245	458.94
446.466	417.94
446.687	381.94
446.908	349.94
447.129	345.94
447.35	308.94
447.571	328.94
447.792	328.94
448.013	334.94
448.234	334.94
448.455	356.94
448.675	424.94
448.896	483.94
449.117	416.94
449.338	417.94
449.559	486.94
449.779	508.94
450	448.94
450.221	376.94
450.442	334.94
450.662	318.94
450.883	332.94
451.104	325.94
451.324	329.94
451.545	318.94
451.766	308.94
451.986	292.94
452.207	309.94
452.428	273.94
452.648	290.94
452.869	290.94
453.089	290.94
453.31	309.94
453.53	296.94
453.751	295.94
453.971	306.94
454.192	299.94
454.412	288.94
454.633	304.94
454.853	265.94
455.073	283.94
455.294	301.94
455.514	369.94
455.734	325.94
455.955	288.94
456.175	294.94
456.395	265.94
456.616	268.94
456.836	268.94
457.056	265.94
457.276	256.94
457.497	260.94
457.717	262.94
457.937	286.94
458.157	277.94
458.377	273.94
458.598	278.94
458.818	329.94
459.038	385.94
459.258	380.94
459.478	340.94
459.698	286.94
459.918	288.94
460.138	287.94
460.358	302.94
460.578	293.94
460.798	308.94
461.018	284.94
461.238	306.94
461.458	299.94
461.678	298.94
461.898	311.94
462.118	298.94
462.338	290.94
462.558	292.94
462.777	286.94
462.997	302.94
463.217	302.94
463.437	312.94
463.657	297.94
463.876	321.94
464.096	320.94
464.316	298.94
464.536	320.94
464.755	330.94
464.975	321.94
465.195	369.94
465.414	401.94
465.634	341.94
465.854	316.94
466.073	313.94
466.293	291.94
466.512	301.94
466.732	275.94
466.951	265.94
467.171	285.94
467.391	262.94
467.61	294.94
467.829	317.94
468.049	296.94
468.268	279.94
468.488	286.94
468.707	282.94
468.927	295.94
469.146	282.94
469.365	292.94
469.585	272.94
469.804	300.94
470.023	298.94
470.243	297.94
470.462	294.94
470.681	300.94
470.901	301.94
471.12	302.94
471.339	309.94
471.558	324.94
471.777	294.94
471.997	289.94
472.216	300.94
472.435	324.94
472.654	315.94
472.873	288.94
473.092	284.94
473.311	292.94
473.53	308.94
473.749	301.94
473.968	344.94
474.187	398.94
474.406	423.94
474.625	345.94
474.844	315.94
475.063	286.94
475.282	302.94
475.501	312.94
475.72	300.94
475.939	312.94
476.158	310.94
476.377	306.94
476.596	297.94
476.814	302.94
477.033	303.94
477.252	332.94
477.471	313.94
477.69	322.94
477.908	311.94
478.127	312.94
478.346	331.94
478.564	309.94
478.783	321.94
479.002	318.94
479.22	312.94
479.439	349.94
479.658	345.94
479.876	347.94
480.095	365.94
480.313	376.94
480.532	334.94
480.751	354.94
480.969	340.94
481.188	386.94
481.406	393.94
481.624	362.94
481.843	354.94
482.061	334.94
482.28	335.94
482.498	341.94
482.717	341.94
482.935	358.94
483.153	339.94
483.372	335.94
483.59	313.94
483.808	332.94
484.027	321.94
484.245	342.94
484.463	341.94
484.681	341.94
484.9	346.94
485.118	340.94
485.336	362.94
485.554	348.94
485.772	354.94
485.99	363.94
486.209	335.94
486.427	371.94
486.645	355.94
486.863	356.94
487.081	376.94
487.299	344.94
487.517	360.94
487.735	350.94
487.953	349.94
488.171	376.94
488.389	364.94
488.607	369.94
488.825	351.94
489.043	370.94
489.261	359.94
489.479	372.94
489.696	374.94
489.914	370.94
490.132	376.94
490.35	382.94
490.568	369.94
490.786	394.94
491.003	394.94
491.221	406.94
491.439	405.94
491.657	416.94
491.874	416.94
492.092	406.94
492.31	404.94
492.527	385.94
492.745	410.94
492.963	410.94
493.18	419.94
493.398	417.94
493.615	439.94
493.833	404.94
494.05	414.94
494.268	432.94
494.485	416.94
494.703	412.94
494.92	443.94
495.138	420.94
495.355	424.94
495.573	417.94
495.79	432.94
496.008	438.94
496.225	429.94
496.442	422.94
496.66	417.94
496.877	429.94
497.094	432.94
497.312	422.94
497.529	408.94
497.746	436.94
497.963	444.94
498.181	461.94
498.398	449.94
498.615	459.94
498.832	456.94
499.049	473.94
499.267	460.94
499.484	474.94
499.701	484.94
499.918	508.94
500.135	526.94
500.352	546.94
500.569	516.94
500.786	530.94
501.003	529.94
501.22	521.94
501.437	522.94
501.654	521.94
501.871	518.94
502.088	499.94
