Data from 1982.PennyLincolnUp.Lamp.En5.5.200Scan.071819.P1_HRD10591_16-45-10-961.txt Node
Date: Thu Jul 18 16:45:10 EDT 2019
User: cochatt
Spectrometer: HR+D1059
Trigger mode: 1
Integration Time (sec): 1.000000E-1
Scans to average: 1
Electric dark correction enabled: true
Nonlinearity correction enabled: false
Boxcar width: 0
XAxis mode: Wavelengths
Number of Pixels in Spectrum: 2048
>>>>>Begin Spectral Data<<<<<
223.165	-14.5
223.4	-14.5
223.635	-14.5
223.869	-14.5
224.104	-19.5
224.338	-1.5
224.573	-24.5
224.808	-20.5
225.042	-12.5
225.277	2.5
225.511	-12.5
225.746	4.5
225.98	6.5
226.215	9.5
226.449	11.5
226.683	23.5
226.918	19.5
227.152	42.5
227.387	39.5
227.621	40.5
227.856	43.5
228.09	32.5
228.324	42.5
228.559	57.5
228.793	61.5
229.027	92.5
229.262	72.5
229.496	90.5
229.73	99.5
229.964	116.5
230.199	99.5
230.433	97.5
230.667	107.5
230.901	103.5
231.136	94.5
231.37	102.5
231.604	94.5
231.838	119.5
232.072	92.5
232.306	88.5
232.541	97.5
232.775	86.5
233.009	97.5
233.243	105.5
233.477	95.5
233.711	110.5
233.945	112.5
234.179	96.5
234.413	104.5
234.647	87.5
234.881	109.5
235.115	97.5
235.349	94.5
235.583	101.5
235.817	114.5
236.051	108.5
236.285	104.5
236.519	109.5
236.753	111.5
236.987	125.5
237.221	120.5
237.455	144.5
237.689	140.5
237.922	116.5
238.156	97.5
238.39	102.5
238.624	104.5
238.858	108.5
239.091	88.5
239.325	97.5
239.559	96.5
239.793	107.5
240.027	101.5
240.26	96.5
240.494	129.5
240.728	113.5
240.961	95.5
241.195	115.5
241.429	98.5
241.662	109.5
241.896	96.5
242.13	97.5
242.363	95.5
242.597	100.5
242.83	119.5
243.064	115.5
243.298	119.5
243.531	114.5
243.765	113.5
243.998	120.5
244.232	95.5
244.465	100.5
244.699	120.5
244.932	113.5
245.166	113.5
245.399	117.5
245.633	122.5
245.866	116.5
246.099	125.5
246.333	133.5
246.566	137.5
246.8	116.5
247.033	117.5
247.266	121.5
247.5	117.5
247.733	134.5
247.966	123.5
248.2	136.5
248.433	132.5
248.666	144.5
248.899	126.5
249.133	138.5
249.366	144.5
249.599	158.5
249.832	142.5
250.066	134.5
250.299	130.5
250.532	147.5
250.765	134.5
250.998	158.5
251.231	164.5
251.465	163.5
251.698	166.5
251.931	156.5
252.164	142.5
252.397	145.5
252.63	152.5
252.863	160.5
253.096	144.5
253.329	166.5
253.562	147.5
253.795	179.5
254.028	159.5
254.261	166.5
254.494	177.5
254.727	182.5
254.96	192.5
255.193	200.5
255.426	168.5
255.659	173.5
255.892	165.5
256.124	168.5
256.357	161.5
256.59	157.5
256.823	145.5
257.056	150.5
257.289	153.5
257.521	172.5
257.754	151.5
257.987	151.5
258.22	142.5
258.452	146.5
258.685	152.5
258.918	168.5
259.151	159.5
259.383	161.5
259.616	152.5
259.849	171.5
260.081	177.5
260.314	185.5
260.547	168.5
260.779	180.5
261.012	166.5
261.244	149.5
261.477	168.5
261.71	160.5
261.942	159.5
262.175	159.5
262.407	168.5
262.64	152.5
262.872	155.5
263.105	173.5
263.337	169.5
263.57	170.5
263.802	154.5
264.035	172.5
264.267	151.5
264.499	151.5
264.732	155.5
264.964	161.5
265.197	161.5
265.429	153.5
265.661	160.5
265.894	147.5
266.126	142.5
266.358	173.5
266.591	156.5
266.823	169.5
267.055	161.5
267.287	176.5
267.52	147.5
267.752	183.5
267.984	171.5
268.216	169.5
268.448	168.5
268.681	165.5
268.913	177.5
269.145	188.5
269.377	196.5
269.609	177.5
269.841	181.5
270.073	187.5
270.306	190.5
270.538	204.5
270.77	218.5
271.002	220.5
271.234	204.5
271.466	204.5
271.698	216.5
271.93	215.5
272.162	217.5
272.394	221.5
272.626	197.5
272.858	205.5
273.09	175.5
273.322	183.5
273.553	201.5
273.785	193.5
274.017	200.5
274.249	193.5
274.481	177.5
274.713	179.5
274.945	203.5
275.176	202.5
275.408	201.5
275.64	191.5
275.872	187.5
276.104	184.5
276.335	187.5
276.567	185.5
276.799	184.5
277.031	207.5
277.262	219.5
277.494	219.5
277.726	203.5
277.957	191.5
278.189	201.5
278.421	185.5
278.652	205.5
278.884	184.5
279.115	198.5
279.347	191.5
279.579	188.5
279.81	197.5
280.042	193.5
280.273	188.5
280.505	188.5
280.736	180.5
280.968	185.5
281.199	181.5
281.431	195.5
281.662	181.5
281.894	182.5
282.125	184.5
282.356	205.5
282.588	218.5
282.819	212.5
283.051	200.5
283.282	200.5
283.513	199.5
283.745	195.5
283.976	179.5
284.207	192.5
284.439	177.5
284.67	190.5
284.901	205.5
285.132	199.5
285.364	204.5
285.595	204.5
285.826	186.5
286.057	209.5
286.288	199.5
286.52	201.5
286.751	192.5
286.982	192.5
287.213	196.5
287.444	210.5
287.675	198.5
287.906	179.5
288.138	216.5
288.369	217.5
288.6	204.5
288.831	211.5
289.062	215.5
289.293	192.5
289.524	197.5
289.755	200.5
289.986	200.5
290.217	208.5
290.448	185.5
290.679	211.5
290.91	194.5
291.141	197.5
291.371	205.5
291.602	209.5
291.833	196.5
292.064	193.5
292.295	203.5
292.526	191.5
292.757	188.5
292.987	187.5
293.218	189.5
293.449	196.5
293.68	211.5
293.91	206.5
294.141	207.5
294.372	211.5
294.603	214.5
294.833	187.5
295.064	199.5
295.295	197.5
295.525	199.5
295.756	175.5
295.987	204.5
296.217	215.5
296.448	224.5
296.679	211.5
296.909	208.5
297.14	195.5
297.37	193.5
297.601	192.5
297.831	201.5
298.062	206.5
298.292	223.5
298.523	210.5
298.753	204.5
298.984	202.5
299.214	200.5
299.445	204.5
299.675	208.5
299.905	215.5
300.136	220.5
300.366	216.5
300.597	212.5
300.827	216.5
301.057	234.5
301.288	211.5
301.518	216.5
301.748	228.5
301.979	210.5
302.209	222.5
302.439	229.5
302.669	209.5
302.9	214.5
303.13	221.5
303.36	218.5
303.59	223.5
303.82	231.5
304.051	230.5
304.281	227.5
304.511	224.5
304.741	216.5
304.971	223.5
305.201	213.5
305.431	231.5
305.661	223.5
305.891	220.5
306.121	219.5
306.352	225.5
306.582	233.5
306.812	233.5
307.042	233.5
307.272	223.5
307.502	235.5
307.731	240.5
307.961	215.5
308.191	211.5
308.421	223.5
308.651	230.5
308.881	231.5
309.111	226.5
309.341	230.5
309.571	221.5
309.8	234.5
310.03	241.5
310.26	255.5
310.49	243.5
310.72	257.5
310.949	264.5
311.179	254.5
311.409	266.5
311.639	250.5
311.868	262.5
312.098	250.5
312.328	273.5
312.557	273.5
312.787	263.5
313.017	276.5
313.246	250.5
313.476	239.5
313.706	253.5
313.935	245.5
314.165	277.5
314.394	249.5
314.624	259.5
314.853	263.5
315.083	273.5
315.312	261.5
315.542	252.5
315.771	249.5
316.001	253.5
316.23	250.5
316.46	244.5
316.689	265.5
316.919	257.5
317.148	272.5
317.377	289.5
317.607	264.5
317.836	255.5
318.065	240.5
318.295	256.5
318.524	247.5
318.753	244.5
318.983	245.5
319.212	248.5
319.441	277.5
319.67	247.5
319.9	255.5
320.129	243.5
320.358	265.5
320.587	268.5
320.816	261.5
321.046	267.5
321.275	272.5
321.504	268.5
321.733	274.5
321.962	289.5
322.191	289.5
322.42	290.5
322.649	289.5
322.878	314.5
323.108	313.5
323.337	315.5
323.566	339.5
323.795	354.5
324.024	385.5
324.253	478.5
324.482	710.5
324.71	1015.5
324.939	1330.5
325.168	1103.5
325.397	571.5
325.626	408.5
325.855	360.5
326.084	337.5
326.313	326.5
326.542	343.5
326.77	368.5
326.999	461.5
327.228	637.5
327.457	909.5
327.686	968.5
327.914	673.5
328.143	441.5
328.372	394.5
328.6	377.5
328.829	364.5
329.058	374.5
329.287	375.5
329.515	349.5
329.744	336.5
329.972	329.5
330.201	344.5
330.43	351.5
330.658	379.5
330.887	374.5
331.115	378.5
331.344	333.5
331.572	309.5
331.801	303.5
332.03	331.5
332.258	305.5
332.486	284.5
332.715	284.5
332.943	297.5
333.172	305.5
333.4	291.5
333.629	291.5
333.857	308.5
334.085	296.5
334.314	317.5
334.542	312.5
334.771	310.5
334.999	307.5
335.227	303.5
335.455	310.5
335.684	311.5
335.912	294.5
336.14	309.5
336.369	285.5
336.597	281.5
336.825	289.5
337.053	291.5
337.281	308.5
337.51	297.5
337.738	287.5
337.966	289.5
338.194	315.5
338.422	289.5
338.65	296.5
338.878	269.5
339.106	275.5
339.334	288.5
339.562	282.5
339.79	278.5
340.018	264.5
340.246	259.5
340.474	293.5
340.702	299.5
340.93	286.5
341.158	270.5
341.386	284.5
341.614	288.5
341.842	267.5
342.07	279.5
342.298	272.5
342.526	274.5
342.754	268.5
342.981	255.5
343.209	270.5
343.437	283.5
343.665	275.5
343.893	272.5
344.12	280.5
344.348	288.5
344.576	277.5
344.804	292.5
345.031	283.5
345.259	297.5
345.487	295.5
345.714	284.5
345.942	277.5
346.17	265.5
346.397	270.5
346.625	267.5
346.853	280.5
347.08	263.5
347.308	273.5
347.535	291.5
347.763	274.5
347.99	273.5
348.218	268.5
348.445	263.5
348.673	275.5
348.9	288.5
349.128	263.5
349.355	268.5
349.583	255.5
349.81	269.5
350.037	283.5
350.265	268.5
350.492	269.5
350.72	248.5
350.947	266.5
351.174	278.5
351.402	261.5
351.629	265.5
351.856	281.5
352.083	270.5
352.311	272.5
352.538	276.5
352.765	275.5
352.992	291.5
353.22	272.5
353.447	280.5
353.674	257.5
353.901	257.5
354.128	268.5
354.355	272.5
354.583	264.5
354.81	251.5
355.037	251.5
355.264	244.5
355.491	242.5
355.718	248.5
355.945	257.5
356.172	245.5
356.399	241.5
356.626	252.5
356.853	256.5
357.08	246.5
357.307	264.5
357.534	244.5
357.761	247.5
357.988	263.5
358.215	242.5
358.441	248.5
358.668	257.5
358.895	249.5
359.122	246.5
359.349	253.5
359.576	288.5
359.802	277.5
360.029	289.5
360.256	303.5
360.483	281.5
360.709	273.5
360.936	255.5
361.163	265.5
361.39	268.5
361.616	262.5
361.843	264.5
362.07	243.5
362.296	282.5
362.523	278.5
362.749	252.5
362.976	270.5
363.203	281.5
363.429	255.5
363.656	241.5
363.882	253.5
364.109	255.5
364.335	265.5
364.562	260.5
364.788	257.5
365.015	242.5
365.241	266.5
365.468	250.5
365.694	269.5
365.92	263.5
366.147	250.5
366.373	239.5
366.599	253.5
366.826	249.5
367.052	247.5
367.278	241.5
367.505	247.5
367.731	249.5
367.957	264.5
368.184	247.5
368.41	242.5
368.636	260.5
368.862	255.5
369.089	238.5
369.315	263.5
369.541	261.5
369.767	221.5
369.993	247.5
370.219	242.5
370.445	251.5
370.672	240.5
370.898	260.5
371.124	250.5
371.35	257.5
371.576	257.5
371.802	240.5
372.028	227.5
372.254	245.5
372.48	255.5
372.706	239.5
372.932	244.5
373.158	260.5
373.384	231.5
373.61	255.5
373.835	241.5
374.061	242.5
374.287	260.5
374.513	255.5
374.739	245.5
374.965	259.5
375.191	256.5
375.416	250.5
375.642	241.5
375.868	263.5
376.094	250.5
376.319	240.5
376.545	242.5
376.771	244.5
376.997	231.5
377.222	261.5
377.448	236.5
377.674	230.5
377.899	235.5
378.125	229.5
378.35	247.5
378.576	257.5
378.802	257.5
379.027	234.5
379.253	247.5
379.478	225.5
379.704	245.5
379.929	230.5
380.155	236.5
380.38	243.5
380.606	246.5
380.831	249.5
381.057	253.5
381.282	258.5
381.507	253.5
381.733	247.5
381.958	256.5
382.184	253.5
382.409	247.5
382.634	256.5
382.86	247.5
383.085	269.5
383.31	259.5
383.535	241.5
383.761	259.5
383.986	248.5
384.211	251.5
384.436	250.5
384.662	261.5
384.887	261.5
385.112	258.5
385.337	245.5
385.562	251.5
385.787	251.5
386.013	266.5
386.238	266.5
386.463	255.5
386.688	285.5
386.913	239.5
387.138	253.5
387.363	259.5
387.588	262.5
387.813	265.5
388.038	261.5
388.263	265.5
388.488	271.5
388.713	245.5
388.938	260.5
389.163	265.5
389.387	284.5
389.612	251.5
389.837	245.5
390.062	248.5
390.287	271.5
390.512	263.5
390.736	258.5
390.961	263.5
391.186	265.5
391.411	245.5
391.636	265.5
391.86	261.5
392.085	257.5
392.31	263.5
392.534	252.5
392.759	238.5
392.984	236.5
393.208	268.5
393.433	250.5
393.658	264.5
393.882	257.5
394.107	257.5
394.331	257.5
394.556	265.5
394.78	259.5
395.005	253.5
395.229	269.5
395.454	253.5
395.678	263.5
395.903	275.5
396.127	283.5
396.352	277.5
396.576	267.5
396.801	267.5
397.025	274.5
397.249	262.5
397.474	271.5
397.698	267.5
397.922	280.5
398.147	274.5
398.371	264.5
398.595	293.5
398.82	273.5
399.044	284.5
399.268	288.5
399.492	292.5
399.717	284.5
399.941	312.5
400.165	310.5
400.389	336.5
400.613	323.5
400.837	314.5
401.062	267.5
401.286	275.5
401.51	294.5
401.734	312.5
401.958	288.5
402.182	287.5
402.406	287.5
402.63	295.5
402.854	304.5
403.078	282.5
403.302	276.5
403.526	303.5
403.75	308.5
403.974	311.5
404.198	274.5
404.422	290.5
404.645	293.5
404.869	288.5
405.093	300.5
405.317	317.5
405.541	348.5
405.765	322.5
405.988	308.5
406.212	329.5
406.436	340.5
406.66	327.5
406.883	315.5
407.107	314.5
407.331	349.5
407.555	354.5
407.778	362.5
408.002	329.5
408.226	305.5
408.449	321.5
408.673	334.5
408.896	327.5
409.12	336.5
409.344	346.5
409.567	312.5
409.791	297.5
410.014	302.5
410.238	293.5
410.461	294.5
410.685	297.5
410.908	304.5
411.132	322.5
411.355	337.5
411.578	318.5
411.802	296.5
412.025	289.5
412.249	292.5
412.472	291.5
412.695	307.5
412.919	315.5
413.142	298.5
413.365	276.5
413.589	305.5
413.812	271.5
414.035	295.5
414.258	283.5
414.482	277.5
414.705	280.5
414.928	265.5
415.151	256.5
415.374	264.5
415.597	290.5
415.821	279.5
416.044	266.5
416.267	290.5
416.49	287.5
416.713	268.5
416.936	275.5
417.159	265.5
417.382	271.5
417.605	277.5
417.828	296.5
418.051	278.5
418.274	276.5
418.497	290.5
418.72	274.5
418.943	275.5
419.166	278.5
419.389	312.5
419.611	280.5
419.834	281.5
420.057	267.5
420.28	275.5
420.503	287.5
420.726	290.5
420.948	296.5
421.171	323.5
421.394	345.5
421.617	296.5
421.839	290.5
422.062	303.5
422.285	292.5
422.507	331.5
422.73	349.5
422.953	345.5
423.175	305.5
423.398	304.5
423.621	302.5
423.843	297.5
424.066	294.5
424.288	323.5
424.511	324.5
424.733	368.5
424.956	400.5
425.178	388.5
425.401	377.5
425.623	385.5
425.846	320.5
426.068	319.5
426.291	326.5
426.513	323.5
426.735	320.5
426.958	345.5
427.18	385.5
427.402	426.5
427.625	489.5
427.847	433.5
428.069	378.5
428.292	333.5
428.514	316.5
428.736	301.5
428.958	297.5
429.181	300.5
429.403	291.5
429.625	299.5
429.847	318.5
430.069	360.5
430.292	342.5
430.514	313.5
430.736	287.5
430.958	283.5
431.18	291.5
431.402	271.5
431.624	276.5
431.846	267.5
432.068	259.5
432.29	277.5
432.512	287.5
432.734	284.5
432.956	257.5
433.178	282.5
433.4	293.5
433.622	272.5
433.844	272.5
434.066	281.5
434.287	269.5
434.509	269.5
434.731	290.5
434.953	284.5
435.175	302.5
435.397	309.5
435.618	301.5
435.84	367.5
436.062	385.5
436.284	394.5
436.505	362.5
436.727	319.5
436.949	311.5
437.17	306.5
437.392	307.5
437.614	305.5
437.835	307.5
438.057	378.5
438.278	413.5
438.5	426.5
438.721	460.5
438.943	427.5
439.165	370.5
439.386	319.5
439.608	308.5
439.829	344.5
440.05	355.5
440.272	364.5
440.493	340.5
440.715	312.5
440.936	298.5
441.158	296.5
441.379	300.5
441.6	307.5
441.822	331.5
442.043	340.5
442.264	381.5
442.486	389.5
442.707	340.5
442.928	337.5
443.149	332.5
443.371	341.5
443.592	365.5
443.813	382.5
444.034	426.5
444.255	369.5
444.476	340.5
444.698	318.5
444.919	306.5
445.14	389.5
445.361	358.5
445.582	334.5
445.803	369.5
446.024	409.5
446.245	414.5
446.466	404.5
446.687	335.5
446.908	305.5
447.129	296.5
447.35	313.5
447.571	295.5
447.792	296.5
448.013	304.5
448.234	320.5
448.455	311.5
448.675	388.5
448.896	439.5
449.117	350.5
449.338	375.5
449.559	433.5
449.779	464.5
450	389.5
450.221	332.5
450.442	303.5
450.662	287.5
450.883	300.5
451.104	303.5
451.324	287.5
451.545	291.5
451.766	277.5
451.986	272.5
452.207	272.5
452.428	263.5
452.648	247.5
452.869	264.5
453.089	277.5
453.31	261.5
453.53	287.5
453.751	275.5
453.971	273.5
454.192	279.5
454.412	277.5
454.633	265.5
454.853	251.5
455.073	257.5
455.294	279.5
455.514	324.5
455.734	300.5
455.955	258.5
456.175	259.5
456.395	241.5
456.616	264.5
456.836	250.5
457.056	269.5
457.276	253.5
457.497	257.5
457.717	252.5
457.937	256.5
458.157	256.5
458.377	240.5
458.598	269.5
458.818	300.5
459.038	336.5
459.258	337.5
459.478	304.5
459.698	284.5
459.918	285.5
460.138	270.5
460.358	268.5
460.578	274.5
460.798	288.5
461.018	276.5
461.238	280.5
461.458	266.5
461.678	272.5
461.898	301.5
462.118	269.5
462.338	286.5
462.558	295.5
462.777	289.5
462.997	289.5
463.217	292.5
463.437	280.5
463.657	280.5
463.876	281.5
464.096	275.5
464.316	290.5
464.536	282.5
464.755	291.5
464.975	288.5
465.195	327.5
465.414	333.5
465.634	313.5
465.854	303.5
466.073	274.5
466.293	280.5
466.512	270.5
466.732	260.5
466.951	267.5
467.171	275.5
467.391	273.5
467.61	276.5
467.829	265.5
468.049	275.5
468.268	269.5
468.488	259.5
468.707	255.5
468.927	248.5
469.146	248.5
469.365	261.5
469.585	269.5
469.804	268.5
470.023	279.5
470.243	279.5
470.462	296.5
470.681	291.5
470.901	281.5
471.12	280.5
471.339	263.5
471.558	263.5
471.777	282.5
471.997	289.5
472.216	277.5
472.435	273.5
472.654	262.5
472.873	283.5
473.092	257.5
473.311	278.5
473.53	273.5
473.749	275.5
473.968	307.5
474.187	356.5
474.406	380.5
474.625	299.5
474.844	273.5
475.063	272.5
475.282	274.5
475.501	295.5
475.72	267.5
475.939	272.5
476.158	293.5
476.377	295.5
476.596	287.5
476.814	273.5
477.033	283.5
477.252	288.5
477.471	283.5
477.69	275.5
477.908	290.5
478.127	287.5
478.346	298.5
478.564	275.5
478.783	292.5
479.002	292.5
479.22	293.5
479.439	315.5
479.658	314.5
479.876	298.5
480.095	311.5
480.313	357.5
480.532	339.5
480.751	313.5
480.969	335.5
481.188	339.5
481.406	368.5
481.624	313.5
481.843	337.5
482.061	314.5
482.28	312.5
482.498	297.5
482.717	313.5
482.935	313.5
483.153	299.5
483.372	308.5
483.59	304.5
483.808	305.5
484.027	314.5
484.245	319.5
484.463	324.5
484.681	323.5
484.9	316.5
485.118	317.5
485.336	325.5
485.554	322.5
485.772	322.5
485.99	326.5
486.209	322.5
486.427	316.5
486.645	342.5
486.863	342.5
487.081	351.5
487.299	355.5
487.517	334.5
487.735	338.5
487.953	327.5
488.171	337.5
488.389	331.5
488.607	321.5
488.825	334.5
489.043	311.5
489.261	334.5
489.479	345.5
489.696	330.5
489.914	343.5
490.132	353.5
490.35	352.5
490.568	331.5
490.786	364.5
491.003	347.5
491.221	373.5
491.439	374.5
491.657	358.5
491.874	379.5
492.092	374.5
492.31	365.5
492.527	379.5
492.745	367.5
492.963	376.5
493.18	380.5
493.398	394.5
493.615	389.5
493.833	388.5
494.05	407.5
494.268	396.5
494.485	403.5
494.703	375.5
494.92	394.5
495.138	383.5
495.355	385.5
495.573	397.5
495.79	411.5
496.008	396.5
496.225	379.5
496.442	375.5
496.66	409.5
496.877	390.5
497.094	394.5
497.312	378.5
497.529	392.5
497.746	382.5
497.963	399.5
498.181	397.5
498.398	429.5
498.615	413.5
498.832	425.5
499.049	427.5
499.267	422.5
499.484	438.5
499.701	451.5
499.918	472.5
500.135	468.5
500.352	479.5
500.569	497.5
500.786	474.5
501.003	501.5
501.22	475.5
501.437	471.5
501.654	467.5
501.871	473.5
502.088	468.5
502.305	441.5
502.522	411.5
502.739	407.5
502.956	422.5
503.172	412.5
503.389	393.5
503.606	390.5
503.823	417.5
504.04	403.5
504.256	379.5
504.473	385.5
504.69	389.5
504.907	371.5
505.123	399.5
505.34	376.5
505.557	376.5
505.773	367.5
505.99	368.5
506.207	373.5
506.423	379.5
506.64	363.5
506.856	373.5
507.073	371.5
507.289	368.5
507.506	374.5
507.722	371.5
507.939	389.5
508.155	377.5
508.372	348.5
508.588	356.5
508.805	368.5
509.021	371.5
509.238	381.5
509.454	365.5
509.67	374.5
509.887	355.5
510.103	369.5
510.319	357.5
510.536	431.5
510.752	693.5
510.968	537.5
511.184	385.5
511.401	373.5
511.617	377.5
511.833	336.5
512.049	351.5
512.265	316.5
512.481	333.5
512.698	352.5
512.914	325.5
513.13	358.5
513.346	350.5
513.562	343.5
513.778	357.5
513.994	359.5
514.21	371.5
514.426	363.5
514.642	383.5
514.858	413.5
515.074	420.5
515.29	500.5
515.506	722.5
515.721	569.5
515.937	419.5
516.153	391.5
516.369	367.5
516.585	348.5
516.801	348.5
517.016	361.5
517.232	358.5
517.448	353.5
517.664	340.5
517.879	360.5
518.095	355.5
518.311	340.5
518.527	361.5
518.742	363.5
518.958	343.5
519.173	332.5
519.389	334.5
519.605	339.5
519.82	338.5
520.036	356.5
520.251	357.5
