Data from 1982.PennyLincolnUp.Lamp.En5.5.200Scan.071819.P1_HRD10591_16-46-39-962.txt Node
Date: Thu Jul 18 16:46:39 EDT 2019
User: cochatt
Spectrometer: HR+D1059
Trigger mode: 1
Integration Time (sec): 1.000000E-1
Scans to average: 1
Electric dark correction enabled: true
Nonlinearity correction enabled: false
Boxcar width: 0
XAxis mode: Wavelengths
Number of Pixels in Spectrum: 2048
>>>>>Begin Spectral Data<<<<<
223.165	-1.38
223.4	-1.38
223.635	-1.38
223.869	-14.38
224.104	-12.38
224.338	-3.38
224.573	-8.38
224.808	-16.38
225.042	0.62
225.277	-20.38
225.511	-8.38
225.746	5.62
225.98	-5.38
226.215	9.62
226.449	3.62
226.683	6.62
226.918	29.62
227.152	34.62
227.387	31.62
227.621	35.62
227.856	35.62
228.09	44.62
228.324	57.62
228.559	44.62
228.793	70.62
229.027	65.62
229.262	91.62
229.496	111.62
229.73	105.62
229.964	123.62
230.199	98.62
230.433	95.62
230.667	99.62
230.901	98.62
231.136	87.62
231.37	97.62
231.604	117.62
231.838	99.62
232.072	95.62
232.306	93.62
232.541	85.62
232.775	96.62
233.009	83.62
233.243	100.62
233.477	103.62
233.711	89.62
233.945	84.62
234.179	98.62
234.413	99.62
234.647	107.62
234.881	91.62
235.115	92.62
235.349	99.62
235.583	99.62
235.817	116.62
236.051	111.62
236.285	100.62
236.519	99.62
236.753	118.62
236.987	125.62
237.221	149.62
237.455	178.62
237.689	149.62
237.922	109.62
238.156	126.62
238.39	101.62
238.624	109.62
238.858	118.62
239.091	103.62
239.325	98.62
239.559	96.62
239.793	107.62
240.027	111.62
240.26	125.62
240.494	135.62
240.728	113.62
240.961	119.62
241.195	114.62
241.429	117.62
241.662	116.62
241.896	113.62
242.13	115.62
242.363	123.62
242.597	120.62
242.83	119.62
243.064	129.62
243.298	121.62
243.531	118.62
243.765	99.62
243.998	115.62
244.232	122.62
244.465	112.62
244.699	111.62
244.932	121.62
245.166	114.62
245.399	123.62
245.633	123.62
245.866	106.62
246.099	110.62
246.333	118.62
246.566	119.62
246.8	113.62
247.033	110.62
247.266	123.62
247.5	130.62
247.733	121.62
247.966	125.62
248.2	134.62
248.433	138.62
248.666	127.62
248.899	151.62
249.133	157.62
249.366	177.62
249.599	170.62
249.832	140.62
250.066	138.62
250.299	145.62
250.532	163.62
250.765	160.62
250.998	179.62
251.231	179.62
251.465	162.62
251.698	161.62
251.931	146.62
252.164	168.62
252.397	152.62
252.63	154.62
252.863	149.62
253.096	160.62
253.329	182.62
253.562	187.62
253.795	189.62
254.028	164.62
254.261	158.62
254.494	182.62
254.727	195.62
254.96	218.62
255.193	209.62
255.426	201.62
255.659	163.62
255.892	182.62
256.124	190.62
256.357	187.62
256.59	163.62
256.823	168.62
257.056	171.62
257.289	177.62
257.521	169.62
257.754	160.62
257.987	153.62
258.22	154.62
258.452	174.62
258.685	168.62
258.918	177.62
259.151	152.62
259.383	161.62
259.616	164.62
259.849	170.62
260.081	176.62
260.314	194.62
260.547	209.62
260.779	199.62
261.012	176.62
261.244	181.62
261.477	177.62
261.71	154.62
261.942	175.62
262.175	175.62
262.407	167.62
262.64	161.62
262.872	165.62
263.105	170.62
263.337	175.62
263.57	164.62
263.802	179.62
264.035	160.62
264.267	158.62
264.499	181.62
264.732	163.62
264.964	157.62
265.197	178.62
265.429	168.62
265.661	151.62
265.894	179.62
266.126	156.62
266.358	160.62
266.591	157.62
266.823	159.62
267.055	182.62
267.287	152.62
267.52	177.62
267.752	164.62
267.984	182.62
268.216	178.62
268.448	185.62
268.681	179.62
268.913	206.62
269.145	203.62
269.377	206.62
269.609	214.62
269.841	207.62
270.073	228.62
270.306	222.62
270.538	237.62
270.77	237.62
271.002	233.62
271.234	209.62
271.466	238.62
271.698	222.62
271.93	236.62
272.162	242.62
272.394	235.62
272.626	242.62
272.858	223.62
273.09	225.62
273.322	207.62
273.553	206.62
273.785	209.62
274.017	186.62
274.249	206.62
274.481	227.62
274.713	181.62
274.945	234.62
275.176	206.62
275.408	201.62
275.64	209.62
275.872	197.62
276.104	210.62
276.335	212.62
276.567	214.62
276.799	224.62
277.031	230.62
277.262	229.62
277.494	235.62
277.726	224.62
277.957	204.62
278.189	209.62
278.421	226.62
278.652	221.62
278.884	220.62
279.115	214.62
279.347	197.62
279.579	201.62
279.81	212.62
280.042	194.62
280.273	207.62
280.505	192.62
280.736	199.62
280.968	189.62
281.199	212.62
281.431	201.62
281.662	198.62
281.894	212.62
282.125	208.62
282.356	221.62
282.588	215.62
282.819	250.62
283.051	211.62
283.282	194.62
283.513	208.62
283.745	199.62
283.976	208.62
284.207	218.62
284.439	216.62
284.67	194.62
284.901	202.62
285.132	206.62
285.364	200.62
285.595	207.62
285.826	202.62
286.057	199.62
286.288	212.62
286.52	214.62
286.751	195.62
286.982	199.62
287.213	188.62
287.444	213.62
287.675	203.62
287.906	205.62
288.138	228.62
288.369	228.62
288.6	214.62
288.831	207.62
289.062	220.62
289.293	224.62
289.524	216.62
289.755	208.62
289.986	191.62
290.217	200.62
290.448	208.62
290.679	207.62
290.91	215.62
291.141	217.62
291.371	224.62
291.602	224.62
291.833	212.62
292.064	225.62
292.295	212.62
292.526	208.62
292.757	234.62
292.987	207.62
293.218	213.62
293.449	218.62
293.68	208.62
293.91	214.62
294.141	204.62
294.372	215.62
294.603	235.62
294.833	221.62
295.064	207.62
295.295	221.62
295.525	230.62
295.756	215.62
295.987	222.62
296.217	222.62
296.448	230.62
296.679	230.62
296.909	202.62
297.14	214.62
297.37	225.62
297.601	226.62
297.831	224.62
298.062	229.62
298.292	226.62
298.523	211.62
298.753	224.62
298.984	221.62
299.214	225.62
299.445	219.62
299.675	198.62
299.905	237.62
300.136	241.62
300.366	209.62
300.597	221.62
300.827	227.62
301.057	234.62
301.288	216.62
301.518	246.62
301.748	233.62
301.979	229.62
302.209	249.62
302.439	246.62
302.669	242.62
302.9	232.62
303.13	241.62
303.36	258.62
303.59	240.62
303.82	238.62
304.051	244.62
304.281	231.62
304.511	230.62
304.741	242.62
304.971	243.62
305.201	230.62
305.431	239.62
305.661	241.62
305.891	214.62
306.121	239.62
306.352	247.62
306.582	256.62
306.812	235.62
307.042	241.62
307.272	245.62
307.502	249.62
307.731	255.62
307.961	257.62
308.191	257.62
308.421	251.62
308.651	268.62
308.881	264.62
309.111	256.62
309.341	253.62
309.571	264.62
309.8	265.62
310.03	280.62
310.26	272.62
310.49	271.62
310.72	271.62
310.949	288.62
311.179	309.62
311.409	275.62
311.639	287.62
311.868	282.62
312.098	272.62
312.328	275.62
312.557	297.62
312.787	305.62
313.017	298.62
313.246	283.62
313.476	281.62
313.706	262.62
313.935	276.62
314.165	286.62
314.394	306.62
314.624	278.62
314.853	284.62
315.083	289.62
315.312	266.62
315.542	261.62
315.771	268.62
316.001	265.62
316.23	296.62
316.46	275.62
316.689	288.62
316.919	274.62
317.148	278.62
317.377	289.62
317.607	280.62
317.836	274.62
318.065	265.62
318.295	270.62
318.524	281.62
318.753	278.62
318.983	287.62
319.212	274.62
319.441	296.62
319.67	287.62
319.9	292.62
320.129	275.62
320.358	289.62
320.587	295.62
320.816	297.62
321.046	303.62
321.275	305.62
321.504	285.62
321.733	309.62
321.962	310.62
322.191	340.62
322.42	330.62
322.649	341.62
322.878	351.62
323.108	359.62
323.337	361.62
323.566	373.62
323.795	391.62
324.024	466.62
324.253	624.62
324.482	877.62
324.71	1299.62
324.939	1657.62
325.168	1378.62
325.397	729.62
325.626	498.62
325.855	429.62
326.084	387.62
326.313	391.62
326.542	399.62
326.77	449.62
326.999	518.62
327.228	755.62
327.457	1123.62
327.686	1205.62
327.914	815.62
328.143	562.62
328.372	473.62
328.6	453.62
328.829	423.62
329.058	434.62
329.287	454.62
329.515	394.62
329.744	402.62
329.972	382.62
330.201	406.62
330.43	451.62
330.658	441.62
330.887	454.62
331.115	436.62
331.344	390.62
331.572	370.62
331.801	382.62
332.03	361.62
332.258	344.62
332.486	334.62
332.715	317.62
332.943	327.62
333.172	335.62
333.4	323.62
333.629	339.62
333.857	349.62
334.085	351.62
334.314	364.62
334.542	375.62
334.771	387.62
334.999	352.62
335.227	333.62
335.455	315.62
335.684	309.62
335.912	328.62
336.14	304.62
336.369	325.62
336.597	349.62
336.825	330.62
337.053	322.62
337.281	341.62
337.51	308.62
337.738	326.62
337.966	327.62
338.194	321.62
338.422	323.62
338.65	336.62
338.878	312.62
339.106	313.62
339.334	303.62
339.562	309.62
339.79	314.62
340.018	315.62
340.246	306.62
340.474	309.62
340.702	324.62
340.93	315.62
341.158	283.62
341.386	299.62
341.614	301.62
341.842	316.62
342.07	303.62
342.298	303.62
342.526	310.62
342.754	304.62
342.981	292.62
343.209	282.62
343.437	311.62
343.665	301.62
343.893	298.62
344.12	295.62
344.348	298.62
344.576	313.62
344.804	303.62
345.031	315.62
345.259	312.62
345.487	312.62
345.714	319.62
345.942	303.62
346.17	307.62
346.397	291.62
346.625	311.62
346.853	290.62
347.08	279.62
347.308	280.62
347.535	303.62
347.763	321.62
347.99	301.62
348.218	317.62
348.445	324.62
348.673	298.62
348.9	307.62
349.128	281.62
349.355	288.62
349.583	288.62
349.81	277.62
350.037	287.62
350.265	288.62
350.492	301.62
350.72	281.62
350.947	315.62
351.174	309.62
351.402	303.62
351.629	328.62
351.856	317.62
352.083	305.62
352.311	303.62
352.538	306.62
352.765	325.62
352.992	297.62
353.22	290.62
353.447	287.62
353.674	300.62
353.901	286.62
354.128	293.62
354.355	275.62
354.583	281.62
354.81	281.62
355.037	279.62
355.264	289.62
355.491	282.62
355.718	273.62
355.945	264.62
356.172	257.62
356.399	273.62
356.626	275.62
356.853	266.62
357.08	258.62
357.307	273.62
357.534	276.62
357.761	268.62
357.988	267.62
358.215	274.62
358.441	267.62
358.668	288.62
358.895	295.62
359.122	294.62
359.349	304.62
359.576	309.62
359.802	302.62
360.029	314.62
360.256	342.62
360.483	325.62
360.709	302.62
360.936	293.62
361.163	319.62
361.39	296.62
361.616	288.62
361.843	304.62
362.07	272.62
362.296	292.62
362.523	279.62
362.749	273.62
362.976	277.62
363.203	282.62
363.429	272.62
363.656	280.62
363.882	279.62
364.109	273.62
364.335	271.62
364.562	290.62
364.788	259.62
365.015	266.62
365.241	271.62
365.468	255.62
365.694	270.62
365.92	267.62
366.147	274.62
366.373	279.62
366.599	266.62
366.826	266.62
367.052	294.62
367.278	284.62
367.505	286.62
367.731	267.62
367.957	277.62
368.184	280.62
368.41	292.62
368.636	270.62
368.862	279.62
369.089	278.62
369.315	281.62
369.541	261.62
369.767	260.62
369.993	276.62
370.219	281.62
370.445	269.62
370.672	271.62
370.898	254.62
371.124	275.62
371.35	266.62
371.576	285.62
371.802	279.62
372.028	256.62
372.254	257.62
372.48	261.62
372.706	290.62
372.932	257.62
373.158	265.62
373.384	267.62
373.61	276.62
373.835	246.62
374.061	263.62
374.287	264.62
374.513	263.62
374.739	287.62
374.965	268.62
375.191	271.62
375.416	272.62
375.642	274.62
375.868	256.62
376.094	260.62
376.319	271.62
376.545	267.62
376.771	272.62
376.997	257.62
377.222	249.62
377.448	274.62
377.674	277.62
377.899	246.62
378.125	243.62
378.35	257.62
378.576	258.62
378.802	255.62
379.027	269.62
379.253	258.62
379.478	253.62
379.704	258.62
379.929	256.62
380.155	244.62
380.38	277.62
380.606	275.62
380.831	258.62
381.057	266.62
381.282	283.62
381.507	267.62
381.733	271.62
381.958	257.62
382.184	280.62
382.409	260.62
382.634	273.62
382.86	262.62
383.085	251.62
383.31	258.62
383.535	271.62
383.761	262.62
383.986	274.62
384.211	280.62
384.436	279.62
384.662	269.62
384.887	273.62
385.112	258.62
385.337	243.62
385.562	282.62
385.787	283.62
386.013	265.62
386.238	282.62
386.463	274.62
386.688	273.62
386.913	278.62
387.138	289.62
387.363	277.62
387.588	288.62
387.813	279.62
388.038	255.62
388.263	275.62
388.488	275.62
388.713	292.62
388.938	266.62
389.163	286.62
389.387	299.62
389.612	275.62
389.837	266.62
390.062	270.62
390.287	286.62
390.512	264.62
390.736	269.62
390.961	271.62
391.186	277.62
391.411	272.62
391.636	274.62
391.86	266.62
392.085	274.62
392.31	255.62
392.534	281.62
392.759	284.62
392.984	273.62
393.208	265.62
393.433	266.62
393.658	242.62
393.882	284.62
394.107	265.62
394.331	281.62
394.556	263.62
394.78	302.62
395.005	266.62
395.229	286.62
395.454	266.62
395.678	288.62
395.903	296.62
396.127	290.62
396.352	288.62
396.576	282.62
396.801	282.62
397.025	270.62
397.249	282.62
397.474	290.62
397.698	292.62
397.922	294.62
398.147	306.62
398.371	301.62
398.595	282.62
398.82	291.62
399.044	296.62
399.268	315.62
399.492	313.62
399.717	337.62
399.941	338.62
400.165	342.62
400.389	374.62
400.613	340.62
400.837	321.62
401.062	320.62
401.286	326.62
401.51	303.62
401.734	311.62
401.958	317.62
402.182	305.62
402.406	313.62
402.63	311.62
402.854	323.62
403.078	311.62
403.302	306.62
403.526	321.62
403.75	328.62
403.974	299.62
404.198	306.62
404.422	323.62
404.645	309.62
404.869	330.62
405.093	333.62
405.317	374.62
405.541	369.62
405.765	339.62
405.988	337.62
406.212	353.62
406.436	355.62
406.66	343.62
406.883	335.62
407.107	366.62
407.331	362.62
407.555	411.62
407.778	421.62
408.002	350.62
408.226	345.62
408.449	347.62
408.673	355.62
408.896	344.62
409.12	379.62
409.344	355.62
409.567	329.62
409.791	327.62
410.014	309.62
410.238	312.62
410.461	319.62
410.685	324.62
410.908	329.62
411.132	334.62
411.355	371.62
411.578	349.62
411.802	332.62
412.025	324.62
412.249	296.62
412.472	325.62
412.695	339.62
412.919	341.62
413.142	299.62
413.365	309.62
413.589	284.62
413.812	284.62
414.035	286.62
414.258	291.62
414.482	286.62
414.705	291.62
414.928	279.62
415.151	298.62
415.374	314.62
415.597	297.62
415.821	291.62
416.044	275.62
416.267	297.62
416.49	309.62
416.713	295.62
416.936	265.62
417.159	296.62
417.382	298.62
417.605	295.62
417.828	297.62
418.051	298.62
418.274	325.62
418.497	286.62
418.72	291.62
418.943	275.62
419.166	290.62
419.389	318.62
419.611	285.62
419.834	311.62
420.057	309.62
420.28	310.62
420.503	316.62
420.726	309.62
420.948	297.62
421.171	350.62
421.394	379.62
421.617	320.62
421.839	321.62
422.062	317.62
422.285	328.62
422.507	350.62
422.73	406.62
422.953	377.62
423.175	324.62
423.398	323.62
423.621	336.62
423.843	338.62
424.066	338.62
424.288	325.62
424.511	343.62
424.733	377.62
424.956	419.62
425.178	405.62
425.401	402.62
425.623	435.62
425.846	367.62
426.068	362.62
426.291	346.62
426.513	324.62
426.735	342.62
426.958	370.62
427.18	439.62
427.402	516.62
427.625	539.62
427.847	474.62
428.069	415.62
428.292	370.62
428.514	339.62
428.736	342.62
428.958	330.62
429.181	312.62
429.403	333.62
429.625	325.62
429.847	366.62
430.069	377.62
430.292	377.62
430.514	329.62
430.736	297.62
430.958	313.62
431.18	301.62
431.402	297.62
431.624	297.62
431.846	286.62
432.068	294.62
432.29	297.62
432.512	301.62
432.734	290.62
432.956	311.62
433.178	314.62
433.4	301.62
433.622	309.62
433.844	306.62
434.066	294.62
434.287	295.62
434.509	303.62
434.731	300.62
434.953	320.62
435.175	297.62
435.397	323.62
435.618	342.62
435.84	374.62
436.062	406.62
436.284	465.62
436.505	378.62
436.727	362.62
436.949	324.62
437.17	315.62
437.392	328.62
437.614	327.62
437.835	342.62
438.057	416.62
438.278	477.62
438.5	469.62
438.721	489.62
438.943	478.62
439.165	392.62
439.386	365.62
439.608	367.62
439.829	347.62
440.05	361.62
440.272	413.62
440.493	378.62
440.715	332.62
440.936	323.62
441.158	331.62
441.379	312.62
441.6	317.62
441.822	349.62
442.043	367.62
442.264	419.62
442.486	434.62
442.707	374.62
442.928	352.62
443.149	354.62
443.371	367.62
443.592	418.62
443.813	441.62
444.034	475.62
444.255	402.62
444.476	358.62
444.698	344.62
444.919	348.62
445.14	425.62
445.361	385.62
445.582	369.62
445.803	421.62
446.024	477.62
446.245	465.62
446.466	434.62
446.687	365.62
446.908	346.62
447.129	322.62
447.35	303.62
447.571	312.62
447.792	331.62
448.013	315.62
448.234	365.62
448.455	367.62
448.675	443.62
448.896	489.62
449.117	431.62
449.338	417.62
449.559	463.62
449.779	514.62
450	419.62
450.221	343.62
450.442	328.62
450.662	304.62
450.883	328.62
451.104	335.62
451.324	328.62
451.545	305.62
451.766	306.62
451.986	290.62
452.207	291.62
452.428	272.62
452.648	288.62
452.869	290.62
453.089	292.62
453.31	302.62
453.53	285.62
453.751	277.62
453.971	295.62
454.192	307.62
454.412	288.62
454.633	285.62
454.853	292.62
455.073	287.62
455.294	314.62
455.514	345.62
455.734	333.62
455.955	294.62
456.175	290.62
456.395	280.62
456.616	282.62
456.836	289.62
457.056	278.62
457.276	264.62
457.497	262.62
457.717	285.62
457.937	277.62
458.157	273.62
458.377	288.62
458.598	292.62
458.818	347.62
459.038	395.62
459.258	409.62
459.478	328.62
459.698	299.62
459.918	311.62
460.138	303.62
460.358	290.62
460.578	279.62
460.798	315.62
461.018	301.62
461.238	306.62
461.458	279.62
461.678	283.62
461.898	279.62
462.118	293.62
462.338	299.62
462.558	299.62
462.777	294.62
462.997	309.62
463.217	301.62
463.437	301.62
463.657	308.62
463.876	311.62
464.096	301.62
464.316	290.62
464.536	321.62
464.755	313.62
464.975	311.62
465.195	366.62
465.414	411.62
465.634	351.62
465.854	330.62
466.073	314.62
466.293	321.62
466.512	275.62
466.732	269.62
466.951	288.62
467.171	278.62
467.391	281.62
467.61	301.62
467.829	311.62
468.049	298.62
468.268	283.62
468.488	287.62
468.707	285.62
468.927	291.62
469.146	261.62
469.365	274.62
469.585	275.62
469.804	278.62
470.023	301.62
470.243	291.62
470.462	289.62
470.681	312.62
470.901	308.62
471.12	308.62
471.339	282.62
471.558	285.62
471.777	286.62
471.997	291.62
472.216	300.62
472.435	317.62
472.654	302.62
472.873	281.62
473.092	301.62
473.311	293.62
473.53	311.62
473.749	288.62
473.968	341.62
474.187	391.62
474.406	405.62
474.625	324.62
474.844	293.62
475.063	305.62
475.282	317.62
475.501	305.62
475.72	315.62
475.939	301.62
476.158	285.62
476.377	302.62
476.596	310.62
476.814	318.62
477.033	308.62
477.252	327.62
477.471	309.62
477.69	315.62
477.908	307.62
478.127	335.62
478.346	315.62
478.564	310.62
478.783	313.62
479.002	332.62
479.22	331.62
479.439	344.62
479.658	347.62
479.876	362.62
480.095	361.62
480.313	376.62
480.532	371.62
480.751	356.62
480.969	358.62
481.188	392.62
481.406	415.62
481.624	374.62
481.843	355.62
482.061	369.62
482.28	343.62
482.498	349.62
482.717	344.62
482.935	341.62
483.153	345.62
483.372	326.62
483.59	332.62
483.808	332.62
484.027	334.62
484.245	324.62
484.463	327.62
484.681	343.62
484.9	342.62
485.118	334.62
485.336	356.62
485.554	338.62
485.772	354.62
485.99	353.62
486.209	353.62
486.427	344.62
486.645	351.62
486.863	360.62
487.081	375.62
487.299	358.62
487.517	373.62
487.735	367.62
487.953	343.62
488.171	375.62
488.389	345.62
488.607	346.62
488.825	371.62
489.043	373.62
489.261	367.62
489.479	366.62
489.696	372.62
489.914	370.62
490.132	378.62
490.35	366.62
490.568	366.62
490.786	390.62
491.003	396.62
491.221	398.62
491.439	402.62
491.657	420.62
491.874	429.62
492.092	421.62
492.31	413.62
492.527	415.62
492.745	412.62
492.963	413.62
493.18	416.62
493.398	415.62
493.615	431.62
493.833	416.62
494.05	419.62
494.268	405.62
494.485	413.62
494.703	407.62
494.92	421.62
495.138	427.62
495.355	435.62
495.573	439.62
495.79	421.62
496.008	425.62
496.225	427.62
496.442	425.62
496.66	436.62
496.877	423.62
497.094	435.62
497.312	446.62
497.529	444.62
497.746	431.62
497.963	426.62
498.181	466.62
498.398	448.62
498.615	449.62
498.832	475.62
499.049	468.62
499.267	472.62
499.484	483.62
499.701	485.62
499.918	501.62
500.135	505.62
500.352	515.62
500.569	506.62
500.786	519.62
501.003	519.62
501.22	528.62
501.437	504.62
501.654	521.62
501.871	489.62
502.088	510.62
502.305	490.62
