Data from 1982.PennyLincolnUp.Lamp.En5.5.200Scan.071819.P1_HRD10591_16-47-09-962.txt Node
Date: Thu Jul 18 16:47:09 EDT 2019
User: cochatt
Spectrometer: HR+D1059
Trigger mode: 1
Integration Time (sec): 1.000000E-1
Scans to average: 1
Electric dark correction enabled: true
Nonlinearity correction enabled: false
Boxcar width: 0
XAxis mode: Wavelengths
Number of Pixels in Spectrum: 2048
>>>>>Begin Spectral Data<<<<<
223.165	-11.5
223.4	-11.5
223.635	-11.5
223.869	-15.5
224.104	-13.5
224.338	-8.5
224.573	-21.5
224.808	-12.5
225.042	-4.5
225.277	-11.5
225.511	-12.5
225.746	23.5
225.98	-0.5
226.215	-4.5
226.449	11.5
226.683	31.5
226.918	10.5
227.152	39.5
227.387	35.5
227.621	39.5
227.856	29.5
228.09	39.5
228.324	51.5
228.559	57.5
228.793	51.5
229.027	82.5
229.262	101.5
229.496	101.5
229.73	127.5
229.964	129.5
230.199	115.5
230.433	108.5
230.667	116.5
230.901	101.5
231.136	99.5
231.37	100.5
231.604	105.5
231.838	99.5
232.072	97.5
232.306	109.5
232.541	100.5
232.775	97.5
233.009	108.5
233.243	102.5
233.477	98.5
233.711	106.5
233.945	92.5
234.179	92.5
234.413	111.5
234.647	107.5
234.881	97.5
235.115	116.5
235.349	113.5
235.583	121.5
235.817	117.5
236.051	105.5
236.285	124.5
236.519	104.5
236.753	117.5
236.987	123.5
237.221	138.5
237.455	208.5
237.689	151.5
237.922	114.5
238.156	112.5
238.39	115.5
238.624	108.5
238.858	110.5
239.091	106.5
239.325	107.5
239.559	105.5
239.793	111.5
240.027	110.5
240.26	120.5
240.494	145.5
240.728	126.5
240.961	117.5
241.195	122.5
241.429	116.5
241.662	106.5
241.896	111.5
242.13	98.5
242.363	114.5
242.597	114.5
242.83	136.5
243.064	111.5
243.298	112.5
243.531	104.5
243.765	113.5
243.998	117.5
244.232	123.5
244.465	114.5
244.699	118.5
244.932	117.5
245.166	124.5
245.399	135.5
245.633	139.5
245.866	136.5
246.099	136.5
246.333	110.5
246.566	119.5
246.8	126.5
247.033	122.5
247.266	128.5
247.5	120.5
247.733	145.5
247.966	150.5
248.2	139.5
248.433	144.5
248.666	160.5
248.899	155.5
249.133	157.5
249.366	171.5
249.599	171.5
249.832	159.5
250.066	151.5
250.299	164.5
250.532	158.5
250.765	164.5
250.998	175.5
251.231	185.5
251.465	162.5
251.698	140.5
251.931	181.5
252.164	153.5
252.397	155.5
252.63	167.5
252.863	164.5
253.096	181.5
253.329	178.5
253.562	175.5
253.795	188.5
254.028	181.5
254.261	178.5
254.494	171.5
254.727	200.5
254.96	215.5
255.193	207.5
255.426	191.5
255.659	179.5
255.892	172.5
256.124	202.5
256.357	192.5
256.59	188.5
256.823	172.5
257.056	186.5
257.289	190.5
257.521	183.5
257.754	185.5
257.987	170.5
258.22	169.5
258.452	166.5
258.685	179.5
258.918	177.5
259.151	175.5
259.383	195.5
259.616	180.5
259.849	184.5
260.081	179.5
260.314	181.5
260.547	209.5
260.779	205.5
261.012	182.5
261.244	187.5
261.477	176.5
261.71	177.5
261.942	196.5
262.175	205.5
262.407	165.5
262.64	167.5
262.872	170.5
263.105	168.5
263.337	182.5
263.57	169.5
263.802	165.5
264.035	147.5
264.267	187.5
264.499	164.5
264.732	168.5
264.964	165.5
265.197	167.5
265.429	160.5
265.661	168.5
265.894	167.5
266.126	183.5
266.358	198.5
266.591	169.5
266.823	180.5
267.055	188.5
267.287	171.5
267.52	181.5
267.752	188.5
267.984	176.5
268.216	183.5
268.448	201.5
268.681	191.5
268.913	197.5
269.145	221.5
269.377	214.5
269.609	206.5
269.841	223.5
270.073	221.5
270.306	242.5
270.538	260.5
270.77	250.5
271.002	226.5
271.234	240.5
271.466	243.5
271.698	246.5
271.93	253.5
272.162	256.5
272.394	262.5
272.626	271.5
272.858	222.5
273.09	217.5
273.322	214.5
273.553	205.5
273.785	217.5
274.017	216.5
274.249	209.5
274.481	203.5
274.713	199.5
274.945	204.5
275.176	221.5
275.408	219.5
275.64	219.5
275.872	207.5
276.104	203.5
276.335	204.5
276.567	210.5
276.799	231.5
277.031	240.5
277.262	253.5
277.494	242.5
277.726	245.5
277.957	226.5
278.189	224.5
278.421	223.5
278.652	216.5
278.884	205.5
279.115	205.5
279.347	194.5
279.579	195.5
279.81	196.5
280.042	204.5
280.273	197.5
280.505	208.5
280.736	208.5
280.968	200.5
281.199	199.5
281.431	216.5
281.662	215.5
281.894	215.5
282.125	205.5
282.356	228.5
282.588	236.5
282.819	236.5
283.051	226.5
283.282	219.5
283.513	222.5
283.745	233.5
283.976	223.5
284.207	216.5
284.439	226.5
284.67	221.5
284.901	211.5
285.132	210.5
285.364	213.5
285.595	209.5
285.826	207.5
286.057	225.5
286.288	217.5
286.52	218.5
286.751	218.5
286.982	206.5
287.213	215.5
287.444	211.5
287.675	236.5
287.906	220.5
288.138	231.5
288.369	258.5
288.6	243.5
288.831	232.5
289.062	229.5
289.293	236.5
289.524	227.5
289.755	218.5
289.986	233.5
290.217	216.5
290.448	217.5
290.679	219.5
290.91	209.5
291.141	203.5
291.371	229.5
291.602	233.5
291.833	213.5
292.064	225.5
292.295	203.5
292.526	219.5
292.757	226.5
292.987	219.5
293.218	215.5
293.449	229.5
293.68	220.5
293.91	231.5
294.141	204.5
294.372	215.5
294.603	215.5
294.833	212.5
295.064	208.5
295.295	228.5
295.525	229.5
295.756	233.5
295.987	246.5
296.217	242.5
296.448	246.5
296.679	251.5
296.909	223.5
297.14	217.5
297.37	216.5
297.601	221.5
297.831	249.5
298.062	235.5
298.292	219.5
298.523	230.5
298.753	248.5
298.984	223.5
299.214	219.5
299.445	243.5
299.675	229.5
299.905	232.5
300.136	232.5
300.366	240.5
300.597	259.5
300.827	236.5
301.057	239.5
301.288	258.5
301.518	251.5
301.748	242.5
301.979	262.5
302.209	258.5
302.439	261.5
302.669	241.5
302.9	228.5
303.13	255.5
303.36	242.5
303.59	243.5
303.82	281.5
304.051	258.5
304.281	267.5
304.511	253.5
304.741	238.5
304.971	234.5
305.201	239.5
305.431	244.5
305.661	241.5
305.891	243.5
306.121	265.5
306.352	268.5
306.582	236.5
306.812	263.5
307.042	236.5
307.272	242.5
307.502	265.5
307.731	266.5
307.961	249.5
308.191	248.5
308.421	262.5
308.651	256.5
308.881	260.5
309.111	257.5
309.341	255.5
309.571	283.5
309.8	276.5
310.03	284.5
310.26	308.5
310.49	280.5
310.72	289.5
310.949	299.5
311.179	308.5
311.409	291.5
311.639	285.5
311.868	284.5
312.098	295.5
312.328	308.5
312.557	302.5
312.787	312.5
313.017	307.5
313.246	290.5
313.476	284.5
313.706	291.5
313.935	299.5
314.165	291.5
314.394	304.5
314.624	303.5
314.853	295.5
315.083	293.5
315.312	271.5
315.542	279.5
315.771	277.5
316.001	269.5
316.23	275.5
316.46	292.5
316.689	276.5
316.919	280.5
317.148	295.5
317.377	295.5
317.607	288.5
317.836	296.5
318.065	296.5
318.295	281.5
318.524	281.5
318.753	297.5
318.983	290.5
319.212	294.5
319.441	288.5
319.67	309.5
319.9	285.5
320.129	292.5
320.358	287.5
320.587	304.5
320.816	291.5
321.046	295.5
321.275	316.5
321.504	303.5
321.733	315.5
321.962	328.5
322.191	322.5
322.42	330.5
322.649	351.5
322.878	376.5
323.108	377.5
323.337	396.5
323.566	415.5
323.795	464.5
324.024	480.5
324.253	610.5
324.482	893.5
324.71	1351.5
324.939	1745.5
325.168	1399.5
325.397	779.5
325.626	513.5
325.855	438.5
326.084	408.5
326.313	416.5
326.542	417.5
326.77	456.5
326.999	573.5
327.228	808.5
327.457	1123.5
327.686	1273.5
327.914	845.5
328.143	589.5
328.372	480.5
328.6	476.5
328.829	458.5
329.058	437.5
329.287	472.5
329.515	440.5
329.744	420.5
329.972	412.5
330.201	444.5
330.43	444.5
330.658	481.5
330.887	499.5
331.115	451.5
331.344	406.5
331.572	369.5
331.801	377.5
332.03	372.5
332.258	383.5
332.486	348.5
332.715	344.5
332.943	346.5
333.172	350.5
333.4	360.5
333.629	346.5
333.857	369.5
334.085	354.5
334.314	374.5
334.542	398.5
334.771	412.5
334.999	362.5
335.227	345.5
335.455	333.5
335.684	326.5
335.912	333.5
336.14	324.5
336.369	336.5
336.597	338.5
336.825	326.5
337.053	316.5
337.281	340.5
337.51	318.5
337.738	308.5
337.966	309.5
338.194	319.5
338.422	339.5
338.65	318.5
338.878	317.5
339.106	331.5
339.334	332.5
339.562	323.5
339.79	320.5
340.018	304.5
340.246	298.5
340.474	316.5
340.702	310.5
340.93	316.5
341.158	315.5
341.386	334.5
341.614	314.5
341.842	326.5
342.07	314.5
342.298	305.5
342.526	308.5
342.754	309.5
342.981	288.5
343.209	315.5
343.437	312.5
343.665	325.5
343.893	311.5
344.12	317.5
344.348	300.5
344.576	316.5
344.804	322.5
345.031	313.5
345.259	353.5
345.487	335.5
345.714	320.5
345.942	304.5
346.17	316.5
346.397	315.5
346.625	304.5
346.853	305.5
347.08	299.5
347.308	318.5
347.535	313.5
347.763	314.5
347.99	320.5
348.218	308.5
348.445	336.5
348.673	331.5
348.9	287.5
349.128	308.5
349.355	287.5
349.583	292.5
349.81	296.5
350.037	293.5
350.265	297.5
350.492	312.5
350.72	301.5
350.947	315.5
351.174	320.5
351.402	305.5
351.629	313.5
351.856	320.5
352.083	315.5
352.311	330.5
352.538	314.5
352.765	327.5
352.992	292.5
353.22	309.5
353.447	303.5
353.674	282.5
353.901	289.5
354.128	280.5
354.355	294.5
354.583	275.5
354.81	285.5
355.037	281.5
355.264	266.5
355.491	279.5
355.718	274.5
355.945	276.5
356.172	264.5
356.399	267.5
356.626	273.5
356.853	298.5
357.08	281.5
357.307	260.5
357.534	275.5
357.761	287.5
357.988	270.5
358.215	283.5
358.441	269.5
358.668	286.5
358.895	275.5
359.122	311.5
359.349	303.5
359.576	338.5
359.802	315.5
360.029	347.5
360.256	349.5
360.483	314.5
360.709	321.5
360.936	305.5
361.163	300.5
361.39	292.5
361.616	305.5
361.843	291.5
362.07	296.5
362.296	281.5
362.523	283.5
362.749	273.5
362.976	298.5
363.203	293.5
363.429	283.5
363.656	287.5
363.882	285.5
364.109	290.5
364.335	275.5
364.562	276.5
364.788	279.5
365.015	277.5
365.241	293.5
365.468	276.5
365.694	299.5
365.92	280.5
366.147	296.5
366.373	276.5
366.599	271.5
366.826	276.5
367.052	264.5
367.278	277.5
367.505	273.5
367.731	274.5
367.957	280.5
368.184	284.5
368.41	291.5
368.636	273.5
368.862	281.5
369.089	273.5
369.315	276.5
369.541	268.5
369.767	272.5
369.993	279.5
370.219	267.5
370.445	273.5
370.672	278.5
370.898	262.5
371.124	273.5
371.35	276.5
371.576	257.5
371.802	269.5
372.028	273.5
372.254	253.5
372.48	269.5
372.706	277.5
372.932	267.5
373.158	282.5
373.384	274.5
373.61	280.5
373.835	261.5
374.061	271.5
374.287	285.5
374.513	273.5
374.739	267.5
374.965	265.5
375.191	282.5
375.416	274.5
375.642	262.5
375.868	265.5
376.094	268.5
376.319	276.5
376.545	259.5
376.771	265.5
376.997	272.5
377.222	283.5
377.448	266.5
377.674	276.5
377.899	280.5
378.125	272.5
378.35	267.5
378.576	257.5
378.802	266.5
379.027	261.5
379.253	256.5
379.478	261.5
379.704	261.5
379.929	266.5
380.155	271.5
380.38	256.5
380.606	267.5
380.831	265.5
381.057	253.5
381.282	261.5
381.507	264.5
381.733	271.5
381.958	262.5
382.184	295.5
382.409	282.5
382.634	263.5
382.86	273.5
383.085	275.5
383.31	262.5
383.535	265.5
383.761	277.5
383.986	273.5
384.211	273.5
384.436	266.5
384.662	279.5
384.887	279.5
385.112	282.5
385.337	291.5
385.562	268.5
385.787	285.5
386.013	280.5
386.238	290.5
386.463	267.5
386.688	266.5
386.913	259.5
387.138	278.5
387.363	271.5
387.588	285.5
387.813	273.5
388.038	279.5
388.263	280.5
388.488	271.5
388.713	287.5
388.938	284.5
389.163	277.5
389.387	287.5
389.612	268.5
389.837	286.5
390.062	276.5
390.287	278.5
390.512	305.5
390.736	292.5
390.961	273.5
391.186	285.5
391.411	272.5
391.636	307.5
391.86	287.5
392.085	281.5
392.31	286.5
392.534	292.5
392.759	320.5
392.984	268.5
393.208	285.5
393.433	283.5
393.658	281.5
393.882	282.5
394.107	286.5
394.331	278.5
394.556	288.5
394.78	263.5
395.005	286.5
395.229	283.5
395.454	288.5
395.678	287.5
395.903	297.5
396.127	280.5
396.352	279.5
396.576	281.5
396.801	289.5
397.025	286.5
397.249	281.5
397.474	301.5
397.698	308.5
397.922	279.5
398.147	315.5
398.371	322.5
398.595	310.5
398.82	311.5
399.044	318.5
399.268	332.5
399.492	319.5
399.717	335.5
399.941	340.5
400.165	356.5
400.389	354.5
400.613	342.5
400.837	329.5
401.062	319.5
401.286	301.5
401.51	310.5
401.734	325.5
401.958	294.5
402.182	292.5
402.406	307.5
402.63	324.5
402.854	316.5
403.078	328.5
403.302	319.5
403.526	321.5
403.75	344.5
403.974	318.5
404.198	317.5
404.422	332.5
404.645	341.5
404.869	317.5
405.093	332.5
405.317	372.5
405.541	388.5
405.765	351.5
405.988	342.5
406.212	332.5
406.436	356.5
406.66	369.5
406.883	359.5
407.107	363.5
407.331	397.5
407.555	409.5
407.778	423.5
408.002	377.5
408.226	361.5
408.449	332.5
408.673	357.5
408.896	364.5
409.12	396.5
409.344	347.5
409.567	330.5
409.791	339.5
410.014	329.5
410.238	332.5
410.461	322.5
410.685	329.5
410.908	329.5
411.132	365.5
411.355	385.5
411.578	359.5
411.802	319.5
412.025	326.5
412.249	321.5
412.472	353.5
412.695	348.5
412.919	338.5
413.142	322.5
413.365	326.5
413.589	316.5
413.812	305.5
414.035	317.5
414.258	299.5
414.482	298.5
414.705	309.5
414.928	295.5
415.151	284.5
415.374	294.5
415.597	279.5
415.821	303.5
416.044	299.5
416.267	299.5
416.49	293.5
416.713	298.5
416.936	294.5
417.159	309.5
417.382	299.5
417.605	293.5
417.828	308.5
418.051	307.5
418.274	303.5
418.497	318.5
418.72	309.5
418.943	299.5
419.166	305.5
419.389	300.5
419.611	291.5
419.834	324.5
420.057	321.5
420.28	305.5
420.503	321.5
420.726	313.5
420.948	323.5
421.171	353.5
421.394	373.5
421.617	329.5
421.839	346.5
422.062	347.5
422.285	338.5
422.507	358.5
422.73	411.5
422.953	385.5
423.175	350.5
423.398	313.5
423.621	331.5
423.843	339.5
424.066	340.5
424.288	337.5
424.511	362.5
424.733	403.5
424.956	440.5
425.178	421.5
425.401	406.5
425.623	424.5
425.846	360.5
426.068	343.5
426.291	345.5
426.513	355.5
426.735	360.5
426.958	385.5
427.18	442.5
427.402	507.5
427.625	576.5
427.847	513.5
428.069	438.5
428.292	374.5
428.514	333.5
428.736	340.5
428.958	333.5
429.181	303.5
429.403	312.5
429.625	349.5
429.847	340.5
430.069	382.5
430.292	369.5
430.514	346.5
430.736	311.5
430.958	306.5
431.18	301.5
431.402	305.5
431.624	310.5
431.846	288.5
432.068	279.5
432.29	302.5
432.512	321.5
432.734	306.5
432.956	320.5
433.178	314.5
433.4	318.5
433.622	320.5
433.844	283.5
434.066	295.5
434.287	285.5
434.509	307.5
434.731	292.5
434.953	316.5
435.175	321.5
435.397	329.5
435.618	355.5
435.84	365.5
436.062	431.5
436.284	480.5
436.505	403.5
436.727	360.5
436.949	339.5
437.17	313.5
437.392	316.5
437.614	351.5
437.835	367.5
438.057	415.5
438.278	501.5
438.5	460.5
438.721	517.5
438.943	485.5
439.165	370.5
439.386	353.5
439.608	356.5
439.829	343.5
440.05	369.5
440.272	409.5
440.493	386.5
440.715	360.5
440.936	331.5
441.158	318.5
441.379	323.5
441.6	331.5
441.822	338.5
442.043	380.5
442.264	411.5
442.486	444.5
442.707	371.5
442.928	354.5
443.149	379.5
443.371	387.5
443.592	421.5
443.813	455.5
444.034	488.5
444.255	390.5
444.476	353.5
444.698	345.5
444.919	347.5
445.14	412.5
445.361	413.5
445.582	371.5
445.803	422.5
446.024	484.5
446.245	495.5
446.466	447.5
446.687	386.5
446.908	357.5
447.129	338.5
447.35	339.5
447.571	322.5
447.792	336.5
448.013	331.5
448.234	356.5
448.455	373.5
448.675	438.5
448.896	508.5
449.117	437.5
449.338	426.5
449.559	470.5
449.779	514.5
450	432.5
450.221	358.5
450.442	342.5
450.662	313.5
450.883	340.5
451.104	332.5
451.324	337.5
451.545	298.5
451.766	304.5
451.986	314.5
452.207	293.5
452.428	285.5
452.648	301.5
452.869	302.5
453.089	314.5
453.31	304.5
453.53	290.5
453.751	298.5
453.971	313.5
454.192	301.5
454.412	321.5
454.633	307.5
454.853	280.5
455.073	293.5
455.294	323.5
455.514	353.5
455.734	348.5
455.955	304.5
456.175	285.5
456.395	277.5
456.616	276.5
456.836	287.5
457.056	287.5
457.276	255.5
457.497	270.5
457.717	273.5
457.937	266.5
458.157	299.5
458.377	285.5
458.598	320.5
458.818	339.5
459.038	384.5
459.258	395.5
459.478	340.5
459.698	314.5
459.918	306.5
460.138	293.5
460.358	308.5
460.578	301.5
460.798	309.5
461.018	289.5
461.238	283.5
461.458	285.5
461.678	306.5
461.898	281.5
462.118	291.5
462.338	293.5
462.558	312.5
462.777	323.5
462.997	304.5
463.217	325.5
463.437	318.5
463.657	299.5
463.876	310.5
464.096	306.5
464.316	298.5
464.536	298.5
464.755	315.5
464.975	328.5
465.195	367.5
465.414	410.5
465.634	362.5
465.854	333.5
466.073	323.5
466.293	312.5
466.512	292.5
466.732	289.5
466.951	304.5
467.171	280.5
467.391	289.5
467.61	293.5
467.829	316.5
468.049	289.5
468.268	301.5
468.488	295.5
468.707	290.5
468.927	282.5
469.146	279.5
469.365	284.5
469.585	286.5
469.804	283.5
470.023	298.5
470.243	317.5
470.462	314.5
470.681	333.5
470.901	305.5
471.12	311.5
471.339	307.5
471.558	309.5
471.777	306.5
471.997	296.5
472.216	303.5
472.435	318.5
472.654	347.5
472.873	309.5
473.092	296.5
473.311	305.5
473.53	303.5
473.749	302.5
473.968	341.5
474.187	413.5
474.406	424.5
474.625	321.5
474.844	315.5
475.063	303.5
475.282	315.5
475.501	311.5
475.72	313.5
475.939	317.5
476.158	294.5
476.377	298.5
476.596	304.5
476.814	301.5
477.033	317.5
477.252	328.5
477.471	330.5
477.69	325.5
477.908	320.5
478.127	319.5
478.346	319.5
478.564	338.5
478.783	327.5
479.002	338.5
479.22	325.5
479.439	346.5
479.658	357.5
479.876	352.5
480.095	372.5
480.313	388.5
480.532	362.5
480.751	362.5
480.969	388.5
481.188	426.5
481.406	416.5
481.624	385.5
481.843	371.5
482.061	360.5
482.28	341.5
482.498	341.5
482.717	328.5
482.935	356.5
483.153	359.5
483.372	351.5
483.59	368.5
483.808	340.5
484.027	359.5
484.245	352.5
484.463	343.5
484.681	361.5
484.9	340.5
485.118	364.5
485.336	354.5
485.554	348.5
485.772	355.5
485.99	349.5
486.209	364.5
486.427	362.5
486.645	373.5
486.863	351.5
487.081	375.5
487.299	389.5
487.517	381.5
487.735	371.5
487.953	371.5
488.171	369.5
488.389	374.5
488.607	376.5
488.825	352.5
489.043	367.5
489.261	375.5
489.479	388.5
489.696	376.5
489.914	376.5
490.132	378.5
490.35	397.5
490.568	364.5
490.786	385.5
491.003	409.5
491.221	396.5
491.439	398.5
491.657	391.5
491.874	414.5
492.092	427.5
492.31	427.5
492.527	433.5
492.745	423.5
492.963	428.5
493.18	425.5
493.398	449.5
493.615	426.5
493.833	404.5
494.05	448.5
494.268	433.5
494.485	427.5
494.703	422.5
494.92	414.5
495.138	436.5
495.355	451.5
495.573	427.5
495.79	440.5
496.008	439.5
496.225	443.5
496.442	412.5
496.66	422.5
496.877	425.5
497.094	434.5
497.312	441.5
497.529	455.5
497.746	435.5
497.963	443.5
498.181	460.5
498.398	477.5
498.615	447.5
498.832	468.5
499.049	468.5
499.267	468.5
499.484	473.5
499.701	516.5
499.918	510.5
500.135	522.5
500.352	525.5
500.569	553.5
500.786	561.5
501.003	547.5
501.22	511.5
501.437	525.5
501.654	525.5
501.871	528.5
502.088	490.5
502.305	506.5
502.522	465.5
502.739	463.5
502.956	454.5
503.172	458.5
503.389	440.5
503.606	445.5
503.823	457.5
504.04	454.5
504.256	425.5
504.473	438.5
504.69	429.5
504.907	415.5
505.123	428.5
505.34	437.5
505.557	426.5
505.773	429.5
505.99	451.5
506.207	439.5
506.423	426.5
506.64	429.5
506.856	412.5
507.073	401.5
507.289	414.5
507.506	405.5
507.722	407.5
507.939	439.5
508.155	409.5
508.372	408.5
508.588	385.5
508.805	410.5
509.021	408.5
509.238	430.5
509.454	425.5
509.67	418.5
509.887	422.5
510.103	401.5
510.319	437.5
510.536	513.5
510.752	850.5
510.968	635.5
511.184	451.5
511.401	418.5
511.617	408.5
511.833	402.5
512.049	395.5
512.265	387.5
512.481	397.5
512.698	400.5
512.914	381.5
513.13	380.5
513.346	390.5
513.562	375.5
513.778	385.5
513.994	395.5
514.21	412.5
514.426	418.5
514.642	452.5
514.858	470.5
515.074	497.5
515.29	584.5
515.506	909.5
515.721	709.5
515.937	480.5
516.153	437.5
516.369	412.5
516.585	399.5
516.801	381.5
517.016	408.5
517.232	406.5
517.448	402.5
517.664	396.5
517.879	364.5
518.095	391.5
518.311	396.5
518.527	397.5
518.742	371.5
518.958	387.5
519.173	379.5
519.389	374.5
519.605	378.5
519.82	379.5
520.036	404.5
