Data from 1982.PennyLincolnUp.Lamp.En5.5.200Scan.071819.P1_HRD10591_16-46-08-961.txt Node
Date: Thu Jul 18 16:46:08 EDT 2019
User: cochatt
Spectrometer: HR+D1059
Trigger mode: 1
Integration Time (sec): 1.000000E-1
Scans to average: 1
Electric dark correction enabled: true
Nonlinearity correction enabled: false
Boxcar width: 0
XAxis mode: Wavelengths
Number of Pixels in Spectrum: 2048
>>>>>Begin Spectral Data<<<<<
223.165	-21.88
223.4	-21.88
223.635	-21.88
223.869	-22.88
224.104	-13.88
224.338	-13.88
224.573	-21.88
224.808	-22.88
225.042	-4.88
225.277	-9.88
225.511	0.12
225.746	15.12
225.98	10.12
226.215	10.12
226.449	17.12
226.683	24.12
226.918	20.12
227.152	35.12
227.387	44.12
227.621	47.12
227.856	44.12
228.09	39.12
228.324	66.12
228.559	39.12
228.793	56.12
229.027	97.12
229.262	100.12
229.496	106.12
229.73	109.12
229.964	131.12
230.199	99.12
230.433	100.12
230.667	102.12
230.901	100.12
231.136	98.12
231.37	109.12
231.604	100.12
231.838	105.12
232.072	99.12
232.306	91.12
232.541	117.12
232.775	104.12
233.009	101.12
233.243	98.12
233.477	116.12
233.711	105.12
233.945	101.12
234.179	95.12
234.413	97.12
234.647	102.12
234.881	111.12
235.115	103.12
235.349	98.12
235.583	109.12
235.817	114.12
236.051	120.12
236.285	106.12
236.519	104.12
236.753	115.12
236.987	130.12
237.221	156.12
237.455	179.12
237.689	149.12
237.922	115.12
238.156	105.12
238.39	113.12
238.624	107.12
238.858	116.12
239.091	103.12
239.325	101.12
239.559	96.12
239.793	118.12
240.027	108.12
240.26	120.12
240.494	144.12
240.728	130.12
240.961	130.12
241.195	125.12
241.429	121.12
241.662	116.12
241.896	107.12
242.13	109.12
242.363	101.12
242.597	108.12
242.83	107.12
243.064	116.12
243.298	103.12
243.531	110.12
243.765	107.12
243.998	110.12
244.232	122.12
244.465	128.12
244.699	126.12
244.932	107.12
245.166	120.12
245.399	140.12
245.633	116.12
245.866	123.12
246.099	124.12
246.333	124.12
246.566	133.12
246.8	123.12
247.033	124.12
247.266	136.12
247.5	132.12
247.733	130.12
247.966	138.12
248.2	133.12
248.433	158.12
248.666	140.12
248.899	148.12
249.133	165.12
249.366	160.12
249.599	152.12
249.832	151.12
250.066	147.12
250.299	136.12
250.532	163.12
250.765	169.12
250.998	166.12
251.231	169.12
251.465	164.12
251.698	177.12
251.931	164.12
252.164	159.12
252.397	156.12
252.63	171.12
252.863	175.12
253.096	159.12
253.329	170.12
253.562	196.12
253.795	173.12
254.028	168.12
254.261	185.12
254.494	199.12
254.727	199.12
254.96	229.12
255.193	192.12
255.426	193.12
255.659	192.12
255.892	186.12
256.124	185.12
256.357	177.12
256.59	186.12
256.823	184.12
257.056	168.12
257.289	173.12
257.521	181.12
257.754	160.12
257.987	181.12
258.22	168.12
258.452	172.12
258.685	168.12
258.918	160.12
259.151	161.12
259.383	164.12
259.616	184.12
259.849	163.12
260.081	195.12
260.314	206.12
260.547	214.12
260.779	192.12
261.012	181.12
261.244	188.12
261.477	182.12
261.71	180.12
261.942	192.12
262.175	180.12
262.407	179.12
262.64	161.12
262.872	158.12
263.105	169.12
263.337	178.12
263.57	172.12
263.802	184.12
264.035	173.12
264.267	169.12
264.499	165.12
264.732	170.12
264.964	166.12
265.197	183.12
265.429	180.12
265.661	170.12
265.894	163.12
266.126	182.12
266.358	165.12
266.591	167.12
266.823	198.12
267.055	169.12
267.287	175.12
267.52	169.12
267.752	163.12
267.984	187.12
268.216	189.12
268.448	188.12
268.681	199.12
268.913	189.12
269.145	210.12
269.377	220.12
269.609	217.12
269.841	198.12
270.073	219.12
270.306	231.12
270.538	230.12
270.77	237.12
271.002	233.12
271.234	224.12
271.466	242.12
271.698	247.12
271.93	230.12
272.162	248.12
272.394	230.12
272.626	218.12
272.858	232.12
273.09	193.12
273.322	219.12
273.553	207.12
273.785	205.12
274.017	194.12
274.249	201.12
274.481	200.12
274.713	211.12
274.945	209.12
275.176	206.12
275.408	211.12
275.64	200.12
275.872	196.12
276.104	200.12
276.335	222.12
276.567	209.12
276.799	226.12
277.031	237.12
277.262	244.12
277.494	248.12
277.726	217.12
277.957	235.12
278.189	217.12
278.421	206.12
278.652	208.12
278.884	211.12
279.115	202.12
279.347	215.12
279.579	217.12
279.81	206.12
280.042	202.12
280.273	216.12
280.505	208.12
280.736	204.12
280.968	206.12
281.199	210.12
281.431	209.12
281.662	211.12
281.894	197.12
282.125	216.12
282.356	219.12
282.588	248.12
282.819	237.12
283.051	212.12
283.282	206.12
283.513	207.12
283.745	198.12
283.976	207.12
284.207	218.12
284.439	225.12
284.67	227.12
284.901	226.12
285.132	222.12
285.364	209.12
285.595	222.12
285.826	233.12
286.057	225.12
286.288	226.12
286.52	224.12
286.751	212.12
286.982	223.12
287.213	206.12
287.444	212.12
287.675	222.12
287.906	236.12
288.138	235.12
288.369	225.12
288.6	222.12
288.831	215.12
289.062	228.12
289.293	230.12
289.524	216.12
289.755	213.12
289.986	208.12
290.217	211.12
290.448	215.12
290.679	216.12
290.91	221.12
291.141	215.12
291.371	220.12
291.602	227.12
291.833	217.12
292.064	204.12
292.295	207.12
292.526	212.12
292.757	217.12
292.987	238.12
293.218	221.12
293.449	212.12
293.68	228.12
293.91	218.12
294.141	212.12
294.372	211.12
294.603	230.12
294.833	220.12
295.064	218.12
295.295	218.12
295.525	228.12
295.756	228.12
295.987	240.12
296.217	242.12
296.448	261.12
296.679	238.12
296.909	230.12
297.14	215.12
297.37	225.12
297.601	233.12
297.831	217.12
298.062	242.12
298.292	221.12
298.523	237.12
298.753	221.12
298.984	227.12
299.214	230.12
299.445	229.12
299.675	217.12
299.905	256.12
300.136	242.12
300.366	225.12
300.597	229.12
300.827	240.12
301.057	258.12
301.288	237.12
301.518	228.12
301.748	242.12
301.979	217.12
302.209	243.12
302.439	243.12
302.669	259.12
302.9	241.12
303.13	220.12
303.36	252.12
303.59	247.12
303.82	252.12
304.051	261.12
304.281	244.12
304.511	258.12
304.741	243.12
304.971	255.12
305.201	264.12
305.431	246.12
305.661	239.12
305.891	232.12
306.121	258.12
306.352	247.12
306.582	244.12
306.812	236.12
307.042	250.12
307.272	254.12
307.502	249.12
307.731	241.12
307.961	245.12
308.191	235.12
308.421	256.12
308.651	254.12
308.881	253.12
309.111	244.12
309.341	250.12
309.571	285.12
309.8	272.12
310.03	283.12
310.26	286.12
310.49	292.12
310.72	289.12
310.949	302.12
311.179	294.12
311.409	282.12
311.639	283.12
311.868	297.12
312.098	299.12
312.328	291.12
312.557	318.12
312.787	301.12
313.017	310.12
313.246	301.12
313.476	275.12
313.706	290.12
313.935	304.12
314.165	280.12
314.394	302.12
314.624	306.12
314.853	308.12
315.083	285.12
315.312	293.12
315.542	293.12
315.771	279.12
316.001	285.12
316.23	292.12
316.46	283.12
316.689	300.12
316.919	277.12
317.148	270.12
317.377	299.12
317.607	274.12
317.836	260.12
318.065	283.12
318.295	296.12
318.524	294.12
318.753	281.12
318.983	283.12
319.212	282.12
319.441	297.12
319.67	297.12
319.9	277.12
320.129	283.12
320.358	285.12
320.587	306.12
320.816	304.12
321.046	296.12
321.275	285.12
321.504	302.12
321.733	301.12
321.962	322.12
322.191	309.12
322.42	347.12
322.649	350.12
322.878	361.12
323.108	365.12
323.337	397.12
323.566	393.12
323.795	433.12
324.024	467.12
324.253	605.12
324.482	836.12
324.71	1286.12
324.939	1638.12
325.168	1378.12
325.397	720.12
325.626	514.12
325.855	404.12
326.084	393.12
326.313	404.12
326.542	422.12
326.77	442.12
326.999	554.12
327.228	770.12
327.457	1072.12
327.686	1192.12
327.914	800.12
328.143	555.12
328.372	491.12
328.6	444.12
328.829	431.12
329.058	441.12
329.287	442.12
329.515	422.12
329.744	388.12
329.972	387.12
330.201	417.12
330.43	415.12
330.658	447.12
330.887	461.12
331.115	451.12
331.344	388.12
331.572	373.12
331.801	378.12
332.03	344.12
332.258	348.12
332.486	338.12
332.715	323.12
332.943	316.12
333.172	349.12
333.4	334.12
333.629	361.12
333.857	338.12
334.085	352.12
334.314	376.12
334.542	392.12
334.771	377.12
334.999	368.12
335.227	343.12
335.455	346.12
335.684	336.12
335.912	314.12
336.14	316.12
336.369	323.12
336.597	328.12
336.825	333.12
337.053	321.12
337.281	313.12
337.51	312.12
337.738	321.12
337.966	339.12
338.194	316.12
338.422	317.12
338.65	327.12
338.878	322.12
339.106	322.12
339.334	312.12
339.562	315.12
339.79	306.12
340.018	313.12
340.246	340.12
340.474	317.12
340.702	332.12
340.93	308.12
341.158	300.12
341.386	311.12
341.614	300.12
341.842	307.12
342.07	320.12
342.298	317.12
342.526	311.12
342.754	291.12
342.981	300.12
343.209	280.12
343.437	291.12
343.665	302.12
343.893	288.12
344.12	315.12
344.348	317.12
344.576	320.12
344.804	304.12
345.031	319.12
345.259	321.12
345.487	328.12
345.714	318.12
345.942	329.12
346.17	299.12
346.397	305.12
346.625	308.12
346.853	312.12
347.08	331.12
347.308	312.12
347.535	313.12
347.763	324.12
347.99	313.12
348.218	309.12
348.445	324.12
348.673	301.12
348.9	309.12
349.128	308.12
349.355	297.12
349.583	298.12
349.81	297.12
350.037	291.12
350.265	294.12
350.492	279.12
350.72	304.12
350.947	310.12
351.174	314.12
351.402	308.12
351.629	305.12
351.856	300.12
352.083	332.12
352.311	315.12
352.538	327.12
352.765	309.12
352.992	294.12
353.22	295.12
353.447	294.12
353.674	293.12
353.901	297.12
354.128	278.12
354.355	270.12
354.583	295.12
354.81	282.12
355.037	285.12
355.264	303.12
355.491	271.12
355.718	281.12
355.945	269.12
356.172	284.12
356.399	270.12
356.626	274.12
356.853	284.12
357.08	281.12
357.307	276.12
357.534	290.12
357.761	271.12
357.988	276.12
358.215	284.12
358.441	267.12
358.668	289.12
358.895	298.12
359.122	284.12
359.349	273.12
359.576	307.12
359.802	310.12
360.029	324.12
360.256	360.12
360.483	313.12
360.709	317.12
360.936	306.12
361.163	294.12
361.39	322.12
361.616	319.12
361.843	293.12
362.07	294.12
362.296	304.12
362.523	301.12
362.749	289.12
362.976	298.12
363.203	282.12
363.429	280.12
363.656	284.12
363.882	283.12
364.109	277.12
364.335	305.12
364.562	258.12
364.788	282.12
365.015	275.12
365.241	267.12
365.468	281.12
365.694	291.12
365.92	266.12
366.147	296.12
366.373	295.12
366.599	272.12
366.826	280.12
367.052	281.12
367.278	285.12
367.505	258.12
367.731	278.12
367.957	295.12
368.184	297.12
368.41	292.12
368.636	295.12
368.862	278.12
369.089	261.12
369.315	274.12
369.541	285.12
369.767	284.12
369.993	275.12
370.219	283.12
370.445	291.12
370.672	280.12
370.898	279.12
371.124	270.12
371.35	285.12
371.576	265.12
371.802	256.12
372.028	270.12
372.254	257.12
372.48	270.12
372.706	279.12
372.932	272.12
373.158	275.12
373.384	278.12
373.61	280.12
373.835	267.12
374.061	276.12
374.287	276.12
374.513	265.12
374.739	283.12
374.965	259.12
375.191	260.12
375.416	281.12
375.642	260.12
375.868	269.12
376.094	260.12
376.319	282.12
376.545	263.12
376.771	270.12
376.997	265.12
377.222	282.12
377.448	265.12
377.674	260.12
377.899	285.12
378.125	263.12
378.35	276.12
378.576	288.12
378.802	269.12
379.027	269.12
379.253	263.12
379.478	266.12
379.704	274.12
379.929	264.12
380.155	275.12
380.38	262.12
380.606	278.12
380.831	267.12
381.057	271.12
381.282	260.12
381.507	266.12
381.733	273.12
381.958	264.12
382.184	274.12
382.409	281.12
382.634	272.12
382.86	268.12
383.085	261.12
383.31	274.12
383.535	278.12
383.761	281.12
383.986	278.12
384.211	266.12
384.436	279.12
384.662	273.12
384.887	275.12
385.112	265.12
385.337	276.12
385.562	278.12
385.787	273.12
386.013	297.12
386.238	307.12
386.463	267.12
386.688	276.12
386.913	287.12
387.138	296.12
387.363	260.12
387.588	285.12
387.813	290.12
388.038	290.12
388.263	296.12
388.488	280.12
388.713	283.12
388.938	286.12
389.163	283.12
389.387	280.12
389.612	264.12
389.837	304.12
390.062	285.12
390.287	283.12
390.512	277.12
390.736	255.12
390.961	295.12
391.186	278.12
391.411	284.12
391.636	279.12
391.86	279.12
392.085	282.12
392.31	259.12
392.534	274.12
392.759	294.12
392.984	296.12
393.208	285.12
393.433	278.12
393.658	267.12
393.882	287.12
394.107	275.12
394.331	274.12
394.556	288.12
394.78	284.12
395.005	295.12
395.229	272.12
395.454	294.12
395.678	302.12
395.903	276.12
396.127	296.12
396.352	289.12
396.576	283.12
396.801	300.12
397.025	298.12
397.249	292.12
397.474	300.12
397.698	309.12
397.922	326.12
398.147	324.12
398.371	320.12
398.595	302.12
398.82	293.12
399.044	306.12
399.268	316.12
399.492	335.12
399.717	341.12
399.941	356.12
400.165	377.12
400.389	386.12
400.613	350.12
400.837	316.12
401.062	314.12
401.286	324.12
401.51	297.12
401.734	308.12
401.958	302.12
402.182	315.12
402.406	320.12
402.63	305.12
402.854	320.12
403.078	301.12
403.302	314.12
403.526	322.12
403.75	302.12
403.974	334.12
404.198	325.12
404.422	322.12
404.645	325.12
404.869	319.12
405.093	334.12
405.317	375.12
405.541	370.12
405.765	350.12
405.988	350.12
406.212	336.12
406.436	340.12
406.66	346.12
406.883	342.12
407.107	363.12
407.331	380.12
407.555	401.12
407.778	415.12
408.002	397.12
408.226	343.12
408.449	334.12
408.673	332.12
408.896	359.12
409.12	380.12
409.344	365.12
409.567	320.12
409.791	326.12
410.014	325.12
410.238	328.12
410.461	329.12
410.685	315.12
410.908	335.12
411.132	333.12
411.355	357.12
411.578	349.12
411.802	324.12
412.025	323.12
412.249	343.12
412.472	334.12
412.695	352.12
412.919	336.12
413.142	309.12
413.365	300.12
413.589	304.12
413.812	296.12
414.035	304.12
414.258	308.12
414.482	314.12
414.705	288.12
414.928	316.12
415.151	297.12
415.374	288.12
415.597	293.12
415.821	326.12
416.044	310.12
416.267	307.12
416.49	287.12
416.713	290.12
416.936	317.12
417.159	306.12
417.382	306.12
417.605	316.12
417.828	313.12
418.051	300.12
418.274	304.12
418.497	308.12
418.72	291.12
418.943	292.12
419.166	322.12
419.389	321.12
419.611	325.12
419.834	321.12
420.057	296.12
420.28	300.12
420.503	322.12
420.726	318.12
420.948	318.12
421.171	353.12
421.394	369.12
421.617	347.12
421.839	310.12
422.062	325.12
422.285	341.12
422.507	375.12
422.73	408.12
422.953	376.12
423.175	362.12
423.398	337.12
423.621	325.12
423.843	336.12
424.066	351.12
424.288	340.12
424.511	356.12
424.733	410.12
424.956	434.12
425.178	441.12
425.401	415.12
425.623	410.12
425.846	364.12
426.068	344.12
426.291	365.12
426.513	346.12
426.735	365.12
426.958	381.12
427.18	423.12
427.402	492.12
427.625	576.12
427.847	484.12
428.069	415.12
428.292	409.12
428.514	345.12
428.736	339.12
428.958	331.12
429.181	318.12
429.403	328.12
429.625	345.12
429.847	365.12
430.069	380.12
430.292	373.12
430.514	333.12
430.736	308.12
430.958	302.12
431.18	314.12
431.402	329.12
431.624	307.12
431.846	281.12
432.068	300.12
432.29	302.12
432.512	313.12
432.734	285.12
432.956	308.12
433.178	313.12
433.4	310.12
433.622	292.12
433.844	303.12
434.066	300.12
434.287	290.12
434.509	281.12
434.731	308.12
434.953	318.12
435.175	318.12
435.397	330.12
435.618	338.12
435.84	357.12
436.062	429.12
436.284	462.12
436.505	391.12
436.727	362.12
436.949	356.12
437.17	322.12
437.392	321.12
437.614	346.12
437.835	363.12
438.057	424.12
438.278	468.12
438.5	471.12
438.721	524.12
438.943	469.12
439.165	378.12
439.386	377.12
439.608	370.12
439.829	360.12
440.05	382.12
440.272	412.12
440.493	364.12
440.715	338.12
440.936	329.12
441.158	312.12
441.379	315.12
441.6	333.12
441.822	342.12
442.043	370.12
442.264	415.12
442.486	436.12
442.707	372.12
442.928	350.12
443.149	357.12
443.371	376.12
443.592	390.12
443.813	440.12
444.034	504.12
444.255	396.12
444.476	360.12
444.698	338.12
444.919	348.12
445.14	410.12
445.361	411.12
445.582	377.12
445.803	416.12
446.024	482.12
446.245	483.12
446.466	440.12
446.687	369.12
446.908	342.12
447.129	331.12
447.35	309.12
447.571	301.12
447.792	331.12
448.013	323.12
448.234	329.12
448.455	385.12
448.675	426.12
448.896	487.12
449.117	435.12
449.338	412.12
449.559	470.12
449.779	536.12
450	416.12
450.221	353.12
450.442	329.12
450.662	317.12
450.883	339.12
451.104	325.12
451.324	324.12
451.545	319.12
451.766	314.12
451.986	292.12
452.207	288.12
452.428	267.12
452.648	296.12
452.869	288.12
453.089	316.12
453.31	302.12
453.53	317.12
453.751	283.12
453.971	305.12
454.192	313.12
454.412	291.12
454.633	278.12
454.853	300.12
455.073	295.12
455.294	309.12
455.514	340.12
455.734	335.12
455.955	295.12
456.175	279.12
456.395	282.12
456.616	274.12
456.836	266.12
457.056	284.12
457.276	261.12
457.497	283.12
457.717	273.12
457.937	268.12
458.157	286.12
458.377	286.12
458.598	294.12
458.818	345.12
459.038	407.12
459.258	401.12
459.478	324.12
459.698	294.12
459.918	297.12
460.138	307.12
460.358	300.12
460.578	301.12
460.798	315.12
461.018	314.12
461.238	302.12
461.458	294.12
461.678	301.12
461.898	302.12
462.118	295.12
462.338	297.12
462.558	321.12
462.777	314.12
462.997	306.12
463.217	332.12
463.437	315.12
463.657	307.12
463.876	308.12
464.096	301.12
464.316	310.12
464.536	314.12
464.755	330.12
464.975	323.12
465.195	362.12
465.414	407.12
465.634	343.12
465.854	320.12
466.073	297.12
466.293	285.12
466.512	289.12
466.732	283.12
466.951	281.12
467.171	298.12
467.391	305.12
467.61	305.12
467.829	300.12
468.049	307.12
468.268	289.12
468.488	276.12
468.707	276.12
468.927	286.12
469.146	280.12
469.365	280.12
469.585	290.12
469.804	287.12
470.023	301.12
470.243	289.12
470.462	297.12
470.681	288.12
470.901	310.12
471.12	313.12
471.339	305.12
471.558	296.12
471.777	300.12
471.997	299.12
472.216	278.12
472.435	310.12
472.654	313.12
472.873	309.12
473.092	268.12
473.311	299.12
473.53	287.12
473.749	298.12
473.968	344.12
474.187	389.12
474.406	418.12
474.625	347.12
474.844	318.12
475.063	289.12
475.282	290.12
475.501	290.12
475.72	313.12
475.939	305.12
476.158	296.12
476.377	294.12
476.596	309.12
476.814	317.12
477.033	310.12
477.252	314.12
477.471	304.12
477.69	310.12
477.908	311.12
478.127	320.12
478.346	326.12
478.564	316.12
478.783	321.12
479.002	336.12
479.22	341.12
479.439	324.12
479.658	360.12
479.876	355.12
480.095	350.12
480.313	354.12
480.532	361.12
480.751	356.12
480.969	360.12
481.188	389.12
481.406	422.12
481.624	388.12
481.843	361.12
482.061	341.12
482.28	341.12
482.498	326.12
482.717	335.12
482.935	329.12
483.153	329.12
483.372	352.12
483.59	356.12
483.808	349.12
484.027	336.12
484.245	357.12
484.463	334.12
484.681	344.12
484.9	337.12
485.118	354.12
485.336	352.12
485.554	349.12
485.772	343.12
485.99	337.12
486.209	348.12
486.427	349.12
486.645	371.12
486.863	381.12
487.081	370.12
487.299	373.12
487.517	365.12
487.735	362.12
487.953	357.12
488.171	383.12
488.389	370.12
488.607	366.12
488.825	374.12
489.043	371.12
489.261	382.12
489.479	356.12
489.696	378.12
489.914	360.12
490.132	384.12
490.35	416.12
490.568	388.12
490.786	370.12
491.003	396.12
491.221	409.12
491.439	396.12
491.657	399.12
491.874	428.12
492.092	424.12
492.31	402.12
492.527	420.12
492.745	431.12
492.963	413.12
493.18	410.12
493.398	426.12
493.615	410.12
493.833	419.12
494.05	409.12
494.268	418.12
494.485	416.12
494.703	427.12
494.92	442.12
495.138	429.12
495.355	428.12
495.573	424.12
495.79	429.12
496.008	430.12
496.225	424.12
496.442	429.12
496.66	401.12
496.877	423.12
497.094	443.12
497.312	423.12
497.529	445.12
497.746	419.12
497.963	448.12
498.181	467.12
498.398	475.12
498.615	481.12
498.832	461.12
499.049	475.12
499.267	480.12
499.484	489.12
499.701	514.12
499.918	511.12
500.135	517.12
500.352	536.12
500.569	534.12
500.786	531.12
501.003	532.12
501.22	525.12
501.437	527.12
501.654	520.12
501.871	498.12
502.088	507.12
