Data from 1982.PennyLincolnUp.Lamp.En5.5.200Scan.071819.P1_HRD10591_16-45-25-961.txt Node
Date: Thu Jul 18 16:45:25 EDT 2019
User: cochatt
Spectrometer: HR+D1059
Trigger mode: 1
Integration Time (sec): 1.000000E-1
Scans to average: 1
Electric dark correction enabled: true
Nonlinearity correction enabled: false
Boxcar width: 0
XAxis mode: Wavelengths
Number of Pixels in Spectrum: 2048
>>>>>Begin Spectral Data<<<<<
223.165	-9.19
223.4	-9.19
223.635	-9.19
223.869	-17.19
224.104	-12.19
224.338	-7.19
224.573	-20.19
224.808	-13.19
225.042	-15.19
225.277	-4.19
225.511	-4.19
225.746	-1.19
225.98	13.81
226.215	3.81
226.449	26.81
226.683	23.81
226.918	25.81
227.152	9.81
227.387	25.81
227.621	27.81
227.856	44.81
228.09	48.81
228.324	56.81
228.559	55.81
228.793	67.81
229.027	90.81
229.262	88.81
229.496	92.81
229.73	97.81
229.964	112.81
230.199	105.81
230.433	109.81
230.667	115.81
230.901	107.81
231.136	93.81
231.37	90.81
231.604	104.81
231.838	106.81
232.072	102.81
232.306	101.81
232.541	88.81
232.775	88.81
233.009	107.81
233.243	114.81
233.477	120.81
233.711	100.81
233.945	93.81
234.179	93.81
234.413	109.81
234.647	107.81
234.881	108.81
235.115	97.81
235.349	99.81
235.583	98.81
235.817	109.81
236.051	109.81
236.285	111.81
236.519	96.81
236.753	104.81
236.987	122.81
237.221	143.81
237.455	170.81
237.689	144.81
237.922	120.81
238.156	112.81
238.39	109.81
238.624	105.81
238.858	122.81
239.091	116.81
239.325	107.81
239.559	112.81
239.793	112.81
240.027	96.81
240.26	116.81
240.494	116.81
240.728	126.81
240.961	108.81
241.195	112.81
241.429	122.81
241.662	108.81
241.896	120.81
242.13	116.81
242.363	119.81
242.597	113.81
242.83	106.81
243.064	118.81
243.298	111.81
243.531	127.81
243.765	120.81
243.998	123.81
244.232	108.81
244.465	114.81
244.699	120.81
244.932	120.81
245.166	113.81
245.399	120.81
245.633	119.81
245.866	132.81
246.099	115.81
246.333	114.81
246.566	126.81
246.8	129.81
247.033	123.81
247.266	133.81
247.5	130.81
247.733	143.81
247.966	158.81
248.2	137.81
248.433	129.81
248.666	143.81
248.899	153.81
249.133	158.81
249.366	154.81
249.599	169.81
249.832	154.81
250.066	148.81
250.299	137.81
250.532	154.81
250.765	163.81
250.998	156.81
251.231	162.81
251.465	167.81
251.698	160.81
251.931	149.81
252.164	149.81
252.397	152.81
252.63	149.81
252.863	176.81
253.096	182.81
253.329	188.81
253.562	179.81
253.795	176.81
254.028	165.81
254.261	160.81
254.494	176.81
254.727	192.81
254.96	212.81
255.193	196.81
255.426	198.81
255.659	189.81
255.892	178.81
256.124	165.81
256.357	192.81
256.59	183.81
256.823	164.81
257.056	156.81
257.289	168.81
257.521	167.81
257.754	160.81
257.987	162.81
258.22	164.81
258.452	164.81
258.685	155.81
258.918	152.81
259.151	162.81
259.383	157.81
259.616	167.81
259.849	162.81
260.081	194.81
260.314	177.81
260.547	199.81
260.779	184.81
261.012	174.81
261.244	181.81
261.477	180.81
261.71	177.81
261.942	169.81
262.175	178.81
262.407	167.81
262.64	168.81
262.872	171.81
263.105	160.81
263.337	150.81
263.57	158.81
263.802	162.81
264.035	168.81
264.267	159.81
264.499	166.81
264.732	185.81
264.964	183.81
265.197	171.81
265.429	165.81
265.661	157.81
265.894	176.81
266.126	163.81
266.358	164.81
266.591	171.81
266.823	156.81
267.055	176.81
267.287	168.81
267.52	189.81
267.752	184.81
267.984	188.81
268.216	166.81
268.448	176.81
268.681	179.81
268.913	167.81
269.145	211.81
269.377	213.81
269.609	189.81
269.841	204.81
270.073	202.81
270.306	209.81
270.538	239.81
270.77	229.81
271.002	235.81
271.234	213.81
271.466	222.81
271.698	222.81
271.93	232.81
272.162	238.81
272.394	246.81
272.626	222.81
272.858	205.81
273.09	217.81
273.322	191.81
273.553	214.81
273.785	212.81
274.017	193.81
274.249	216.81
274.481	216.81
274.713	204.81
274.945	188.81
275.176	193.81
275.408	191.81
275.64	197.81
275.872	201.81
276.104	199.81
276.335	192.81
276.567	213.81
276.799	212.81
277.031	218.81
277.262	244.81
277.494	240.81
277.726	241.81
277.957	194.81
278.189	222.81
278.421	207.81
278.652	192.81
278.884	202.81
279.115	206.81
279.347	213.81
279.579	210.81
279.81	195.81
280.042	194.81
280.273	223.81
280.505	204.81
280.736	197.81
280.968	197.81
281.199	184.81
281.431	189.81
281.662	202.81
281.894	198.81
282.125	203.81
282.356	217.81
282.588	232.81
282.819	235.81
283.051	200.81
283.282	206.81
283.513	213.81
283.745	206.81
283.976	206.81
284.207	218.81
284.439	209.81
284.67	189.81
284.901	214.81
285.132	192.81
285.364	186.81
285.595	212.81
285.826	202.81
286.057	191.81
286.288	207.81
286.52	194.81
286.751	219.81
286.982	201.81
287.213	200.81
287.444	217.81
287.675	212.81
287.906	213.81
288.138	221.81
288.369	213.81
288.6	228.81
288.831	218.81
289.062	213.81
289.293	213.81
289.524	221.81
289.755	206.81
289.986	211.81
290.217	191.81
290.448	205.81
290.679	218.81
290.91	199.81
291.141	211.81
291.371	214.81
291.602	216.81
291.833	224.81
292.064	219.81
292.295	215.81
292.526	211.81
292.757	214.81
292.987	203.81
293.218	208.81
293.449	224.81
293.68	215.81
293.91	197.81
294.141	206.81
294.372	213.81
294.603	218.81
294.833	201.81
295.064	219.81
295.295	205.81
295.525	220.81
295.756	226.81
295.987	221.81
296.217	252.81
296.448	228.81
296.679	216.81
296.909	215.81
297.14	207.81
297.37	213.81
297.601	217.81
297.831	206.81
298.062	214.81
298.292	210.81
298.523	220.81
298.753	233.81
298.984	230.81
299.214	242.81
299.445	223.81
299.675	237.81
299.905	225.81
300.136	240.81
300.366	225.81
300.597	218.81
300.827	243.81
301.057	221.81
301.288	236.81
301.518	234.81
301.748	232.81
301.979	220.81
302.209	227.81
302.439	241.81
302.669	239.81
302.9	229.81
303.13	228.81
303.36	253.81
303.59	227.81
303.82	227.81
304.051	246.81
304.281	236.81
304.511	234.81
304.741	226.81
304.971	238.81
305.201	251.81
305.431	225.81
305.661	224.81
305.891	231.81
306.121	235.81
306.352	249.81
306.582	240.81
306.812	251.81
307.042	222.81
307.272	240.81
307.502	240.81
307.731	232.81
307.961	248.81
308.191	240.81
308.421	241.81
308.651	242.81
308.881	261.81
309.111	235.81
309.341	248.81
309.571	247.81
309.8	254.81
310.03	279.81
310.26	279.81
310.49	288.81
310.72	278.81
310.949	290.81
311.179	288.81
311.409	273.81
311.639	261.81
311.868	275.81
312.098	276.81
312.328	277.81
312.557	289.81
312.787	303.81
313.017	290.81
313.246	299.81
313.476	266.81
313.706	278.81
313.935	291.81
314.165	275.81
314.394	307.81
314.624	283.81
314.853	286.81
315.083	260.81
315.312	280.81
315.542	280.81
315.771	283.81
316.001	280.81
316.23	259.81
316.46	264.81
316.689	282.81
316.919	263.81
317.148	290.81
317.377	280.81
317.607	292.81
317.836	273.81
318.065	264.81
318.295	273.81
318.524	262.81
318.753	266.81
318.983	273.81
319.212	275.81
319.441	268.81
319.67	278.81
319.9	285.81
320.129	288.81
320.358	282.81
320.587	291.81
320.816	296.81
321.046	296.81
321.275	312.81
321.504	297.81
321.733	284.81
321.962	271.81
322.191	306.81
322.42	312.81
322.649	342.81
322.878	323.81
323.108	342.81
323.337	384.81
323.566	361.81
323.795	394.81
324.024	421.81
324.253	518.81
324.482	778.81
324.71	1152.81
324.939	1514.81
325.168	1228.81
325.397	648.81
325.626	468.81
325.855	397.81
326.084	383.81
326.313	372.81
326.542	386.81
326.77	422.81
326.999	509.81
327.228	710.81
327.457	990.81
327.686	1099.81
327.914	718.81
328.143	481.81
328.372	459.81
328.6	413.81
328.829	393.81
329.058	409.81
329.287	408.81
329.515	390.81
329.744	394.81
329.972	365.81
330.201	382.81
330.43	394.81
330.658	426.81
330.887	452.81
331.115	414.81
331.344	369.81
331.572	364.81
331.801	336.81
332.03	342.81
332.258	324.81
332.486	327.81
332.715	315.81
332.943	311.81
333.172	310.81
333.4	311.81
333.629	318.81
333.857	338.81
334.085	330.81
334.314	333.81
334.542	359.81
334.771	353.81
334.999	338.81
335.227	301.81
335.455	317.81
335.684	323.81
335.912	309.81
336.14	331.81
336.369	306.81
336.597	301.81
336.825	323.81
337.053	321.81
337.281	293.81
337.51	295.81
337.738	311.81
337.966	323.81
338.194	303.81
338.422	322.81
338.65	298.81
338.878	297.81
339.106	308.81
339.334	282.81
339.562	305.81
339.79	291.81
340.018	308.81
340.246	316.81
340.474	298.81
340.702	303.81
340.93	296.81
341.158	294.81
341.386	313.81
341.614	296.81
341.842	301.81
342.07	295.81
342.298	283.81
342.526	289.81
342.754	297.81
342.981	273.81
343.209	300.81
343.437	284.81
343.665	317.81
343.893	289.81
344.12	298.81
344.348	293.81
344.576	287.81
344.804	311.81
345.031	312.81
345.259	307.81
345.487	306.81
345.714	298.81
345.942	301.81
346.17	291.81
346.397	299.81
346.625	280.81
346.853	288.81
347.08	300.81
347.308	293.81
347.535	284.81
347.763	313.81
347.99	290.81
348.218	308.81
348.445	286.81
348.673	296.81
348.9	299.81
349.128	293.81
349.355	285.81
349.583	297.81
349.81	284.81
350.037	289.81
350.265	298.81
350.492	278.81
350.72	281.81
350.947	292.81
351.174	311.81
351.402	306.81
351.629	280.81
351.856	292.81
352.083	304.81
352.311	304.81
352.538	298.81
352.765	281.81
352.992	288.81
353.22	301.81
353.447	298.81
353.674	288.81
353.901	275.81
354.128	283.81
354.355	271.81
354.583	268.81
354.81	281.81
355.037	280.81
355.264	283.81
355.491	276.81
355.718	268.81
355.945	247.81
356.172	260.81
356.399	263.81
356.626	252.81
356.853	265.81
357.08	253.81
357.307	267.81
357.534	244.81
357.761	263.81
357.988	277.81
358.215	266.81
358.441	270.81
358.668	268.81
358.895	275.81
359.122	268.81
359.349	286.81
359.576	295.81
359.802	315.81
360.029	318.81
360.256	312.81
360.483	309.81
360.709	288.81
360.936	289.81
361.163	290.81
361.39	283.81
361.616	278.81
361.843	272.81
362.07	290.81
362.296	287.81
362.523	281.81
362.749	282.81
362.976	282.81
363.203	289.81
363.429	285.81
363.656	285.81
363.882	280.81
364.109	284.81
364.335	265.81
364.562	284.81
364.788	267.81
365.015	268.81
365.241	277.81
365.468	268.81
365.694	282.81
365.92	274.81
366.147	282.81
366.373	278.81
366.599	257.81
366.826	250.81
367.052	251.81
367.278	265.81
367.505	256.81
367.731	283.81
367.957	264.81
368.184	270.81
368.41	284.81
368.636	271.81
368.862	273.81
369.089	299.81
369.315	260.81
369.541	272.81
369.767	267.81
369.993	281.81
370.219	250.81
370.445	259.81
370.672	274.81
370.898	272.81
371.124	261.81
371.35	269.81
371.576	274.81
371.802	268.81
372.028	260.81
372.254	274.81
372.48	259.81
372.706	245.81
372.932	256.81
373.158	276.81
373.384	289.81
373.61	286.81
373.835	277.81
374.061	284.81
374.287	268.81
374.513	264.81
374.739	254.81
374.965	283.81
375.191	268.81
375.416	285.81
375.642	290.81
375.868	251.81
376.094	284.81
376.319	252.81
376.545	246.81
376.771	264.81
376.997	275.81
377.222	260.81
377.448	264.81
377.674	251.81
377.899	256.81
378.125	271.81
378.35	258.81
378.576	266.81
378.802	250.81
379.027	273.81
379.253	273.81
379.478	262.81
379.704	247.81
379.929	268.81
380.155	250.81
380.38	260.81
380.606	258.81
380.831	267.81
381.057	282.81
381.282	258.81
381.507	243.81
381.733	252.81
381.958	245.81
382.184	267.81
382.409	262.81
382.634	269.81
382.86	276.81
383.085	258.81
383.31	270.81
383.535	269.81
383.761	246.81
383.986	272.81
384.211	275.81
384.436	262.81
384.662	260.81
384.887	265.81
385.112	283.81
385.337	275.81
385.562	275.81
385.787	283.81
386.013	280.81
386.238	288.81
386.463	276.81
386.688	274.81
386.913	261.81
387.138	264.81
387.363	290.81
387.588	278.81
387.813	275.81
388.038	284.81
388.263	272.81
388.488	266.81
388.713	271.81
388.938	269.81
389.163	261.81
389.387	274.81
389.612	280.81
389.837	278.81
390.062	288.81
390.287	272.81
390.512	282.81
390.736	265.81
390.961	270.81
391.186	277.81
391.411	266.81
391.636	284.81
391.86	274.81
392.085	266.81
392.31	281.81
392.534	266.81
392.759	289.81
392.984	269.81
393.208	263.81
393.433	277.81
393.658	264.81
393.882	269.81
394.107	289.81
394.331	271.81
394.556	290.81
394.78	276.81
395.005	270.81
395.229	262.81
395.454	274.81
395.678	281.81
395.903	305.81
396.127	304.81
396.352	295.81
396.576	294.81
396.801	286.81
397.025	289.81
397.249	290.81
397.474	298.81
397.698	282.81
397.922	304.81
398.147	306.81
398.371	294.81
398.595	300.81
398.82	298.81
399.044	309.81
399.268	297.81
399.492	310.81
399.717	312.81
399.941	357.81
400.165	352.81
400.389	343.81
400.613	345.81
400.837	346.81
401.062	322.81
401.286	297.81
401.51	292.81
401.734	295.81
401.958	295.81
402.182	296.81
402.406	301.81
402.63	317.81
402.854	312.81
403.078	309.81
403.302	310.81
403.526	317.81
403.75	312.81
403.974	301.81
404.198	302.81
404.422	316.81
404.645	312.81
404.869	313.81
405.093	349.81
405.317	346.81
405.541	374.81
405.765	339.81
405.988	320.81
406.212	331.81
406.436	358.81
406.66	356.81
406.883	333.81
407.107	349.81
407.331	373.81
407.555	410.81
407.778	400.81
408.002	369.81
408.226	342.81
408.449	324.81
408.673	343.81
408.896	363.81
409.12	406.81
409.344	362.81
409.567	328.81
409.791	324.81
410.014	305.81
410.238	296.81
410.461	329.81
410.685	318.81
410.908	339.81
411.132	335.81
411.355	372.81
411.578	320.81
411.802	314.81
412.025	293.81
412.249	312.81
412.472	324.81
412.695	332.81
412.919	331.81
413.142	312.81
413.365	298.81
413.589	312.81
413.812	284.81
414.035	312.81
414.258	299.81
414.482	316.81
414.705	290.81
414.928	278.81
415.151	277.81
415.374	292.81
415.597	288.81
415.821	293.81
416.044	293.81
416.267	293.81
416.49	313.81
416.713	296.81
416.936	288.81
417.159	295.81
417.382	308.81
417.605	295.81
417.828	304.81
418.051	320.81
418.274	300.81
418.497	304.81
418.72	292.81
418.943	308.81
419.166	278.81
419.389	324.81
419.611	318.81
419.834	308.81
420.057	289.81
420.28	317.81
420.503	310.81
420.726	288.81
420.948	320.81
421.171	334.81
421.394	345.81
421.617	324.81
421.839	316.81
422.062	321.81
422.285	326.81
422.507	360.81
422.73	387.81
422.953	386.81
423.175	336.81
423.398	333.81
423.621	327.81
423.843	332.81
424.066	336.81
424.288	324.81
424.511	347.81
424.733	378.81
424.956	401.81
425.178	406.81
425.401	394.81
425.623	404.81
425.846	340.81
426.068	339.81
426.291	322.81
426.513	315.81
426.735	356.81
426.958	364.81
427.18	425.81
427.402	492.81
427.625	509.81
427.847	472.81
428.069	417.81
428.292	359.81
428.514	348.81
428.736	323.81
428.958	320.81
429.181	292.81
429.403	308.81
429.625	315.81
429.847	332.81
430.069	369.81
430.292	362.81
430.514	333.81
430.736	305.81
430.958	308.81
431.18	312.81
431.402	306.81
431.624	301.81
431.846	287.81
432.068	289.81
432.29	293.81
432.512	297.81
432.734	289.81
432.956	282.81
433.178	317.81
433.4	318.81
433.622	309.81
433.844	301.81
434.066	298.81
434.287	289.81
434.509	299.81
434.731	309.81
434.953	300.81
435.175	308.81
435.397	322.81
435.618	339.81
435.84	369.81
436.062	410.81
436.284	441.81
436.505	373.81
436.727	340.81
436.949	320.81
437.17	301.81
437.392	332.81
437.614	317.81
437.835	328.81
438.057	400.81
438.278	448.81
438.5	441.81
438.721	490.81
438.943	464.81
439.165	362.81
439.386	354.81
439.608	353.81
439.829	341.81
440.05	366.81
440.272	384.81
440.493	368.81
440.715	346.81
440.936	310.81
441.158	324.81
441.379	303.81
441.6	319.81
441.822	323.81
442.043	357.81
442.264	402.81
442.486	434.81
442.707	362.81
442.928	349.81
443.149	347.81
443.371	371.81
443.592	379.81
443.813	429.81
444.034	441.81
444.255	383.81
444.476	355.81
444.698	333.81
444.919	331.81
445.14	402.81
445.361	390.81
445.582	372.81
445.803	386.81
446.024	439.81
446.245	464.81
446.466	404.81
446.687	370.81
446.908	334.81
447.129	314.81
447.35	316.81
447.571	302.81
447.792	313.81
448.013	313.81
448.234	320.81
448.455	357.81
448.675	429.81
448.896	482.81
449.117	423.81
449.338	398.81
449.559	459.81
449.779	512.81
450	419.81
450.221	333.81
450.442	329.81
450.662	326.81
450.883	321.81
451.104	310.81
451.324	313.81
451.545	291.81
451.766	285.81
451.986	280.81
452.207	272.81
452.428	273.81
452.648	292.81
452.869	274.81
453.089	300.81
453.31	318.81
453.53	290.81
453.751	282.81
453.971	280.81
454.192	294.81
454.412	292.81
454.633	265.81
454.853	278.81
455.073	299.81
455.294	306.81
455.514	360.81
455.734	316.81
455.955	301.81
456.175	270.81
456.395	272.81
456.616	265.81
456.836	260.81
457.056	237.81
457.276	256.81
457.497	254.81
457.717	249.81
457.937	271.81
458.157	274.81
458.377	265.81
458.598	271.81
458.818	329.81
459.038	368.81
459.258	365.81
459.478	304.81
459.698	315.81
459.918	293.81
460.138	285.81
460.358	278.81
460.578	281.81
460.798	277.81
461.018	294.81
461.238	289.81
461.458	298.81
461.678	280.81
461.898	274.81
462.118	302.81
462.338	309.81
462.558	288.81
462.777	314.81
462.997	306.81
463.217	292.81
463.437	308.81
463.657	304.81
463.876	313.81
464.096	304.81
464.316	302.81
464.536	318.81
464.755	312.81
464.975	291.81
465.195	336.81
465.414	388.81
465.634	325.81
465.854	301.81
466.073	315.81
466.293	294.81
466.512	274.81
466.732	275.81
466.951	276.81
467.171	288.81
467.391	295.81
467.61	297.81
467.829	301.81
468.049	309.81
468.268	280.81
468.488	296.81
468.707	284.81
468.927	282.81
469.146	276.81
469.365	285.81
469.585	290.81
469.804	276.81
470.023	307.81
470.243	291.81
470.462	311.81
470.681	305.81
470.901	286.81
471.12	288.81
471.339	288.81
471.558	301.81
471.777	288.81
471.997	280.81
472.216	295.81
472.435	294.81
472.654	275.81
472.873	300.81
473.092	283.81
473.311	305.81
473.53	274.81
473.749	290.81
473.968	321.81
474.187	386.81
474.406	384.81
474.625	328.81
474.844	291.81
475.063	278.81
475.282	293.81
475.501	303.81
475.72	302.81
475.939	292.81
476.158	289.81
476.377	292.81
476.596	297.81
476.814	290.81
477.033	301.81
477.252	302.81
477.471	316.81
477.69	301.81
477.908	308.81
478.127	320.81
478.346	310.81
478.564	310.81
478.783	319.81
479.002	324.81
479.22	318.81
479.439	326.81
479.658	355.81
479.876	345.81
480.095	339.81
480.313	361.81
480.532	355.81
480.751	349.81
480.969	329.81
481.188	372.81
481.406	382.81
481.624	352.81
481.843	337.81
482.061	354.81
482.28	347.81
482.498	346.81
482.717	337.81
482.935	331.81
483.153	327.81
483.372	320.81
483.59	344.81
483.808	320.81
484.027	339.81
484.245	323.81
484.463	329.81
484.681	329.81
484.9	349.81
485.118	345.81
485.336	310.81
485.554	354.81
485.772	350.81
485.99	344.81
486.209	354.81
486.427	358.81
486.645	362.81
486.863	350.81
487.081	360.81
487.299	365.81
487.517	352.81
487.735	334.81
487.953	365.81
488.171	360.81
488.389	372.81
488.607	342.81
488.825	364.81
489.043	369.81
489.261	350.81
489.479	361.81
489.696	343.81
489.914	342.81
490.132	365.81
490.35	368.81
490.568	362.81
490.786	396.81
491.003	377.81
491.221	395.81
491.439	380.81
491.657	396.81
491.874	416.81
492.092	380.81
492.31	399.81
492.527	414.81
492.745	398.81
492.963	401.81
493.18	412.81
493.398	395.81
493.615	422.81
493.833	417.81
494.05	424.81
494.268	406.81
494.485	414.81
494.703	405.81
494.92	425.81
495.138	416.81
495.355	430.81
495.573	422.81
495.79	399.81
496.008	418.81
496.225	417.81
496.442	430.81
496.66	418.81
496.877	408.81
497.094	419.81
497.312	420.81
497.529	421.81
497.746	440.81
497.963	424.81
498.181	427.81
498.398	429.81
498.615	438.81
498.832	456.81
499.049	466.81
499.267	457.81
499.484	493.81
499.701	490.81
499.918	497.81
500.135	516.81
500.352	521.81
500.569	542.81
500.786	523.81
501.003	537.81
501.22	508.81
501.437	510.81
501.654	513.81
501.871	500.81
502.088	483.81
