Data from 1982.PennyLincolnUp.Lamp.En5.5.200Scan.071819.P1_HRD10591_16-44-52-961.txt Node
Date: Thu Jul 18 16:44:52 EDT 2019
User: cochatt
Spectrometer: HR+D1059
Trigger mode: 1
Integration Time (sec): 1.000000E-1
Scans to average: 1
Electric dark correction enabled: true
Nonlinearity correction enabled: false
Boxcar width: 0
XAxis mode: Wavelengths
Number of Pixels in Spectrum: 2048
>>>>>Begin Spectral Data<<<<<
223.165	-16.44
223.4	-16.44
223.635	-16.44
223.869	-35.44
224.104	-28.44
224.338	-3.44
224.573	-7.44
224.808	0.56
225.042	-9.44
225.277	-7.44
225.511	-11.44
225.746	0.56
225.98	12.56
226.215	15.56
226.449	20.56
226.683	11.56
226.918	27.56
227.152	30.56
227.387	32.56
227.621	29.56
227.856	39.56
228.09	55.56
228.324	42.56
228.559	50.56
228.793	64.56
229.027	77.56
229.262	77.56
229.496	93.56
229.73	103.56
229.964	98.56
230.199	99.56
230.433	98.56
230.667	89.56
230.901	104.56
231.136	92.56
231.37	91.56
231.604	115.56
231.838	91.56
232.072	89.56
232.306	82.56
232.541	83.56
232.775	106.56
233.009	101.56
233.243	90.56
233.477	97.56
233.711	95.56
233.945	95.56
234.179	92.56
234.413	97.56
234.647	97.56
234.881	108.56
235.115	99.56
235.349	101.56
235.583	88.56
235.817	101.56
236.051	88.56
236.285	114.56
236.519	100.56
236.753	124.56
236.987	107.56
237.221	119.56
237.455	146.56
237.689	140.56
237.922	110.56
238.156	100.56
238.39	107.56
238.624	105.56
238.858	107.56
239.091	93.56
239.325	88.56
239.559	92.56
239.793	113.56
240.027	96.56
240.26	103.56
240.494	115.56
240.728	114.56
240.961	101.56
241.195	114.56
241.429	124.56
241.662	114.56
241.896	111.56
242.13	100.56
242.363	103.56
242.597	94.56
242.83	107.56
243.064	121.56
243.298	99.56
243.531	108.56
243.765	113.56
243.998	88.56
244.232	110.56
244.465	118.56
244.699	114.56
244.932	102.56
245.166	115.56
245.399	103.56
245.633	104.56
245.866	106.56
246.099	125.56
246.333	122.56
246.566	110.56
246.8	119.56
247.033	126.56
247.266	115.56
247.5	114.56
247.733	127.56
247.966	129.56
248.2	126.56
248.433	138.56
248.666	125.56
248.899	122.56
249.133	134.56
249.366	141.56
249.599	137.56
249.832	125.56
250.066	148.56
250.299	136.56
250.532	133.56
250.765	128.56
250.998	156.56
251.231	140.56
251.465	153.56
251.698	158.56
251.931	145.56
252.164	137.56
252.397	156.56
252.63	143.56
252.863	158.56
253.096	156.56
253.329	153.56
253.562	155.56
253.795	145.56
254.028	174.56
254.261	163.56
254.494	150.56
254.727	172.56
254.96	174.56
255.193	180.56
255.426	152.56
255.659	175.56
255.892	145.56
256.124	157.56
256.357	156.56
256.59	162.56
256.823	158.56
257.056	151.56
257.289	152.56
257.521	144.56
257.754	135.56
257.987	146.56
258.22	159.56
258.452	144.56
258.685	156.56
258.918	140.56
259.151	150.56
259.383	167.56
259.616	148.56
259.849	163.56
260.081	158.56
260.314	167.56
260.547	176.56
260.779	180.56
261.012	154.56
261.244	149.56
261.477	164.56
261.71	146.56
261.942	159.56
262.175	152.56
262.407	164.56
262.64	139.56
262.872	167.56
263.105	141.56
263.337	163.56
263.57	160.56
263.802	168.56
264.035	143.56
264.267	161.56
264.499	153.56
264.732	147.56
264.964	155.56
265.197	137.56
265.429	161.56
265.661	146.56
265.894	146.56
266.126	144.56
266.358	157.56
266.591	168.56
266.823	150.56
267.055	155.56
267.287	161.56
267.52	161.56
267.752	128.56
267.984	169.56
268.216	152.56
268.448	164.56
268.681	168.56
268.913	177.56
269.145	175.56
269.377	160.56
269.609	171.56
269.841	186.56
270.073	172.56
270.306	204.56
270.538	199.56
270.77	208.56
271.002	208.56
271.234	207.56
271.466	201.56
271.698	198.56
271.93	205.56
272.162	203.56
272.394	211.56
272.626	183.56
272.858	193.56
273.09	194.56
273.322	164.56
273.553	166.56
273.785	178.56
274.017	186.56
274.249	185.56
274.481	187.56
274.713	165.56
274.945	197.56
275.176	187.56
275.408	180.56
275.64	196.56
275.872	183.56
276.104	168.56
276.335	203.56
276.567	181.56
276.799	196.56
277.031	199.56
277.262	196.56
277.494	186.56
277.726	190.56
277.957	182.56
278.189	184.56
278.421	185.56
278.652	198.56
278.884	179.56
279.115	171.56
279.347	176.56
279.579	177.56
279.81	176.56
280.042	174.56
280.273	176.56
280.505	176.56
280.736	169.56
280.968	180.56
281.199	185.56
281.431	184.56
281.662	172.56
281.894	185.56
282.125	168.56
282.356	198.56
282.588	199.56
282.819	190.56
283.051	186.56
283.282	208.56
283.513	167.56
283.745	178.56
283.976	176.56
284.207	176.56
284.439	169.56
284.67	187.56
284.901	200.56
285.132	174.56
285.364	186.56
285.595	195.56
285.826	194.56
286.057	183.56
286.288	182.56
286.52	171.56
286.751	191.56
286.982	185.56
287.213	190.56
287.444	193.56
287.675	203.56
287.906	195.56
288.138	189.56
288.369	207.56
288.6	210.56
288.831	192.56
289.062	188.56
289.293	184.56
289.524	183.56
289.755	206.56
289.986	195.56
290.217	204.56
290.448	205.56
290.679	178.56
290.91	185.56
291.141	184.56
291.371	178.56
291.602	199.56
291.833	199.56
292.064	198.56
292.295	206.56
292.526	183.56
292.757	186.56
292.987	190.56
293.218	192.56
293.449	180.56
293.68	165.56
293.91	186.56
294.141	183.56
294.372	193.56
294.603	211.56
294.833	193.56
295.064	192.56
295.295	188.56
295.525	201.56
295.756	188.56
295.987	213.56
296.217	213.56
296.448	203.56
296.679	178.56
296.909	193.56
297.14	203.56
297.37	198.56
297.601	187.56
297.831	201.56
298.062	198.56
298.292	189.56
298.523	207.56
298.753	195.56
298.984	199.56
299.214	204.56
299.445	192.56
299.675	214.56
299.905	186.56
300.136	204.56
300.366	195.56
300.597	201.56
300.827	196.56
301.057	210.56
301.288	188.56
301.518	205.56
301.748	219.56
301.979	219.56
302.209	219.56
302.439	195.56
302.669	214.56
302.9	205.56
303.13	203.56
303.36	208.56
303.59	221.56
303.82	207.56
304.051	212.56
304.281	206.56
304.511	208.56
304.741	212.56
304.971	203.56
305.201	203.56
305.431	209.56
305.661	198.56
305.891	206.56
306.121	206.56
306.352	206.56
306.582	224.56
306.812	220.56
307.042	210.56
307.272	199.56
307.502	212.56
307.731	238.56
307.961	198.56
308.191	207.56
308.421	220.56
308.651	233.56
308.881	218.56
309.111	203.56
309.341	210.56
309.571	201.56
309.8	232.56
310.03	211.56
310.26	227.56
310.49	218.56
310.72	241.56
310.949	258.56
311.179	241.56
311.409	221.56
311.639	223.56
311.868	236.56
312.098	240.56
312.328	233.56
312.557	246.56
312.787	256.56
313.017	266.56
313.246	245.56
313.476	233.56
313.706	244.56
313.935	236.56
314.165	251.56
314.394	244.56
314.624	257.56
314.853	266.56
315.083	255.56
315.312	239.56
315.542	247.56
315.771	236.56
316.001	231.56
316.23	238.56
316.46	240.56
316.689	238.56
316.919	255.56
317.148	254.56
317.377	252.56
317.607	242.56
317.836	231.56
318.065	242.56
318.295	233.56
318.524	243.56
318.753	239.56
318.983	238.56
319.212	242.56
319.441	256.56
319.67	244.56
319.9	242.56
320.129	249.56
320.358	229.56
320.587	239.56
320.816	241.56
321.046	259.56
321.275	254.56
321.504	258.56
321.733	263.56
321.962	264.56
322.191	276.56
322.42	269.56
322.649	285.56
322.878	286.56
323.108	282.56
323.337	292.56
323.566	301.56
323.795	324.56
324.024	356.56
324.253	424.56
324.482	605.56
324.71	883.56
324.939	1156.56
325.168	938.56
325.397	518.56
325.626	375.56
325.855	311.56
326.084	314.56
326.313	318.56
326.542	295.56
326.77	346.56
326.999	405.56
327.228	562.56
327.457	756.56
327.686	855.56
327.914	578.56
328.143	372.56
328.372	352.56
328.6	324.56
328.829	340.56
329.058	339.56
329.287	345.56
329.515	307.56
329.744	312.56
329.972	316.56
330.201	314.56
330.43	316.56
330.658	341.56
330.887	342.56
331.115	369.56
331.344	311.56
331.572	295.56
331.801	297.56
332.03	290.56
332.258	295.56
332.486	282.56
332.715	278.56
332.943	280.56
333.172	273.56
333.4	272.56
333.629	285.56
333.857	283.56
334.085	278.56
334.314	307.56
334.542	286.56
334.771	298.56
334.999	303.56
335.227	291.56
335.455	264.56
335.684	264.56
335.912	272.56
336.14	285.56
336.369	283.56
336.597	262.56
336.825	286.56
337.053	261.56
337.281	267.56
337.51	271.56
337.738	276.56
337.966	255.56
338.194	280.56
338.422	267.56
338.65	266.56
338.878	262.56
339.106	266.56
339.334	268.56
339.562	267.56
339.79	264.56
340.018	249.56
340.246	262.56
340.474	267.56
340.702	266.56
340.93	272.56
341.158	244.56
341.386	259.56
341.614	273.56
341.842	264.56
342.07	270.56
342.298	267.56
342.526	278.56
342.754	264.56
342.981	262.56
343.209	257.56
343.437	249.56
343.665	252.56
343.893	255.56
344.12	282.56
344.348	260.56
344.576	266.56
344.804	274.56
345.031	278.56
345.259	278.56
345.487	263.56
345.714	260.56
345.942	262.56
346.17	263.56
346.397	257.56
346.625	266.56
346.853	256.56
347.08	238.56
347.308	261.56
347.535	256.56
347.763	254.56
347.99	268.56
348.218	267.56
348.445	273.56
348.673	269.56
348.9	267.56
349.128	251.56
349.355	254.56
349.583	268.56
349.81	248.56
350.037	246.56
350.265	252.56
350.492	254.56
350.72	254.56
350.947	263.56
351.174	265.56
351.402	276.56
351.629	256.56
351.856	272.56
352.083	235.56
352.311	252.56
352.538	255.56
352.765	256.56
352.992	247.56
353.22	268.56
353.447	248.56
353.674	256.56
353.901	244.56
354.128	249.56
354.355	227.56
354.583	246.56
354.81	242.56
355.037	244.56
355.264	248.56
355.491	242.56
355.718	233.56
355.945	247.56
356.172	222.56
356.399	225.56
356.626	250.56
356.853	241.56
357.08	232.56
357.307	243.56
357.534	230.56
357.761	241.56
357.988	260.56
358.215	241.56
358.441	256.56
358.668	238.56
358.895	226.56
359.122	230.56
359.349	251.56
359.576	254.56
359.802	253.56
360.029	272.56
360.256	273.56
360.483	270.56
360.709	251.56
360.936	254.56
361.163	252.56
361.39	251.56
361.616	263.56
361.843	250.56
362.07	251.56
362.296	256.56
362.523	245.56
362.749	249.56
362.976	257.56
363.203	244.56
363.429	229.56
363.656	262.56
363.882	230.56
364.109	243.56
364.335	233.56
364.562	253.56
364.788	230.56
365.015	230.56
365.241	251.56
365.468	235.56
365.694	245.56
365.92	239.56
366.147	227.56
366.373	252.56
366.599	251.56
366.826	225.56
367.052	242.56
367.278	242.56
367.505	231.56
367.731	249.56
367.957	224.56
368.184	243.56
368.41	238.56
368.636	245.56
368.862	259.56
369.089	245.56
369.315	234.56
369.541	231.56
369.767	239.56
369.993	228.56
370.219	257.56
370.445	238.56
370.672	246.56
370.898	242.56
371.124	250.56
371.35	243.56
371.576	238.56
371.802	233.56
372.028	229.56
372.254	227.56
372.48	226.56
372.706	228.56
372.932	241.56
373.158	240.56
373.384	241.56
373.61	246.56
373.835	251.56
374.061	251.56
374.287	247.56
374.513	239.56
374.739	233.56
374.965	245.56
375.191	233.56
375.416	236.56
375.642	246.56
375.868	256.56
376.094	251.56
376.319	256.56
376.545	237.56
376.771	235.56
376.997	223.56
377.222	223.56
377.448	234.56
377.674	239.56
377.899	237.56
378.125	236.56
378.35	228.56
378.576	240.56
378.802	239.56
379.027	234.56
379.253	240.56
379.478	230.56
379.704	234.56
379.929	233.56
380.155	238.56
380.38	228.56
380.606	254.56
380.831	238.56
381.057	245.56
381.282	232.56
381.507	256.56
381.733	269.56
381.958	233.56
382.184	235.56
382.409	224.56
382.634	258.56
382.86	227.56
383.085	235.56
383.31	260.56
383.535	248.56
383.761	257.56
383.986	237.56
384.211	251.56
384.436	251.56
384.662	253.56
384.887	262.56
385.112	248.56
385.337	257.56
385.562	243.56
385.787	250.56
386.013	248.56
386.238	257.56
386.463	248.56
386.688	263.56
386.913	246.56
387.138	227.56
387.363	257.56
387.588	254.56
387.813	264.56
388.038	234.56
388.263	251.56
388.488	230.56
388.713	249.56
388.938	261.56
389.163	262.56
389.387	251.56
389.612	252.56
389.837	246.56
390.062	235.56
390.287	248.56
390.512	240.56
390.736	259.56
390.961	262.56
391.186	243.56
391.411	253.56
391.636	267.56
391.86	257.56
392.085	254.56
392.31	244.56
392.534	233.56
392.759	245.56
392.984	244.56
393.208	263.56
393.433	263.56
393.658	255.56
393.882	268.56
394.107	233.56
394.331	252.56
394.556	242.56
394.78	250.56
395.005	265.56
395.229	262.56
395.454	268.56
395.678	276.56
395.903	252.56
396.127	270.56
396.352	278.56
396.576	260.56
396.801	254.56
397.025	260.56
397.249	263.56
397.474	259.56
397.698	262.56
397.922	270.56
398.147	289.56
398.371	275.56
398.595	258.56
398.82	286.56
399.044	285.56
399.268	276.56
399.492	307.56
399.717	322.56
399.941	316.56
400.165	314.56
400.389	350.56
400.613	329.56
400.837	298.56
401.062	275.56
401.286	266.56
401.51	292.56
401.734	285.56
401.958	281.56
402.182	280.56
402.406	281.56
402.63	284.56
402.854	290.56
403.078	283.56
403.302	293.56
403.526	267.56
403.75	278.56
403.974	282.56
404.198	272.56
404.422	287.56
404.645	287.56
404.869	291.56
405.093	296.56
405.317	317.56
405.541	323.56
405.765	298.56
405.988	300.56
406.212	298.56
406.436	306.56
406.66	303.56
406.883	310.56
407.107	329.56
407.331	345.56
407.555	363.56
407.778	353.56
408.002	338.56
408.226	311.56
408.449	316.56
408.673	307.56
408.896	324.56
409.12	332.56
409.344	347.56
409.567	296.56
409.791	295.56
410.014	296.56
410.238	290.56
410.461	304.56
410.685	294.56
410.908	292.56
411.132	323.56
411.355	328.56
411.578	326.56
411.802	291.56
412.025	292.56
412.249	298.56
412.472	302.56
412.695	295.56
412.919	308.56
413.142	275.56
413.365	285.56
413.589	256.56
413.812	273.56
414.035	277.56
414.258	247.56
414.482	258.56
414.705	278.56
414.928	260.56
415.151	278.56
415.374	269.56
415.597	266.56
415.821	258.56
416.044	266.56
416.267	272.56
416.49	275.56
416.713	280.56
416.936	293.56
417.159	246.56
417.382	275.56
417.605	281.56
417.828	296.56
418.051	271.56
418.274	261.56
418.497	265.56
418.72	276.56
418.943	268.56
419.166	263.56
419.389	298.56
419.611	274.56
419.834	266.56
420.057	279.56
420.28	285.56
420.503	267.56
420.726	267.56
420.948	292.56
421.171	293.56
421.394	306.56
421.617	295.56
421.839	295.56
422.062	279.56
422.285	303.56
422.507	303.56
422.73	344.56
422.953	338.56
423.175	294.56
423.398	291.56
423.621	296.56
423.843	295.56
424.066	312.56
424.288	316.56
424.511	313.56
424.733	338.56
424.956	371.56
425.178	355.56
425.401	352.56
425.623	366.56
425.846	330.56
426.068	304.56
426.291	279.56
426.513	295.56
426.735	311.56
426.958	313.56
427.18	367.56
427.402	430.56
427.625	443.56
427.847	387.56
428.069	371.56
428.292	332.56
428.514	289.56
428.736	286.56
428.958	288.56
429.181	272.56
429.403	265.56
429.625	280.56
429.847	294.56
430.069	333.56
430.292	328.56
430.514	269.56
430.736	274.56
430.958	269.56
431.18	265.56
431.402	253.56
431.624	269.56
431.846	258.56
432.068	263.56
432.29	260.56
432.512	269.56
432.734	272.56
432.956	278.56
433.178	275.56
433.4	268.56
433.622	286.56
433.844	261.56
434.066	269.56
434.287	266.56
434.509	259.56
434.731	251.56
434.953	278.56
435.175	270.56
435.397	290.56
435.618	299.56
435.84	344.56
436.062	376.56
436.284	410.56
436.505	338.56
436.727	296.56
436.949	286.56
437.17	266.56
437.392	287.56
437.614	275.56
437.835	324.56
438.057	342.56
438.278	403.56
438.5	380.56
438.721	451.56
438.943	410.56
439.165	350.56
439.386	316.56
439.608	309.56
439.829	316.56
440.05	312.56
440.272	324.56
440.493	321.56
440.715	297.56
440.936	305.56
441.158	258.56
441.379	291.56
441.6	295.56
441.822	308.56
442.043	312.56
442.264	349.56
442.486	377.56
442.707	332.56
442.928	327.56
443.149	287.56
443.371	327.56
443.592	332.56
443.813	361.56
444.034	430.56
444.255	351.56
444.476	302.56
444.698	300.56
444.919	294.56
445.14	384.56
445.361	337.56
445.582	322.56
445.803	364.56
446.024	389.56
446.245	386.56
446.466	361.56
446.687	321.56
446.908	293.56
447.129	270.56
447.35	293.56
447.571	285.56
447.792	283.56
448.013	263.56
448.234	274.56
448.455	308.56
448.675	380.56
448.896	424.56
449.117	374.56
449.338	356.56
449.559	415.56
449.779	475.56
450	382.56
450.221	302.56
450.442	286.56
450.662	275.56
450.883	286.56
451.104	295.56
451.324	262.56
451.545	268.56
451.766	266.56
451.986	262.56
452.207	252.56
452.428	261.56
452.648	247.56
452.869	257.56
453.089	263.56
453.31	263.56
453.53	262.56
453.751	238.56
453.971	241.56
454.192	253.56
454.412	254.56
454.633	234.56
454.853	241.56
455.073	246.56
455.294	258.56
455.514	295.56
455.734	287.56
455.955	249.56
456.175	242.56
456.395	220.56
456.616	227.56
456.836	232.56
457.056	233.56
457.276	256.56
457.497	226.56
457.717	240.56
457.937	233.56
458.157	241.56
458.377	259.56
458.598	272.56
458.818	290.56
459.038	305.56
459.258	327.56
459.478	264.56
459.698	272.56
459.918	273.56
460.138	274.56
460.358	276.56
460.578	247.56
460.798	258.56
461.018	274.56
461.238	256.56
461.458	263.56
461.678	273.56
461.898	256.56
462.118	256.56
462.338	271.56
462.558	266.56
462.777	273.56
462.997	284.56
463.217	278.56
463.437	274.56
463.657	283.56
463.876	282.56
464.096	278.56
464.316	282.56
464.536	281.56
464.755	292.56
464.975	309.56
465.195	323.56
465.414	334.56
465.634	292.56
465.854	276.56
466.073	274.56
466.293	275.56
466.512	274.56
466.732	259.56
466.951	262.56
467.171	263.56
467.391	278.56
467.61	252.56
467.829	279.56
468.049	276.56
468.268	251.56
468.488	262.56
468.707	247.56
468.927	254.56
469.146	256.56
469.365	269.56
469.585	245.56
469.804	256.56
470.023	272.56
470.243	265.56
470.462	264.56
470.681	269.56
470.901	283.56
471.12	256.56
471.339	266.56
471.558	256.56
471.777	266.56
471.997	271.56
472.216	270.56
472.435	289.56
472.654	254.56
472.873	262.56
473.092	259.56
473.311	242.56
473.53	279.56
473.749	288.56
473.968	304.56
474.187	358.56
474.406	361.56
474.625	286.56
474.844	289.56
475.063	267.56
475.282	262.56
475.501	261.56
475.72	273.56
475.939	254.56
476.158	282.56
476.377	259.56
476.596	266.56
476.814	283.56
477.033	267.56
477.252	266.56
477.471	265.56
477.69	272.56
477.908	295.56
478.127	291.56
478.346	280.56
478.564	303.56
478.783	293.56
479.002	268.56
479.22	289.56
479.439	308.56
479.658	300.56
479.876	299.56
480.095	316.56
480.313	330.56
480.532	310.56
480.751	313.56
480.969	324.56
481.188	331.56
481.406	341.56
481.624	310.56
481.843	297.56
482.061	314.56
482.28	299.56
482.498	296.56
482.717	299.56
482.935	303.56
483.153	312.56
483.372	305.56
483.59	319.56
483.808	297.56
484.027	291.56
484.245	312.56
484.463	288.56
484.681	309.56
484.9	284.56
485.118	298.56
485.336	300.56
485.554	315.56
485.772	315.56
485.99	302.56
486.209	308.56
486.427	339.56
486.645	332.56
486.863	334.56
487.081	322.56
487.299	327.56
487.517	295.56
487.735	314.56
487.953	333.56
488.171	317.56
488.389	323.56
488.607	315.56
488.825	297.56
489.043	287.56
489.261	335.56
489.479	312.56
489.696	342.56
489.914	338.56
490.132	340.56
490.35	337.56
490.568	329.56
490.786	335.56
491.003	330.56
491.221	339.56
491.439	351.56
491.657	360.56
491.874	367.56
492.092	350.56
492.31	355.56
492.527	361.56
492.745	377.56
492.963	353.56
493.18	372.56
493.398	366.56
493.615	362.56
493.833	360.56
494.05	362.56
494.268	358.56
494.485	360.56
494.703	373.56
494.92	368.56
495.138	384.56
495.355	363.56
495.573	378.56
495.79	360.56
496.008	375.56
496.225	348.56
496.442	378.56
496.66	371.56
496.877	394.56
497.094	402.56
497.312	377.56
497.529	374.56
497.746	401.56
497.963	389.56
498.181	397.56
498.398	360.56
498.615	412.56
498.832	408.56
499.049	434.56
499.267	434.56
499.484	418.56
499.701	428.56
499.918	430.56
500.135	473.56
500.352	483.56
500.569	503.56
500.786	477.56
501.003	476.56
501.22	438.56
501.437	447.56
501.654	443.56
501.871	437.56
502.088	429.56
502.305	424.56
502.522	412.56
