Data from 1982.PennyLincolnUp.Lamp.En5.5.200Scan.071819.P1_HRD10591_16-45-23-961.txt Node
Date: Thu Jul 18 16:45:23 EDT 2019
User: cochatt
Spectrometer: HR+D1059
Trigger mode: 1
Integration Time (sec): 1.000000E-1
Scans to average: 1
Electric dark correction enabled: true
Nonlinearity correction enabled: false
Boxcar width: 0
XAxis mode: Wavelengths
Number of Pixels in Spectrum: 2048
>>>>>Begin Spectral Data<<<<<
223.165	-19.25
223.4	-19.25
223.635	-19.25
223.869	-12.25
224.104	-28.25
224.338	-14.25
224.573	-20.25
224.808	-22.25
225.042	-4.25
225.277	-3.25
225.511	1.75
225.746	2.75
225.98	12.75
226.215	14.75
226.449	14.75
226.683	26.75
226.918	17.75
227.152	32.75
227.387	22.75
227.621	44.75
227.856	49.75
228.09	44.75
228.324	52.75
228.559	71.75
228.793	69.75
229.027	77.75
229.262	92.75
229.496	102.75
229.73	118.75
229.964	137.75
230.199	118.75
230.433	97.75
230.667	107.75
230.901	103.75
231.136	86.75
231.37	96.75
231.604	97.75
231.838	103.75
232.072	101.75
232.306	107.75
232.541	103.75
232.775	99.75
233.009	100.75
233.243	97.75
233.477	99.75
233.711	108.75
233.945	96.75
234.179	103.75
234.413	118.75
234.647	106.75
234.881	95.75
235.115	103.75
235.349	102.75
235.583	116.75
235.817	110.75
236.051	106.75
236.285	106.75
236.519	115.75
236.753	110.75
236.987	111.75
237.221	141.75
237.455	174.75
237.689	148.75
237.922	123.75
238.156	108.75
238.39	115.75
238.624	122.75
238.858	101.75
239.091	104.75
239.325	105.75
239.559	99.75
239.793	113.75
240.027	117.75
240.26	116.75
240.494	126.75
240.728	115.75
240.961	130.75
241.195	127.75
241.429	125.75
241.662	112.75
241.896	111.75
242.13	119.75
242.363	115.75
242.597	113.75
242.83	119.75
243.064	105.75
243.298	115.75
243.531	103.75
243.765	119.75
243.998	114.75
244.232	110.75
244.465	108.75
244.699	124.75
244.932	119.75
245.166	118.75
245.399	120.75
245.633	135.75
245.866	131.75
246.099	121.75
246.333	127.75
246.566	119.75
246.8	123.75
247.033	135.75
247.266	138.75
247.5	142.75
247.733	139.75
247.966	143.75
248.2	136.75
248.433	130.75
248.666	151.75
248.899	152.75
249.133	163.75
249.366	165.75
249.599	155.75
249.832	153.75
250.066	115.75
250.299	146.75
250.532	160.75
250.765	160.75
250.998	165.75
251.231	185.75
251.465	173.75
251.698	166.75
251.931	179.75
252.164	159.75
252.397	149.75
252.63	164.75
252.863	164.75
253.096	166.75
253.329	185.75
253.562	188.75
253.795	186.75
254.028	173.75
254.261	155.75
254.494	188.75
254.727	193.75
254.96	228.75
255.193	181.75
255.426	194.75
255.659	204.75
255.892	189.75
256.124	173.75
256.357	183.75
256.59	165.75
256.823	166.75
257.056	164.75
257.289	175.75
257.521	182.75
257.754	160.75
257.987	171.75
258.22	165.75
258.452	167.75
258.685	174.75
258.918	181.75
259.151	171.75
259.383	185.75
259.616	198.75
259.849	178.75
260.081	185.75
260.314	212.75
260.547	195.75
260.779	193.75
261.012	177.75
261.244	203.75
261.477	186.75
261.71	171.75
261.942	175.75
262.175	180.75
262.407	192.75
262.64	179.75
262.872	183.75
263.105	162.75
263.337	155.75
263.57	190.75
263.802	155.75
264.035	163.75
264.267	187.75
264.499	165.75
264.732	162.75
264.964	155.75
265.197	176.75
265.429	176.75
265.661	185.75
265.894	167.75
266.126	177.75
266.358	182.75
266.591	177.75
266.823	164.75
267.055	168.75
267.287	182.75
267.52	187.75
267.752	166.75
267.984	187.75
268.216	169.75
268.448	171.75
268.681	189.75
268.913	191.75
269.145	196.75
269.377	221.75
269.609	175.75
269.841	203.75
270.073	215.75
270.306	227.75
270.538	217.75
270.77	222.75
271.002	220.75
271.234	206.75
271.466	250.75
271.698	216.75
271.93	228.75
272.162	231.75
272.394	212.75
272.626	231.75
272.858	219.75
273.09	197.75
273.322	203.75
273.553	203.75
273.785	206.75
274.017	187.75
274.249	204.75
274.481	203.75
274.713	216.75
274.945	201.75
275.176	218.75
275.408	197.75
275.64	199.75
275.872	200.75
276.104	200.75
276.335	195.75
276.567	217.75
276.799	200.75
277.031	236.75
277.262	243.75
277.494	241.75
277.726	233.75
277.957	216.75
278.189	191.75
278.421	220.75
278.652	205.75
278.884	204.75
279.115	203.75
279.347	204.75
279.579	207.75
279.81	198.75
280.042	208.75
280.273	205.75
280.505	206.75
280.736	207.75
280.968	188.75
281.199	172.75
281.431	190.75
281.662	217.75
281.894	201.75
282.125	207.75
282.356	208.75
282.588	225.75
282.819	224.75
283.051	206.75
283.282	205.75
283.513	203.75
283.745	221.75
283.976	217.75
284.207	203.75
284.439	203.75
284.67	216.75
284.901	213.75
285.132	220.75
285.364	208.75
285.595	195.75
285.826	199.75
286.057	209.75
286.288	210.75
286.52	198.75
286.751	201.75
286.982	197.75
287.213	218.75
287.444	195.75
287.675	191.75
287.906	215.75
288.138	221.75
288.369	220.75
288.6	244.75
288.831	211.75
289.062	221.75
289.293	215.75
289.524	201.75
289.755	210.75
289.986	201.75
290.217	202.75
290.448	208.75
290.679	196.75
290.91	222.75
291.141	213.75
291.371	223.75
291.602	220.75
291.833	235.75
292.064	202.75
292.295	218.75
292.526	211.75
292.757	223.75
292.987	200.75
293.218	206.75
293.449	224.75
293.68	218.75
293.91	207.75
294.141	227.75
294.372	215.75
294.603	215.75
294.833	222.75
295.064	221.75
295.295	216.75
295.525	219.75
295.756	229.75
295.987	234.75
296.217	236.75
296.448	236.75
296.679	209.75
296.909	225.75
297.14	196.75
297.37	208.75
297.601	228.75
297.831	230.75
298.062	214.75
298.292	220.75
298.523	221.75
298.753	238.75
298.984	224.75
299.214	235.75
299.445	222.75
299.675	243.75
299.905	244.75
300.136	219.75
300.366	225.75
300.597	218.75
300.827	234.75
301.057	238.75
301.288	231.75
301.518	251.75
301.748	254.75
301.979	238.75
302.209	240.75
302.439	230.75
302.669	245.75
302.9	228.75
303.13	240.75
303.36	236.75
303.59	237.75
303.82	251.75
304.051	259.75
304.281	260.75
304.511	253.75
304.741	216.75
304.971	231.75
305.201	233.75
305.431	226.75
305.661	233.75
305.891	236.75
306.121	239.75
306.352	245.75
306.582	245.75
306.812	261.75
307.042	251.75
307.272	240.75
307.502	240.75
307.731	259.75
307.961	248.75
308.191	245.75
308.421	256.75
308.651	230.75
308.881	253.75
309.111	249.75
309.341	271.75
309.571	256.75
309.8	284.75
310.03	265.75
310.26	283.75
310.49	259.75
310.72	265.75
310.949	287.75
311.179	292.75
311.409	267.75
311.639	271.75
311.868	264.75
312.098	265.75
312.328	285.75
312.557	286.75
312.787	292.75
313.017	292.75
313.246	287.75
313.476	271.75
313.706	270.75
313.935	294.75
314.165	277.75
314.394	281.75
314.624	299.75
314.853	287.75
315.083	276.75
315.312	257.75
315.542	269.75
315.771	280.75
316.001	269.75
316.23	269.75
316.46	272.75
316.689	269.75
316.919	277.75
317.148	293.75
317.377	272.75
317.607	290.75
317.836	285.75
318.065	279.75
318.295	269.75
318.524	273.75
318.753	273.75
318.983	259.75
319.212	267.75
319.441	278.75
319.67	280.75
319.9	279.75
320.129	295.75
320.358	271.75
320.587	271.75
320.816	288.75
321.046	304.75
321.275	292.75
321.504	292.75
321.733	296.75
321.962	302.75
322.191	311.75
322.42	314.75
322.649	337.75
322.878	335.75
323.108	340.75
323.337	364.75
323.566	378.75
323.795	401.75
324.024	425.75
324.253	550.75
324.482	771.75
324.71	1167.75
324.939	1507.75
325.168	1195.75
325.397	648.75
325.626	460.75
325.855	398.75
326.084	371.75
326.313	373.75
326.542	367.75
326.77	423.75
326.999	499.75
327.228	689.75
327.457	1018.75
327.686	1087.75
327.914	730.75
328.143	509.75
328.372	466.75
328.6	430.75
328.829	401.75
329.058	417.75
329.287	402.75
329.515	386.75
329.744	348.75
329.972	378.75
330.201	380.75
330.43	398.75
330.658	421.75
330.887	440.75
331.115	407.75
331.344	370.75
331.572	353.75
331.801	362.75
332.03	354.75
332.258	331.75
332.486	332.75
332.715	331.75
332.943	315.75
333.172	307.75
333.4	346.75
333.629	323.75
333.857	352.75
334.085	358.75
334.314	343.75
334.542	343.75
334.771	347.75
334.999	333.75
335.227	334.75
335.455	311.75
335.684	320.75
335.912	328.75
336.14	316.75
336.369	311.75
336.597	325.75
336.825	308.75
337.053	320.75
337.281	309.75
337.51	303.75
337.738	320.75
337.966	315.75
338.194	307.75
338.422	301.75
338.65	307.75
338.878	298.75
339.106	314.75
339.334	318.75
339.562	286.75
339.79	273.75
340.018	303.75
340.246	278.75
340.474	293.75
340.702	295.75
340.93	295.75
341.158	305.75
341.386	284.75
341.614	323.75
341.842	280.75
342.07	280.75
342.298	287.75
342.526	283.75
342.754	295.75
342.981	282.75
343.209	296.75
343.437	294.75
343.665	299.75
343.893	280.75
344.12	297.75
344.348	287.75
344.576	304.75
344.804	307.75
345.031	303.75
345.259	320.75
345.487	294.75
345.714	307.75
345.942	295.75
346.17	287.75
346.397	301.75
346.625	284.75
346.853	286.75
347.08	283.75
347.308	288.75
347.535	299.75
347.763	299.75
347.99	312.75
348.218	285.75
348.445	311.75
348.673	295.75
348.9	288.75
349.128	292.75
349.355	288.75
349.583	281.75
349.81	285.75
350.037	303.75
350.265	274.75
350.492	285.75
350.72	297.75
350.947	295.75
351.174	294.75
351.402	285.75
351.629	303.75
351.856	284.75
352.083	283.75
352.311	309.75
352.538	301.75
352.765	323.75
352.992	302.75
353.22	292.75
353.447	284.75
353.674	274.75
353.901	272.75
354.128	277.75
354.355	266.75
354.583	264.75
354.81	276.75
355.037	277.75
355.264	268.75
355.491	272.75
355.718	259.75
355.945	251.75
356.172	279.75
356.399	277.75
356.626	265.75
356.853	268.75
357.08	262.75
357.307	269.75
357.534	254.75
357.761	256.75
357.988	281.75
358.215	278.75
358.441	275.75
358.668	270.75
358.895	268.75
359.122	276.75
359.349	277.75
359.576	289.75
359.802	305.75
360.029	313.75
360.256	334.75
360.483	303.75
360.709	292.75
360.936	291.75
361.163	282.75
361.39	291.75
361.616	306.75
361.843	296.75
362.07	282.75
362.296	294.75
362.523	293.75
362.749	267.75
362.976	302.75
363.203	280.75
363.429	285.75
363.656	263.75
363.882	273.75
364.109	272.75
364.335	279.75
364.562	264.75
364.788	266.75
365.015	264.75
365.241	280.75
365.468	278.75
365.694	285.75
365.92	303.75
366.147	285.75
366.373	263.75
366.599	268.75
366.826	264.75
367.052	279.75
367.278	275.75
367.505	262.75
367.731	257.75
367.957	285.75
368.184	276.75
368.41	255.75
368.636	284.75
368.862	270.75
369.089	280.75
369.315	285.75
369.541	275.75
369.767	277.75
369.993	283.75
370.219	271.75
370.445	263.75
370.672	256.75
370.898	266.75
371.124	273.75
371.35	280.75
371.576	251.75
371.802	265.75
372.028	267.75
372.254	263.75
372.48	273.75
372.706	273.75
372.932	277.75
373.158	270.75
373.384	255.75
373.61	263.75
373.835	256.75
374.061	284.75
374.287	264.75
374.513	239.75
374.739	271.75
374.965	273.75
375.191	271.75
375.416	249.75
375.642	264.75
375.868	274.75
376.094	256.75
376.319	249.75
376.545	252.75
376.771	269.75
376.997	276.75
377.222	257.75
377.448	253.75
377.674	248.75
377.899	234.75
378.125	248.75
378.35	275.75
378.576	249.75
378.802	267.75
379.027	244.75
379.253	257.75
379.478	256.75
379.704	251.75
379.929	262.75
380.155	259.75
380.38	250.75
380.606	269.75
380.831	264.75
381.057	270.75
381.282	258.75
381.507	280.75
381.733	268.75
381.958	258.75
382.184	257.75
382.409	278.75
382.634	262.75
382.86	271.75
383.085	274.75
383.31	265.75
383.535	267.75
383.761	255.75
383.986	261.75
384.211	272.75
384.436	273.75
384.662	281.75
384.887	264.75
385.112	277.75
385.337	274.75
385.562	272.75
385.787	280.75
386.013	282.75
386.238	282.75
386.463	270.75
386.688	285.75
386.913	277.75
387.138	295.75
387.363	273.75
387.588	272.75
387.813	266.75
388.038	267.75
388.263	286.75
388.488	249.75
388.713	261.75
388.938	294.75
389.163	272.75
389.387	280.75
389.612	273.75
389.837	251.75
390.062	260.75
390.287	267.75
390.512	267.75
390.736	283.75
390.961	267.75
391.186	278.75
391.411	269.75
391.636	289.75
391.86	286.75
392.085	270.75
392.31	267.75
392.534	273.75
392.759	281.75
392.984	277.75
393.208	277.75
393.433	289.75
393.658	268.75
393.882	273.75
394.107	282.75
394.331	265.75
394.556	281.75
394.78	292.75
395.005	283.75
395.229	293.75
395.454	290.75
395.678	299.75
395.903	295.75
396.127	291.75
396.352	297.75
396.576	283.75
396.801	294.75
397.025	282.75
397.249	290.75
397.474	269.75
397.698	283.75
397.922	293.75
398.147	303.75
398.371	314.75
398.595	302.75
398.82	302.75
399.044	315.75
399.268	312.75
399.492	316.75
399.717	333.75
399.941	318.75
400.165	343.75
400.389	355.75
400.613	330.75
400.837	319.75
401.062	300.75
401.286	307.75
401.51	301.75
401.734	294.75
401.958	320.75
402.182	329.75
402.406	311.75
402.63	314.75
402.854	323.75
403.078	301.75
403.302	316.75
403.526	326.75
403.75	318.75
403.974	309.75
404.198	311.75
404.422	328.75
404.645	325.75
404.869	302.75
405.093	333.75
405.317	344.75
405.541	376.75
405.765	343.75
405.988	321.75
406.212	339.75
406.436	333.75
406.66	353.75
406.883	334.75
407.107	335.75
407.331	364.75
407.555	425.75
407.778	387.75
408.002	368.75
408.226	356.75
408.449	346.75
408.673	345.75
408.896	363.75
409.12	384.75
409.344	366.75
409.567	319.75
409.791	300.75
410.014	310.75
410.238	292.75
410.461	317.75
410.685	326.75
410.908	336.75
411.132	347.75
411.355	350.75
411.578	346.75
411.802	301.75
412.025	298.75
412.249	309.75
412.472	320.75
412.695	335.75
412.919	341.75
413.142	301.75
413.365	301.75
413.589	281.75
413.812	294.75
414.035	294.75
414.258	309.75
414.482	300.75
414.705	300.75
414.928	288.75
415.151	289.75
415.374	295.75
415.597	312.75
415.821	304.75
416.044	280.75
416.267	294.75
416.49	296.75
416.713	287.75
416.936	286.75
417.159	298.75
417.382	301.75
417.605	301.75
417.828	304.75
418.051	305.75
418.274	291.75
418.497	265.75
418.72	296.75
418.943	291.75
419.166	299.75
419.389	304.75
419.611	318.75
419.834	313.75
420.057	285.75
420.28	308.75
420.503	291.75
420.726	307.75
420.948	332.75
421.171	340.75
421.394	361.75
421.617	294.75
421.839	312.75
422.062	325.75
422.285	310.75
422.507	351.75
422.73	389.75
422.953	376.75
423.175	349.75
423.398	320.75
423.621	317.75
423.843	328.75
424.066	317.75
424.288	344.75
424.511	335.75
424.733	375.75
424.956	424.75
425.178	400.75
425.401	396.75
425.623	414.75
425.846	356.75
426.068	331.75
426.291	357.75
426.513	325.75
426.735	341.75
426.958	356.75
427.18	403.75
427.402	455.75
427.625	521.75
427.847	461.75
428.069	404.75
428.292	358.75
428.514	345.75
428.736	324.75
428.958	319.75
429.181	304.75
429.403	302.75
429.625	319.75
429.847	332.75
430.069	372.75
430.292	351.75
430.514	328.75
430.736	307.75
430.958	293.75
431.18	293.75
431.402	298.75
431.624	291.75
431.846	294.75
432.068	293.75
432.29	287.75
432.512	298.75
432.734	293.75
432.956	294.75
433.178	289.75
433.4	309.75
433.622	302.75
433.844	287.75
434.066	303.75
434.287	287.75
434.509	291.75
434.731	298.75
434.953	310.75
435.175	316.75
435.397	326.75
435.618	322.75
435.84	337.75
436.062	403.75
436.284	453.75
436.505	374.75
436.727	357.75
436.949	311.75
437.17	307.75
437.392	315.75
437.614	318.75
437.835	357.75
438.057	399.75
438.278	477.75
438.5	451.75
438.721	471.75
438.943	467.75
439.165	384.75
439.386	372.75
439.608	344.75
439.829	335.75
440.05	356.75
440.272	377.75
440.493	357.75
440.715	318.75
440.936	312.75
441.158	331.75
441.379	313.75
441.6	315.75
441.822	344.75
442.043	350.75
442.264	392.75
442.486	423.75
442.707	368.75
442.928	345.75
443.149	349.75
443.371	366.75
443.592	378.75
443.813	431.75
444.034	445.75
444.255	383.75
444.476	335.75
444.698	332.75
444.919	330.75
445.14	426.75
445.361	388.75
445.582	358.75
445.803	398.75
446.024	468.75
446.245	450.75
446.466	414.75
446.687	338.75
446.908	320.75
447.129	326.75
447.35	303.75
447.571	314.75
447.792	301.75
448.013	323.75
448.234	335.75
448.455	365.75
448.675	428.75
448.896	484.75
449.117	390.75
449.338	421.75
449.559	446.75
449.779	496.75
450	409.75
450.221	340.75
450.442	338.75
450.662	310.75
450.883	324.75
451.104	305.75
451.324	302.75
451.545	299.75
451.766	304.75
451.986	287.75
452.207	268.75
452.428	272.75
452.648	298.75
452.869	263.75
453.089	300.75
453.31	296.75
453.53	276.75
453.751	279.75
453.971	283.75
454.192	276.75
454.412	294.75
454.633	279.75
454.853	268.75
455.073	302.75
455.294	294.75
455.514	350.75
455.734	314.75
455.955	279.75
456.175	271.75
456.395	268.75
456.616	253.75
456.836	261.75
457.056	255.75
457.276	240.75
457.497	268.75
457.717	264.75
457.937	267.75
458.157	277.75
458.377	299.75
458.598	289.75
458.818	327.75
459.038	375.75
459.258	372.75
459.478	317.75
459.698	298.75
459.918	294.75
460.138	315.75
460.358	303.75
460.578	297.75
460.798	293.75
461.018	298.75
461.238	291.75
461.458	285.75
461.678	298.75
461.898	290.75
462.118	294.75
462.338	302.75
462.558	308.75
462.777	299.75
462.997	277.75
463.217	317.75
463.437	294.75
463.657	283.75
463.876	284.75
464.096	292.75
464.316	307.75
464.536	312.75
464.755	317.75
464.975	325.75
465.195	346.75
465.414	389.75
465.634	341.75
465.854	315.75
466.073	296.75
466.293	303.75
466.512	291.75
466.732	286.75
466.951	286.75
467.171	285.75
467.391	288.75
467.61	285.75
467.829	310.75
468.049	301.75
468.268	290.75
468.488	285.75
468.707	272.75
468.927	279.75
469.146	286.75
469.365	296.75
469.585	289.75
469.804	286.75
470.023	280.75
470.243	284.75
470.462	286.75
470.681	307.75
470.901	284.75
471.12	285.75
471.339	283.75
471.558	285.75
471.777	299.75
471.997	280.75
472.216	307.75
472.435	297.75
472.654	301.75
472.873	302.75
473.092	275.75
473.311	291.75
473.53	285.75
473.749	309.75
473.968	335.75
474.187	387.75
474.406	387.75
474.625	312.75
474.844	288.75
475.063	298.75
475.282	294.75
475.501	280.75
475.72	304.75
475.939	310.75
476.158	304.75
476.377	305.75
476.596	311.75
476.814	323.75
477.033	313.75
477.252	312.75
477.471	297.75
477.69	315.75
477.908	303.75
478.127	305.75
478.346	322.75
478.564	315.75
478.783	323.75
479.002	321.75
479.22	310.75
479.439	327.75
479.658	340.75
479.876	347.75
480.095	349.75
480.313	359.75
480.532	345.75
480.751	355.75
480.969	356.75
481.188	376.75
481.406	375.75
481.624	332.75
481.843	334.75
482.061	352.75
482.28	320.75
482.498	332.75
482.717	333.75
482.935	325.75
483.153	323.75
483.372	326.75
483.59	315.75
483.808	316.75
484.027	328.75
484.245	317.75
484.463	339.75
484.681	330.75
484.9	336.75
485.118	350.75
485.336	348.75
485.554	347.75
485.772	336.75
485.99	340.75
486.209	346.75
486.427	354.75
486.645	340.75
486.863	375.75
487.081	369.75
487.299	363.75
487.517	343.75
487.735	351.75
487.953	376.75
488.171	345.75
488.389	372.75
488.607	351.75
488.825	357.75
489.043	353.75
489.261	358.75
489.479	361.75
489.696	352.75
489.914	358.75
490.132	363.75
490.35	362.75
490.568	371.75
490.786	379.75
491.003	370.75
491.221	366.75
491.439	395.75
491.657	405.75
491.874	389.75
492.092	401.75
492.31	408.75
492.527	382.75
492.745	397.75
492.963	408.75
493.18	417.75
493.398	407.75
493.615	381.75
493.833	392.75
494.05	398.75
494.268	409.75
494.485	406.75
494.703	396.75
494.92	389.75
495.138	414.75
495.355	411.75
495.573	401.75
495.79	435.75
496.008	423.75
496.225	398.75
496.442	402.75
496.66	397.75
496.877	430.75
497.094	408.75
497.312	427.75
497.529	440.75
497.746	431.75
497.963	438.75
498.181	446.75
498.398	446.75
498.615	425.75
498.832	450.75
499.049	447.75
499.267	457.75
499.484	465.75
499.701	494.75
499.918	486.75
500.135	500.75
500.352	503.75
500.569	513.75
500.786	526.75
501.003	523.75
501.22	489.75
501.437	518.75
501.654	480.75
501.871	487.75
502.088	494.75
