Data from 1982.PennyLincolnUp.Lamp.En5.5.200Scan.071819.P1_HRD10591_16-45-35-961.txt Node
Date: Thu Jul 18 16:45:35 EDT 2019
User: cochatt
Spectrometer: HR+D1059
Trigger mode: 1
Integration Time (sec): 1.000000E-1
Scans to average: 1
Electric dark correction enabled: true
Nonlinearity correction enabled: false
Boxcar width: 0
XAxis mode: Wavelengths
Number of Pixels in Spectrum: 2048
>>>>>Begin Spectral Data<<<<<
223.165	-27.06
223.4	-27.06
223.635	-27.06
223.869	-17.06
224.104	-17.06
224.338	-13.06
224.573	-19.06
224.808	-18.06
225.042	-9.06
225.277	-8.06
225.511	2.94
225.746	10.94
225.98	12.94
226.215	11.94
226.449	13.94
226.683	28.94
226.918	22.94
227.152	23.94
227.387	28.94
227.621	37.94
227.856	30.94
228.09	37.94
228.324	31.94
228.559	45.94
228.793	69.94
229.027	78.94
229.262	83.94
229.496	82.94
229.73	108.94
229.964	113.94
230.199	100.94
230.433	107.94
230.667	110.94
230.901	108.94
231.136	106.94
231.37	97.94
231.604	93.94
231.838	92.94
232.072	106.94
232.306	95.94
232.541	100.94
232.775	109.94
233.009	118.94
233.243	108.94
233.477	75.94
233.711	105.94
233.945	91.94
234.179	115.94
234.413	83.94
234.647	84.94
234.881	97.94
235.115	103.94
235.349	102.94
235.583	89.94
235.817	111.94
236.051	106.94
236.285	102.94
236.519	109.94
236.753	98.94
236.987	124.94
237.221	141.94
237.455	143.94
237.689	141.94
237.922	118.94
238.156	102.94
238.39	102.94
238.624	94.94
238.858	100.94
239.091	106.94
239.325	103.94
239.559	102.94
239.793	109.94
240.027	117.94
240.26	122.94
240.494	129.94
240.728	120.94
240.961	115.94
241.195	114.94
241.429	106.94
241.662	121.94
241.896	101.94
242.13	100.94
242.363	95.94
242.597	106.94
242.83	107.94
243.064	118.94
243.298	122.94
243.531	121.94
243.765	113.94
243.998	113.94
244.232	111.94
244.465	106.94
244.699	110.94
244.932	128.94
245.166	121.94
245.399	131.94
245.633	112.94
245.866	125.94
246.099	111.94
246.333	118.94
246.566	104.94
246.8	121.94
247.033	119.94
247.266	141.94
247.5	123.94
247.733	126.94
247.966	133.94
248.2	129.94
248.433	130.94
248.666	135.94
248.899	130.94
249.133	146.94
249.366	158.94
249.599	154.94
249.832	131.94
250.066	138.94
250.299	130.94
250.532	151.94
250.765	148.94
250.998	160.94
251.231	166.94
251.465	169.94
251.698	149.94
251.931	163.94
252.164	157.94
252.397	147.94
252.63	166.94
252.863	132.94
253.096	168.94
253.329	181.94
253.562	151.94
253.795	180.94
254.028	178.94
254.261	142.94
254.494	159.94
254.727	185.94
254.96	199.94
255.193	197.94
255.426	179.94
255.659	182.94
255.892	171.94
256.124	167.94
256.357	181.94
256.59	161.94
256.823	159.94
257.056	165.94
257.289	166.94
257.521	176.94
257.754	147.94
257.987	165.94
258.22	142.94
258.452	166.94
258.685	154.94
258.918	157.94
259.151	161.94
259.383	163.94
259.616	170.94
259.849	165.94
260.081	174.94
260.314	186.94
260.547	181.94
260.779	174.94
261.012	191.94
261.244	166.94
261.477	164.94
261.71	169.94
261.942	159.94
262.175	179.94
262.407	165.94
262.64	174.94
262.872	161.94
263.105	150.94
263.337	153.94
263.57	153.94
263.802	153.94
264.035	157.94
264.267	159.94
264.499	150.94
264.732	164.94
264.964	147.94
265.197	151.94
265.429	172.94
265.661	188.94
265.894	149.94
266.126	173.94
266.358	149.94
266.591	159.94
266.823	171.94
267.055	158.94
267.287	172.94
267.52	166.94
267.752	164.94
267.984	142.94
268.216	160.94
268.448	177.94
268.681	165.94
268.913	172.94
269.145	194.94
269.377	187.94
269.609	177.94
269.841	194.94
270.073	207.94
270.306	190.94
270.538	211.94
270.77	226.94
271.002	214.94
271.234	216.94
271.466	195.94
271.698	208.94
271.93	225.94
272.162	233.94
272.394	230.94
272.626	217.94
272.858	195.94
273.09	202.94
273.322	199.94
273.553	190.94
273.785	192.94
274.017	198.94
274.249	189.94
274.481	179.94
274.713	185.94
274.945	202.94
275.176	204.94
275.408	201.94
275.64	188.94
275.872	179.94
276.104	187.94
276.335	192.94
276.567	179.94
276.799	198.94
277.031	218.94
277.262	217.94
277.494	235.94
277.726	216.94
277.957	203.94
278.189	197.94
278.421	199.94
278.652	191.94
278.884	190.94
279.115	193.94
279.347	177.94
279.579	195.94
279.81	181.94
280.042	177.94
280.273	186.94
280.505	189.94
280.736	195.94
280.968	203.94
281.199	180.94
281.431	196.94
281.662	179.94
281.894	201.94
282.125	188.94
282.356	193.94
282.588	216.94
282.819	219.94
283.051	193.94
283.282	197.94
283.513	202.94
283.745	202.94
283.976	194.94
284.207	194.94
284.439	197.94
284.67	199.94
284.901	192.94
285.132	205.94
285.364	181.94
285.595	192.94
285.826	191.94
286.057	209.94
286.288	186.94
286.52	196.94
286.751	198.94
286.982	204.94
287.213	191.94
287.444	194.94
287.675	213.94
287.906	193.94
288.138	203.94
288.369	216.94
288.6	204.94
288.831	218.94
289.062	211.94
289.293	204.94
289.524	204.94
289.755	207.94
289.986	203.94
290.217	192.94
290.448	204.94
290.679	194.94
290.91	195.94
291.141	204.94
291.371	187.94
291.602	200.94
291.833	197.94
292.064	205.94
292.295	198.94
292.526	207.94
292.757	191.94
292.987	195.94
293.218	193.94
293.449	216.94
293.68	193.94
293.91	198.94
294.141	194.94
294.372	190.94
294.603	207.94
294.833	189.94
295.064	213.94
295.295	211.94
295.525	205.94
295.756	198.94
295.987	203.94
296.217	219.94
296.448	227.94
296.679	200.94
296.909	220.94
297.14	193.94
297.37	205.94
297.601	205.94
297.831	199.94
298.062	201.94
298.292	197.94
298.523	225.94
298.753	209.94
298.984	216.94
299.214	197.94
299.445	208.94
299.675	205.94
299.905	215.94
300.136	227.94
300.366	206.94
300.597	220.94
300.827	207.94
301.057	216.94
301.288	202.94
301.518	220.94
301.748	220.94
301.979	206.94
302.209	220.94
302.439	220.94
302.669	224.94
302.9	214.94
303.13	232.94
303.36	213.94
303.59	217.94
303.82	223.94
304.051	222.94
304.281	224.94
304.511	222.94
304.741	213.94
304.971	223.94
305.201	220.94
305.431	222.94
305.661	214.94
305.891	227.94
306.121	232.94
306.352	233.94
306.582	229.94
306.812	226.94
307.042	233.94
307.272	225.94
307.502	213.94
307.731	222.94
307.961	241.94
308.191	228.94
308.421	225.94
308.651	238.94
308.881	247.94
309.111	236.94
309.341	230.94
309.571	234.94
309.8	229.94
310.03	263.94
310.26	243.94
310.49	256.94
310.72	252.94
310.949	280.94
311.179	268.94
311.409	265.94
311.639	261.94
311.868	262.94
312.098	253.94
312.328	259.94
312.557	263.94
312.787	264.94
313.017	279.94
313.246	265.94
313.476	248.94
313.706	244.94
313.935	248.94
314.165	260.94
314.394	280.94
314.624	259.94
314.853	268.94
315.083	259.94
315.312	259.94
315.542	259.94
315.771	261.94
316.001	235.94
316.23	254.94
316.46	247.94
316.689	259.94
316.919	265.94
317.148	274.94
317.377	269.94
317.607	271.94
317.836	254.94
318.065	271.94
318.295	254.94
318.524	241.94
318.753	256.94
318.983	242.94
319.212	243.94
319.441	275.94
319.67	274.94
319.9	266.94
320.129	273.94
320.358	275.94
320.587	262.94
320.816	277.94
321.046	293.94
321.275	264.94
321.504	275.94
321.733	281.94
321.962	284.94
322.191	284.94
322.42	306.94
322.649	310.94
322.878	306.94
323.108	295.94
323.337	335.94
323.566	341.94
323.795	360.94
324.024	420.94
324.253	517.94
324.482	756.94
324.71	1096.94
324.939	1427.94
325.168	1163.94
325.397	601.94
325.626	426.94
325.855	375.94
326.084	349.94
326.313	347.94
326.542	350.94
326.77	406.94
326.999	488.94
327.228	640.94
327.457	935.94
327.686	1043.94
327.914	689.94
328.143	482.94
328.372	413.94
328.6	401.94
328.829	383.94
329.058	378.94
329.287	399.94
329.515	381.94
329.744	337.94
329.972	337.94
330.201	353.94
330.43	355.94
330.658	402.94
330.887	409.94
331.115	380.94
331.344	353.94
331.572	333.94
331.801	325.94
332.03	322.94
332.258	329.94
332.486	298.94
332.715	296.94
332.943	283.94
333.172	286.94
333.4	284.94
333.629	292.94
333.857	328.94
334.085	325.94
334.314	310.94
334.542	340.94
334.771	332.94
334.999	327.94
335.227	293.94
335.455	283.94
335.684	294.94
335.912	293.94
336.14	282.94
336.369	291.94
336.597	303.94
336.825	279.94
337.053	294.94
337.281	284.94
337.51	268.94
337.738	301.94
337.966	285.94
338.194	308.94
338.422	271.94
338.65	281.94
338.878	273.94
339.106	277.94
339.334	281.94
339.562	289.94
339.79	279.94
340.018	273.94
340.246	269.94
340.474	286.94
340.702	275.94
340.93	277.94
341.158	288.94
341.386	282.94
341.614	279.94
341.842	297.94
342.07	286.94
342.298	274.94
342.526	260.94
342.754	253.94
342.981	251.94
343.209	275.94
343.437	289.94
343.665	284.94
343.893	281.94
344.12	269.94
344.348	276.94
344.576	269.94
344.804	289.94
345.031	289.94
345.259	293.94
345.487	274.94
345.714	274.94
345.942	282.94
346.17	270.94
346.397	269.94
346.625	281.94
346.853	267.94
347.08	276.94
347.308	288.94
347.535	293.94
347.763	267.94
347.99	276.94
348.218	295.94
348.445	273.94
348.673	275.94
348.9	279.94
349.128	278.94
349.355	270.94
349.583	264.94
349.81	266.94
350.037	269.94
350.265	270.94
350.492	259.94
350.72	267.94
350.947	268.94
351.174	271.94
351.402	266.94
351.629	269.94
351.856	263.94
352.083	273.94
352.311	282.94
352.538	278.94
352.765	282.94
352.992	277.94
353.22	268.94
353.447	273.94
353.674	269.94
353.901	276.94
354.128	262.94
354.355	241.94
354.583	244.94
354.81	259.94
355.037	258.94
355.264	247.94
355.491	264.94
355.718	243.94
355.945	242.94
356.172	236.94
356.399	259.94
356.626	236.94
356.853	236.94
357.08	246.94
357.307	248.94
357.534	247.94
357.761	238.94
357.988	235.94
358.215	237.94
358.441	246.94
358.668	256.94
358.895	270.94
359.122	252.94
359.349	265.94
359.576	250.94
359.802	250.94
360.029	286.94
360.256	292.94
360.483	282.94
360.709	272.94
360.936	267.94
361.163	269.94
361.39	271.94
361.616	254.94
361.843	251.94
362.07	262.94
362.296	260.94
362.523	237.94
362.749	259.94
362.976	258.94
363.203	252.94
363.429	244.94
363.656	255.94
363.882	254.94
364.109	253.94
364.335	243.94
364.562	259.94
364.788	252.94
365.015	260.94
365.241	241.94
365.468	269.94
365.694	266.94
365.92	260.94
366.147	230.94
366.373	241.94
366.599	243.94
366.826	233.94
367.052	232.94
367.278	264.94
367.505	254.94
367.731	258.94
367.957	271.94
368.184	258.94
368.41	262.94
368.636	261.94
368.862	245.94
369.089	252.94
369.315	236.94
369.541	245.94
369.767	237.94
369.993	253.94
370.219	250.94
370.445	256.94
370.672	228.94
370.898	249.94
371.124	248.94
371.35	250.94
371.576	230.94
371.802	235.94
372.028	236.94
372.254	241.94
372.48	229.94
372.706	245.94
372.932	253.94
373.158	252.94
373.384	268.94
373.61	259.94
373.835	248.94
374.061	235.94
374.287	247.94
374.513	249.94
374.739	266.94
374.965	262.94
375.191	252.94
375.416	231.94
375.642	246.94
375.868	232.94
376.094	230.94
376.319	253.94
376.545	249.94
376.771	226.94
376.997	241.94
377.222	229.94
377.448	236.94
377.674	252.94
377.899	223.94
378.125	250.94
378.35	245.94
378.576	237.94
378.802	251.94
379.027	238.94
379.253	229.94
379.478	238.94
379.704	247.94
379.929	252.94
380.155	241.94
380.38	228.94
380.606	249.94
380.831	261.94
381.057	245.94
381.282	247.94
381.507	252.94
381.733	226.94
381.958	225.94
382.184	234.94
382.409	234.94
382.634	250.94
382.86	226.94
383.085	242.94
383.31	242.94
383.535	243.94
383.761	233.94
383.986	226.94
384.211	248.94
384.436	250.94
384.662	255.94
384.887	243.94
385.112	277.94
385.337	262.94
385.562	238.94
385.787	266.94
386.013	248.94
386.238	246.94
386.463	255.94
386.688	244.94
386.913	234.94
387.138	251.94
387.363	255.94
387.588	267.94
387.813	259.94
388.038	258.94
388.263	248.94
388.488	248.94
388.713	248.94
388.938	263.94
389.163	246.94
389.387	263.94
389.612	238.94
389.837	257.94
390.062	250.94
390.287	246.94
390.512	249.94
390.736	251.94
390.961	254.94
391.186	242.94
391.411	243.94
391.636	260.94
391.86	245.94
392.085	255.94
392.31	244.94
392.534	247.94
392.759	242.94
392.984	246.94
393.208	250.94
393.433	249.94
393.658	243.94
393.882	245.94
394.107	256.94
394.331	242.94
394.556	245.94
394.78	247.94
395.005	252.94
395.229	242.94
395.454	245.94
395.678	269.94
395.903	266.94
396.127	275.94
396.352	284.94
396.576	263.94
396.801	264.94
397.025	250.94
397.249	254.94
397.474	282.94
397.698	246.94
397.922	265.94
398.147	291.94
398.371	275.94
398.595	267.94
398.82	259.94
399.044	287.94
399.268	285.94
399.492	297.94
399.717	299.94
399.941	318.94
400.165	306.94
400.389	321.94
400.613	297.94
400.837	292.94
401.062	285.94
401.286	278.94
401.51	283.94
401.734	278.94
401.958	285.94
402.182	269.94
402.406	281.94
402.63	285.94
402.854	294.94
403.078	273.94
403.302	271.94
403.526	290.94
403.75	270.94
403.974	268.94
404.198	273.94
404.422	278.94
404.645	276.94
404.869	286.94
405.093	318.94
405.317	332.94
405.541	331.94
405.765	310.94
405.988	297.94
406.212	304.94
406.436	329.94
406.66	338.94
406.883	302.94
407.107	311.94
407.331	353.94
407.555	385.94
407.778	358.94
408.002	325.94
408.226	313.94
408.449	321.94
408.673	315.94
408.896	327.94
409.12	351.94
409.344	339.94
409.567	290.94
409.791	295.94
410.014	288.94
410.238	285.94
410.461	294.94
410.685	310.94
410.908	297.94
411.132	315.94
411.355	339.94
411.578	328.94
411.802	303.94
412.025	288.94
412.249	288.94
412.472	309.94
412.695	317.94
412.919	304.94
413.142	283.94
413.365	273.94
413.589	293.94
413.812	280.94
414.035	259.94
414.258	294.94
414.482	266.94
414.705	244.94
414.928	254.94
415.151	283.94
415.374	269.94
415.597	269.94
415.821	248.94
416.044	274.94
416.267	272.94
416.49	262.94
416.713	282.94
416.936	275.94
417.159	275.94
417.382	293.94
417.605	290.94
417.828	269.94
418.051	283.94
418.274	280.94
418.497	251.94
418.72	263.94
418.943	273.94
419.166	276.94
419.389	309.94
419.611	275.94
419.834	281.94
420.057	298.94
420.28	287.94
420.503	282.94
420.726	297.94
420.948	281.94
421.171	326.94
421.394	332.94
421.617	283.94
421.839	290.94
422.062	296.94
422.285	294.94
422.507	332.94
422.73	348.94
422.953	340.94
423.175	305.94
423.398	275.94
423.621	305.94
423.843	292.94
424.066	311.94
424.288	299.94
424.511	309.94
424.733	362.94
424.956	407.94
425.178	371.94
425.401	363.94
425.623	375.94
425.846	320.94
426.068	319.94
426.291	302.94
426.513	310.94
426.735	302.94
426.958	329.94
427.18	389.94
427.402	441.94
427.625	514.94
427.847	435.94
428.069	355.94
428.292	340.94
428.514	303.94
428.736	285.94
428.958	310.94
429.181	305.94
429.403	268.94
429.625	284.94
429.847	298.94
430.069	354.94
430.292	339.94
430.514	313.94
430.736	283.94
430.958	290.94
431.18	279.94
431.402	278.94
431.624	271.94
431.846	265.94
432.068	271.94
432.29	280.94
432.512	280.94
432.734	272.94
432.956	278.94
433.178	281.94
433.4	273.94
433.622	288.94
433.844	255.94
434.066	269.94
434.287	292.94
434.509	264.94
434.731	282.94
434.953	267.94
435.175	299.94
435.397	310.94
435.618	297.94
435.84	345.94
436.062	382.94
436.284	410.94
436.505	342.94
436.727	315.94
436.949	294.94
437.17	309.94
437.392	264.94
437.614	297.94
437.835	321.94
438.057	375.94
438.278	455.94
438.5	433.94
438.721	467.94
438.943	430.94
439.165	348.94
439.386	331.94
439.608	321.94
439.829	329.94
440.05	331.94
440.272	365.94
440.493	327.94
440.715	317.94
440.936	299.94
441.158	300.94
441.379	284.94
441.6	310.94
441.822	332.94
442.043	350.94
442.264	384.94
442.486	396.94
442.707	313.94
442.928	322.94
443.149	333.94
443.371	341.94
443.592	354.94
443.813	398.94
444.034	413.94
444.255	354.94
444.476	321.94
444.698	303.94
444.919	298.94
445.14	374.94
445.361	349.94
445.582	333.94
445.803	385.94
446.024	413.94
446.245	418.94
446.466	393.94
446.687	348.94
446.908	313.94
447.129	278.94
447.35	286.94
447.571	286.94
447.792	269.94
448.013	310.94
448.234	313.94
448.455	319.94
448.675	401.94
448.896	453.94
449.117	371.94
449.338	377.94
449.559	447.94
449.779	464.94
450	367.94
450.221	325.94
450.442	291.94
450.662	289.94
450.883	282.94
451.104	302.94
451.324	293.94
451.545	291.94
451.766	274.94
451.986	257.94
452.207	246.94
452.428	247.94
452.648	250.94
452.869	258.94
453.089	259.94
453.31	283.94
453.53	265.94
453.751	263.94
453.971	265.94
454.192	261.94
454.412	271.94
454.633	266.94
454.853	279.94
455.073	263.94
455.294	270.94
455.514	316.94
455.734	294.94
455.955	258.94
456.175	266.94
456.395	248.94
456.616	236.94
456.836	258.94
457.056	242.94
457.276	244.94
457.497	237.94
457.717	249.94
457.937	242.94
458.157	243.94
458.377	271.94
458.598	264.94
458.818	325.94
459.038	357.94
459.258	348.94
459.478	302.94
459.698	263.94
459.918	291.94
460.138	269.94
460.358	283.94
460.578	284.94
460.798	277.94
461.018	267.94
461.238	272.94
461.458	279.94
461.678	265.94
461.898	263.94
462.118	277.94
462.338	259.94
462.558	257.94
462.777	270.94
462.997	271.94
463.217	277.94
463.437	285.94
463.657	265.94
463.876	281.94
464.096	273.94
464.316	278.94
464.536	268.94
464.755	284.94
464.975	293.94
465.195	317.94
465.414	344.94
465.634	313.94
465.854	295.94
466.073	281.94
466.293	273.94
466.512	247.94
466.732	234.94
466.951	266.94
467.171	258.94
467.391	268.94
467.61	259.94
467.829	282.94
468.049	268.94
468.268	276.94
468.488	261.94
468.707	251.94
468.927	257.94
469.146	269.94
469.365	249.94
469.585	263.94
469.804	263.94
470.023	267.94
470.243	265.94
470.462	264.94
470.681	251.94
470.901	262.94
471.12	267.94
471.339	269.94
471.558	283.94
471.777	281.94
471.997	289.94
472.216	275.94
472.435	289.94
472.654	275.94
472.873	254.94
473.092	267.94
473.311	278.94
473.53	284.94
473.749	274.94
473.968	300.94
474.187	378.94
474.406	354.94
474.625	315.94
474.844	269.94
475.063	263.94
475.282	266.94
475.501	285.94
475.72	282.94
475.939	289.94
476.158	277.94
476.377	283.94
476.596	270.94
476.814	270.94
477.033	281.94
477.252	274.94
477.471	279.94
477.69	280.94
477.908	273.94
478.127	290.94
478.346	279.94
478.564	281.94
478.783	298.94
479.002	313.94
479.22	307.94
479.439	300.94
479.658	304.94
479.876	303.94
480.095	326.94
480.313	342.94
480.532	313.94
480.751	310.94
480.969	325.94
481.188	353.94
481.406	360.94
481.624	329.94
481.843	321.94
482.061	323.94
482.28	316.94
482.498	302.94
482.717	311.94
482.935	323.94
483.153	297.94
483.372	305.94
483.59	322.94
483.808	305.94
484.027	304.94
484.245	310.94
484.463	307.94
484.681	327.94
484.9	310.94
485.118	308.94
485.336	311.94
485.554	316.94
485.772	318.94
485.99	321.94
486.209	309.94
486.427	325.94
486.645	340.94
486.863	330.94
487.081	334.94
487.299	314.94
487.517	325.94
487.735	338.94
487.953	330.94
488.171	349.94
488.389	333.94
488.607	326.94
488.825	351.94
489.043	341.94
489.261	320.94
489.479	339.94
489.696	331.94
489.914	334.94
490.132	343.94
490.35	344.94
490.568	350.94
490.786	351.94
491.003	349.94
491.221	353.94
491.439	369.94
491.657	360.94
491.874	379.94
492.092	382.94
492.31	378.94
492.527	390.94
492.745	373.94
492.963	376.94
493.18	381.94
493.398	390.94
493.615	364.94
493.833	387.94
494.05	362.94
494.268	389.94
494.485	375.94
494.703	352.94
494.92	375.94
495.138	399.94
495.355	400.94
495.573	385.94
495.79	379.94
496.008	405.94
496.225	380.94
496.442	390.94
496.66	387.94
496.877	377.94
497.094	391.94
497.312	381.94
497.529	396.94
497.746	402.94
497.963	388.94
498.181	415.94
498.398	409.94
498.615	382.94
498.832	437.94
499.049	423.94
499.267	432.94
499.484	420.94
499.701	461.94
499.918	454.94
500.135	437.94
500.352	452.94
500.569	482.94
500.786	494.94
501.003	469.94
501.22	459.94
501.437	478.94
501.654	465.94
501.871	459.94
502.088	452.94
