Data from 1982.PennyLincolnUp.Lamp.En5.5.200Scan.071819.P1_HRD10591_16-46-58-961.txt Node
Date: Thu Jul 18 16:46:58 EDT 2019
User: cochatt
Spectrometer: HR+D1059
Trigger mode: 1
Integration Time (sec): 1.000000E-1
Scans to average: 1
Electric dark correction enabled: true
Nonlinearity correction enabled: false
Boxcar width: 0
XAxis mode: Wavelengths
Number of Pixels in Spectrum: 2048
>>>>>Begin Spectral Data<<<<<
223.165	-7.62
223.4	-7.62
223.635	-7.62
223.869	-7.62
224.104	-12.62
224.338	-12.62
224.573	-13.62
224.808	-13.62
225.042	-11.62
225.277	-20.62
225.511	-0.62
225.746	7.38
225.98	12.38
226.215	17.38
226.449	4.38
226.683	14.38
226.918	15.38
227.152	29.38
227.387	23.38
227.621	42.38
227.856	33.38
228.09	35.38
228.324	53.38
228.559	56.38
228.793	65.38
229.027	68.38
229.262	87.38
229.496	86.38
229.73	101.38
229.964	119.38
230.199	110.38
230.433	95.38
230.667	105.38
230.901	108.38
231.136	113.38
231.37	90.38
231.604	100.38
231.838	107.38
232.072	94.38
232.306	94.38
232.541	100.38
232.775	113.38
233.009	100.38
233.243	86.38
233.477	102.38
233.711	110.38
233.945	118.38
234.179	101.38
234.413	87.38
234.647	101.38
234.881	106.38
235.115	103.38
235.349	102.38
235.583	104.38
235.817	104.38
236.051	109.38
236.285	115.38
236.519	120.38
236.753	112.38
236.987	130.38
237.221	155.38
237.455	177.38
237.689	156.38
237.922	113.38
238.156	113.38
238.39	104.38
238.624	113.38
238.858	81.38
239.091	104.38
239.325	104.38
239.559	98.38
239.793	107.38
240.027	129.38
240.26	111.38
240.494	115.38
240.728	101.38
240.961	121.38
241.195	129.38
241.429	115.38
241.662	107.38
241.896	112.38
242.13	106.38
242.363	117.38
242.597	103.38
242.83	108.38
243.064	114.38
243.298	115.38
243.531	108.38
243.765	111.38
243.998	135.38
244.232	112.38
244.465	121.38
244.699	111.38
244.932	108.38
245.166	121.38
245.399	119.38
245.633	121.38
245.866	121.38
246.099	96.38
246.333	133.38
246.566	127.38
246.8	130.38
247.033	139.38
247.266	131.38
247.5	118.38
247.733	121.38
247.966	138.38
248.2	148.38
248.433	151.38
248.666	147.38
248.899	165.38
249.133	162.38
249.366	176.38
249.599	158.38
249.832	160.38
250.066	140.38
250.299	150.38
250.532	164.38
250.765	158.38
250.998	186.38
251.231	170.38
251.465	180.38
251.698	169.38
251.931	164.38
252.164	168.38
252.397	164.38
252.63	162.38
252.863	166.38
253.096	176.38
253.329	173.38
253.562	184.38
253.795	182.38
254.028	169.38
254.261	179.38
254.494	188.38
254.727	210.38
254.96	236.38
255.193	223.38
255.426	182.38
255.659	171.38
255.892	194.38
256.124	188.38
256.357	188.38
256.59	181.38
256.823	185.38
257.056	176.38
257.289	170.38
257.521	172.38
257.754	182.38
257.987	168.38
258.22	160.38
258.452	171.38
258.685	160.38
258.918	159.38
259.151	168.38
259.383	192.38
259.616	179.38
259.849	178.38
260.081	188.38
260.314	200.38
260.547	194.38
260.779	188.38
261.012	195.38
261.244	185.38
261.477	185.38
261.71	187.38
261.942	185.38
262.175	179.38
262.407	164.38
262.64	181.38
262.872	185.38
263.105	171.38
263.337	166.38
263.57	172.38
263.802	167.38
264.035	171.38
264.267	162.38
264.499	181.38
264.732	175.38
264.964	159.38
265.197	185.38
265.429	161.38
265.661	173.38
265.894	158.38
266.126	170.38
266.358	173.38
266.591	184.38
266.823	153.38
267.055	189.38
267.287	192.38
267.52	164.38
267.752	192.38
267.984	187.38
268.216	177.38
268.448	193.38
268.681	184.38
268.913	182.38
269.145	192.38
269.377	215.38
269.609	202.38
269.841	202.38
270.073	204.38
270.306	218.38
270.538	246.38
270.77	224.38
271.002	236.38
271.234	245.38
271.466	221.38
271.698	250.38
271.93	248.38
272.162	237.38
272.394	240.38
272.626	233.38
272.858	233.38
273.09	232.38
273.322	196.38
273.553	200.38
273.785	207.38
274.017	207.38
274.249	206.38
274.481	208.38
274.713	202.38
274.945	193.38
275.176	211.38
275.408	205.38
275.64	203.38
275.872	190.38
276.104	205.38
276.335	207.38
276.567	204.38
276.799	217.38
277.031	242.38
277.262	252.38
277.494	238.38
277.726	225.38
277.957	209.38
278.189	200.38
278.421	204.38
278.652	205.38
278.884	207.38
279.115	207.38
279.347	200.38
279.579	199.38
279.81	195.38
280.042	196.38
280.273	201.38
280.505	219.38
280.736	215.38
280.968	208.38
281.199	187.38
281.431	209.38
281.662	201.38
281.894	191.38
282.125	205.38
282.356	222.38
282.588	232.38
282.819	236.38
283.051	211.38
283.282	199.38
283.513	217.38
283.745	213.38
283.976	208.38
284.207	212.38
284.439	205.38
284.67	208.38
284.901	211.38
285.132	211.38
285.364	209.38
285.595	213.38
285.826	212.38
286.057	214.38
286.288	217.38
286.52	215.38
286.751	232.38
286.982	215.38
287.213	215.38
287.444	195.38
287.675	232.38
287.906	217.38
288.138	223.38
288.369	230.38
288.6	213.38
288.831	228.38
289.062	224.38
289.293	203.38
289.524	211.38
289.755	193.38
289.986	224.38
290.217	212.38
290.448	211.38
290.679	212.38
290.91	215.38
291.141	220.38
291.371	219.38
291.602	202.38
291.833	209.38
292.064	221.38
292.295	211.38
292.526	208.38
292.757	231.38
292.987	216.38
293.218	212.38
293.449	220.38
293.68	219.38
293.91	211.38
294.141	214.38
294.372	205.38
294.603	224.38
294.833	228.38
295.064	218.38
295.295	237.38
295.525	217.38
295.756	217.38
295.987	244.38
296.217	271.38
296.448	233.38
296.679	236.38
296.909	220.38
297.14	207.38
297.37	232.38
297.601	239.38
297.831	224.38
298.062	229.38
298.292	235.38
298.523	219.38
298.753	211.38
298.984	227.38
299.214	221.38
299.445	204.38
299.675	241.38
299.905	233.38
300.136	237.38
300.366	238.38
300.597	229.38
300.827	245.38
301.057	247.38
301.288	246.38
301.518	248.38
301.748	224.38
301.979	233.38
302.209	240.38
302.439	257.38
302.669	248.38
302.9	250.38
303.13	235.38
303.36	242.38
303.59	249.38
303.82	252.38
304.051	236.38
304.281	260.38
304.511	234.38
304.741	236.38
304.971	248.38
305.201	243.38
305.431	248.38
305.661	239.38
305.891	231.38
306.121	231.38
306.352	258.38
306.582	265.38
306.812	235.38
307.042	264.38
307.272	247.38
307.502	244.38
307.731	248.38
307.961	237.38
308.191	253.38
308.421	257.38
308.651	256.38
308.881	255.38
309.111	276.38
309.341	269.38
309.571	268.38
309.8	256.38
310.03	306.38
310.26	291.38
310.49	278.38
310.72	283.38
310.949	296.38
311.179	296.38
311.409	277.38
311.639	279.38
311.868	307.38
312.098	290.38
312.328	306.38
312.557	320.38
312.787	316.38
313.017	321.38
313.246	309.38
313.476	309.38
313.706	280.38
313.935	299.38
314.165	303.38
314.394	316.38
314.624	299.38
314.853	291.38
315.083	297.38
315.312	271.38
315.542	287.38
315.771	279.38
316.001	285.38
316.23	283.38
316.46	268.38
316.689	281.38
316.919	276.38
317.148	287.38
317.377	294.38
317.607	290.38
317.836	289.38
318.065	275.38
318.295	281.38
318.524	303.38
318.753	281.38
318.983	283.38
319.212	260.38
319.441	284.38
319.67	290.38
319.9	275.38
320.129	291.38
320.358	294.38
320.587	307.38
320.816	296.38
321.046	307.38
321.275	296.38
321.504	291.38
321.733	290.38
321.962	298.38
322.191	316.38
322.42	346.38
322.649	340.38
322.878	343.38
323.108	347.38
323.337	385.38
323.566	393.38
323.795	436.38
324.024	457.38
324.253	603.38
324.482	866.38
324.71	1329.38
324.939	1713.38
325.168	1411.38
325.397	741.38
325.626	515.38
325.855	436.38
326.084	398.38
326.313	399.38
326.542	400.38
326.77	447.38
326.999	556.38
327.228	760.38
327.457	1149.38
327.686	1243.38
327.914	805.38
328.143	569.38
328.372	483.38
328.6	445.38
328.829	429.38
329.058	459.38
329.287	460.38
329.515	433.38
329.744	388.38
329.972	396.38
330.201	422.38
330.43	443.38
330.658	459.38
330.887	443.38
331.115	444.38
331.344	388.38
331.572	383.38
331.801	350.38
332.03	375.38
332.258	353.38
332.486	326.38
332.715	346.38
332.943	338.38
333.172	344.38
333.4	338.38
333.629	345.38
333.857	353.38
334.085	349.38
334.314	370.38
334.542	383.38
334.771	399.38
334.999	380.38
335.227	353.38
335.455	319.38
335.684	326.38
335.912	316.38
336.14	336.38
336.369	328.38
336.597	338.38
336.825	338.38
337.053	330.38
337.281	319.38
337.51	314.38
337.738	316.38
337.966	308.38
338.194	319.38
338.422	326.38
338.65	314.38
338.878	327.38
339.106	314.38
339.334	310.38
339.562	308.38
339.79	315.38
340.018	298.38
340.246	299.38
340.474	316.38
340.702	308.38
340.93	298.38
341.158	311.38
341.386	312.38
341.614	319.38
341.842	307.38
342.07	293.38
342.298	282.38
342.526	298.38
342.754	307.38
342.981	310.38
343.209	275.38
343.437	325.38
343.665	324.38
343.893	300.38
344.12	312.38
344.348	314.38
344.576	314.38
344.804	330.38
345.031	327.38
345.259	333.38
345.487	306.38
345.714	305.38
345.942	284.38
346.17	297.38
346.397	303.38
346.625	308.38
346.853	289.38
347.08	294.38
347.308	336.38
347.535	310.38
347.763	324.38
347.99	322.38
348.218	311.38
348.445	312.38
348.673	309.38
348.9	313.38
349.128	307.38
349.355	286.38
349.583	286.38
349.81	304.38
350.037	284.38
350.265	291.38
350.492	276.38
350.72	295.38
350.947	302.38
351.174	313.38
351.402	313.38
351.629	298.38
351.856	303.38
352.083	317.38
352.311	305.38
352.538	327.38
352.765	303.38
352.992	314.38
353.22	300.38
353.447	287.38
353.674	309.38
353.901	296.38
354.128	279.38
354.355	286.38
354.583	276.38
354.81	258.38
355.037	272.38
355.264	281.38
355.491	275.38
355.718	264.38
355.945	275.38
356.172	277.38
356.399	282.38
356.626	277.38
356.853	275.38
357.08	285.38
357.307	256.38
357.534	272.38
357.761	263.38
357.988	277.38
358.215	280.38
358.441	288.38
358.668	269.38
358.895	291.38
359.122	277.38
359.349	295.38
359.576	290.38
359.802	308.38
360.029	319.38
360.256	343.38
360.483	322.38
360.709	311.38
360.936	302.38
361.163	299.38
361.39	294.38
361.616	305.38
361.843	298.38
362.07	301.38
362.296	295.38
362.523	302.38
362.749	305.38
362.976	288.38
363.203	275.38
363.429	303.38
363.656	292.38
363.882	269.38
364.109	256.38
364.335	284.38
364.562	283.38
364.788	285.38
365.015	295.38
365.241	277.38
365.468	296.38
365.694	291.38
365.92	283.38
366.147	281.38
366.373	268.38
366.599	284.38
366.826	273.38
367.052	261.38
367.278	278.38
367.505	269.38
367.731	281.38
367.957	283.38
368.184	275.38
368.41	274.38
368.636	288.38
368.862	281.38
369.089	289.38
369.315	272.38
369.541	293.38
369.767	259.38
369.993	274.38
370.219	278.38
370.445	269.38
370.672	281.38
370.898	269.38
371.124	288.38
371.35	271.38
371.576	276.38
371.802	267.38
372.028	265.38
372.254	279.38
372.48	260.38
372.706	269.38
372.932	277.38
373.158	269.38
373.384	266.38
373.61	265.38
373.835	259.38
374.061	248.38
374.287	263.38
374.513	284.38
374.739	263.38
374.965	279.38
375.191	272.38
375.416	284.38
375.642	261.38
375.868	279.38
376.094	290.38
376.319	273.38
376.545	275.38
376.771	277.38
376.997	252.38
377.222	271.38
377.448	251.38
377.674	245.38
377.899	255.38
378.125	261.38
378.35	275.38
378.576	268.38
378.802	275.38
379.027	270.38
379.253	264.38
379.478	261.38
379.704	280.38
379.929	257.38
380.155	278.38
380.38	273.38
380.606	266.38
380.831	247.38
381.057	260.38
381.282	251.38
381.507	258.38
381.733	267.38
381.958	265.38
382.184	268.38
382.409	272.38
382.634	268.38
382.86	268.38
383.085	270.38
383.31	278.38
383.535	261.38
383.761	275.38
383.986	251.38
384.211	254.38
384.436	269.38
384.662	279.38
384.887	259.38
385.112	271.38
385.337	284.38
385.562	269.38
385.787	269.38
386.013	280.38
386.238	278.38
386.463	274.38
386.688	289.38
386.913	289.38
387.138	265.38
387.363	271.38
387.588	282.38
387.813	278.38
388.038	283.38
388.263	268.38
388.488	274.38
388.713	277.38
388.938	276.38
389.163	290.38
389.387	261.38
389.612	280.38
389.837	272.38
390.062	293.38
390.287	278.38
390.512	270.38
390.736	275.38
390.961	263.38
391.186	275.38
391.411	284.38
391.636	277.38
391.86	283.38
392.085	285.38
392.31	265.38
392.534	270.38
392.759	285.38
392.984	298.38
393.208	283.38
393.433	265.38
393.658	285.38
393.882	282.38
394.107	276.38
394.331	267.38
394.556	260.38
394.78	294.38
395.005	271.38
395.229	284.38
395.454	307.38
395.678	269.38
395.903	294.38
396.127	300.38
396.352	307.38
396.576	276.38
396.801	277.38
397.025	280.38
397.249	292.38
397.474	308.38
397.698	305.38
397.922	315.38
398.147	323.38
398.371	313.38
398.595	303.38
398.82	299.38
399.044	323.38
399.268	321.38
399.492	314.38
399.717	333.38
399.941	349.38
400.165	368.38
400.389	379.38
400.613	327.38
400.837	324.38
401.062	307.38
401.286	316.38
401.51	299.38
401.734	308.38
401.958	313.38
402.182	310.38
402.406	331.38
402.63	301.38
402.854	301.38
403.078	332.38
403.302	308.38
403.526	324.38
403.75	320.38
403.974	332.38
404.198	311.38
404.422	315.38
404.645	319.38
404.869	317.38
405.093	342.38
405.317	348.38
405.541	378.38
405.765	359.38
405.988	343.38
406.212	352.38
406.436	340.38
406.66	361.38
406.883	344.38
407.107	365.38
407.331	381.38
407.555	414.38
407.778	403.38
408.002	394.38
408.226	351.38
408.449	345.38
408.673	342.38
408.896	367.38
409.12	380.38
409.344	360.38
409.567	327.38
409.791	325.38
410.014	329.38
410.238	328.38
410.461	317.38
410.685	311.38
410.908	330.38
411.132	355.38
411.355	369.38
411.578	371.38
411.802	317.38
412.025	325.38
412.249	328.38
412.472	322.38
412.695	347.38
412.919	345.38
413.142	341.38
413.365	313.38
413.589	308.38
413.812	298.38
414.035	300.38
414.258	295.38
414.482	297.38
414.705	314.38
414.928	295.38
415.151	299.38
415.374	302.38
415.597	290.38
415.821	279.38
416.044	311.38
416.267	305.38
416.49	296.38
416.713	305.38
416.936	299.38
417.159	294.38
417.382	314.38
417.605	314.38
417.828	306.38
418.051	330.38
418.274	311.38
418.497	312.38
418.72	304.38
418.943	298.38
419.166	301.38
419.389	326.38
419.611	311.38
419.834	309.38
420.057	319.38
420.28	321.38
420.503	306.38
420.726	311.38
420.948	335.38
421.171	345.38
421.394	375.38
421.617	315.38
421.839	314.38
422.062	319.38
422.285	316.38
422.507	381.38
422.73	387.38
422.953	383.38
423.175	343.38
423.398	319.38
423.621	322.38
423.843	350.38
424.066	347.38
424.288	330.38
424.511	352.38
424.733	406.38
424.956	424.38
425.178	430.38
425.401	425.38
425.623	422.38
425.846	368.38
426.068	346.38
426.291	341.38
426.513	335.38
426.735	348.38
426.958	390.38
427.18	436.38
427.402	495.38
427.625	569.38
427.847	481.38
428.069	425.38
428.292	366.38
428.514	346.38
428.736	320.38
428.958	307.38
429.181	312.38
429.403	309.38
429.625	322.38
429.847	351.38
430.069	402.38
430.292	387.38
430.514	336.38
430.736	309.38
430.958	310.38
431.18	299.38
431.402	291.38
431.624	293.38
431.846	284.38
432.068	298.38
432.29	304.38
432.512	293.38
432.734	321.38
432.956	325.38
433.178	306.38
433.4	309.38
433.622	292.38
433.844	312.38
434.066	311.38
434.287	288.38
434.509	301.38
434.731	300.38
434.953	310.38
435.175	315.38
435.397	322.38
435.618	356.38
435.84	375.38
436.062	421.38
436.284	464.38
436.505	401.38
436.727	367.38
436.949	339.38
437.17	318.38
437.392	317.38
437.614	325.38
437.835	369.38
438.057	416.38
438.278	475.38
438.5	476.38
438.721	525.38
438.943	474.38
439.165	403.38
439.386	368.38
439.608	367.38
439.829	359.38
440.05	381.38
440.272	396.38
440.493	375.38
440.715	343.38
440.936	337.38
441.158	353.38
441.379	331.38
441.6	325.38
441.822	332.38
442.043	383.38
442.264	431.38
442.486	441.38
442.707	389.38
442.928	370.38
443.149	364.38
443.371	364.38
443.592	409.38
443.813	455.38
444.034	475.38
444.255	388.38
444.476	328.38
444.698	311.38
444.919	333.38
445.14	431.38
445.361	401.38
445.582	380.38
445.803	417.38
446.024	483.38
446.245	497.38
446.466	443.38
446.687	384.38
446.908	345.38
447.129	311.38
447.35	321.38
447.571	324.38
447.792	319.38
448.013	316.38
448.234	327.38
448.455	380.38
448.675	446.38
448.896	501.38
449.117	443.38
449.338	417.38
449.559	488.38
449.779	515.38
450	426.38
450.221	363.38
450.442	333.38
450.662	314.38
450.883	333.38
451.104	333.38
451.324	322.38
451.545	319.38
451.766	286.38
451.986	269.38
452.207	314.38
452.428	299.38
452.648	266.38
452.869	281.38
453.089	299.38
453.31	306.38
453.53	288.38
453.751	280.38
453.971	297.38
454.192	301.38
454.412	303.38
454.633	284.38
454.853	297.38
455.073	290.38
455.294	308.38
455.514	359.38
455.734	336.38
455.955	287.38
456.175	293.38
456.395	273.38
456.616	240.38
456.836	273.38
457.056	275.38
457.276	245.38
457.497	269.38
457.717	279.38
457.937	277.38
458.157	284.38
458.377	263.38
458.598	312.38
458.818	330.38
459.038	403.38
459.258	387.38
459.478	340.38
459.698	315.38
459.918	296.38
460.138	277.38
460.358	289.38
460.578	291.38
460.798	284.38
461.018	293.38
461.238	289.38
461.458	279.38
461.678	308.38
461.898	299.38
462.118	297.38
462.338	291.38
462.558	295.38
462.777	310.38
462.997	297.38
463.217	305.38
463.437	303.38
463.657	292.38
463.876	298.38
464.096	310.38
464.316	305.38
464.536	307.38
464.755	315.38
464.975	311.38
465.195	341.38
465.414	387.38
465.634	354.38
465.854	339.38
466.073	308.38
466.293	299.38
466.512	294.38
466.732	281.38
466.951	295.38
467.171	279.38
467.391	299.38
467.61	290.38
467.829	305.38
468.049	310.38
468.268	308.38
468.488	296.38
468.707	285.38
468.927	285.38
469.146	286.38
469.365	274.38
469.585	281.38
469.804	292.38
470.023	299.38
470.243	292.38
470.462	300.38
470.681	314.38
470.901	312.38
471.12	276.38
471.339	299.38
471.558	284.38
471.777	287.38
471.997	304.38
472.216	300.38
472.435	330.38
472.654	311.38
472.873	308.38
473.092	314.38
473.311	288.38
473.53	307.38
473.749	312.38
473.968	337.38
474.187	404.38
474.406	399.38
474.625	337.38
474.844	285.38
475.063	283.38
475.282	307.38
475.501	297.38
475.72	303.38
475.939	297.38
476.158	318.38
476.377	307.38
476.596	319.38
476.814	307.38
477.033	320.38
477.252	310.38
477.471	308.38
477.69	328.38
477.908	314.38
478.127	312.38
478.346	301.38
478.564	317.38
478.783	315.38
479.002	323.38
479.22	328.38
479.439	347.38
479.658	357.38
479.876	356.38
480.095	364.38
480.313	354.38
480.532	372.38
480.751	352.38
480.969	369.38
481.188	438.38
481.406	413.38
481.624	390.38
481.843	357.38
482.061	360.38
482.28	348.38
482.498	345.38
482.717	345.38
482.935	357.38
483.153	330.38
483.372	349.38
483.59	344.38
483.808	321.38
484.027	343.38
484.245	343.38
484.463	354.38
484.681	326.38
484.9	351.38
485.118	345.38
485.336	352.38
485.554	347.38
485.772	336.38
485.99	328.38
486.209	364.38
486.427	354.38
486.645	348.38
486.863	372.38
487.081	383.38
487.299	369.38
487.517	355.38
487.735	367.38
487.953	375.38
488.171	356.38
488.389	359.38
488.607	373.38
488.825	360.38
489.043	364.38
489.261	360.38
489.479	365.38
489.696	377.38
489.914	363.38
490.132	385.38
490.35	375.38
490.568	387.38
490.786	398.38
491.003	390.38
491.221	385.38
491.439	395.38
491.657	411.38
491.874	414.38
492.092	424.38
492.31	408.38
492.527	406.38
492.745	416.38
492.963	402.38
493.18	423.38
493.398	427.38
493.615	425.38
493.833	413.38
494.05	424.38
494.268	438.38
494.485	432.38
494.703	444.38
494.92	412.38
495.138	429.38
495.355	445.38
495.573	437.38
495.79	452.38
496.008	429.38
496.225	449.38
496.442	405.38
496.66	429.38
496.877	427.38
497.094	441.38
497.312	428.38
497.529	432.38
497.746	427.38
497.963	456.38
498.181	466.38
498.398	439.38
498.615	464.38
498.832	475.38
499.049	457.38
499.267	463.38
499.484	459.38
499.701	487.38
499.918	500.38
500.135	523.38
500.352	533.38
500.569	539.38
500.786	525.38
501.003	514.38
501.22	520.38
501.437	526.38
501.654	522.38
501.871	505.38
502.088	515.38
