Data from 1982.PennyLincolnUp.Lamp.En5.5.200Scan.071819.P1_HRD10591_16-45-19-961.txt Node
Date: Thu Jul 18 16:45:19 EDT 2019
User: cochatt
Spectrometer: HR+D1059
Trigger mode: 1
Integration Time (sec): 1.000000E-1
Scans to average: 1
Electric dark correction enabled: true
Nonlinearity correction enabled: false
Boxcar width: 0
XAxis mode: Wavelengths
Number of Pixels in Spectrum: 2048
>>>>>Begin Spectral Data<<<<<
223.165	-22.44
223.4	-22.44
223.635	-22.44
223.869	-17.44
224.104	-21.44
224.338	-12.44
224.573	-4.44
224.808	-16.44
225.042	-7.44
225.277	4.56
225.511	-5.44
225.746	9.56
225.98	-3.44
226.215	8.56
226.449	21.56
226.683	11.56
226.918	23.56
227.152	31.56
227.387	39.56
227.621	42.56
227.856	36.56
228.09	40.56
228.324	48.56
228.559	66.56
228.793	70.56
229.027	80.56
229.262	92.56
229.496	83.56
229.73	121.56
229.964	112.56
230.199	99.56
230.433	93.56
230.667	94.56
230.901	95.56
231.136	104.56
231.37	103.56
231.604	103.56
231.838	103.56
232.072	105.56
232.306	99.56
232.541	104.56
232.775	109.56
233.009	95.56
233.243	101.56
233.477	93.56
233.711	104.56
233.945	110.56
234.179	96.56
234.413	107.56
234.647	96.56
234.881	105.56
235.115	105.56
235.349	101.56
235.583	92.56
235.817	90.56
236.051	99.56
236.285	128.56
236.519	131.56
236.753	102.56
236.987	119.56
237.221	142.56
237.455	159.56
237.689	120.56
237.922	111.56
238.156	101.56
238.39	122.56
238.624	107.56
238.858	108.56
239.091	95.56
239.325	97.56
239.559	101.56
239.793	113.56
240.027	111.56
240.26	120.56
240.494	133.56
240.728	127.56
240.961	120.56
241.195	119.56
241.429	113.56
241.662	115.56
241.896	117.56
242.13	121.56
242.363	115.56
242.597	110.56
242.83	119.56
243.064	111.56
243.298	118.56
243.531	123.56
243.765	125.56
243.998	99.56
244.232	121.56
244.465	130.56
244.699	123.56
244.932	128.56
245.166	121.56
245.399	129.56
245.633	118.56
245.866	121.56
246.099	115.56
246.333	119.56
246.566	121.56
246.8	120.56
247.033	135.56
247.266	131.56
247.5	143.56
247.733	132.56
247.966	117.56
248.2	128.56
248.433	135.56
248.666	142.56
248.899	145.56
249.133	167.56
249.366	154.56
249.599	135.56
249.832	147.56
250.066	145.56
250.299	146.56
250.532	146.56
250.765	155.56
250.998	164.56
251.231	172.56
251.465	155.56
251.698	143.56
251.931	146.56
252.164	139.56
252.397	153.56
252.63	139.56
252.863	156.56
253.096	155.56
253.329	169.56
253.562	175.56
253.795	161.56
254.028	176.56
254.261	176.56
254.494	178.56
254.727	200.56
254.96	190.56
255.193	189.56
255.426	180.56
255.659	175.56
255.892	161.56
256.124	168.56
256.357	176.56
256.59	165.56
256.823	171.56
257.056	169.56
257.289	173.56
257.521	155.56
257.754	149.56
257.987	163.56
258.22	170.56
258.452	155.56
258.685	161.56
258.918	159.56
259.151	167.56
259.383	185.56
259.616	176.56
259.849	164.56
260.081	163.56
260.314	181.56
260.547	196.56
260.779	177.56
261.012	168.56
261.244	157.56
261.477	168.56
261.71	171.56
261.942	164.56
262.175	171.56
262.407	169.56
262.64	151.56
262.872	179.56
263.105	163.56
263.337	161.56
263.57	167.56
263.802	171.56
264.035	149.56
264.267	163.56
264.499	167.56
264.732	167.56
264.964	170.56
265.197	168.56
265.429	155.56
265.661	153.56
265.894	153.56
266.126	165.56
266.358	160.56
266.591	164.56
266.823	160.56
267.055	161.56
267.287	146.56
267.52	164.56
267.752	155.56
267.984	168.56
268.216	163.56
268.448	184.56
268.681	179.56
268.913	192.56
269.145	180.56
269.377	205.56
269.609	195.56
269.841	193.56
270.073	198.56
270.306	213.56
270.538	211.56
270.77	214.56
271.002	228.56
271.234	218.56
271.466	208.56
271.698	218.56
271.93	221.56
272.162	234.56
272.394	212.56
272.626	218.56
272.858	209.56
273.09	220.56
273.322	199.56
273.553	193.56
273.785	182.56
274.017	185.56
274.249	181.56
274.481	188.56
274.713	188.56
274.945	199.56
275.176	200.56
275.408	193.56
275.64	172.56
275.872	197.56
276.104	186.56
276.335	198.56
276.567	204.56
276.799	212.56
277.031	227.56
277.262	213.56
277.494	223.56
277.726	224.56
277.957	201.56
278.189	199.56
278.421	204.56
278.652	190.56
278.884	186.56
279.115	189.56
279.347	196.56
279.579	194.56
279.81	189.56
280.042	199.56
280.273	202.56
280.505	181.56
280.736	199.56
280.968	208.56
281.199	189.56
281.431	192.56
281.662	200.56
281.894	209.56
282.125	194.56
282.356	218.56
282.588	208.56
282.819	187.56
283.051	207.56
283.282	210.56
283.513	201.56
283.745	211.56
283.976	205.56
284.207	203.56
284.439	194.56
284.67	205.56
284.901	204.56
285.132	188.56
285.364	190.56
285.595	206.56
285.826	200.56
286.057	206.56
286.288	180.56
286.52	192.56
286.751	197.56
286.982	201.56
287.213	207.56
287.444	199.56
287.675	183.56
287.906	205.56
288.138	187.56
288.369	213.56
288.6	224.56
288.831	203.56
289.062	209.56
289.293	212.56
289.524	200.56
289.755	223.56
289.986	205.56
290.217	207.56
290.448	204.56
290.679	205.56
290.91	216.56
291.141	208.56
291.371	212.56
291.602	195.56
291.833	193.56
292.064	197.56
292.295	203.56
292.526	196.56
292.757	201.56
292.987	208.56
293.218	219.56
293.449	201.56
293.68	211.56
293.91	202.56
294.141	200.56
294.372	203.56
294.603	210.56
294.833	206.56
295.064	205.56
295.295	205.56
295.525	214.56
295.756	212.56
295.987	200.56
296.217	214.56
296.448	237.56
296.679	208.56
296.909	214.56
297.14	195.56
297.37	207.56
297.601	211.56
297.831	201.56
298.062	207.56
298.292	201.56
298.523	206.56
298.753	222.56
298.984	235.56
299.214	221.56
299.445	228.56
299.675	204.56
299.905	220.56
300.136	224.56
300.366	219.56
300.597	220.56
300.827	232.56
301.057	208.56
301.288	225.56
301.518	224.56
301.748	217.56
301.979	232.56
302.209	209.56
302.439	233.56
302.669	211.56
302.9	213.56
303.13	227.56
303.36	241.56
303.59	227.56
303.82	228.56
304.051	245.56
304.281	217.56
304.511	222.56
304.741	232.56
304.971	214.56
305.201	211.56
305.431	243.56
305.661	224.56
305.891	236.56
306.121	243.56
306.352	231.56
306.582	215.56
306.812	229.56
307.042	221.56
307.272	230.56
307.502	239.56
307.731	247.56
307.961	236.56
308.191	253.56
308.421	235.56
308.651	236.56
308.881	244.56
309.111	235.56
309.341	250.56
309.571	247.56
309.8	239.56
310.03	273.56
310.26	267.56
310.49	247.56
310.72	272.56
310.949	257.56
311.179	251.56
311.409	268.56
311.639	273.56
311.868	251.56
312.098	255.56
312.328	271.56
312.557	281.56
312.787	276.56
313.017	269.56
313.246	262.56
313.476	259.56
313.706	277.56
313.935	238.56
314.165	275.56
314.394	269.56
314.624	273.56
314.853	251.56
315.083	248.56
315.312	272.56
315.542	265.56
315.771	248.56
316.001	255.56
316.23	247.56
316.46	261.56
316.689	287.56
316.919	277.56
317.148	269.56
317.377	271.56
317.607	250.56
317.836	266.56
318.065	261.56
318.295	275.56
318.524	258.56
318.753	265.56
318.983	267.56
319.212	241.56
319.441	249.56
319.67	278.56
319.9	263.56
320.129	244.56
320.358	268.56
320.587	277.56
320.816	263.56
321.046	288.56
321.275	288.56
321.504	289.56
321.733	281.56
321.962	286.56
322.191	302.56
322.42	298.56
322.649	292.56
322.878	305.56
323.108	327.56
323.337	346.56
323.566	329.56
323.795	366.56
324.024	414.56
324.253	517.56
324.482	747.56
324.71	1075.56
324.939	1449.56
325.168	1155.56
325.397	608.56
325.626	459.56
325.855	385.56
326.084	359.56
326.313	355.56
326.542	358.56
326.77	391.56
326.999	471.56
327.228	664.56
327.457	919.56
327.686	1021.56
327.914	680.56
328.143	499.56
328.372	416.56
328.6	405.56
328.829	366.56
329.058	397.56
329.287	381.56
329.515	358.56
329.744	375.56
329.972	347.56
330.201	360.56
330.43	373.56
330.658	389.56
330.887	399.56
331.115	407.56
331.344	348.56
331.572	334.56
331.801	346.56
332.03	321.56
332.258	313.56
332.486	302.56
332.715	302.56
332.943	303.56
333.172	282.56
333.4	295.56
333.629	322.56
333.857	317.56
334.085	319.56
334.314	344.56
334.542	361.56
334.771	337.56
334.999	330.56
335.227	296.56
335.455	307.56
335.684	302.56
335.912	296.56
336.14	305.56
336.369	292.56
336.597	294.56
336.825	309.56
337.053	298.56
337.281	305.56
337.51	290.56
337.738	284.56
337.966	269.56
338.194	310.56
338.422	293.56
338.65	287.56
338.878	279.56
339.106	289.56
339.334	270.56
339.562	290.56
339.79	293.56
340.018	289.56
340.246	286.56
340.474	290.56
340.702	281.56
340.93	278.56
341.158	279.56
341.386	286.56
341.614	283.56
341.842	282.56
342.07	288.56
342.298	292.56
342.526	277.56
342.754	288.56
342.981	280.56
343.209	282.56
343.437	278.56
343.665	282.56
343.893	290.56
344.12	292.56
344.348	283.56
344.576	301.56
344.804	295.56
345.031	283.56
345.259	297.56
345.487	294.56
345.714	281.56
345.942	296.56
346.17	288.56
346.397	283.56
346.625	285.56
346.853	288.56
347.08	268.56
347.308	274.56
347.535	283.56
347.763	286.56
347.99	265.56
348.218	274.56
348.445	288.56
348.673	291.56
348.9	277.56
349.128	293.56
349.355	279.56
349.583	275.56
349.81	265.56
350.037	265.56
350.265	289.56
350.492	271.56
350.72	287.56
350.947	264.56
351.174	280.56
351.402	259.56
351.629	290.56
351.856	265.56
352.083	296.56
352.311	296.56
352.538	267.56
352.765	304.56
352.992	282.56
353.22	266.56
353.447	293.56
353.674	273.56
353.901	244.56
354.128	237.56
354.355	246.56
354.583	254.56
354.81	260.56
355.037	240.56
355.264	253.56
355.491	256.56
355.718	236.56
355.945	269.56
356.172	237.56
356.399	256.56
356.626	261.56
356.853	252.56
357.08	243.56
357.307	243.56
357.534	259.56
357.761	265.56
357.988	252.56
358.215	256.56
358.441	244.56
358.668	272.56
358.895	268.56
359.122	273.56
359.349	273.56
359.576	284.56
359.802	294.56
360.029	300.56
360.256	293.56
360.483	288.56
360.709	279.56
360.936	265.56
361.163	278.56
361.39	287.56
361.616	270.56
361.843	270.56
362.07	272.56
362.296	269.56
362.523	252.56
362.749	245.56
362.976	276.56
363.203	245.56
363.429	272.56
363.656	257.56
363.882	264.56
364.109	269.56
364.335	273.56
364.562	242.56
364.788	257.56
365.015	257.56
365.241	247.56
365.468	243.56
365.694	258.56
365.92	267.56
366.147	270.56
366.373	261.56
366.599	264.56
366.826	248.56
367.052	265.56
367.278	253.56
367.505	243.56
367.731	265.56
367.957	255.56
368.184	252.56
368.41	269.56
368.636	250.56
368.862	267.56
369.089	272.56
369.315	261.56
369.541	261.56
369.767	246.56
369.993	251.56
370.219	256.56
370.445	251.56
370.672	249.56
370.898	263.56
371.124	272.56
371.35	253.56
371.576	255.56
371.802	260.56
372.028	248.56
372.254	248.56
372.48	247.56
372.706	279.56
372.932	256.56
373.158	248.56
373.384	264.56
373.61	264.56
373.835	246.56
374.061	247.56
374.287	255.56
374.513	264.56
374.739	263.56
374.965	263.56
375.191	261.56
375.416	267.56
375.642	269.56
375.868	268.56
376.094	272.56
376.319	238.56
376.545	245.56
376.771	257.56
376.997	246.56
377.222	243.56
377.448	243.56
377.674	241.56
377.899	235.56
378.125	259.56
378.35	248.56
378.576	243.56
378.802	251.56
379.027	249.56
379.253	252.56
379.478	237.56
379.704	248.56
379.929	235.56
380.155	253.56
380.38	253.56
380.606	264.56
380.831	263.56
381.057	262.56
381.282	238.56
381.507	230.56
381.733	246.56
381.958	249.56
382.184	249.56
382.409	253.56
382.634	260.56
382.86	242.56
383.085	273.56
383.31	266.56
383.535	267.56
383.761	262.56
383.986	269.56
384.211	259.56
384.436	268.56
384.662	261.56
384.887	248.56
385.112	263.56
385.337	254.56
385.562	260.56
385.787	263.56
386.013	271.56
386.238	269.56
386.463	267.56
386.688	259.56
386.913	276.56
387.138	248.56
387.363	238.56
387.588	249.56
387.813	248.56
388.038	267.56
388.263	245.56
388.488	251.56
388.713	249.56
388.938	264.56
389.163	260.56
389.387	256.56
389.612	253.56
389.837	253.56
390.062	274.56
390.287	249.56
390.512	264.56
390.736	272.56
390.961	256.56
391.186	259.56
391.411	276.56
391.636	272.56
391.86	268.56
392.085	269.56
392.31	287.56
392.534	275.56
392.759	273.56
392.984	277.56
393.208	282.56
393.433	277.56
393.658	252.56
393.882	251.56
394.107	256.56
394.331	253.56
394.556	253.56
394.78	256.56
395.005	264.56
395.229	253.56
395.454	262.56
395.678	269.56
395.903	273.56
396.127	284.56
396.352	265.56
396.576	267.56
396.801	259.56
397.025	280.56
397.249	267.56
397.474	277.56
397.698	252.56
397.922	288.56
398.147	285.56
398.371	295.56
398.595	296.56
398.82	277.56
399.044	312.56
399.268	292.56
399.492	314.56
399.717	317.56
399.941	332.56
400.165	359.56
400.389	342.56
400.613	338.56
400.837	303.56
401.062	283.56
401.286	283.56
401.51	296.56
401.734	280.56
401.958	294.56
402.182	281.56
402.406	293.56
402.63	286.56
402.854	269.56
403.078	287.56
403.302	281.56
403.526	298.56
403.75	292.56
403.974	288.56
404.198	291.56
404.422	293.56
404.645	317.56
404.869	297.56
405.093	303.56
405.317	335.56
405.541	333.56
405.765	313.56
405.988	295.56
406.212	324.56
406.436	331.56
406.66	323.56
406.883	327.56
407.107	361.56
407.331	371.56
407.555	403.56
407.778	370.56
408.002	349.56
408.226	311.56
408.449	316.56
408.673	327.56
408.896	309.56
409.12	364.56
409.344	328.56
409.567	306.56
409.791	329.56
410.014	297.56
410.238	311.56
410.461	324.56
410.685	285.56
410.908	303.56
411.132	349.56
411.355	343.56
411.578	320.56
411.802	282.56
412.025	294.56
412.249	293.56
412.472	312.56
412.695	315.56
412.919	316.56
413.142	290.56
413.365	273.56
413.589	281.56
413.812	283.56
414.035	275.56
414.258	288.56
414.482	265.56
414.705	292.56
414.928	301.56
415.151	284.56
415.374	267.56
415.597	277.56
415.821	267.56
416.044	274.56
416.267	291.56
416.49	284.56
416.713	281.56
416.936	263.56
417.159	284.56
417.382	273.56
417.605	284.56
417.828	291.56
418.051	291.56
418.274	290.56
418.497	273.56
418.72	268.56
418.943	276.56
419.166	270.56
419.389	301.56
419.611	289.56
419.834	293.56
420.057	298.56
420.28	287.56
420.503	296.56
420.726	274.56
420.948	282.56
421.171	328.56
421.394	355.56
421.617	313.56
421.839	280.56
422.062	276.56
422.285	294.56
422.507	335.56
422.73	381.56
422.953	370.56
423.175	314.56
423.398	303.56
423.621	300.56
423.843	315.56
424.066	317.56
424.288	318.56
424.511	331.56
424.733	362.56
424.956	392.56
425.178	381.56
425.401	361.56
425.623	388.56
425.846	328.56
426.068	333.56
426.291	317.56
426.513	325.56
426.735	322.56
426.958	358.56
427.18	388.56
427.402	460.56
427.625	515.56
427.847	420.56
428.069	392.56
428.292	331.56
428.514	303.56
428.736	307.56
428.958	330.56
429.181	290.56
429.403	296.56
429.625	307.56
429.847	305.56
430.069	342.56
430.292	358.56
430.514	311.56
430.736	300.56
430.958	293.56
431.18	278.56
431.402	279.56
431.624	287.56
431.846	271.56
432.068	273.56
432.29	281.56
432.512	287.56
432.734	280.56
432.956	275.56
433.178	290.56
433.4	293.56
433.622	260.56
433.844	281.56
434.066	294.56
434.287	280.56
434.509	278.56
434.731	287.56
434.953	272.56
435.175	305.56
435.397	310.56
435.618	324.56
435.84	346.56
436.062	402.56
436.284	420.56
436.505	351.56
436.727	339.56
436.949	311.56
437.17	304.56
437.392	290.56
437.614	300.56
437.835	329.56
438.057	382.56
438.278	439.56
438.5	420.56
438.721	451.56
438.943	451.56
439.165	353.56
439.386	329.56
439.608	331.56
439.829	346.56
440.05	347.56
440.272	363.56
440.493	358.56
440.715	331.56
440.936	320.56
441.158	301.56
441.379	282.56
441.6	306.56
441.822	331.56
442.043	347.56
442.264	390.56
442.486	405.56
442.707	329.56
442.928	323.56
443.149	319.56
443.371	358.56
443.592	365.56
443.813	394.56
444.034	427.56
444.255	377.56
444.476	323.56
444.698	307.56
444.919	317.56
445.14	397.56
445.361	376.56
445.582	328.56
445.803	390.56
446.024	436.56
446.245	443.56
446.466	375.56
446.687	346.56
446.908	323.56
447.129	298.56
447.35	303.56
447.571	291.56
447.792	290.56
448.013	309.56
448.234	301.56
448.455	363.56
448.675	415.56
448.896	447.56
449.117	393.56
449.338	380.56
449.559	442.56
449.779	486.56
450	375.56
450.221	350.56
450.442	297.56
450.662	311.56
450.883	305.56
451.104	302.56
451.324	292.56
451.545	288.56
451.766	294.56
451.986	280.56
452.207	277.56
452.428	275.56
452.648	263.56
452.869	271.56
453.089	280.56
453.31	265.56
453.53	269.56
453.751	268.56
453.971	269.56
454.192	291.56
454.412	277.56
454.633	286.56
454.853	277.56
455.073	269.56
455.294	302.56
455.514	316.56
455.734	314.56
455.955	270.56
456.175	235.56
456.395	267.56
456.616	259.56
456.836	265.56
457.056	267.56
457.276	256.56
457.497	260.56
457.717	245.56
457.937	259.56
458.157	265.56
458.377	266.56
458.598	270.56
458.818	311.56
459.038	355.56
459.258	354.56
459.478	309.56
459.698	285.56
459.918	282.56
460.138	269.56
460.358	266.56
460.578	272.56
460.798	298.56
461.018	284.56
461.238	274.56
461.458	269.56
461.678	272.56
461.898	271.56
462.118	280.56
462.338	283.56
462.558	271.56
462.777	286.56
462.997	279.56
463.217	275.56
463.437	302.56
463.657	291.56
463.876	307.56
464.096	311.56
464.316	300.56
464.536	299.56
464.755	280.56
464.975	299.56
465.195	320.56
465.414	357.56
465.634	320.56
465.854	298.56
466.073	307.56
466.293	282.56
466.512	277.56
466.732	274.56
466.951	279.56
467.171	266.56
467.391	271.56
467.61	279.56
467.829	286.56
468.049	283.56
468.268	283.56
468.488	278.56
468.707	287.56
468.927	263.56
469.146	268.56
469.365	251.56
469.585	261.56
469.804	280.56
470.023	279.56
470.243	278.56
470.462	297.56
470.681	304.56
470.901	286.56
471.12	279.56
471.339	282.56
471.558	285.56
471.777	275.56
471.997	272.56
472.216	279.56
472.435	281.56
472.654	265.56
472.873	282.56
473.092	288.56
473.311	273.56
473.53	275.56
473.749	275.56
473.968	327.56
474.187	360.56
474.406	367.56
474.625	325.56
474.844	303.56
475.063	295.56
475.282	281.56
475.501	279.56
475.72	281.56
475.939	260.56
476.158	293.56
476.377	286.56
476.596	281.56
476.814	290.56
477.033	305.56
477.252	293.56
477.471	273.56
477.69	302.56
477.908	306.56
478.127	307.56
478.346	307.56
478.564	295.56
478.783	298.56
479.002	315.56
479.22	294.56
479.439	329.56
479.658	323.56
479.876	320.56
480.095	318.56
480.313	329.56
480.532	334.56
480.751	326.56
480.969	327.56
481.188	368.56
481.406	365.56
481.624	349.56
481.843	335.56
482.061	335.56
482.28	318.56
482.498	307.56
482.717	320.56
482.935	327.56
483.153	310.56
483.372	326.56
483.59	311.56
483.808	333.56
484.027	316.56
484.245	332.56
484.463	317.56
484.681	337.56
484.9	327.56
485.118	319.56
485.336	323.56
485.554	318.56
485.772	347.56
485.99	317.56
486.209	319.56
486.427	336.56
486.645	353.56
486.863	341.56
487.081	365.56
487.299	343.56
487.517	342.56
487.735	343.56
487.953	335.56
488.171	332.56
488.389	338.56
488.607	344.56
488.825	348.56
489.043	329.56
489.261	352.56
489.479	352.56
489.696	330.56
489.914	341.56
490.132	352.56
490.35	335.56
490.568	351.56
490.786	372.56
491.003	359.56
491.221	378.56
491.439	375.56
491.657	363.56
491.874	384.56
492.092	393.56
492.31	383.56
492.527	390.56
492.745	361.56
492.963	393.56
493.18	401.56
493.398	400.56
493.615	401.56
493.833	393.56
494.05	409.56
494.268	397.56
494.485	407.56
494.703	414.56
494.92	376.56
495.138	399.56
495.355	402.56
495.573	413.56
495.79	401.56
496.008	395.56
496.225	413.56
496.442	382.56
496.66	387.56
496.877	378.56
497.094	404.56
497.312	397.56
497.529	382.56
497.746	394.56
497.963	419.56
498.181	442.56
498.398	423.56
498.615	440.56
498.832	426.56
499.049	416.56
499.267	460.56
499.484	464.56
499.701	464.56
499.918	474.56
500.135	493.56
500.352	501.56
500.569	493.56
500.786	478.56
501.003	488.56
501.22	490.56
501.437	447.56
501.654	478.56
501.871	472.56
502.088	467.56
502.305	452.56
