Data from 1982.PennyLincolnUp.Lamp.En5.5.200Scan.071819.P1_HRD10591_16-47-30-962.txt Node
Date: Thu Jul 18 16:47:30 EDT 2019
User: cochatt
Spectrometer: HR+D1059
Trigger mode: 1
Integration Time (sec): 1.000000E-1
Scans to average: 1
Electric dark correction enabled: true
Nonlinearity correction enabled: false
Boxcar width: 0
XAxis mode: Wavelengths
Number of Pixels in Spectrum: 2048
>>>>>Begin Spectral Data<<<<<
223.165	-20.44
223.4	-20.44
223.635	-20.44
223.869	-17.44
224.104	-10.44
224.338	-11.44
224.573	-7.44
224.808	-10.44
225.042	-6.44
225.277	5.56
225.511	-8.44
225.746	1.56
225.98	3.56
226.215	4.56
226.449	5.56
226.683	11.56
226.918	35.56
227.152	24.56
227.387	32.56
227.621	29.56
227.856	48.56
228.09	57.56
228.324	51.56
228.559	63.56
228.793	75.56
229.027	101.56
229.262	81.56
229.496	102.56
229.73	104.56
229.964	127.56
230.199	118.56
230.433	101.56
230.667	100.56
230.901	103.56
231.136	117.56
231.37	100.56
231.604	115.56
231.838	116.56
232.072	107.56
232.306	100.56
232.541	106.56
232.775	107.56
233.009	112.56
233.243	108.56
233.477	111.56
233.711	109.56
233.945	107.56
234.179	95.56
234.413	114.56
234.647	101.56
234.881	102.56
235.115	99.56
235.349	104.56
235.583	124.56
235.817	114.56
236.051	115.56
236.285	112.56
236.519	114.56
236.753	112.56
236.987	132.56
237.221	140.56
237.455	182.56
237.689	141.56
237.922	121.56
238.156	135.56
238.39	109.56
238.624	109.56
238.858	117.56
239.091	96.56
239.325	104.56
239.559	107.56
239.793	118.56
240.027	116.56
240.26	119.56
240.494	140.56
240.728	132.56
240.961	108.56
241.195	114.56
241.429	107.56
241.662	120.56
241.896	121.56
242.13	116.56
242.363	116.56
242.597	125.56
242.83	129.56
243.064	124.56
243.298	114.56
243.531	125.56
243.765	135.56
243.998	123.56
244.232	124.56
244.465	120.56
244.699	115.56
244.932	126.56
245.166	114.56
245.399	118.56
245.633	120.56
245.866	112.56
246.099	126.56
246.333	138.56
246.566	131.56
246.8	129.56
247.033	120.56
247.266	136.56
247.5	119.56
247.733	150.56
247.966	161.56
248.2	149.56
248.433	144.56
248.666	144.56
248.899	149.56
249.133	167.56
249.366	176.56
249.599	171.56
249.832	159.56
250.066	148.56
250.299	142.56
250.532	142.56
250.765	155.56
250.998	179.56
251.231	190.56
251.465	178.56
251.698	180.56
251.931	159.56
252.164	169.56
252.397	168.56
252.63	156.56
252.863	186.56
253.096	189.56
253.329	199.56
253.562	177.56
253.795	163.56
254.028	182.56
254.261	175.56
254.494	191.56
254.727	182.56
254.96	223.56
255.193	208.56
255.426	203.56
255.659	196.56
255.892	191.56
256.124	188.56
256.357	186.56
256.59	176.56
256.823	184.56
257.056	171.56
257.289	159.56
257.521	151.56
257.754	177.56
257.987	170.56
258.22	183.56
258.452	186.56
258.685	166.56
258.918	163.56
259.151	161.56
259.383	165.56
259.616	173.56
259.849	189.56
260.081	179.56
260.314	191.56
260.547	203.56
260.779	189.56
261.012	200.56
261.244	189.56
261.477	186.56
261.71	173.56
261.942	188.56
262.175	193.56
262.407	178.56
262.64	189.56
262.872	178.56
263.105	179.56
263.337	171.56
263.57	185.56
263.802	190.56
264.035	169.56
264.267	170.56
264.499	157.56
264.732	163.56
264.964	169.56
265.197	180.56
265.429	170.56
265.661	185.56
265.894	174.56
266.126	170.56
266.358	173.56
266.591	166.56
266.823	169.56
267.055	168.56
267.287	185.56
267.52	182.56
267.752	179.56
267.984	176.56
268.216	194.56
268.448	191.56
268.681	201.56
268.913	191.56
269.145	206.56
269.377	226.56
269.609	198.56
269.841	215.56
270.073	222.56
270.306	232.56
270.538	255.56
270.77	240.56
271.002	246.56
271.234	225.56
271.466	230.56
271.698	236.56
271.93	267.56
272.162	255.56
272.394	245.56
272.626	229.56
272.858	229.56
273.09	224.56
273.322	205.56
273.553	204.56
273.785	219.56
274.017	224.56
274.249	226.56
274.481	205.56
274.713	218.56
274.945	222.56
275.176	214.56
275.408	215.56
275.64	221.56
275.872	199.56
276.104	221.56
276.335	215.56
276.567	219.56
276.799	212.56
277.031	253.56
277.262	252.56
277.494	250.56
277.726	245.56
277.957	214.56
278.189	223.56
278.421	222.56
278.652	192.56
278.884	207.56
279.115	217.56
279.347	210.56
279.579	207.56
279.81	201.56
280.042	221.56
280.273	218.56
280.505	195.56
280.736	186.56
280.968	199.56
281.199	208.56
281.431	212.56
281.662	204.56
281.894	212.56
282.125	206.56
282.356	228.56
282.588	224.56
282.819	248.56
283.051	219.56
283.282	212.56
283.513	211.56
283.745	216.56
283.976	217.56
284.207	221.56
284.439	232.56
284.67	214.56
284.901	216.56
285.132	197.56
285.364	198.56
285.595	230.56
285.826	207.56
286.057	214.56
286.288	212.56
286.52	213.56
286.751	204.56
286.982	218.56
287.213	218.56
287.444	219.56
287.675	232.56
287.906	222.56
288.138	223.56
288.369	234.56
288.6	226.56
288.831	238.56
289.062	226.56
289.293	222.56
289.524	224.56
289.755	231.56
289.986	212.56
290.217	222.56
290.448	211.56
290.679	234.56
290.91	229.56
291.141	216.56
291.371	226.56
291.602	243.56
291.833	212.56
292.064	224.56
292.295	200.56
292.526	214.56
292.757	244.56
292.987	214.56
293.218	218.56
293.449	216.56
293.68	227.56
293.91	215.56
294.141	223.56
294.372	218.56
294.603	230.56
294.833	236.56
295.064	211.56
295.295	228.56
295.525	228.56
295.756	236.56
295.987	239.56
296.217	250.56
296.448	253.56
296.679	237.56
296.909	221.56
297.14	234.56
297.37	226.56
297.601	219.56
297.831	238.56
298.062	248.56
298.292	247.56
298.523	223.56
298.753	244.56
298.984	229.56
299.214	228.56
299.445	237.56
299.675	231.56
299.905	252.56
300.136	234.56
300.366	220.56
300.597	220.56
300.827	246.56
301.057	254.56
301.288	265.56
301.518	250.56
301.748	251.56
301.979	234.56
302.209	266.56
302.439	248.56
302.669	253.56
302.9	231.56
303.13	246.56
303.36	239.56
303.59	277.56
303.82	255.56
304.051	258.56
304.281	260.56
304.511	278.56
304.741	258.56
304.971	253.56
305.201	279.56
305.431	248.56
305.661	250.56
305.891	242.56
306.121	268.56
306.352	246.56
306.582	254.56
306.812	264.56
307.042	231.56
307.272	259.56
307.502	268.56
307.731	274.56
307.961	240.56
308.191	258.56
308.421	289.56
308.651	268.56
308.881	264.56
309.111	257.56
309.341	266.56
309.571	279.56
309.8	269.56
310.03	289.56
310.26	302.56
310.49	294.56
310.72	294.56
310.949	283.56
311.179	313.56
311.409	305.56
311.639	279.56
311.868	309.56
312.098	282.56
312.328	298.56
312.557	317.56
312.787	306.56
313.017	321.56
313.246	293.56
313.476	281.56
313.706	279.56
313.935	294.56
314.165	313.56
314.394	323.56
314.624	305.56
314.853	296.56
315.083	312.56
315.312	306.56
315.542	282.56
315.771	285.56
316.001	286.56
316.23	280.56
316.46	273.56
316.689	297.56
316.919	290.56
317.148	301.56
317.377	306.56
317.607	303.56
317.836	299.56
318.065	312.56
318.295	293.56
318.524	302.56
318.753	287.56
318.983	304.56
319.212	276.56
319.441	286.56
319.67	304.56
319.9	287.56
320.129	304.56
320.358	298.56
320.587	309.56
320.816	307.56
321.046	316.56
321.275	317.56
321.504	310.56
321.733	318.56
321.962	322.56
322.191	318.56
322.42	329.56
322.649	364.56
322.878	362.56
323.108	363.56
323.337	382.56
323.566	408.56
323.795	432.56
324.024	483.56
324.253	607.56
324.482	907.56
324.71	1357.56
324.939	1761.56
325.168	1462.56
325.397	765.56
325.626	516.56
325.855	458.56
326.084	423.56
326.313	393.56
326.542	407.56
326.77	454.56
326.999	573.56
327.228	825.56
327.457	1163.56
327.686	1274.56
327.914	843.56
328.143	576.56
328.372	492.56
328.6	452.56
328.829	441.56
329.058	475.56
329.287	461.56
329.515	438.56
329.744	397.56
329.972	397.56
330.201	428.56
330.43	444.56
330.658	480.56
330.887	473.56
331.115	479.56
331.344	410.56
331.572	390.56
331.801	388.56
332.03	367.56
332.258	358.56
332.486	351.56
332.715	362.56
332.943	359.56
333.172	342.56
333.4	364.56
333.629	356.56
333.857	360.56
334.085	356.56
334.314	389.56
334.542	412.56
334.771	391.56
334.999	362.56
335.227	363.56
335.455	348.56
335.684	336.56
335.912	310.56
336.14	347.56
336.369	345.56
336.597	349.56
336.825	348.56
337.053	329.56
337.281	335.56
337.51	335.56
337.738	339.56
337.966	321.56
338.194	333.56
338.422	338.56
338.65	333.56
338.878	318.56
339.106	329.56
339.334	319.56
339.562	319.56
339.79	330.56
340.018	312.56
340.246	312.56
340.474	305.56
340.702	322.56
340.93	341.56
341.158	333.56
341.386	332.56
341.614	324.56
341.842	305.56
342.07	329.56
342.298	311.56
342.526	323.56
342.754	313.56
342.981	307.56
343.209	315.56
343.437	301.56
343.665	314.56
343.893	306.56
344.12	317.56
344.348	318.56
344.576	319.56
344.804	328.56
345.031	319.56
345.259	338.56
345.487	335.56
345.714	308.56
345.942	315.56
346.17	303.56
346.397	327.56
346.625	296.56
346.853	308.56
347.08	313.56
347.308	328.56
347.535	335.56
347.763	326.56
347.99	321.56
348.218	326.56
348.445	305.56
348.673	309.56
348.9	302.56
349.128	322.56
349.355	279.56
349.583	289.56
349.81	296.56
350.037	311.56
350.265	302.56
350.492	300.56
350.72	299.56
350.947	307.56
351.174	311.56
351.402	303.56
351.629	335.56
351.856	314.56
352.083	326.56
352.311	338.56
352.538	303.56
352.765	336.56
352.992	308.56
353.22	312.56
353.447	303.56
353.674	298.56
353.901	293.56
354.128	281.56
354.355	275.56
354.583	297.56
354.81	293.56
355.037	277.56
355.264	283.56
355.491	288.56
355.718	292.56
355.945	275.56
356.172	271.56
356.399	290.56
356.626	271.56
356.853	273.56
357.08	263.56
357.307	290.56
357.534	266.56
357.761	271.56
357.988	278.56
358.215	266.56
358.441	306.56
358.668	276.56
358.895	284.56
359.122	304.56
359.349	309.56
359.576	285.56
359.802	299.56
360.029	363.56
360.256	346.56
360.483	327.56
360.709	303.56
360.936	300.56
361.163	306.56
361.39	297.56
361.616	306.56
361.843	301.56
362.07	322.56
362.296	295.56
362.523	307.56
362.749	303.56
362.976	308.56
363.203	313.56
363.429	290.56
363.656	282.56
363.882	290.56
364.109	274.56
364.335	298.56
364.562	285.56
364.788	303.56
365.015	282.56
365.241	278.56
365.468	290.56
365.694	287.56
365.92	288.56
366.147	269.56
366.373	286.56
366.599	262.56
366.826	288.56
367.052	283.56
367.278	275.56
367.505	306.56
367.731	284.56
367.957	271.56
368.184	286.56
368.41	298.56
368.636	294.56
368.862	291.56
369.089	281.56
369.315	291.56
369.541	287.56
369.767	278.56
369.993	286.56
370.219	289.56
370.445	278.56
370.672	284.56
370.898	288.56
371.124	262.56
371.35	273.56
371.576	284.56
371.802	271.56
372.028	272.56
372.254	268.56
372.48	267.56
372.706	269.56
372.932	258.56
373.158	271.56
373.384	282.56
373.61	282.56
373.835	266.56
374.061	283.56
374.287	291.56
374.513	288.56
374.739	288.56
374.965	276.56
375.191	276.56
375.416	263.56
375.642	243.56
375.868	268.56
376.094	279.56
376.319	267.56
376.545	282.56
376.771	269.56
376.997	252.56
377.222	271.56
377.448	274.56
377.674	262.56
377.899	261.56
378.125	277.56
378.35	267.56
378.576	288.56
378.802	283.56
379.027	258.56
379.253	268.56
379.478	268.56
379.704	275.56
379.929	276.56
380.155	265.56
380.38	284.56
380.606	283.56
380.831	260.56
381.057	275.56
381.282	273.56
381.507	279.56
381.733	281.56
381.958	272.56
382.184	291.56
382.409	263.56
382.634	259.56
382.86	276.56
383.085	289.56
383.31	269.56
383.535	259.56
383.761	288.56
383.986	278.56
384.211	271.56
384.436	281.56
384.662	283.56
384.887	287.56
385.112	271.56
385.337	283.56
385.562	300.56
385.787	271.56
386.013	302.56
386.238	292.56
386.463	289.56
386.688	283.56
386.913	280.56
387.138	264.56
387.363	265.56
387.588	274.56
387.813	277.56
388.038	285.56
388.263	282.56
388.488	267.56
388.713	286.56
388.938	278.56
389.163	283.56
389.387	283.56
389.612	282.56
389.837	296.56
390.062	262.56
390.287	295.56
390.512	274.56
390.736	276.56
390.961	279.56
391.186	279.56
391.411	283.56
391.636	291.56
391.86	280.56
392.085	298.56
392.31	277.56
392.534	278.56
392.759	302.56
392.984	279.56
393.208	276.56
393.433	279.56
393.658	286.56
393.882	282.56
394.107	265.56
394.331	291.56
394.556	285.56
394.78	285.56
395.005	269.56
395.229	275.56
395.454	290.56
395.678	290.56
395.903	303.56
396.127	295.56
396.352	292.56
396.576	270.56
396.801	299.56
397.025	276.56
397.249	287.56
397.474	291.56
397.698	286.56
397.922	298.56
398.147	303.56
398.371	320.56
398.595	314.56
398.82	323.56
399.044	319.56
399.268	316.56
399.492	338.56
399.717	342.56
399.941	350.56
400.165	372.56
400.389	390.56
400.613	332.56
400.837	319.56
401.062	314.56
401.286	316.56
401.51	300.56
401.734	315.56
401.958	303.56
402.182	306.56
402.406	330.56
402.63	323.56
402.854	308.56
403.078	319.56
403.302	331.56
403.526	319.56
403.75	332.56
403.974	322.56
404.198	347.56
404.422	325.56
404.645	327.56
404.869	341.56
405.093	354.56
405.317	360.56
405.541	384.56
405.765	381.56
405.988	339.56
406.212	333.56
406.436	370.56
406.66	355.56
406.883	362.56
407.107	351.56
407.331	381.56
407.555	441.56
407.778	424.56
408.002	398.56
408.226	349.56
408.449	346.56
408.673	346.56
408.896	386.56
409.12	394.56
409.344	369.56
409.567	344.56
409.791	316.56
410.014	323.56
410.238	325.56
410.461	322.56
410.685	330.56
410.908	343.56
411.132	350.56
411.355	384.56
411.578	375.56
411.802	332.56
412.025	321.56
412.249	355.56
412.472	342.56
412.695	372.56
412.919	344.56
413.142	325.56
413.365	312.56
413.589	326.56
413.812	316.56
414.035	295.56
414.258	322.56
414.482	310.56
414.705	306.56
414.928	299.56
415.151	291.56
415.374	291.56
415.597	290.56
415.821	298.56
416.044	292.56
416.267	322.56
416.49	305.56
416.713	298.56
416.936	299.56
417.159	303.56
417.382	299.56
417.605	319.56
417.828	318.56
418.051	314.56
418.274	318.56
418.497	298.56
418.72	317.56
418.943	303.56
419.166	303.56
419.389	302.56
419.611	313.56
419.834	306.56
420.057	319.56
420.28	309.56
420.503	322.56
420.726	323.56
420.948	326.56
421.171	374.56
421.394	368.56
421.617	336.56
421.839	334.56
422.062	312.56
422.285	323.56
422.507	364.56
422.73	416.56
422.953	388.56
423.175	349.56
423.398	347.56
423.621	338.56
423.843	354.56
424.066	343.56
424.288	355.56
424.511	365.56
424.733	404.56
424.956	420.56
425.178	431.56
425.401	427.56
425.623	434.56
425.846	364.56
426.068	366.56
426.291	340.56
426.513	344.56
426.735	365.56
426.958	391.56
427.18	454.56
427.402	522.56
427.625	550.56
427.847	487.56
428.069	438.56
428.292	378.56
428.514	340.56
428.736	319.56
428.958	331.56
429.181	335.56
429.403	325.56
429.625	322.56
429.847	358.56
430.069	392.56
430.292	384.56
430.514	329.56
430.736	330.56
430.958	318.56
431.18	303.56
431.402	304.56
431.624	310.56
431.846	293.56
432.068	291.56
432.29	311.56
432.512	326.56
432.734	316.56
432.956	301.56
433.178	322.56
433.4	313.56
433.622	313.56
433.844	311.56
434.066	308.56
434.287	309.56
434.509	303.56
434.731	307.56
434.953	311.56
435.175	325.56
435.397	350.56
435.618	359.56
435.84	382.56
436.062	438.56
436.284	483.56
436.505	406.56
436.727	348.56
436.949	341.56
437.17	314.56
437.392	316.56
437.614	327.56
437.835	354.56
438.057	430.56
438.278	466.56
438.5	478.56
438.721	535.56
438.943	501.56
439.165	401.56
439.386	364.56
439.608	358.56
439.829	373.56
440.05	362.56
440.272	411.56
440.493	386.56
440.715	358.56
440.936	347.56
441.158	332.56
441.379	346.56
441.6	326.56
441.822	350.56
442.043	383.56
442.264	438.56
442.486	448.56
442.707	388.56
442.928	361.56
443.149	375.56
443.371	388.56
443.592	424.56
443.813	457.56
444.034	500.56
444.255	412.56
444.476	366.56
444.698	353.56
444.919	335.56
445.14	430.56
445.361	394.56
445.582	383.56
445.803	452.56
446.024	498.56
446.245	490.56
446.466	461.56
446.687	384.56
446.908	352.56
447.129	325.56
447.35	336.56
447.571	343.56
447.792	317.56
448.013	336.56
448.234	359.56
448.455	380.56
448.675	435.56
448.896	503.56
449.117	439.56
449.338	416.56
449.559	502.56
449.779	520.56
450	432.56
450.221	371.56
450.442	341.56
450.662	317.56
450.883	341.56
451.104	364.56
451.324	338.56
451.545	329.56
451.766	311.56
451.986	294.56
452.207	287.56
452.428	299.56
452.648	290.56
452.869	311.56
453.089	281.56
453.31	294.56
453.53	292.56
453.751	295.56
453.971	309.56
454.192	326.56
454.412	328.56
454.633	313.56
454.853	306.56
455.073	280.56
455.294	313.56
455.514	342.56
455.734	335.56
455.955	311.56
456.175	291.56
456.395	278.56
456.616	271.56
456.836	280.56
457.056	275.56
457.276	274.56
457.497	260.56
457.717	285.56
457.937	296.56
458.157	283.56
458.377	292.56
458.598	322.56
458.818	355.56
459.038	395.56
459.258	382.56
459.478	329.56
459.698	295.56
459.918	296.56
460.138	292.56
460.358	283.56
460.578	312.56
460.798	293.56
461.018	303.56
461.238	297.56
461.458	297.56
461.678	303.56
461.898	302.56
462.118	296.56
462.338	312.56
462.558	298.56
462.777	306.56
462.997	309.56
463.217	300.56
463.437	315.56
463.657	302.56
463.876	299.56
464.096	308.56
464.316	308.56
464.536	308.56
464.755	320.56
464.975	335.56
465.195	345.56
465.414	409.56
465.634	371.56
465.854	327.56
466.073	320.56
466.293	299.56
466.512	294.56
466.732	287.56
466.951	316.56
467.171	296.56
467.391	289.56
467.61	290.56
467.829	308.56
468.049	292.56
468.268	295.56
468.488	286.56
468.707	295.56
468.927	298.56
469.146	288.56
469.365	297.56
469.585	286.56
469.804	308.56
470.023	284.56
470.243	312.56
470.462	317.56
470.681	323.56
470.901	300.56
471.12	276.56
471.339	313.56
471.558	315.56
471.777	304.56
471.997	300.56
472.216	306.56
472.435	321.56
472.654	306.56
472.873	316.56
473.092	291.56
473.311	297.56
473.53	309.56
473.749	314.56
473.968	346.56
474.187	409.56
474.406	434.56
474.625	346.56
474.844	329.56
475.063	285.56
475.282	297.56
475.501	311.56
475.72	317.56
475.939	310.56
476.158	323.56
476.377	292.56
476.596	316.56
476.814	300.56
477.033	297.56
477.252	322.56
477.471	331.56
477.69	307.56
477.908	319.56
478.127	326.56
478.346	326.56
478.564	327.56
478.783	306.56
479.002	327.56
479.22	344.56
479.439	344.56
479.658	355.56
479.876	366.56
480.095	358.56
480.313	392.56
480.532	362.56
480.751	348.56
480.969	376.56
481.188	408.56
481.406	448.56
481.624	386.56
481.843	379.56
482.061	351.56
482.28	355.56
482.498	332.56
482.717	340.56
482.935	342.56
483.153	350.56
483.372	342.56
483.59	347.56
483.808	357.56
484.027	351.56
484.245	372.56
484.463	352.56
484.681	361.56
484.9	364.56
485.118	367.56
485.336	341.56
485.554	351.56
485.772	331.56
485.99	363.56
486.209	356.56
486.427	347.56
486.645	359.56
486.863	371.56
487.081	382.56
487.299	388.56
487.517	376.56
487.735	356.56
487.953	370.56
488.171	364.56
488.389	384.56
488.607	376.56
488.825	375.56
489.043	389.56
489.261	378.56
489.479	376.56
489.696	364.56
489.914	376.56
490.132	358.56
490.35	378.56
490.568	416.56
490.786	392.56
491.003	386.56
491.221	420.56
491.439	418.56
491.657	394.56
491.874	430.56
492.092	419.56
492.31	424.56
492.527	432.56
492.745	411.56
492.963	435.56
493.18	447.56
493.398	411.56
493.615	439.56
493.833	438.56
494.05	438.56
494.268	424.56
494.485	434.56
494.703	430.56
494.92	450.56
495.138	442.56
495.355	430.56
495.573	433.56
495.79	458.56
496.008	441.56
496.225	440.56
496.442	426.56
496.66	442.56
496.877	424.56
497.094	431.56
497.312	458.56
497.529	472.56
497.746	451.56
497.963	466.56
498.181	445.56
498.398	458.56
498.615	485.56
498.832	470.56
499.049	454.56
499.267	488.56
499.484	498.56
499.701	511.56
499.918	522.56
500.135	530.56
500.352	538.56
500.569	554.56
500.786	533.56
501.003	543.56
501.22	534.56
501.437	528.56
501.654	509.56
501.871	536.56
502.088	526.56
