Data from 1982.PennyLincolnUp.Lamp.En5.5.200Scan.071819.P1_HRD10591_16-46-45-962.txt Node
Date: Thu Jul 18 16:46:45 EDT 2019
User: cochatt
Spectrometer: HR+D1059
Trigger mode: 1
Integration Time (sec): 1.000000E-1
Scans to average: 1
Electric dark correction enabled: true
Nonlinearity correction enabled: false
Boxcar width: 0
XAxis mode: Wavelengths
Number of Pixels in Spectrum: 2048
>>>>>Begin Spectral Data<<<<<
223.165	-19.75
223.4	-19.75
223.635	-19.75
223.869	-3.75
224.104	-12.75
224.338	-17.75
224.573	-5.75
224.808	-14.75
225.042	-9.75
225.277	2.25
225.511	9.25
225.746	4.25
225.98	4.25
226.215	-4.75
226.449	1.25
226.683	18.25
226.918	20.25
227.152	29.25
227.387	37.25
227.621	33.25
227.856	52.25
228.09	41.25
228.324	41.25
228.559	58.25
228.793	68.25
229.027	82.25
229.262	103.25
229.496	90.25
229.73	114.25
229.964	130.25
230.199	118.25
230.433	107.25
230.667	105.25
230.901	100.25
231.136	106.25
231.37	88.25
231.604	110.25
231.838	101.25
232.072	94.25
232.306	106.25
232.541	113.25
232.775	106.25
233.009	78.25
233.243	102.25
233.477	109.25
233.711	101.25
233.945	102.25
234.179	121.25
234.413	105.25
234.647	107.25
234.881	92.25
235.115	107.25
235.349	108.25
235.583	106.25
235.817	102.25
236.051	109.25
236.285	106.25
236.519	115.25
236.753	110.25
236.987	118.25
237.221	149.25
237.455	191.25
237.689	147.25
237.922	132.25
238.156	127.25
238.39	106.25
238.624	106.25
238.858	113.25
239.091	118.25
239.325	110.25
239.559	118.25
239.793	113.25
240.027	125.25
240.26	126.25
240.494	123.25
240.728	132.25
240.961	111.25
241.195	129.25
241.429	103.25
241.662	108.25
241.896	123.25
242.13	125.25
242.363	121.25
242.597	97.25
242.83	113.25
243.064	104.25
243.298	119.25
243.531	121.25
243.765	116.25
243.998	116.25
244.232	118.25
244.465	130.25
244.699	120.25
244.932	113.25
245.166	116.25
245.399	117.25
245.633	129.25
245.866	122.25
246.099	120.25
246.333	127.25
246.566	134.25
246.8	129.25
247.033	128.25
247.266	121.25
247.5	149.25
247.733	129.25
247.966	139.25
248.2	148.25
248.433	159.25
248.666	155.25
248.899	168.25
249.133	170.25
249.366	164.25
249.599	153.25
249.832	150.25
250.066	165.25
250.299	158.25
250.532	165.25
250.765	173.25
250.998	185.25
251.231	192.25
251.465	171.25
251.698	172.25
251.931	168.25
252.164	167.25
252.397	167.25
252.63	156.25
252.863	174.25
253.096	184.25
253.329	188.25
253.562	186.25
253.795	194.25
254.028	169.25
254.261	173.25
254.494	167.25
254.727	213.25
254.96	221.25
255.193	221.25
255.426	199.25
255.659	179.25
255.892	185.25
256.124	197.25
256.357	196.25
256.59	190.25
256.823	173.25
257.056	178.25
257.289	179.25
257.521	185.25
257.754	176.25
257.987	175.25
258.22	170.25
258.452	168.25
258.685	163.25
258.918	165.25
259.151	168.25
259.383	191.25
259.616	179.25
259.849	197.25
260.081	197.25
260.314	203.25
260.547	219.25
260.779	195.25
261.012	185.25
261.244	189.25
261.477	187.25
261.71	183.25
261.942	186.25
262.175	188.25
262.407	184.25
262.64	167.25
262.872	182.25
263.105	178.25
263.337	179.25
263.57	193.25
263.802	164.25
264.035	156.25
264.267	169.25
264.499	165.25
264.732	183.25
264.964	172.25
265.197	165.25
265.429	179.25
265.661	185.25
265.894	202.25
266.126	169.25
266.358	184.25
266.591	187.25
266.823	182.25
267.055	184.25
267.287	173.25
267.52	179.25
267.752	181.25
267.984	161.25
268.216	183.25
268.448	203.25
268.681	186.25
268.913	199.25
269.145	194.25
269.377	223.25
269.609	212.25
269.841	225.25
270.073	227.25
270.306	220.25
270.538	250.25
270.77	252.25
271.002	230.25
271.234	222.25
271.466	245.25
271.698	261.25
271.93	250.25
272.162	246.25
272.394	252.25
272.626	245.25
272.858	253.25
273.09	225.25
273.322	206.25
273.553	202.25
273.785	201.25
274.017	205.25
274.249	217.25
274.481	210.25
274.713	209.25
274.945	205.25
275.176	221.25
275.408	228.25
275.64	203.25
275.872	201.25
276.104	209.25
276.335	218.25
276.567	202.25
276.799	223.25
277.031	235.25
277.262	242.25
277.494	245.25
277.726	229.25
277.957	227.25
278.189	217.25
278.421	199.25
278.652	205.25
278.884	236.25
279.115	210.25
279.347	206.25
279.579	214.25
279.81	222.25
280.042	210.25
280.273	207.25
280.505	207.25
280.736	227.25
280.968	220.25
281.199	209.25
281.431	202.25
281.662	200.25
281.894	216.25
282.125	228.25
282.356	241.25
282.588	229.25
282.819	226.25
283.051	222.25
283.282	227.25
283.513	234.25
283.745	217.25
283.976	216.25
284.207	218.25
284.439	213.25
284.67	236.25
284.901	222.25
285.132	221.25
285.364	229.25
285.595	208.25
285.826	216.25
286.057	210.25
286.288	219.25
286.52	229.25
286.751	217.25
286.982	208.25
287.213	206.25
287.444	207.25
287.675	218.25
287.906	207.25
288.138	232.25
288.369	229.25
288.6	235.25
288.831	220.25
289.062	225.25
289.293	226.25
289.524	216.25
289.755	227.25
289.986	222.25
290.217	235.25
290.448	219.25
290.679	218.25
290.91	213.25
291.141	209.25
291.371	213.25
291.602	218.25
291.833	211.25
292.064	219.25
292.295	246.25
292.526	229.25
292.757	248.25
292.987	220.25
293.218	223.25
293.449	226.25
293.68	211.25
293.91	223.25
294.141	212.25
294.372	215.25
294.603	213.25
294.833	223.25
295.064	238.25
295.295	230.25
295.525	221.25
295.756	223.25
295.987	244.25
296.217	252.25
296.448	253.25
296.679	233.25
296.909	226.25
297.14	223.25
297.37	254.25
297.601	236.25
297.831	215.25
298.062	225.25
298.292	246.25
298.523	241.25
298.753	241.25
298.984	223.25
299.214	235.25
299.445	232.25
299.675	235.25
299.905	229.25
300.136	245.25
300.366	229.25
300.597	249.25
300.827	245.25
301.057	237.25
301.288	257.25
301.518	257.25
301.748	229.25
301.979	247.25
302.209	239.25
302.439	247.25
302.669	247.25
302.9	250.25
303.13	243.25
303.36	258.25
303.59	258.25
303.82	243.25
304.051	258.25
304.281	245.25
304.511	236.25
304.741	250.25
304.971	236.25
305.201	269.25
305.431	248.25
305.661	263.25
305.891	264.25
306.121	268.25
306.352	250.25
306.582	272.25
306.812	258.25
307.042	238.25
307.272	251.25
307.502	245.25
307.731	250.25
307.961	242.25
308.191	236.25
308.421	264.25
308.651	266.25
308.881	258.25
309.111	268.25
309.341	258.25
309.571	253.25
309.8	300.25
310.03	280.25
310.26	283.25
310.49	303.25
310.72	296.25
310.949	307.25
311.179	315.25
311.409	313.25
311.639	280.25
311.868	286.25
312.098	291.25
312.328	303.25
312.557	315.25
312.787	303.25
313.017	311.25
313.246	313.25
313.476	302.25
313.706	302.25
313.935	318.25
314.165	306.25
314.394	317.25
314.624	324.25
314.853	300.25
315.083	301.25
315.312	291.25
315.542	276.25
315.771	287.25
316.001	261.25
316.23	292.25
316.46	291.25
316.689	302.25
316.919	291.25
317.148	281.25
317.377	310.25
317.607	316.25
317.836	308.25
318.065	293.25
318.295	305.25
318.524	288.25
318.753	282.25
318.983	298.25
319.212	297.25
319.441	284.25
319.67	292.25
319.9	289.25
320.129	284.25
320.358	293.25
320.587	293.25
320.816	299.25
321.046	324.25
321.275	311.25
321.504	301.25
321.733	311.25
321.962	323.25
322.191	317.25
322.42	340.25
322.649	351.25
322.878	363.25
323.108	360.25
323.337	403.25
323.566	408.25
323.795	432.25
324.024	502.25
324.253	626.25
324.482	912.25
324.71	1357.25
324.939	1746.25
325.168	1401.25
325.397	781.25
325.626	508.25
325.855	438.25
326.084	407.25
326.313	393.25
326.542	411.25
326.77	462.25
326.999	575.25
327.228	786.25
327.457	1137.25
327.686	1289.25
327.914	843.25
328.143	562.25
328.372	513.25
328.6	478.25
328.829	452.25
329.058	455.25
329.287	473.25
329.515	433.25
329.744	389.25
329.972	377.25
330.201	435.25
330.43	452.25
330.658	459.25
330.887	482.25
331.115	472.25
331.344	396.25
331.572	389.25
331.801	387.25
332.03	374.25
332.258	355.25
332.486	356.25
332.715	341.25
332.943	341.25
333.172	336.25
333.4	358.25
333.629	362.25
333.857	361.25
334.085	365.25
334.314	381.25
334.542	393.25
334.771	411.25
334.999	350.25
335.227	369.25
335.455	366.25
335.684	324.25
335.912	342.25
336.14	333.25
336.369	315.25
336.597	329.25
336.825	357.25
337.053	326.25
337.281	339.25
337.51	327.25
337.738	328.25
337.966	339.25
338.194	334.25
338.422	328.25
338.65	333.25
338.878	321.25
339.106	300.25
339.334	316.25
339.562	305.25
339.79	312.25
340.018	314.25
340.246	338.25
340.474	318.25
340.702	318.25
340.93	316.25
341.158	321.25
341.386	322.25
341.614	301.25
341.842	332.25
342.07	321.25
342.298	323.25
342.526	302.25
342.754	302.25
342.981	308.25
343.209	294.25
343.437	318.25
343.665	293.25
343.893	316.25
344.12	324.25
344.348	326.25
344.576	329.25
344.804	323.25
345.031	315.25
345.259	315.25
345.487	333.25
345.714	306.25
345.942	309.25
346.17	314.25
346.397	299.25
346.625	301.25
346.853	296.25
347.08	301.25
347.308	313.25
347.535	313.25
347.763	327.25
347.99	311.25
348.218	315.25
348.445	330.25
348.673	310.25
348.9	325.25
349.128	310.25
349.355	293.25
349.583	297.25
349.81	293.25
350.037	311.25
350.265	290.25
350.492	313.25
350.72	295.25
350.947	300.25
351.174	322.25
351.402	318.25
351.629	337.25
351.856	313.25
352.083	321.25
352.311	323.25
352.538	316.25
352.765	324.25
352.992	299.25
353.22	308.25
353.447	300.25
353.674	316.25
353.901	296.25
354.128	289.25
354.355	303.25
354.583	295.25
354.81	282.25
355.037	279.25
355.264	278.25
355.491	292.25
355.718	284.25
355.945	265.25
356.172	269.25
356.399	266.25
356.626	278.25
356.853	289.25
357.08	259.25
357.307	285.25
357.534	270.25
357.761	283.25
357.988	293.25
358.215	298.25
358.441	295.25
358.668	303.25
358.895	315.25
359.122	294.25
359.349	315.25
359.576	323.25
359.802	317.25
360.029	335.25
360.256	338.25
360.483	324.25
360.709	298.25
360.936	317.25
361.163	309.25
361.39	309.25
361.616	299.25
361.843	296.25
362.07	296.25
362.296	302.25
362.523	303.25
362.749	295.25
362.976	299.25
363.203	298.25
363.429	281.25
363.656	279.25
363.882	290.25
364.109	299.25
364.335	282.25
364.562	280.25
364.788	284.25
365.015	311.25
365.241	291.25
365.468	289.25
365.694	305.25
365.92	293.25
366.147	297.25
366.373	281.25
366.599	287.25
366.826	280.25
367.052	287.25
367.278	279.25
367.505	280.25
367.731	284.25
367.957	274.25
368.184	278.25
368.41	271.25
368.636	274.25
368.862	293.25
369.089	295.25
369.315	287.25
369.541	281.25
369.767	279.25
369.993	285.25
370.219	288.25
370.445	277.25
370.672	282.25
370.898	285.25
371.124	281.25
371.35	278.25
371.576	281.25
371.802	285.25
372.028	264.25
372.254	268.25
372.48	263.25
372.706	277.25
372.932	269.25
373.158	268.25
373.384	294.25
373.61	266.25
373.835	278.25
374.061	294.25
374.287	283.25
374.513	285.25
374.739	276.25
374.965	278.25
375.191	292.25
375.416	268.25
375.642	301.25
375.868	286.25
376.094	287.25
376.319	269.25
376.545	271.25
376.771	282.25
376.997	280.25
377.222	267.25
377.448	263.25
377.674	289.25
377.899	264.25
378.125	289.25
378.35	285.25
378.576	270.25
378.802	263.25
379.027	269.25
379.253	259.25
379.478	265.25
379.704	276.25
379.929	262.25
380.155	260.25
380.38	247.25
380.606	251.25
380.831	284.25
381.057	274.25
381.282	278.25
381.507	268.25
381.733	259.25
381.958	278.25
382.184	265.25
382.409	271.25
382.634	262.25
382.86	273.25
383.085	269.25
383.31	282.25
383.535	281.25
383.761	281.25
383.986	275.25
384.211	281.25
384.436	279.25
384.662	277.25
384.887	279.25
385.112	277.25
385.337	292.25
385.562	278.25
385.787	285.25
386.013	271.25
386.238	291.25
386.463	279.25
386.688	285.25
386.913	280.25
387.138	289.25
387.363	285.25
387.588	298.25
387.813	293.25
388.038	271.25
388.263	290.25
388.488	262.25
388.713	295.25
388.938	271.25
389.163	277.25
389.387	304.25
389.612	293.25
389.837	288.25
390.062	281.25
390.287	285.25
390.512	274.25
390.736	291.25
390.961	277.25
391.186	262.25
391.411	270.25
391.636	282.25
391.86	306.25
392.085	294.25
392.31	287.25
392.534	275.25
392.759	261.25
392.984	275.25
393.208	283.25
393.433	272.25
393.658	286.25
393.882	286.25
394.107	293.25
394.331	277.25
394.556	288.25
394.78	289.25
395.005	279.25
395.229	278.25
395.454	280.25
395.678	285.25
395.903	306.25
396.127	305.25
396.352	310.25
396.576	284.25
396.801	285.25
397.025	306.25
397.249	280.25
397.474	291.25
397.698	318.25
397.922	311.25
398.147	311.25
398.371	311.25
398.595	300.25
398.82	312.25
399.044	311.25
399.268	333.25
399.492	324.25
399.717	347.25
399.941	361.25
400.165	349.25
400.389	382.25
400.613	355.25
400.837	334.25
401.062	336.25
401.286	318.25
401.51	319.25
401.734	306.25
401.958	309.25
402.182	313.25
402.406	324.25
402.63	324.25
402.854	328.25
403.078	331.25
403.302	315.25
403.526	330.25
403.75	329.25
403.974	315.25
404.198	313.25
404.422	322.25
404.645	333.25
404.869	317.25
405.093	335.25
405.317	358.25
405.541	393.25
405.765	349.25
405.988	329.25
406.212	336.25
406.436	358.25
406.66	372.25
406.883	341.25
407.107	363.25
407.331	414.25
407.555	430.25
407.778	403.25
408.002	366.25
408.226	363.25
408.449	346.25
408.673	339.25
408.896	357.25
409.12	397.25
409.344	371.25
409.567	325.25
409.791	335.25
410.014	326.25
410.238	312.25
410.461	319.25
410.685	322.25
410.908	345.25
411.132	351.25
411.355	373.25
411.578	353.25
411.802	320.25
412.025	330.25
412.249	324.25
412.472	345.25
412.695	359.25
412.919	354.25
413.142	341.25
413.365	307.25
413.589	293.25
413.812	314.25
414.035	313.25
414.258	294.25
414.482	307.25
414.705	284.25
414.928	315.25
415.151	332.25
415.374	303.25
415.597	308.25
415.821	287.25
416.044	290.25
416.267	311.25
416.49	300.25
416.713	293.25
416.936	305.25
417.159	298.25
417.382	300.25
417.605	301.25
417.828	310.25
418.051	311.25
418.274	318.25
418.497	322.25
418.72	333.25
418.943	310.25
419.166	317.25
419.389	327.25
419.611	301.25
419.834	313.25
420.057	320.25
420.28	311.25
420.503	320.25
420.726	325.25
420.948	349.25
421.171	351.25
421.394	366.25
421.617	335.25
421.839	331.25
422.062	321.25
422.285	334.25
422.507	379.25
422.73	411.25
422.953	404.25
423.175	348.25
423.398	331.25
423.621	327.25
423.843	342.25
424.066	346.25
424.288	350.25
424.511	369.25
424.733	396.25
424.956	451.25
425.178	423.25
425.401	424.25
425.623	421.25
425.846	382.25
426.068	353.25
426.291	350.25
426.513	344.25
426.735	360.25
426.958	363.25
427.18	442.25
427.402	500.25
427.625	561.25
427.847	486.25
428.069	413.25
428.292	362.25
428.514	354.25
428.736	333.25
428.958	334.25
429.181	345.25
429.403	335.25
429.625	334.25
429.847	342.25
430.069	380.25
430.292	385.25
430.514	344.25
430.736	318.25
430.958	292.25
431.18	301.25
431.402	302.25
431.624	292.25
431.846	309.25
432.068	313.25
432.29	306.25
432.512	311.25
432.734	302.25
432.956	305.25
433.178	306.25
433.4	337.25
433.622	328.25
433.844	276.25
434.066	323.25
434.287	297.25
434.509	301.25
434.731	298.25
434.953	321.25
435.175	321.25
435.397	350.25
435.618	351.25
435.84	373.25
436.062	436.25
436.284	485.25
436.505	407.25
436.727	363.25
436.949	335.25
437.17	316.25
437.392	335.25
437.614	338.25
437.835	372.25
438.057	429.25
438.278	481.25
438.5	483.25
438.721	528.25
438.943	494.25
439.165	391.25
439.386	369.25
439.608	371.25
439.829	365.25
440.05	376.25
440.272	427.25
440.493	373.25
440.715	359.25
440.936	338.25
441.158	326.25
441.379	343.25
441.6	334.25
441.822	344.25
442.043	376.25
442.264	446.25
442.486	460.25
442.707	364.25
442.928	357.25
443.149	381.25
443.371	392.25
443.592	417.25
443.813	461.25
444.034	505.25
444.255	420.25
444.476	389.25
444.698	324.25
444.919	341.25
445.14	443.25
445.361	386.25
445.582	380.25
445.803	427.25
446.024	473.25
446.245	470.25
446.466	454.25
446.687	403.25
446.908	372.25
447.129	341.25
447.35	323.25
447.571	320.25
447.792	321.25
448.013	332.25
448.234	362.25
448.455	382.25
448.675	445.25
448.896	509.25
449.117	446.25
449.338	435.25
449.559	488.25
449.779	513.25
450	455.25
450.221	363.25
450.442	333.25
450.662	331.25
450.883	333.25
451.104	329.25
451.324	338.25
451.545	314.25
451.766	293.25
451.986	281.25
452.207	293.25
452.428	294.25
452.648	309.25
452.869	293.25
453.089	303.25
453.31	298.25
453.53	314.25
453.751	297.25
453.971	285.25
454.192	323.25
454.412	302.25
454.633	298.25
454.853	273.25
455.073	309.25
455.294	327.25
455.514	357.25
455.734	351.25
455.955	299.25
456.175	297.25
456.395	272.25
456.616	281.25
456.836	298.25
457.056	275.25
457.276	251.25
457.497	282.25
457.717	274.25
457.937	297.25
458.157	291.25
458.377	292.25
458.598	302.25
458.818	332.25
459.038	389.25
459.258	393.25
459.478	346.25
459.698	312.25
459.918	308.25
460.138	308.25
460.358	286.25
460.578	301.25
460.798	301.25
461.018	311.25
461.238	307.25
461.458	320.25
461.678	280.25
461.898	289.25
462.118	310.25
462.338	289.25
462.558	303.25
462.777	315.25
462.997	311.25
463.217	319.25
463.437	332.25
463.657	309.25
463.876	314.25
464.096	315.25
464.316	309.25
464.536	295.25
464.755	300.25
464.975	344.25
465.195	364.25
465.414	393.25
465.634	352.25
465.854	327.25
466.073	318.25
466.293	313.25
466.512	296.25
466.732	301.25
466.951	295.25
467.171	315.25
467.391	288.25
467.61	317.25
467.829	303.25
468.049	311.25
468.268	299.25
468.488	311.25
468.707	289.25
468.927	288.25
469.146	290.25
469.365	296.25
469.585	272.25
469.804	300.25
470.023	313.25
470.243	285.25
470.462	321.25
470.681	330.25
470.901	311.25
471.12	301.25
471.339	298.25
471.558	311.25
471.777	300.25
471.997	297.25
472.216	310.25
472.435	319.25
472.654	321.25
472.873	328.25
473.092	298.25
473.311	290.25
473.53	295.25
473.749	319.25
473.968	340.25
474.187	410.25
474.406	429.25
474.625	346.25
474.844	315.25
475.063	320.25
475.282	310.25
475.501	302.25
475.72	318.25
475.939	318.25
476.158	300.25
476.377	305.25
476.596	323.25
476.814	318.25
477.033	331.25
477.252	319.25
477.471	309.25
477.69	309.25
477.908	319.25
478.127	346.25
478.346	319.25
478.564	321.25
478.783	330.25
479.002	335.25
479.22	359.25
479.439	345.25
479.658	361.25
479.876	339.25
480.095	358.25
480.313	363.25
480.532	374.25
480.751	365.25
480.969	357.25
481.188	411.25
481.406	452.25
481.624	391.25
481.843	369.25
482.061	357.25
482.28	331.25
482.498	353.25
482.717	335.25
482.935	350.25
483.153	329.25
483.372	362.25
483.59	357.25
483.808	357.25
484.027	355.25
484.245	371.25
484.463	354.25
484.681	363.25
484.9	369.25
485.118	369.25
485.336	364.25
485.554	361.25
485.772	354.25
485.99	355.25
486.209	370.25
486.427	373.25
486.645	387.25
486.863	366.25
487.081	377.25
487.299	362.25
487.517	375.25
487.735	369.25
487.953	372.25
488.171	378.25
488.389	388.25
488.607	362.25
488.825	377.25
489.043	391.25
489.261	379.25
489.479	376.25
489.696	360.25
489.914	379.25
490.132	385.25
490.35	373.25
490.568	391.25
490.786	396.25
491.003	392.25
491.221	408.25
491.439	401.25
491.657	422.25
491.874	431.25
492.092	443.25
492.31	451.25
492.527	417.25
492.745	428.25
492.963	435.25
493.18	419.25
493.398	440.25
493.615	445.25
493.833	425.25
494.05	455.25
494.268	435.25
494.485	429.25
494.703	428.25
494.92	441.25
495.138	458.25
495.355	436.25
495.573	452.25
495.79	439.25
496.008	439.25
496.225	446.25
496.442	424.25
496.66	437.25
496.877	451.25
497.094	436.25
497.312	445.25
497.529	452.25
497.746	471.25
497.963	457.25
498.181	471.25
498.398	476.25
498.615	487.25
498.832	475.25
499.049	460.25
499.267	476.25
499.484	486.25
499.701	521.25
499.918	515.25
500.135	519.25
500.352	531.25
500.569	536.25
500.786	557.25
501.003	540.25
501.22	533.25
501.437	517.25
501.654	541.25
501.871	542.25
502.088	505.25
