Data from 1982.PennyLincolnUp.Lamp.En5.5.200Scan.071819.P1_HRD10591_16-45-52-962.txt Node
Date: Thu Jul 18 16:45:52 EDT 2019
User: cochatt
Spectrometer: HR+D1059
Trigger mode: 1
Integration Time (sec): 1.000000E-1
Scans to average: 1
Electric dark correction enabled: true
Nonlinearity correction enabled: false
Boxcar width: 0
XAxis mode: Wavelengths
Number of Pixels in Spectrum: 2048
>>>>>Begin Spectral Data<<<<<
223.165	-12
223.4	-12
223.635	-12
223.869	-15
224.104	-2
224.338	-16
224.573	-15
224.808	-11
225.042	3
225.277	-4
225.511	-6
225.746	4
225.98	-11
226.215	4
226.449	4
226.683	32
226.918	33
227.152	12
227.387	29
227.621	33
227.856	46
228.09	35
228.324	53
228.559	41
228.793	65
229.027	90
229.262	81
229.496	93
229.73	106
229.964	126
230.199	104
230.433	113
230.667	104
230.901	100
231.136	97
231.37	97
231.604	103
231.838	96
232.072	95
232.306	90
232.541	88
232.775	100
233.009	90
233.243	96
233.477	100
233.711	104
233.945	95
234.179	105
234.413	83
234.647	106
234.881	93
235.115	106
235.349	114
235.583	99
235.817	94
236.051	110
236.285	104
236.519	115
236.753	118
236.987	119
237.221	151
237.455	176
237.689	134
237.922	110
238.156	132
238.39	105
238.624	103
238.858	89
239.091	86
239.325	104
239.559	105
239.793	110
240.027	112
240.26	116
240.494	115
240.728	119
240.961	119
241.195	119
241.429	112
241.662	111
241.896	119
242.13	118
242.363	118
242.597	120
242.83	119
243.064	120
243.298	114
243.531	114
243.765	116
243.998	122
244.232	122
244.465	130
244.699	106
244.932	128
245.166	116
245.399	127
245.633	118
245.866	122
246.099	113
246.333	126
246.566	107
246.8	121
247.033	117
247.266	120
247.5	144
247.733	134
247.966	126
248.2	144
248.433	135
248.666	139
248.899	155
249.133	150
249.366	162
249.599	158
249.832	144
250.066	137
250.299	143
250.532	142
250.765	163
250.998	166
251.231	159
251.465	159
251.698	155
251.931	153
252.164	155
252.397	135
252.63	155
252.863	164
253.096	158
253.329	180
253.562	188
253.795	177
254.028	162
254.261	184
254.494	192
254.727	187
254.96	194
255.193	210
255.426	190
255.659	175
255.892	192
256.124	191
256.357	179
256.59	172
256.823	165
257.056	160
257.289	160
257.521	162
257.754	157
257.987	167
258.22	171
258.452	170
258.685	167
258.918	149
259.151	168
259.383	168
259.616	167
259.849	164
260.081	164
260.314	198
260.547	198
260.779	183
261.012	200
261.244	166
261.477	174
261.71	181
261.942	169
262.175	182
262.407	180
262.64	174
262.872	176
263.105	178
263.337	158
263.57	160
263.802	169
264.035	176
264.267	161
264.499	172
264.732	162
264.964	157
265.197	177
265.429	176
265.661	162
265.894	173
266.126	165
266.358	172
266.591	179
266.823	190
267.055	181
267.287	168
267.52	159
267.752	176
267.984	174
268.216	180
268.448	192
268.681	180
268.913	186
269.145	203
269.377	209
269.609	202
269.841	200
270.073	203
270.306	225
270.538	231
270.77	233
271.002	235
271.234	241
271.466	220
271.698	229
271.93	249
272.162	231
272.394	232
272.626	231
272.858	220
273.09	226
273.322	202
273.553	204
273.785	192
274.017	190
274.249	206
274.481	209
274.713	206
274.945	206
275.176	205
275.408	192
275.64	193
275.872	192
276.104	202
276.335	210
276.567	214
276.799	205
277.031	235
277.262	246
277.494	258
277.726	227
277.957	219
278.189	202
278.421	208
278.652	214
278.884	206
279.115	201
279.347	196
279.579	214
279.81	202
280.042	204
280.273	210
280.505	210
280.736	201
280.968	194
281.199	185
281.431	202
281.662	218
281.894	197
282.125	204
282.356	223
282.588	220
282.819	222
283.051	208
283.282	205
283.513	194
283.745	209
283.976	211
284.207	219
284.439	215
284.67	223
284.901	205
285.132	222
285.364	206
285.595	208
285.826	193
286.057	217
286.288	207
286.52	214
286.751	205
286.982	210
287.213	212
287.444	192
287.675	212
287.906	214
288.138	215
288.369	207
288.6	210
288.831	217
289.062	225
289.293	227
289.524	205
289.755	202
289.986	215
290.217	215
290.448	225
290.679	217
290.91	203
291.141	199
291.371	221
291.602	219
291.833	204
292.064	197
292.295	190
292.526	211
292.757	211
292.987	238
293.218	219
293.449	219
293.68	226
293.91	208
294.141	226
294.372	215
294.603	208
294.833	201
295.064	229
295.295	231
295.525	231
295.756	230
295.987	228
296.217	256
296.448	234
296.679	208
296.909	220
297.14	209
297.37	219
297.601	223
297.831	214
298.062	221
298.292	235
298.523	233
298.753	230
298.984	208
299.214	229
299.445	231
299.675	220
299.905	239
300.136	226
300.366	236
300.597	241
300.827	244
301.057	246
301.288	236
301.518	226
301.748	223
301.979	222
302.209	244
302.439	246
302.669	239
302.9	252
303.13	245
303.36	260
303.59	232
303.82	257
304.051	252
304.281	251
304.511	219
304.741	258
304.971	223
305.201	240
305.431	250
305.661	235
305.891	244
306.121	252
306.352	260
306.582	246
306.812	235
307.042	260
307.272	239
307.502	228
307.731	248
307.961	251
308.191	250
308.421	229
308.651	246
308.881	247
309.111	234
309.341	265
309.571	240
309.8	269
310.03	258
310.26	279
310.49	279
310.72	278
310.949	295
311.179	304
311.409	298
311.639	271
311.868	280
312.098	272
312.328	291
312.557	311
312.787	290
313.017	292
313.246	299
313.476	274
313.706	290
313.935	296
314.165	292
314.394	299
314.624	287
314.853	291
315.083	286
315.312	278
315.542	276
315.771	273
316.001	279
316.23	276
316.46	284
316.689	286
316.919	282
317.148	278
317.377	273
317.607	283
317.836	269
318.065	267
318.295	298
318.524	279
318.753	278
318.983	265
319.212	261
319.441	272
319.67	270
319.9	290
320.129	280
320.358	273
320.587	280
320.816	286
321.046	281
321.275	293
321.504	296
321.733	307
321.962	318
322.191	315
322.42	319
322.649	342
322.878	352
323.108	359
323.337	378
323.566	375
323.795	400
324.024	468
324.253	563
324.482	817
324.71	1248
324.939	1610
325.168	1311
325.397	688
325.626	504
325.855	422
326.084	370
326.313	391
326.542	380
326.77	435
326.999	523
327.228	721
327.457	1050
327.686	1142
327.914	774
328.143	522
328.372	469
328.6	446
328.829	436
329.058	425
329.287	438
329.515	392
329.744	378
329.972	361
330.201	412
330.43	402
330.658	441
330.887	464
331.115	427
331.344	374
331.572	358
331.801	364
332.03	345
332.258	331
332.486	328
332.715	332
332.943	336
333.172	327
333.4	340
333.629	354
333.857	343
334.085	361
334.314	358
334.542	391
334.771	389
334.999	346
335.227	348
335.455	319
335.684	304
335.912	310
336.14	321
336.369	321
336.597	324
336.825	331
337.053	319
337.281	305
337.51	308
337.738	312
337.966	323
338.194	327
338.422	331
338.65	303
338.878	306
339.106	304
339.334	304
339.562	311
339.79	299
340.018	317
340.246	315
340.474	307
340.702	322
340.93	322
341.158	283
341.386	305
341.614	320
341.842	297
342.07	294
342.298	296
342.526	294
342.754	293
342.981	309
343.209	295
343.437	305
343.665	304
343.893	302
344.12	308
344.348	304
344.576	302
344.804	312
345.031	320
345.259	323
345.487	331
345.714	297
345.942	322
346.17	309
346.397	319
346.625	316
346.853	286
347.08	295
347.308	314
347.535	288
347.763	310
347.99	324
348.218	324
348.445	308
348.673	309
348.9	296
349.128	309
349.355	280
349.583	301
349.81	288
350.037	299
350.265	281
350.492	277
350.72	283
350.947	291
351.174	303
351.402	296
351.629	302
351.856	306
352.083	308
352.311	321
352.538	311
352.765	299
352.992	280
353.22	288
353.447	298
353.674	313
353.901	268
354.128	282
354.355	286
354.583	302
354.81	291
355.037	262
355.264	270
355.491	263
355.718	287
355.945	280
356.172	287
356.399	277
356.626	269
356.853	263
357.08	264
357.307	276
357.534	257
357.761	269
357.988	269
358.215	269
358.441	292
358.668	272
358.895	270
359.122	277
359.349	280
359.576	284
359.802	311
360.029	323
360.256	332
360.483	305
360.709	291
360.936	298
361.163	292
361.39	296
361.616	278
361.843	290
362.07	282
362.296	315
362.523	279
362.749	280
362.976	288
363.203	289
363.429	267
363.656	295
363.882	294
364.109	278
364.335	285
364.562	305
364.788	278
365.015	289
365.241	273
365.468	280
365.694	279
365.92	293
366.147	288
366.373	259
366.599	277
366.826	275
367.052	269
367.278	292
367.505	255
367.731	282
367.957	268
368.184	282
368.41	273
368.636	278
368.862	297
369.089	285
369.315	263
369.541	268
369.767	277
369.993	264
370.219	276
370.445	246
370.672	267
370.898	272
371.124	272
371.35	291
371.576	271
371.802	264
372.028	284
372.254	274
372.48	272
372.706	267
372.932	262
373.158	275
373.384	267
373.61	270
373.835	268
374.061	278
374.287	263
374.513	275
374.739	274
374.965	262
375.191	269
375.416	275
375.642	263
375.868	261
376.094	280
376.319	264
376.545	257
376.771	243
376.997	248
377.222	263
377.448	249
377.674	248
377.899	244
378.125	248
378.35	280
378.576	264
378.802	256
379.027	282
379.253	269
379.478	261
379.704	259
379.929	264
380.155	262
380.38	260
380.606	260
380.831	252
381.057	252
381.282	254
381.507	262
381.733	260
381.958	262
382.184	271
382.409	259
382.634	260
382.86	261
383.085	274
383.31	256
383.535	268
383.761	277
383.986	247
384.211	282
384.436	261
384.662	278
384.887	276
385.112	266
385.337	276
385.562	268
385.787	278
386.013	298
386.238	266
386.463	284
386.688	276
386.913	278
387.138	269
387.363	285
387.588	281
387.813	291
388.038	264
388.263	279
388.488	303
388.713	275
388.938	272
389.163	279
389.387	261
389.612	282
389.837	272
390.062	269
390.287	268
390.512	271
390.736	256
390.961	271
391.186	251
391.411	261
391.636	277
391.86	270
392.085	277
392.31	280
392.534	274
392.759	265
392.984	285
393.208	268
393.433	277
393.658	258
393.882	274
394.107	302
394.331	277
394.556	279
394.78	276
395.005	287
395.229	275
395.454	289
395.678	278
395.903	275
396.127	286
396.352	297
396.576	272
396.801	293
397.025	276
397.249	290
397.474	279
397.698	280
397.922	298
398.147	307
398.371	278
398.595	326
398.82	320
399.044	307
399.268	310
399.492	316
399.717	331
399.941	353
400.165	354
400.389	361
400.613	335
400.837	322
401.062	301
401.286	290
401.51	295
401.734	306
401.958	323
402.182	319
402.406	311
402.63	312
402.854	307
403.078	311
403.302	307
403.526	311
403.75	302
403.974	308
404.198	314
404.422	337
404.645	308
404.869	314
405.093	338
405.317	352
405.541	383
405.765	348
405.988	349
406.212	342
406.436	360
406.66	346
406.883	338
407.107	364
407.331	375
407.555	402
407.778	440
408.002	377
408.226	353
408.449	351
408.673	340
408.896	363
409.12	372
409.344	364
409.567	333
409.791	320
410.014	311
410.238	336
410.461	307
410.685	308
410.908	329
411.132	356
411.355	361
411.578	337
411.802	315
412.025	318
412.249	322
412.472	330
412.695	339
412.919	354
413.142	320
413.365	312
413.589	288
413.812	311
414.035	302
414.258	304
414.482	307
414.705	292
414.928	293
415.151	289
415.374	283
415.597	287
415.821	296
416.044	303
416.267	290
416.49	294
416.713	307
416.936	274
417.159	281
417.382	296
417.605	307
417.828	306
418.051	297
418.274	313
418.497	296
418.72	296
418.943	305
419.166	290
419.389	296
419.611	299
419.834	307
420.057	309
420.28	312
420.503	305
420.726	312
420.948	323
421.171	329
421.394	346
421.617	320
421.839	318
422.062	303
422.285	332
422.507	360
422.73	407
422.953	385
423.175	330
423.398	323
423.621	330
423.843	339
424.066	329
424.288	333
424.511	350
424.733	376
424.956	452
425.178	419
425.401	382
425.623	406
425.846	349
426.068	330
426.291	338
426.513	318
426.735	346
426.958	369
427.18	415
427.402	474
427.625	542
427.847	474
428.069	426
428.292	374
428.514	331
428.736	322
428.958	326
429.181	306
429.403	317
429.625	337
429.847	348
430.069	387
430.292	374
430.514	322
430.736	327
430.958	310
431.18	309
431.402	310
431.624	272
431.846	305
432.068	278
432.29	289
432.512	318
432.734	292
432.956	326
433.178	315
433.4	314
433.622	311
433.844	307
434.066	283
434.287	293
434.509	291
434.731	298
434.953	323
435.175	312
435.397	326
435.618	332
435.84	372
436.062	427
436.284	441
436.505	384
436.727	328
436.949	334
437.17	314
437.392	306
437.614	314
437.835	347
438.057	397
438.278	470
438.5	471
438.721	517
438.943	464
439.165	404
439.386	336
439.608	338
439.829	359
440.05	361
440.272	399
440.493	370
440.715	344
440.936	318
441.158	333
441.379	313
441.6	331
441.822	342
442.043	378
442.264	402
442.486	420
442.707	348
442.928	345
443.149	356
443.371	387
443.592	399
443.813	418
444.034	450
444.255	391
444.476	349
444.698	331
444.919	338
445.14	405
445.361	382
445.582	363
445.803	412
446.024	463
446.245	473
446.466	438
446.687	380
446.908	333
447.129	324
447.35	332
447.571	309
447.792	304
448.013	310
448.234	354
448.455	378
448.675	424
448.896	489
449.117	440
449.338	415
449.559	489
449.779	498
450	400
450.221	354
450.442	335
450.662	305
450.883	325
451.104	331
451.324	321
451.545	318
451.766	295
451.986	295
452.207	284
452.428	289
452.648	292
452.869	292
453.089	288
453.31	312
453.53	294
453.751	283
453.971	302
454.192	296
454.412	285
454.633	276
454.853	280
455.073	287
455.294	307
455.514	346
455.734	325
455.955	299
456.175	268
456.395	268
456.616	281
456.836	268
457.056	277
457.276	265
457.497	266
457.717	280
457.937	270
458.157	267
458.377	274
458.598	292
458.818	318
459.038	373
459.258	375
459.478	325
459.698	310
459.918	291
460.138	287
460.358	298
460.578	288
460.798	311
461.018	284
461.238	301
461.458	308
461.678	295
461.898	285
462.118	291
462.338	299
462.558	303
462.777	315
462.997	313
463.217	290
463.437	323
463.657	300
463.876	306
464.096	313
464.316	292
464.536	307
464.755	308
464.975	309
465.195	339
465.414	411
465.634	361
465.854	322
466.073	304
466.293	303
466.512	271
466.732	289
466.951	297
467.171	274
467.391	287
467.61	300
467.829	291
468.049	287
468.268	297
468.488	291
468.707	282
468.927	288
469.146	274
469.365	267
469.585	283
469.804	281
470.023	297
470.243	297
470.462	307
470.681	308
470.901	295
471.12	290
471.339	287
471.558	298
471.777	299
471.997	298
472.216	289
472.435	315
472.654	297
472.873	305
473.092	289
473.311	282
473.53	319
473.749	297
473.968	326
474.187	401
474.406	416
474.625	308
474.844	316
475.063	302
475.282	310
475.501	308
475.72	315
475.939	296
476.158	311
476.377	305
476.596	299
476.814	304
477.033	313
477.252	304
477.471	310
477.69	312
477.908	319
478.127	315
478.346	327
478.564	328
478.783	315
479.002	302
479.22	319
479.439	341
479.658	357
479.876	337
480.095	367
480.313	372
480.532	359
480.751	350
480.969	358
481.188	380
481.406	393
481.624	391
481.843	337
482.061	314
482.28	336
482.498	338
482.717	344
482.935	340
483.153	345
483.372	328
483.59	335
483.808	330
484.027	338
484.245	337
484.463	344
484.681	337
484.9	337
485.118	348
485.336	339
485.554	351
485.772	353
485.99	339
486.209	335
486.427	345
486.645	348
486.863	370
487.081	384
487.299	363
487.517	357
487.735	354
487.953	366
488.171	358
488.389	369
488.607	374
488.825	360
489.043	359
489.261	370
489.479	373
489.696	347
489.914	368
490.132	385
490.35	369
490.568	384
490.786	395
491.003	391
491.221	391
491.439	399
491.657	408
491.874	401
492.092	385
492.31	431
492.527	422
492.745	424
492.963	392
493.18	420
493.398	427
493.615	423
493.833	421
494.05	427
494.268	435
494.485	413
494.703	423
494.92	428
495.138	417
495.355	427
495.573	411
495.79	422
496.008	421
496.225	427
496.442	408
496.66	439
496.877	420
497.094	416
497.312	430
497.529	446
497.746	431
497.963	448
498.181	447
498.398	450
498.615	446
498.832	448
499.049	465
499.267	476
499.484	495
499.701	494
499.918	508
500.135	510
500.352	515
500.569	538
500.786	535
501.003	527
501.22	529
501.437	496
501.654	516
501.871	534
502.088	478
502.305	484
502.522	465
502.739	474
502.956	466
503.172	436
503.389	432
503.606	447
503.823	439
504.04	420
504.256	460
504.473	422
504.69	407
504.907	427
505.123	404
505.34	403
505.557	411
505.773	399
505.99	420
506.207	430
506.423	405
506.64	400
506.856	409
507.073	428
507.289	396
507.506	400
507.722	417
507.939	416
508.155	419
508.372	407
508.588	408
508.805	404
509.021	406
509.238	417
509.454	370
509.67	401
509.887	395
510.103	425
510.319	423
510.536	490
510.752	778
510.968	621
511.184	418
511.401	390
511.617	385
511.833	374
512.049	394
512.265	373
512.481	369
512.698	367
512.914	384
513.13	383
513.346	386
513.562	385
513.778	376
513.994	406
514.21	392
514.426	410
514.642	424
514.858	463
515.074	481
515.29	563
515.506	852
515.721	670
515.937	459
516.153	426
516.369	402
516.585	384
516.801	404
517.016	372
517.232	390
517.448	394
517.664	384
517.879	378
518.095	372
518.311	368
518.527	385
518.742	360
518.958	351
519.173	383
519.389	374
519.605	368
519.82	359
520.036	406
520.251	400
520.467	423
520.682	434
520.898	418
521.113	452
521.329	470
521.544	522
521.76	677
521.975	1133
522.19	1052
522.406	570
522.621	426
522.836	400
523.052	375
523.267	362
523.482	370
523.698	358
523.913	355
524.128	351
524.343	341
524.559	341
524.774	329
524.989	361
525.204	356
525.419	327
525.634	323
525.849	328
526.064	330
526.28	306
526.495	308
526.71	306
526.925	319
527.14	322
527.355	318
527.57	303
527.785	298
527.999	303
528.214	310
528.429	306
528.644	318
528.859	309
529.074	299
529.289	326
529.503	401
529.718	354
529.933	322
530.148	325
530.363	340
530.577	298
530.792	296
531.007	309
531.221	309
531.436	316
531.651	315
531.865	307
532.08	295
532.295	285
532.509	308
532.724	279
532.938	294
533.153	297
533.367	313
533.582	290
533.796	279
534.011	294
534.225	298
534.44	279
534.654	298
534.868	311
535.083	299
535.297	289
535.511	280
535.726	308
535.94	287
536.154	289
536.369	297
536.583	313
536.797	292
537.011	288
537.225	284
537.44	292
537.654	278
537.868	291
538.082	299
538.296	306
538.51	297
538.724	274
538.938	284
539.153	268
539.367	303
539.581	299
539.795	302
540.009	288
540.222	292
540.436	297
540.65	289
540.864	293
541.078	275
541.292	302
541.506	300
541.72	286
541.934	283
542.147	278
542.361	271
542.575	288
542.789	295
543.002	286
543.216	274
543.43	281
543.644	291
543.857	277
544.071	286
544.285	282
544.498	273
544.712	279
544.925	282
545.139	267
545.352	278
545.566	304
545.779	277
545.993	275
546.206	296
546.42	283
546.633	274
546.847	272
547.06	280
547.274	274
547.487	257
547.7	257
547.914	259
548.127	279
548.34	277
548.554	271
548.767	283
548.98	283
549.193	264
549.407	280
549.62	278
549.833	262
550.046	268
550.259	266
550.473	257
550.686	254
550.899	276
551.112	266
551.325	262
551.538	263
551.751	255
551.964	267
552.177	274
552.39	266
552.603	230
552.816	244
553.029	254
553.242	255
553.455	274
553.667	272
553.88	268
554.093	275
554.306	283
554.519	263
554.732	267
554.944	257
555.157	255
555.37	256
555.583	260
555.795	240
556.008	252
556.221	241
556.433	222
556.646	254
556.859	249
557.071	244
557.284	240
557.496	241
557.709	240
557.921	240
558.134	225
558.346	238
558.559	250
558.771	226
558.984	242
559.196	268
559.409	222
559.621	252
559.833	240
560.046	225
560.258	245
560.47	234
560.683	240
560.895	251
561.107	247
561.32	240
561.532	243
561.744	227
561.956	239
562.168	244
562.381	254
562.593	239
562.805	259
563.017	249
563.229	238
563.441	252
563.653	241
563.865	261
