Data from 1982.PennyLincolnUp.Lamp.En5.5.200Scan.071819.P1_HRD10591_16-46-50-961.txt Node
Date: Thu Jul 18 16:46:50 EDT 2019
User: cochatt
Spectrometer: HR+D1059
Trigger mode: 1
Integration Time (sec): 1.000000E-1
Scans to average: 1
Electric dark correction enabled: true
Nonlinearity correction enabled: false
Boxcar width: 0
XAxis mode: Wavelengths
Number of Pixels in Spectrum: 2048
>>>>>Begin Spectral Data<<<<<
223.165	-2.81
223.4	-2.81
223.635	-2.81
223.869	-10.81
224.104	-14.81
224.338	-10.81
224.573	-20.81
224.808	-24.81
225.042	-19.81
225.277	-7.81
225.511	0.19
225.746	10.19
225.98	10.19
226.215	24.19
226.449	11.19
226.683	14.19
226.918	20.19
227.152	22.19
227.387	36.19
227.621	46.19
227.856	45.19
228.09	43.19
228.324	51.19
228.559	60.19
228.793	78.19
229.027	79.19
229.262	96.19
229.496	101.19
229.73	113.19
229.964	124.19
230.199	116.19
230.433	97.19
230.667	104.19
230.901	122.19
231.136	105.19
231.37	101.19
231.604	106.19
231.838	99.19
232.072	103.19
232.306	113.19
232.541	101.19
232.775	91.19
233.009	94.19
233.243	92.19
233.477	94.19
233.711	97.19
233.945	107.19
234.179	105.19
234.413	112.19
234.647	110.19
234.881	102.19
235.115	100.19
235.349	108.19
235.583	110.19
235.817	113.19
236.051	113.19
236.285	113.19
236.519	124.19
236.753	123.19
236.987	121.19
237.221	151.19
237.455	166.19
237.689	147.19
237.922	121.19
238.156	127.19
238.39	111.19
238.624	126.19
238.858	107.19
239.091	113.19
239.325	114.19
239.559	123.19
239.793	126.19
240.027	124.19
240.26	128.19
240.494	113.19
240.728	111.19
240.961	125.19
241.195	116.19
241.429	124.19
241.662	113.19
241.896	129.19
242.13	129.19
242.363	118.19
242.597	125.19
242.83	131.19
243.064	125.19
243.298	104.19
243.531	118.19
243.765	125.19
243.998	131.19
244.232	112.19
244.465	119.19
244.699	125.19
244.932	122.19
245.166	115.19
245.399	140.19
245.633	115.19
245.866	123.19
246.099	142.19
246.333	130.19
246.566	122.19
246.8	131.19
247.033	133.19
247.266	130.19
247.5	141.19
247.733	139.19
247.966	139.19
248.2	141.19
248.433	142.19
248.666	144.19
248.899	154.19
249.133	150.19
249.366	173.19
249.599	148.19
249.832	152.19
250.066	150.19
250.299	161.19
250.532	162.19
250.765	177.19
250.998	174.19
251.231	187.19
251.465	173.19
251.698	153.19
251.931	155.19
252.164	148.19
252.397	155.19
252.63	144.19
252.863	165.19
253.096	168.19
253.329	176.19
253.562	184.19
253.795	183.19
254.028	167.19
254.261	178.19
254.494	174.19
254.727	192.19
254.96	209.19
255.193	214.19
255.426	193.19
255.659	170.19
255.892	201.19
256.124	181.19
256.357	190.19
256.59	180.19
256.823	172.19
257.056	172.19
257.289	176.19
257.521	163.19
257.754	168.19
257.987	165.19
258.22	166.19
258.452	152.19
258.685	158.19
258.918	179.19
259.151	160.19
259.383	164.19
259.616	160.19
259.849	180.19
260.081	191.19
260.314	195.19
260.547	199.19
260.779	185.19
261.012	181.19
261.244	173.19
261.477	189.19
261.71	175.19
261.942	174.19
262.175	184.19
262.407	176.19
262.64	171.19
262.872	158.19
263.105	171.19
263.337	162.19
263.57	167.19
263.802	172.19
264.035	163.19
264.267	185.19
264.499	154.19
264.732	174.19
264.964	179.19
265.197	189.19
265.429	154.19
265.661	158.19
265.894	159.19
266.126	173.19
266.358	166.19
266.591	179.19
266.823	184.19
267.055	170.19
267.287	181.19
267.52	177.19
267.752	174.19
267.984	183.19
268.216	190.19
268.448	170.19
268.681	197.19
268.913	200.19
269.145	211.19
269.377	208.19
269.609	201.19
269.841	217.19
270.073	209.19
270.306	228.19
270.538	243.19
270.77	234.19
271.002	228.19
271.234	221.19
271.466	243.19
271.698	255.19
271.93	246.19
272.162	230.19
272.394	245.19
272.626	236.19
272.858	222.19
273.09	211.19
273.322	233.19
273.553	201.19
273.785	210.19
274.017	207.19
274.249	200.19
274.481	203.19
274.713	223.19
274.945	200.19
275.176	190.19
275.408	211.19
275.64	201.19
275.872	206.19
276.104	194.19
276.335	211.19
276.567	217.19
276.799	245.19
277.031	236.19
277.262	242.19
277.494	238.19
277.726	224.19
277.957	226.19
278.189	212.19
278.421	215.19
278.652	210.19
278.884	203.19
279.115	198.19
279.347	207.19
279.579	196.19
279.81	205.19
280.042	194.19
280.273	207.19
280.505	195.19
280.736	207.19
280.968	193.19
281.199	210.19
281.431	211.19
281.662	218.19
281.894	211.19
282.125	221.19
282.356	208.19
282.588	232.19
282.819	227.19
283.051	212.19
283.282	201.19
283.513	211.19
283.745	205.19
283.976	210.19
284.207	219.19
284.439	206.19
284.67	213.19
284.901	203.19
285.132	208.19
285.364	217.19
285.595	214.19
285.826	212.19
286.057	221.19
286.288	203.19
286.52	224.19
286.751	206.19
286.982	206.19
287.213	206.19
287.444	206.19
287.675	226.19
287.906	226.19
288.138	225.19
288.369	220.19
288.6	228.19
288.831	217.19
289.062	212.19
289.293	225.19
289.524	221.19
289.755	208.19
289.986	201.19
290.217	217.19
290.448	219.19
290.679	238.19
290.91	232.19
291.141	207.19
291.371	210.19
291.602	217.19
291.833	221.19
292.064	231.19
292.295	226.19
292.526	210.19
292.757	214.19
292.987	216.19
293.218	245.19
293.449	213.19
293.68	214.19
293.91	221.19
294.141	221.19
294.372	214.19
294.603	221.19
294.833	228.19
295.064	217.19
295.295	221.19
295.525	229.19
295.756	225.19
295.987	246.19
296.217	245.19
296.448	226.19
296.679	232.19
296.909	234.19
297.14	215.19
297.37	231.19
297.601	231.19
297.831	230.19
298.062	222.19
298.292	218.19
298.523	208.19
298.753	228.19
298.984	225.19
299.214	217.19
299.445	238.19
299.675	235.19
299.905	223.19
300.136	237.19
300.366	235.19
300.597	220.19
300.827	232.19
301.057	220.19
301.288	239.19
301.518	231.19
301.748	232.19
301.979	253.19
302.209	227.19
302.439	234.19
302.669	241.19
302.9	230.19
303.13	245.19
303.36	242.19
303.59	262.19
303.82	255.19
304.051	266.19
304.281	237.19
304.511	229.19
304.741	244.19
304.971	234.19
305.201	255.19
305.431	249.19
305.661	246.19
305.891	260.19
306.121	249.19
306.352	239.19
306.582	281.19
306.812	248.19
307.042	256.19
307.272	251.19
307.502	251.19
307.731	249.19
307.961	250.19
308.191	243.19
308.421	241.19
308.651	254.19
308.881	239.19
309.111	236.19
309.341	243.19
309.571	265.19
309.8	291.19
310.03	273.19
310.26	286.19
310.49	280.19
310.72	293.19
310.949	292.19
311.179	281.19
311.409	309.19
311.639	289.19
311.868	298.19
312.098	293.19
312.328	285.19
312.557	304.19
312.787	322.19
313.017	297.19
313.246	300.19
313.476	269.19
313.706	281.19
313.935	284.19
314.165	305.19
314.394	301.19
314.624	301.19
314.853	315.19
315.083	297.19
315.312	282.19
315.542	293.19
315.771	279.19
316.001	266.19
316.23	266.19
316.46	280.19
316.689	281.19
316.919	284.19
317.148	283.19
317.377	302.19
317.607	299.19
317.836	279.19
318.065	290.19
318.295	290.19
318.524	278.19
318.753	284.19
318.983	298.19
319.212	265.19
319.441	296.19
319.67	279.19
319.9	298.19
320.129	275.19
320.358	277.19
320.587	292.19
320.816	303.19
321.046	319.19
321.275	318.19
321.504	288.19
321.733	321.19
321.962	309.19
322.191	301.19
322.42	328.19
322.649	337.19
322.878	345.19
323.108	358.19
323.337	363.19
323.566	394.19
323.795	438.19
324.024	499.19
324.253	606.19
324.482	889.19
324.71	1333.19
324.939	1745.19
325.168	1397.19
325.397	733.19
325.626	523.19
325.855	422.19
326.084	393.19
326.313	388.19
326.542	406.19
326.77	454.19
326.999	563.19
327.228	767.19
327.457	1114.19
327.686	1293.19
327.914	827.19
328.143	550.19
328.372	495.19
328.6	458.19
328.829	449.19
329.058	460.19
329.287	478.19
329.515	414.19
329.744	411.19
329.972	399.19
330.201	398.19
330.43	445.19
330.658	456.19
330.887	476.19
331.115	454.19
331.344	393.19
331.572	379.19
331.801	361.19
332.03	375.19
332.258	337.19
332.486	337.19
332.715	334.19
332.943	331.19
333.172	329.19
333.4	323.19
333.629	339.19
333.857	341.19
334.085	348.19
334.314	366.19
334.542	400.19
334.771	398.19
334.999	349.19
335.227	329.19
335.455	325.19
335.684	333.19
335.912	315.19
336.14	315.19
336.369	322.19
336.597	337.19
336.825	328.19
337.053	322.19
337.281	318.19
337.51	315.19
337.738	325.19
337.966	290.19
338.194	317.19
338.422	321.19
338.65	319.19
338.878	323.19
339.106	323.19
339.334	323.19
339.562	307.19
339.79	325.19
340.018	316.19
340.246	320.19
340.474	330.19
340.702	323.19
340.93	310.19
341.158	291.19
341.386	307.19
341.614	307.19
341.842	322.19
342.07	315.19
342.298	302.19
342.526	307.19
342.754	287.19
342.981	305.19
343.209	310.19
343.437	286.19
343.665	297.19
343.893	303.19
344.12	306.19
344.348	297.19
344.576	302.19
344.804	313.19
345.031	309.19
345.259	317.19
345.487	331.19
345.714	310.19
345.942	305.19
346.17	298.19
346.397	302.19
346.625	309.19
346.853	301.19
347.08	307.19
347.308	313.19
347.535	317.19
347.763	302.19
347.99	315.19
348.218	310.19
348.445	303.19
348.673	317.19
348.9	308.19
349.128	299.19
349.355	307.19
349.583	282.19
349.81	293.19
350.037	294.19
350.265	285.19
350.492	281.19
350.72	294.19
350.947	299.19
351.174	307.19
351.402	318.19
351.629	300.19
351.856	307.19
352.083	323.19
352.311	313.19
352.538	316.19
352.765	312.19
352.992	311.19
353.22	296.19
353.447	309.19
353.674	305.19
353.901	305.19
354.128	294.19
354.355	271.19
354.583	270.19
354.81	267.19
355.037	270.19
355.264	261.19
355.491	264.19
355.718	270.19
355.945	285.19
356.172	274.19
356.399	295.19
356.626	246.19
356.853	259.19
357.08	266.19
357.307	262.19
357.534	276.19
357.761	278.19
357.988	289.19
358.215	283.19
358.441	272.19
358.668	282.19
358.895	259.19
359.122	266.19
359.349	270.19
359.576	306.19
359.802	319.19
360.029	331.19
360.256	355.19
360.483	313.19
360.709	293.19
360.936	297.19
361.163	307.19
361.39	289.19
361.616	299.19
361.843	283.19
362.07	309.19
362.296	297.19
362.523	296.19
362.749	302.19
362.976	278.19
363.203	294.19
363.429	278.19
363.656	282.19
363.882	276.19
364.109	265.19
364.335	273.19
364.562	258.19
364.788	273.19
365.015	277.19
365.241	279.19
365.468	267.19
365.694	280.19
365.92	283.19
366.147	279.19
366.373	260.19
366.599	257.19
366.826	261.19
367.052	263.19
367.278	262.19
367.505	280.19
367.731	282.19
367.957	281.19
368.184	277.19
368.41	291.19
368.636	290.19
368.862	267.19
369.089	289.19
369.315	293.19
369.541	259.19
369.767	257.19
369.993	245.19
370.219	259.19
370.445	256.19
370.672	271.19
370.898	263.19
371.124	251.19
371.35	282.19
371.576	260.19
371.802	269.19
372.028	273.19
372.254	266.19
372.48	273.19
372.706	273.19
372.932	282.19
373.158	268.19
373.384	278.19
373.61	261.19
373.835	251.19
374.061	265.19
374.287	281.19
374.513	268.19
374.739	277.19
374.965	265.19
375.191	262.19
375.416	270.19
375.642	265.19
375.868	265.19
376.094	268.19
376.319	274.19
376.545	261.19
376.771	251.19
376.997	265.19
377.222	262.19
377.448	263.19
377.674	260.19
377.899	267.19
378.125	269.19
378.35	273.19
378.576	271.19
378.802	234.19
379.027	267.19
379.253	274.19
379.478	259.19
379.704	261.19
379.929	254.19
380.155	256.19
380.38	243.19
380.606	279.19
380.831	266.19
381.057	281.19
381.282	267.19
381.507	267.19
381.733	247.19
381.958	244.19
382.184	264.19
382.409	263.19
382.634	261.19
382.86	276.19
383.085	265.19
383.31	275.19
383.535	279.19
383.761	292.19
383.986	260.19
384.211	267.19
384.436	273.19
384.662	281.19
384.887	278.19
385.112	276.19
385.337	273.19
385.562	266.19
385.787	275.19
386.013	278.19
386.238	288.19
386.463	275.19
386.688	275.19
386.913	268.19
387.138	268.19
387.363	264.19
387.588	256.19
387.813	282.19
388.038	287.19
388.263	277.19
388.488	281.19
388.713	261.19
388.938	278.19
389.163	258.19
389.387	267.19
389.612	267.19
389.837	267.19
390.062	277.19
390.287	273.19
390.512	266.19
390.736	284.19
390.961	294.19
391.186	270.19
391.411	284.19
391.636	261.19
391.86	249.19
392.085	267.19
392.31	271.19
392.534	270.19
392.759	273.19
392.984	289.19
393.208	285.19
393.433	284.19
393.658	276.19
393.882	293.19
394.107	273.19
394.331	269.19
394.556	280.19
394.78	276.19
395.005	262.19
395.229	262.19
395.454	265.19
395.678	278.19
395.903	295.19
396.127	299.19
396.352	297.19
396.576	297.19
396.801	271.19
397.025	289.19
397.249	294.19
397.474	321.19
397.698	279.19
397.922	304.19
398.147	292.19
398.371	313.19
398.595	286.19
398.82	300.19
399.044	310.19
399.268	318.19
399.492	298.19
399.717	347.19
399.941	341.19
400.165	357.19
400.389	360.19
400.613	339.19
400.837	325.19
401.062	312.19
401.286	311.19
401.51	305.19
401.734	302.19
401.958	304.19
402.182	307.19
402.406	314.19
402.63	328.19
402.854	287.19
403.078	305.19
403.302	298.19
403.526	313.19
403.75	301.19
403.974	293.19
404.198	306.19
404.422	321.19
404.645	317.19
404.869	346.19
405.093	333.19
405.317	372.19
405.541	376.19
405.765	333.19
405.988	336.19
406.212	340.19
406.436	349.19
406.66	365.19
406.883	333.19
407.107	342.19
407.331	380.19
407.555	403.19
407.778	386.19
408.002	367.19
408.226	352.19
408.449	348.19
408.673	341.19
408.896	341.19
409.12	396.19
409.344	372.19
409.567	329.19
409.791	315.19
410.014	309.19
410.238	314.19
410.461	333.19
410.685	327.19
410.908	340.19
411.132	348.19
411.355	364.19
411.578	347.19
411.802	338.19
412.025	318.19
412.249	316.19
412.472	338.19
412.695	335.19
412.919	358.19
413.142	323.19
413.365	310.19
413.589	313.19
413.812	286.19
414.035	296.19
414.258	300.19
414.482	296.19
414.705	290.19
414.928	281.19
415.151	278.19
415.374	297.19
415.597	281.19
415.821	307.19
416.044	289.19
416.267	282.19
416.49	297.19
416.713	297.19
416.936	305.19
417.159	289.19
417.382	287.19
417.605	297.19
417.828	305.19
418.051	325.19
418.274	306.19
418.497	287.19
418.72	299.19
418.943	308.19
419.166	289.19
419.389	305.19
419.611	307.19
419.834	345.19
420.057	312.19
420.28	325.19
420.503	314.19
420.726	329.19
420.948	314.19
421.171	340.19
421.394	340.19
421.617	318.19
421.839	321.19
422.062	305.19
422.285	318.19
422.507	343.19
422.73	409.19
422.953	389.19
423.175	350.19
423.398	336.19
423.621	310.19
423.843	306.19
424.066	343.19
424.288	314.19
424.511	372.19
424.733	383.19
424.956	424.19
425.178	418.19
425.401	413.19
425.623	415.19
425.846	378.19
426.068	353.19
426.291	333.19
426.513	346.19
426.735	351.19
426.958	385.19
427.18	425.19
427.402	515.19
427.625	566.19
427.847	500.19
428.069	439.19
428.292	372.19
428.514	340.19
428.736	341.19
428.958	323.19
429.181	329.19
429.403	320.19
429.625	301.19
429.847	318.19
430.069	391.19
430.292	383.19
430.514	341.19
430.736	323.19
430.958	327.19
431.18	314.19
431.402	309.19
431.624	324.19
431.846	291.19
432.068	285.19
432.29	281.19
432.512	311.19
432.734	321.19
432.956	311.19
433.178	303.19
433.4	310.19
433.622	307.19
433.844	313.19
434.066	274.19
434.287	290.19
434.509	307.19
434.731	300.19
434.953	308.19
435.175	317.19
435.397	332.19
435.618	333.19
435.84	385.19
436.062	437.19
436.284	469.19
436.505	366.19
436.727	333.19
436.949	334.19
437.17	310.19
437.392	324.19
437.614	351.19
437.835	375.19
438.057	422.19
438.278	474.19
438.5	466.19
438.721	506.19
438.943	481.19
439.165	387.19
439.386	354.19
439.608	369.19
439.829	357.19
440.05	388.19
440.272	395.19
440.493	367.19
440.715	334.19
440.936	325.19
441.158	315.19
441.379	318.19
441.6	333.19
441.822	352.19
442.043	373.19
442.264	405.19
442.486	425.19
442.707	380.19
442.928	374.19
443.149	368.19
443.371	372.19
443.592	394.19
443.813	458.19
444.034	478.19
444.255	399.19
444.476	361.19
444.698	348.19
444.919	326.19
445.14	429.19
445.361	387.19
445.582	411.19
445.803	408.19
446.024	476.19
446.245	478.19
446.466	434.19
446.687	377.19
446.908	332.19
447.129	339.19
447.35	333.19
447.571	295.19
447.792	305.19
448.013	325.19
448.234	357.19
448.455	372.19
448.675	425.19
448.896	487.19
449.117	420.19
449.338	416.19
449.559	475.19
449.779	501.19
450	416.19
450.221	347.19
450.442	343.19
450.662	311.19
450.883	326.19
451.104	324.19
451.324	316.19
451.545	294.19
451.766	280.19
451.986	297.19
452.207	281.19
452.428	285.19
452.648	276.19
452.869	294.19
453.089	298.19
453.31	315.19
453.53	301.19
453.751	299.19
453.971	320.19
454.192	316.19
454.412	292.19
454.633	285.19
454.853	297.19
455.073	293.19
455.294	308.19
455.514	338.19
455.734	331.19
455.955	293.19
456.175	266.19
456.395	265.19
456.616	271.19
456.836	271.19
457.056	270.19
457.276	265.19
457.497	265.19
457.717	271.19
457.937	276.19
458.157	283.19
458.377	283.19
458.598	290.19
458.818	333.19
459.038	383.19
459.258	379.19
459.478	326.19
459.698	320.19
459.918	297.19
460.138	303.19
460.358	290.19
460.578	293.19
460.798	293.19
461.018	297.19
461.238	287.19
461.458	295.19
461.678	297.19
461.898	290.19
462.118	279.19
462.338	283.19
462.558	304.19
462.777	287.19
462.997	296.19
463.217	291.19
463.437	304.19
463.657	299.19
463.876	335.19
464.096	298.19
464.316	285.19
464.536	311.19
464.755	308.19
464.975	334.19
465.195	363.19
465.414	365.19
465.634	356.19
465.854	332.19
466.073	294.19
466.293	289.19
466.512	295.19
466.732	301.19
466.951	301.19
467.171	278.19
467.391	293.19
467.61	308.19
467.829	305.19
468.049	293.19
468.268	293.19
468.488	276.19
468.707	277.19
468.927	276.19
469.146	276.19
469.365	269.19
469.585	275.19
469.804	301.19
470.023	308.19
470.243	306.19
470.462	313.19
470.681	309.19
470.901	292.19
471.12	297.19
471.339	298.19
471.558	300.19
471.777	299.19
471.997	302.19
472.216	295.19
472.435	318.19
472.654	331.19
472.873	311.19
473.092	287.19
473.311	281.19
473.53	287.19
473.749	295.19
473.968	322.19
474.187	423.19
474.406	409.19
474.625	349.19
474.844	313.19
475.063	311.19
475.282	290.19
475.501	297.19
475.72	316.19
475.939	310.19
476.158	305.19
476.377	300.19
476.596	330.19
476.814	321.19
477.033	316.19
477.252	298.19
477.471	297.19
477.69	289.19
477.908	294.19
478.127	314.19
478.346	304.19
478.564	312.19
478.783	313.19
479.002	328.19
479.22	321.19
479.439	339.19
479.658	350.19
479.876	355.19
480.095	354.19
480.313	352.19
480.532	366.19
480.751	353.19
480.969	353.19
481.188	399.19
481.406	430.19
481.624	387.19
481.843	369.19
482.061	359.19
482.28	367.19
482.498	338.19
482.717	326.19
482.935	341.19
483.153	319.19
483.372	340.19
483.59	344.19
483.808	326.19
484.027	338.19
484.245	329.19
484.463	319.19
484.681	345.19
484.9	343.19
485.118	349.19
485.336	342.19
485.554	358.19
485.772	335.19
485.99	347.19
486.209	369.19
486.427	358.19
486.645	342.19
486.863	356.19
487.081	355.19
487.299	344.19
487.517	375.19
487.735	378.19
487.953	357.19
488.171	371.19
488.389	356.19
488.607	369.19
488.825	385.19
489.043	364.19
489.261	360.19
489.479	373.19
489.696	363.19
489.914	364.19
490.132	361.19
490.35	375.19
490.568	372.19
490.786	414.19
491.003	398.19
491.221	401.19
491.439	383.19
491.657	412.19
491.874	407.19
492.092	414.19
492.31	421.19
492.527	403.19
492.745	429.19
492.963	433.19
493.18	409.19
493.398	420.19
493.615	429.19
493.833	421.19
494.05	437.19
494.268	419.19
494.485	418.19
494.703	429.19
494.92	413.19
495.138	437.19
495.355	404.19
495.573	437.19
495.79	424.19
496.008	439.19
496.225	409.19
496.442	429.19
496.66	436.19
496.877	414.19
497.094	430.19
497.312	413.19
497.529	435.19
497.746	442.19
497.963	430.19
498.181	459.19
498.398	448.19
498.615	436.19
498.832	461.19
499.049	459.19
499.267	468.19
499.484	478.19
499.701	486.19
499.918	492.19
500.135	511.19
500.352	525.19
500.569	510.19
500.786	517.19
501.003	515.19
501.22	487.19
501.437	489.19
501.654	517.19
501.871	507.19
502.088	482.19
