Data from 1982.PennyLincolnUp.Lamp.En5.5.200Scan.071819.P1_HRD10591_16-47-15-962.txt Node
Date: Thu Jul 18 16:47:15 EDT 2019
User: cochatt
Spectrometer: HR+D1059
Trigger mode: 1
Integration Time (sec): 1.000000E-1
Scans to average: 1
Electric dark correction enabled: true
Nonlinearity correction enabled: false
Boxcar width: 0
XAxis mode: Wavelengths
Number of Pixels in Spectrum: 2048
>>>>>Begin Spectral Data<<<<<
223.165	-6.56
223.4	-6.56
223.635	-6.56
223.869	-15.56
224.104	-29.56
224.338	-14.56
224.573	-11.56
224.808	-12.56
225.042	-13.56
225.277	-9.56
225.511	0.44
225.746	9.44
225.98	9.44
226.215	3.44
226.449	26.44
226.683	14.44
226.918	22.44
227.152	27.44
227.387	40.44
227.621	40.44
227.856	47.44
228.09	38.44
228.324	45.44
228.559	65.44
228.793	62.44
229.027	80.44
229.262	89.44
229.496	113.44
229.73	102.44
229.964	117.44
230.199	106.44
230.433	123.44
230.667	103.44
230.901	103.44
231.136	94.44
231.37	103.44
231.604	104.44
231.838	102.44
232.072	101.44
232.306	109.44
232.541	102.44
232.775	119.44
233.009	97.44
233.243	103.44
233.477	110.44
233.711	111.44
233.945	107.44
234.179	115.44
234.413	105.44
234.647	109.44
234.881	102.44
235.115	97.44
235.349	104.44
235.583	106.44
235.817	106.44
236.051	100.44
236.285	116.44
236.519	109.44
236.753	123.44
236.987	126.44
237.221	146.44
237.455	166.44
237.689	142.44
237.922	117.44
238.156	121.44
238.39	116.44
238.624	110.44
238.858	97.44
239.091	106.44
239.325	105.44
239.559	97.44
239.793	115.44
240.027	101.44
240.26	119.44
240.494	139.44
240.728	145.44
240.961	130.44
241.195	131.44
241.429	121.44
241.662	123.44
241.896	115.44
242.13	114.44
242.363	125.44
242.597	115.44
242.83	127.44
243.064	110.44
243.298	121.44
243.531	131.44
243.765	131.44
243.998	117.44
244.232	134.44
244.465	110.44
244.699	127.44
244.932	112.44
245.166	123.44
245.399	127.44
245.633	127.44
245.866	143.44
246.099	118.44
246.333	127.44
246.566	134.44
246.8	113.44
247.033	125.44
247.266	127.44
247.5	122.44
247.733	139.44
247.966	135.44
248.2	146.44
248.433	140.44
248.666	161.44
248.899	163.44
249.133	154.44
249.366	159.44
249.599	166.44
249.832	144.44
250.066	134.44
250.299	142.44
250.532	165.44
250.765	159.44
250.998	181.44
251.231	191.44
251.465	164.44
251.698	172.44
251.931	154.44
252.164	158.44
252.397	160.44
252.63	171.44
252.863	174.44
253.096	190.44
253.329	195.44
253.562	196.44
253.795	169.44
254.028	184.44
254.261	187.44
254.494	201.44
254.727	214.44
254.96	230.44
255.193	232.44
255.426	208.44
255.659	189.44
255.892	183.44
256.124	186.44
256.357	203.44
256.59	174.44
256.823	183.44
257.056	174.44
257.289	177.44
257.521	182.44
257.754	175.44
257.987	177.44
258.22	181.44
258.452	172.44
258.685	166.44
258.918	168.44
259.151	194.44
259.383	174.44
259.616	174.44
259.849	176.44
260.081	177.44
260.314	207.44
260.547	190.44
260.779	202.44
261.012	191.44
261.244	180.44
261.477	191.44
261.71	191.44
261.942	184.44
262.175	180.44
262.407	190.44
262.64	170.44
262.872	171.44
263.105	171.44
263.337	178.44
263.57	193.44
263.802	171.44
264.035	171.44
264.267	188.44
264.499	165.44
264.732	167.44
264.964	178.44
265.197	172.44
265.429	185.44
265.661	163.44
265.894	185.44
266.126	179.44
266.358	172.44
266.591	185.44
266.823	191.44
267.055	196.44
267.287	178.44
267.52	194.44
267.752	179.44
267.984	154.44
268.216	174.44
268.448	198.44
268.681	210.44
268.913	195.44
269.145	198.44
269.377	218.44
269.609	225.44
269.841	200.44
270.073	218.44
270.306	234.44
270.538	277.44
270.77	250.44
271.002	248.44
271.234	245.44
271.466	234.44
271.698	239.44
271.93	233.44
272.162	247.44
272.394	238.44
272.626	260.44
272.858	234.44
273.09	229.44
273.322	211.44
273.553	234.44
273.785	229.44
274.017	216.44
274.249	216.44
274.481	227.44
274.713	222.44
274.945	218.44
275.176	193.44
275.408	210.44
275.64	226.44
275.872	214.44
276.104	197.44
276.335	229.44
276.567	223.44
276.799	227.44
277.031	244.44
277.262	254.44
277.494	249.44
277.726	229.44
277.957	228.44
278.189	220.44
278.421	235.44
278.652	219.44
278.884	206.44
279.115	207.44
279.347	200.44
279.579	206.44
279.81	218.44
280.042	191.44
280.273	225.44
280.505	208.44
280.736	232.44
280.968	227.44
281.199	192.44
281.431	207.44
281.662	216.44
281.894	215.44
282.125	219.44
282.356	222.44
282.588	245.44
282.819	233.44
283.051	230.44
283.282	212.44
283.513	210.44
283.745	223.44
283.976	222.44
284.207	225.44
284.439	217.44
284.67	221.44
284.901	224.44
285.132	233.44
285.364	210.44
285.595	201.44
285.826	214.44
286.057	219.44
286.288	215.44
286.52	227.44
286.751	242.44
286.982	224.44
287.213	219.44
287.444	219.44
287.675	233.44
287.906	238.44
288.138	224.44
288.369	230.44
288.6	230.44
288.831	223.44
289.062	222.44
289.293	234.44
289.524	225.44
289.755	215.44
289.986	219.44
290.217	227.44
290.448	232.44
290.679	228.44
290.91	225.44
291.141	202.44
291.371	241.44
291.602	233.44
291.833	220.44
292.064	212.44
292.295	237.44
292.526	230.44
292.757	248.44
292.987	210.44
293.218	215.44
293.449	225.44
293.68	231.44
293.91	218.44
294.141	224.44
294.372	222.44
294.603	223.44
294.833	218.44
295.064	227.44
295.295	231.44
295.525	223.44
295.756	233.44
295.987	230.44
296.217	262.44
296.448	254.44
296.679	232.44
296.909	231.44
297.14	219.44
297.37	230.44
297.601	236.44
297.831	226.44
298.062	223.44
298.292	241.44
298.523	231.44
298.753	234.44
298.984	229.44
299.214	229.44
299.445	245.44
299.675	249.44
299.905	235.44
300.136	237.44
300.366	229.44
300.597	235.44
300.827	249.44
301.057	241.44
301.288	242.44
301.518	245.44
301.748	255.44
301.979	253.44
302.209	260.44
302.439	251.44
302.669	255.44
302.9	270.44
303.13	252.44
303.36	255.44
303.59	253.44
303.82	265.44
304.051	256.44
304.281	241.44
304.511	245.44
304.741	254.44
304.971	247.44
305.201	252.44
305.431	278.44
305.661	267.44
305.891	242.44
306.121	250.44
306.352	258.44
306.582	277.44
306.812	244.44
307.042	258.44
307.272	278.44
307.502	266.44
307.731	240.44
307.961	248.44
308.191	263.44
308.421	263.44
308.651	273.44
308.881	278.44
309.111	272.44
309.341	256.44
309.571	258.44
309.8	266.44
310.03	302.44
310.26	293.44
310.49	299.44
310.72	302.44
310.949	315.44
311.179	312.44
311.409	309.44
311.639	290.44
311.868	309.44
312.098	298.44
312.328	297.44
312.557	317.44
312.787	329.44
313.017	318.44
313.246	304.44
313.476	298.44
313.706	305.44
313.935	305.44
314.165	291.44
314.394	292.44
314.624	312.44
314.853	296.44
315.083	293.44
315.312	292.44
315.542	287.44
315.771	278.44
316.001	276.44
316.23	298.44
316.46	288.44
316.689	294.44
316.919	293.44
317.148	308.44
317.377	327.44
317.607	306.44
317.836	309.44
318.065	303.44
318.295	296.44
318.524	295.44
318.753	285.44
318.983	299.44
319.212	300.44
319.441	307.44
319.67	302.44
319.9	310.44
320.129	291.44
320.358	298.44
320.587	290.44
320.816	315.44
321.046	315.44
321.275	312.44
321.504	308.44
321.733	318.44
321.962	313.44
322.191	314.44
322.42	350.44
322.649	354.44
322.878	346.44
323.108	367.44
323.337	382.44
323.566	408.44
323.795	442.44
324.024	493.44
324.253	620.44
324.482	923.44
324.71	1372.44
324.939	1764.44
325.168	1448.44
325.397	776.44
325.626	540.44
325.855	464.44
326.084	400.44
326.313	417.44
326.542	420.44
326.77	463.44
326.999	570.44
327.228	807.44
327.457	1185.44
327.686	1289.44
327.914	860.44
328.143	587.44
328.372	526.44
328.6	468.44
328.829	473.44
329.058	472.44
329.287	479.44
329.515	437.44
329.744	398.44
329.972	416.44
330.201	427.44
330.43	444.44
330.658	462.44
330.887	490.44
331.115	453.44
331.344	411.44
331.572	383.44
331.801	398.44
332.03	390.44
332.258	357.44
332.486	359.44
332.715	336.44
332.943	344.44
333.172	353.44
333.4	340.44
333.629	345.44
333.857	349.44
334.085	364.44
334.314	390.44
334.542	414.44
334.771	414.44
334.999	392.44
335.227	363.44
335.455	357.44
335.684	354.44
335.912	314.44
336.14	335.44
336.369	340.44
336.597	342.44
336.825	346.44
337.053	356.44
337.281	312.44
337.51	313.44
337.738	330.44
337.966	335.44
338.194	342.44
338.422	333.44
338.65	325.44
338.878	318.44
339.106	296.44
339.334	314.44
339.562	307.44
339.79	307.44
340.018	337.44
340.246	329.44
340.474	311.44
340.702	321.44
340.93	309.44
341.158	326.44
341.386	330.44
341.614	334.44
341.842	313.44
342.07	317.44
342.298	313.44
342.526	303.44
342.754	306.44
342.981	307.44
343.209	298.44
343.437	308.44
343.665	288.44
343.893	317.44
344.12	321.44
344.348	315.44
344.576	327.44
344.804	322.44
345.031	338.44
345.259	334.44
345.487	308.44
345.714	325.44
345.942	317.44
346.17	314.44
346.397	311.44
346.625	315.44
346.853	305.44
347.08	300.44
347.308	326.44
347.535	329.44
347.763	331.44
347.99	321.44
348.218	316.44
348.445	322.44
348.673	322.44
348.9	309.44
349.128	305.44
349.355	291.44
349.583	309.44
349.81	291.44
350.037	294.44
350.265	302.44
350.492	302.44
350.72	309.44
350.947	308.44
351.174	319.44
351.402	310.44
351.629	315.44
351.856	323.44
352.083	322.44
352.311	333.44
352.538	323.44
352.765	330.44
352.992	330.44
353.22	307.44
353.447	325.44
353.674	289.44
353.901	283.44
354.128	313.44
354.355	299.44
354.583	297.44
354.81	283.44
355.037	290.44
355.264	298.44
355.491	283.44
355.718	276.44
355.945	307.44
356.172	283.44
356.399	287.44
356.626	282.44
356.853	298.44
357.08	300.44
357.307	283.44
357.534	285.44
357.761	284.44
357.988	284.44
358.215	276.44
358.441	290.44
358.668	279.44
358.895	280.44
359.122	319.44
359.349	307.44
359.576	325.44
359.802	329.44
360.029	340.44
360.256	345.44
360.483	339.44
360.709	289.44
360.936	307.44
361.163	319.44
361.39	313.44
361.616	309.44
361.843	302.44
362.07	323.44
362.296	311.44
362.523	297.44
362.749	277.44
362.976	279.44
363.203	295.44
363.429	277.44
363.656	277.44
363.882	307.44
364.109	282.44
364.335	314.44
364.562	285.44
364.788	279.44
365.015	292.44
365.241	301.44
365.468	286.44
365.694	288.44
365.92	295.44
366.147	293.44
366.373	298.44
366.599	267.44
366.826	286.44
367.052	267.44
367.278	261.44
367.505	267.44
367.731	272.44
367.957	293.44
368.184	275.44
368.41	286.44
368.636	308.44
368.862	309.44
369.089	291.44
369.315	290.44
369.541	285.44
369.767	278.44
369.993	284.44
370.219	291.44
370.445	264.44
370.672	293.44
370.898	296.44
371.124	273.44
371.35	279.44
371.576	274.44
371.802	285.44
372.028	297.44
372.254	263.44
372.48	280.44
372.706	278.44
372.932	273.44
373.158	264.44
373.384	281.44
373.61	282.44
373.835	267.44
374.061	276.44
374.287	277.44
374.513	297.44
374.739	291.44
374.965	282.44
375.191	277.44
375.416	281.44
375.642	279.44
375.868	277.44
376.094	278.44
376.319	292.44
376.545	277.44
376.771	283.44
376.997	277.44
377.222	271.44
377.448	270.44
377.674	276.44
377.899	272.44
378.125	263.44
378.35	287.44
378.576	253.44
378.802	278.44
379.027	269.44
379.253	271.44
379.478	260.44
379.704	275.44
379.929	255.44
380.155	270.44
380.38	261.44
380.606	281.44
380.831	265.44
381.057	265.44
381.282	269.44
381.507	277.44
381.733	293.44
381.958	290.44
382.184	287.44
382.409	275.44
382.634	297.44
382.86	284.44
383.085	281.44
383.31	270.44
383.535	294.44
383.761	258.44
383.986	263.44
384.211	269.44
384.436	268.44
384.662	278.44
384.887	289.44
385.112	278.44
385.337	300.44
385.562	267.44
385.787	277.44
386.013	289.44
386.238	286.44
386.463	305.44
386.688	307.44
386.913	297.44
387.138	289.44
387.363	285.44
387.588	290.44
387.813	274.44
388.038	281.44
388.263	285.44
388.488	290.44
388.713	286.44
388.938	295.44
389.163	297.44
389.387	302.44
389.612	285.44
389.837	295.44
390.062	296.44
390.287	290.44
390.512	273.44
390.736	273.44
390.961	278.44
391.186	297.44
391.411	283.44
391.636	291.44
391.86	298.44
392.085	281.44
392.31	291.44
392.534	297.44
392.759	298.44
392.984	284.44
393.208	269.44
393.433	274.44
393.658	274.44
393.882	294.44
394.107	294.44
394.331	293.44
394.556	299.44
394.78	297.44
395.005	290.44
395.229	287.44
395.454	294.44
395.678	302.44
395.903	318.44
396.127	303.44
396.352	309.44
396.576	298.44
396.801	298.44
397.025	287.44
397.249	285.44
397.474	290.44
397.698	286.44
397.922	313.44
398.147	313.44
398.371	314.44
398.595	306.44
398.82	330.44
399.044	311.44
399.268	311.44
399.492	325.44
399.717	349.44
399.941	378.44
400.165	373.44
400.389	365.44
400.613	347.44
400.837	314.44
401.062	335.44
401.286	323.44
401.51	307.44
401.734	324.44
401.958	317.44
402.182	327.44
402.406	337.44
402.63	317.44
402.854	320.44
403.078	310.44
403.302	311.44
403.526	319.44
403.75	339.44
403.974	321.44
404.198	314.44
404.422	317.44
404.645	341.44
404.869	336.44
405.093	358.44
405.317	372.44
405.541	381.44
405.765	360.44
405.988	350.44
406.212	353.44
406.436	357.44
406.66	365.44
406.883	349.44
407.107	365.44
407.331	397.44
407.555	441.44
407.778	420.44
408.002	397.44
408.226	366.44
408.449	347.44
408.673	378.44
408.896	404.44
409.12	395.44
409.344	378.44
409.567	364.44
409.791	339.44
410.014	335.44
410.238	317.44
410.461	323.44
410.685	313.44
410.908	340.44
411.132	362.44
411.355	376.44
411.578	345.44
411.802	327.44
412.025	331.44
412.249	331.44
412.472	327.44
412.695	364.44
412.919	363.44
413.142	338.44
413.365	307.44
413.589	320.44
413.812	296.44
414.035	302.44
414.258	299.44
414.482	297.44
414.705	300.44
414.928	313.44
415.151	288.44
415.374	324.44
415.597	303.44
415.821	313.44
416.044	310.44
416.267	295.44
416.49	293.44
416.713	286.44
416.936	303.44
417.159	300.44
417.382	308.44
417.605	323.44
417.828	342.44
418.051	319.44
418.274	309.44
418.497	306.44
418.72	312.44
418.943	307.44
419.166	310.44
419.389	327.44
419.611	328.44
419.834	323.44
420.057	336.44
420.28	326.44
420.503	312.44
420.726	312.44
420.948	353.44
421.171	341.44
421.394	377.44
421.617	343.44
421.839	315.44
422.062	331.44
422.285	349.44
422.507	369.44
422.73	425.44
422.953	405.44
423.175	345.44
423.398	345.44
423.621	349.44
423.843	361.44
424.066	347.44
424.288	344.44
424.511	377.44
424.733	388.44
424.956	453.44
425.178	446.44
425.401	417.44
425.623	456.44
425.846	364.44
426.068	344.44
426.291	350.44
426.513	346.44
426.735	365.44
426.958	391.44
427.18	445.44
427.402	525.44
427.625	566.44
427.847	508.44
428.069	436.44
428.292	380.44
428.514	353.44
428.736	351.44
428.958	349.44
429.181	325.44
429.403	328.44
429.625	335.44
429.847	370.44
430.069	404.44
430.292	395.44
430.514	357.44
430.736	337.44
430.958	322.44
431.18	323.44
431.402	323.44
431.624	318.44
431.846	290.44
432.068	309.44
432.29	317.44
432.512	313.44
432.734	303.44
432.956	327.44
433.178	328.44
433.4	314.44
433.622	326.44
433.844	303.44
434.066	296.44
434.287	312.44
434.509	305.44
434.731	298.44
434.953	330.44
435.175	352.44
435.397	364.44
435.618	364.44
435.84	397.44
436.062	447.44
436.284	487.44
436.505	382.44
436.727	381.44
436.949	358.44
437.17	345.44
437.392	349.44
437.614	349.44
437.835	365.44
438.057	438.44
438.278	504.44
438.5	490.44
438.721	534.44
438.943	494.44
439.165	423.44
439.386	384.44
439.608	387.44
439.829	377.44
440.05	397.44
440.272	410.44
440.493	382.44
440.715	338.44
440.936	339.44
441.158	327.44
441.379	331.44
441.6	347.44
441.822	355.44
442.043	398.44
442.264	420.44
442.486	452.44
442.707	410.44
442.928	362.44
443.149	369.44
443.371	390.44
443.592	410.44
443.813	474.44
444.034	499.44
444.255	415.44
444.476	367.44
444.698	361.44
444.919	350.44
445.14	448.44
445.361	404.44
445.582	399.44
445.803	456.44
446.024	520.44
446.245	489.44
446.466	462.44
446.687	369.44
446.908	373.44
447.129	350.44
447.35	333.44
447.571	339.44
447.792	324.44
448.013	337.44
448.234	348.44
448.455	376.44
448.675	439.44
448.896	507.44
449.117	444.44
449.338	429.44
449.559	506.44
449.779	533.44
450	455.44
450.221	353.44
450.442	327.44
450.662	327.44
450.883	338.44
451.104	339.44
451.324	331.44
451.545	322.44
451.766	313.44
451.986	302.44
452.207	303.44
452.428	307.44
452.648	289.44
452.869	304.44
453.089	315.44
453.31	317.44
453.53	321.44
453.751	277.44
453.971	306.44
454.192	325.44
454.412	317.44
454.633	292.44
454.853	293.44
455.073	306.44
455.294	325.44
455.514	352.44
455.734	358.44
455.955	319.44
456.175	285.44
456.395	265.44
456.616	283.44
456.836	287.44
457.056	274.44
457.276	284.44
457.497	275.44
457.717	264.44
457.937	293.44
458.157	268.44
458.377	297.44
458.598	307.44
458.818	344.44
459.038	412.44
459.258	409.44
459.478	341.44
459.698	325.44
459.918	299.44
460.138	303.44
460.358	296.44
460.578	299.44
460.798	318.44
461.018	313.44
461.238	311.44
461.458	306.44
461.678	285.44
461.898	301.44
462.118	301.44
462.338	311.44
462.558	318.44
462.777	309.44
462.997	320.44
463.217	319.44
463.437	314.44
463.657	316.44
463.876	334.44
464.096	302.44
464.316	321.44
464.536	311.44
464.755	336.44
464.975	327.44
465.195	366.44
465.414	418.44
465.634	379.44
465.854	351.44
466.073	319.44
466.293	310.44
466.512	310.44
466.732	317.44
466.951	306.44
467.171	287.44
467.391	308.44
467.61	322.44
467.829	303.44
468.049	302.44
468.268	305.44
468.488	287.44
468.707	302.44
468.927	295.44
469.146	299.44
469.365	294.44
469.585	293.44
469.804	311.44
470.023	315.44
470.243	310.44
470.462	327.44
470.681	332.44
470.901	305.44
471.12	312.44
471.339	295.44
471.558	315.44
471.777	315.44
471.997	318.44
472.216	325.44
472.435	333.44
472.654	302.44
472.873	327.44
473.092	312.44
473.311	293.44
473.53	320.44
473.749	316.44
473.968	345.44
474.187	413.44
474.406	415.44
474.625	341.44
474.844	318.44
475.063	315.44
475.282	306.44
475.501	308.44
475.72	314.44
475.939	296.44
476.158	332.44
476.377	330.44
476.596	324.44
476.814	322.44
477.033	315.44
477.252	315.44
477.471	336.44
477.69	316.44
477.908	335.44
478.127	329.44
478.346	333.44
478.564	321.44
478.783	326.44
479.002	339.44
479.22	341.44
479.439	342.44
479.658	377.44
479.876	356.44
480.095	361.44
480.313	368.44
480.532	369.44
480.751	351.44
480.969	383.44
481.188	399.44
481.406	458.44
481.624	380.44
481.843	385.44
482.061	358.44
482.28	350.44
482.498	358.44
482.717	343.44
482.935	345.44
483.153	364.44
483.372	347.44
483.59	362.44
483.808	336.44
484.027	362.44
484.245	364.44
484.463	366.44
484.681	356.44
484.9	339.44
485.118	362.44
485.336	347.44
485.554	362.44
485.772	344.44
485.99	375.44
486.209	362.44
486.427	365.44
486.645	385.44
486.863	362.44
487.081	395.44
487.299	390.44
487.517	379.44
487.735	364.44
487.953	371.44
488.171	365.44
488.389	369.44
488.607	380.44
488.825	375.44
489.043	383.44
489.261	377.44
489.479	385.44
489.696	387.44
489.914	397.44
490.132	380.44
490.35	378.44
490.568	413.44
490.786	390.44
491.003	399.44
491.221	409.44
491.439	422.44
491.657	428.44
491.874	426.44
492.092	426.44
492.31	443.44
492.527	435.44
492.745	444.44
492.963	421.44
493.18	438.44
493.398	441.44
493.615	449.44
493.833	439.44
494.05	431.44
494.268	432.44
494.485	452.44
494.703	453.44
494.92	446.44
495.138	436.44
495.355	459.44
495.573	443.44
495.79	428.44
496.008	451.44
496.225	446.44
496.442	417.44
496.66	436.44
496.877	435.44
497.094	439.44
497.312	450.44
497.529	457.44
497.746	438.44
497.963	452.44
498.181	481.44
498.398	488.44
498.615	474.44
498.832	484.44
499.049	483.44
499.267	477.44
499.484	506.44
499.701	499.44
499.918	509.44
500.135	527.44
500.352	531.44
500.569	552.44
500.786	538.44
501.003	556.44
501.22	542.44
501.437	546.44
501.654	543.44
501.871	504.44
502.088	521.44
