Data from 1982.PennyLincolnUp.Lamp.En5.5.200Scan.071819.P1_HRD10591_16-45-02-960.txt Node
Date: Thu Jul 18 16:45:02 EDT 2019
User: cochatt
Spectrometer: HR+D1059
Trigger mode: 1
Integration Time (sec): 1.000000E-1
Scans to average: 1
Electric dark correction enabled: true
Nonlinearity correction enabled: false
Boxcar width: 0
XAxis mode: Wavelengths
Number of Pixels in Spectrum: 2048
>>>>>Begin Spectral Data<<<<<
223.165	0
223.4	0
223.635	0
223.869	-20
224.104	-21
224.338	-22
224.573	-23
224.808	-15
225.042	-4
225.277	-14
225.511	5
225.746	3
225.98	7
226.215	6
226.449	22
226.683	26
226.918	20
227.152	30
227.387	28
227.621	41
227.856	45
228.09	43
228.324	37
228.559	58
228.793	69
229.027	70
229.262	82
229.496	74
229.73	105
229.964	115
230.199	93
230.433	98
230.667	102
230.901	93
231.136	95
231.37	95
231.604	91
231.838	102
232.072	95
232.306	107
232.541	94
232.775	103
233.009	94
233.243	110
233.477	90
233.711	106
233.945	122
234.179	101
234.413	92
234.647	93
234.881	101
235.115	114
235.349	107
235.583	89
235.817	102
236.051	110
236.285	116
236.519	110
236.753	120
236.987	111
237.221	120
237.455	152
237.689	138
237.922	106
238.156	101
238.39	85
238.624	107
238.858	96
239.091	105
239.325	105
239.559	103
239.793	100
240.027	107
240.26	128
240.494	118
240.728	106
240.961	106
241.195	120
241.429	107
241.662	107
241.896	120
242.13	106
242.363	109
242.597	116
242.83	106
243.064	111
243.298	111
243.531	105
243.765	108
243.998	112
244.232	121
244.465	112
244.699	119
244.932	116
245.166	115
245.399	129
245.633	126
245.866	110
246.099	120
246.333	120
246.566	119
246.8	121
247.033	111
247.266	130
247.5	124
247.733	148
247.966	140
248.2	142
248.433	127
248.666	142
248.899	132
249.133	140
249.366	157
249.599	140
249.832	134
250.066	138
250.299	134
250.532	140
250.765	140
250.998	158
251.231	153
251.465	164
251.698	143
251.931	148
252.164	162
252.397	143
252.63	153
252.863	155
253.096	158
253.329	188
253.562	152
253.795	160
254.028	160
254.261	166
254.494	144
254.727	185
254.96	186
255.193	186
255.426	193
255.659	167
255.892	185
256.124	178
256.357	170
256.59	162
256.823	143
257.056	151
257.289	158
257.521	155
257.754	152
257.987	159
258.22	173
258.452	162
258.685	161
258.918	170
259.151	172
259.383	162
259.616	163
259.849	151
260.081	170
260.314	185
260.547	188
260.779	166
261.012	184
261.244	159
261.477	162
261.71	162
261.942	165
262.175	170
262.407	179
262.64	158
262.872	167
263.105	165
263.337	145
263.57	155
263.802	154
264.035	173
264.267	160
264.499	140
264.732	155
264.964	165
265.197	165
265.429	152
265.661	152
265.894	154
266.126	163
266.358	149
266.591	174
266.823	173
267.055	163
267.287	168
267.52	179
267.752	162
267.984	166
268.216	162
268.448	160
268.681	190
268.913	183
269.145	184
269.377	188
269.609	196
269.841	198
270.073	191
270.306	207
270.538	197
270.77	209
271.002	213
271.234	211
271.466	202
271.698	195
271.93	213
272.162	202
272.394	218
272.626	204
272.858	211
273.09	196
273.322	202
273.553	186
273.785	187
274.017	185
274.249	195
274.481	180
274.713	181
274.945	187
275.176	202
275.408	202
275.64	189
275.872	189
276.104	190
276.335	186
276.567	194
276.799	203
277.031	206
277.262	200
277.494	221
277.726	212
277.957	198
278.189	192
278.421	192
278.652	193
278.884	189
279.115	196
279.347	198
279.579	200
279.81	194
280.042	182
280.273	202
280.505	180
280.736	210
280.968	196
281.199	189
281.431	183
281.662	187
281.894	191
282.125	195
282.356	220
282.588	227
282.819	206
283.051	197
283.282	200
283.513	179
283.745	183
283.976	196
284.207	206
284.439	178
284.67	204
284.901	194
285.132	197
285.364	197
285.595	193
285.826	207
286.057	205
286.288	189
286.52	196
286.751	191
286.982	190
287.213	203
287.444	200
287.675	191
287.906	206
288.138	199
288.369	207
288.6	194
288.831	203
289.062	185
289.293	196
289.524	211
289.755	202
289.986	222
290.217	197
290.448	195
290.679	196
290.91	189
291.141	201
291.371	198
291.602	198
291.833	194
292.064	206
292.295	200
292.526	176
292.757	205
292.987	196
293.218	200
293.449	194
293.68	201
293.91	217
294.141	191
294.372	206
294.603	193
294.833	193
295.064	205
295.295	204
295.525	210
295.756	206
295.987	226
296.217	217
296.448	216
296.679	207
296.909	190
297.14	198
297.37	189
297.601	204
297.831	195
298.062	206
298.292	203
298.523	219
298.753	204
298.984	211
299.214	220
299.445	206
299.675	212
299.905	208
300.136	210
300.366	224
300.597	222
300.827	203
301.057	225
301.288	227
301.518	211
301.748	219
301.979	205
302.209	220
302.439	197
302.669	218
302.9	222
303.13	215
303.36	217
303.59	228
303.82	238
304.051	223
304.281	228
304.511	237
304.741	222
304.971	224
305.201	227
305.431	230
305.661	235
305.891	216
306.121	220
306.352	223
306.582	243
306.812	220
307.042	214
307.272	233
307.502	219
307.731	218
307.961	235
308.191	219
308.421	209
308.651	231
308.881	232
309.111	228
309.341	241
309.571	244
309.8	259
310.03	254
310.26	250
310.49	243
310.72	247
310.949	277
311.179	254
311.409	256
311.639	267
311.868	247
312.098	258
312.328	258
312.557	273
312.787	259
313.017	278
313.246	256
313.476	258
313.706	254
313.935	248
314.165	250
314.394	262
314.624	261
314.853	264
315.083	262
315.312	244
315.542	244
315.771	266
316.001	242
316.23	256
316.46	253
316.689	252
316.919	263
317.148	278
317.377	267
317.607	258
317.836	269
318.065	257
318.295	236
318.524	246
318.753	256
318.983	265
319.212	258
319.441	239
319.67	258
319.9	254
320.129	243
320.358	276
320.587	259
320.816	246
321.046	270
321.275	253
321.504	247
321.733	275
321.962	271
322.191	279
322.42	282
322.649	310
322.878	319
323.108	314
323.337	316
323.566	307
323.795	343
324.024	395
324.253	458
324.482	663
324.71	990
324.939	1283
325.168	1062
325.397	570
325.626	418
325.855	348
326.084	317
326.313	327
326.542	336
326.77	394
326.999	440
327.228	606
327.457	832
327.686	933
327.914	624
328.143	416
328.372	372
328.6	363
328.829	349
329.058	366
329.287	365
329.515	341
329.744	314
329.972	336
330.201	356
330.43	350
330.658	372
330.887	378
331.115	375
331.344	320
331.572	328
331.801	302
332.03	290
332.258	303
332.486	298
332.715	279
332.943	297
333.172	287
333.4	284
333.629	293
333.857	308
334.085	308
334.314	315
334.542	320
334.771	335
334.999	299
335.227	305
335.455	296
335.684	311
335.912	287
336.14	289
336.369	290
336.597	281
336.825	297
337.053	294
337.281	299
337.51	290
337.738	262
337.966	262
338.194	286
338.422	281
338.65	295
338.878	282
339.106	285
339.334	286
339.562	287
339.79	279
340.018	275
340.246	277
340.474	267
340.702	265
340.93	274
341.158	275
341.386	276
341.614	272
341.842	286
342.07	281
342.298	264
342.526	267
342.754	269
342.981	264
343.209	270
343.437	288
343.665	280
343.893	288
344.12	286
344.348	275
344.576	280
344.804	261
345.031	283
345.259	296
345.487	290
345.714	282
345.942	278
346.17	269
346.397	270
346.625	268
346.853	262
347.08	278
347.308	277
347.535	279
347.763	281
347.99	279
348.218	270
348.445	270
348.673	290
348.9	275
349.128	268
349.355	260
349.583	256
349.81	261
350.037	259
350.265	254
350.492	276
350.72	277
350.947	263
351.174	275
351.402	279
351.629	270
351.856	269
352.083	271
352.311	276
352.538	257
352.765	279
352.992	282
353.22	271
353.447	258
353.674	269
353.901	242
354.128	269
354.355	251
354.583	274
354.81	236
355.037	263
355.264	254
355.491	260
355.718	245
355.945	250
356.172	243
356.399	265
356.626	260
356.853	233
357.08	248
357.307	255
357.534	260
357.761	249
357.988	262
358.215	258
358.441	248
358.668	263
358.895	286
359.122	264
359.349	264
359.576	280
359.802	283
360.029	291
360.256	293
360.483	283
360.709	268
360.936	287
361.163	258
361.39	264
361.616	283
361.843	258
362.07	271
362.296	276
362.523	250
362.749	253
362.976	262
363.203	259
363.429	244
363.656	259
363.882	259
364.109	244
364.335	247
364.562	232
364.788	233
365.015	254
365.241	247
365.468	257
365.694	262
365.92	249
366.147	259
366.373	250
366.599	246
366.826	240
367.052	245
367.278	264
367.505	266
367.731	248
367.957	244
368.184	259
368.41	253
368.636	250
368.862	265
369.089	258
369.315	261
369.541	258
369.767	249
369.993	281
370.219	261
370.445	243
370.672	253
370.898	246
371.124	266
371.35	251
371.576	260
371.802	246
372.028	225
372.254	254
372.48	254
372.706	245
372.932	230
373.158	250
373.384	259
373.61	249
373.835	258
374.061	258
374.287	260
374.513	248
374.739	250
374.965	256
375.191	265
375.416	237
375.642	268
375.868	264
376.094	243
376.319	254
376.545	258
376.771	249
376.997	247
377.222	263
377.448	254
377.674	267
377.899	261
378.125	261
378.35	255
378.576	250
378.802	233
379.027	258
379.253	247
379.478	242
379.704	256
379.929	249
380.155	230
380.38	242
380.606	246
380.831	262
381.057	262
381.282	223
381.507	246
381.733	231
381.958	246
382.184	254
382.409	260
382.634	261
382.86	251
383.085	260
383.31	246
383.535	252
383.761	238
383.986	257
384.211	257
384.436	265
384.662	250
384.887	271
385.112	272
385.337	264
385.562	258
385.787	260
386.013	280
386.238	262
386.463	267
386.688	271
386.913	242
387.138	256
387.363	261
387.588	259
387.813	278
388.038	271
388.263	265
388.488	272
388.713	263
388.938	268
389.163	267
389.387	251
389.612	257
389.837	264
390.062	262
390.287	247
390.512	250
390.736	262
390.961	240
391.186	248
391.411	252
391.636	268
391.86	274
392.085	277
392.31	257
392.534	275
392.759	273
392.984	271
393.208	260
393.433	244
393.658	265
393.882	272
394.107	258
394.331	275
394.556	272
394.78	262
395.005	262
395.229	270
395.454	277
395.678	256
395.903	260
396.127	295
396.352	284
396.576	271
396.801	259
397.025	274
397.249	274
397.474	262
397.698	269
397.922	287
398.147	285
398.371	281
398.595	287
398.82	286
399.044	301
399.268	310
399.492	308
399.717	315
399.941	318
400.165	350
400.389	336
400.613	316
400.837	314
401.062	285
401.286	310
401.51	296
401.734	266
401.958	278
402.182	282
402.406	298
402.63	280
402.854	287
403.078	294
403.302	297
403.526	300
403.75	287
403.974	284
404.198	291
404.422	297
404.645	290
404.869	300
405.093	344
405.317	339
405.541	322
405.765	311
405.988	304
406.212	318
406.436	308
406.66	335
406.883	322
407.107	322
407.331	354
407.555	375
407.778	382
408.002	343
408.226	312
408.449	324
408.673	312
408.896	323
409.12	350
409.344	357
409.567	302
409.791	297
410.014	317
410.238	315
410.461	298
410.685	309
410.908	289
411.132	319
411.355	331
411.578	315
411.802	309
412.025	297
412.249	297
412.472	323
412.695	326
412.919	320
413.142	313
413.365	286
413.589	279
413.812	290
414.035	285
414.258	262
414.482	280
414.705	276
414.928	267
415.151	272
415.374	293
415.597	282
415.821	278
416.044	260
416.267	270
416.49	274
416.713	265
416.936	274
417.159	265
417.382	292
417.605	287
417.828	270
418.051	292
418.274	290
418.497	286
418.72	278
418.943	282
419.166	272
419.389	300
419.611	296
419.834	285
420.057	298
420.28	270
420.503	277
420.726	288
420.948	284
421.171	322
421.394	328
421.617	313
421.839	284
422.062	284
422.285	308
422.507	344
422.73	357
422.953	338
423.175	312
423.398	312
423.621	307
423.843	323
424.066	306
424.288	309
424.511	332
424.733	351
424.956	374
425.178	382
425.401	364
425.623	378
425.846	331
426.068	317
426.291	302
426.513	328
426.735	324
426.958	330
427.18	374
427.402	462
427.625	500
427.847	420
428.069	366
428.292	336
428.514	309
428.736	307
428.958	307
429.181	268
429.403	278
429.625	296
429.847	303
430.069	336
430.292	338
430.514	318
430.736	292
430.958	288
431.18	289
431.402	288
431.624	264
431.846	280
432.068	272
432.29	267
432.512	289
432.734	279
432.956	271
433.178	274
433.4	282
433.622	291
433.844	270
434.066	283
434.287	278
434.509	262
434.731	278
434.953	310
435.175	298
435.397	302
435.618	306
435.84	350
436.062	394
436.284	402
436.505	368
436.727	324
436.949	296
437.17	318
437.392	281
437.614	319
437.835	301
438.057	351
438.278	431
438.5	420
438.721	448
438.943	430
439.165	366
439.386	316
439.608	335
439.829	311
440.05	330
440.272	351
440.493	337
440.715	309
440.936	314
441.158	299
441.379	307
441.6	293
441.822	290
442.043	327
442.264	372
442.486	394
442.707	334
442.928	318
443.149	324
443.371	335
443.592	358
443.813	401
444.034	444
444.255	366
444.476	313
444.698	306
444.919	300
445.14	386
445.361	351
445.582	338
445.803	373
446.024	416
446.245	423
446.466	403
446.687	330
446.908	321
447.129	310
447.35	303
447.571	305
447.792	297
448.013	282
448.234	303
448.455	339
448.675	394
448.896	436
449.117	380
449.338	386
449.559	405
449.779	483
450	373
450.221	325
450.442	322
450.662	287
450.883	291
451.104	295
451.324	300
451.545	275
451.766	282
451.986	280
452.207	273
452.428	264
452.648	262
452.869	272
453.089	252
453.31	270
453.53	275
453.751	275
453.971	261
454.192	257
454.412	288
454.633	275
454.853	271
455.073	268
455.294	284
455.514	295
455.734	307
455.955	276
456.175	262
456.395	260
456.616	254
456.836	244
457.056	255
457.276	229
457.497	244
457.717	239
457.937	249
458.157	249
458.377	250
458.598	273
458.818	294
459.038	330
459.258	343
459.478	315
459.698	277
459.918	268
460.138	270
460.358	283
460.578	274
460.798	280
461.018	283
461.238	281
461.458	279
461.678	278
461.898	268
462.118	260
462.338	274
462.558	262
462.777	282
462.997	276
463.217	304
463.437	280
463.657	282
463.876	289
464.096	293
464.316	275
464.536	301
464.755	299
464.975	285
465.195	302
465.414	358
465.634	310
465.854	290
466.073	298
466.293	263
466.512	260
466.732	267
466.951	275
467.171	279
467.391	267
467.61	268
467.829	284
468.049	268
468.268	276
468.488	267
468.707	255
468.927	272
469.146	263
469.365	265
469.585	266
469.804	251
470.023	274
470.243	255
470.462	285
470.681	279
470.901	285
471.12	271
471.339	272
471.558	271
471.777	266
471.997	275
472.216	288
472.435	276
472.654	268
472.873	258
473.092	265
473.311	272
473.53	283
473.749	288
473.968	318
474.187	351
474.406	349
474.625	307
474.844	282
475.063	276
475.282	262
475.501	276
475.72	290
475.939	301
476.158	262
476.377	278
476.596	257
476.814	288
477.033	283
477.252	291
477.471	273
477.69	276
477.908	279
478.127	288
478.346	294
478.564	283
478.783	293
479.002	298
479.22	299
479.439	315
479.658	325
479.876	327
480.095	316
480.313	340
480.532	297
480.751	314
480.969	316
481.188	347
481.406	350
481.624	359
481.843	314
482.061	322
482.28	315
482.498	310
482.717	310
482.935	322
483.153	324
483.372	313
483.59	294
483.808	317
484.027	320
484.245	322
484.463	319
484.681	312
484.9	315
485.118	326
485.336	323
485.554	311
485.772	332
485.99	328
486.209	327
486.427	328
486.645	330
486.863	332
487.081	363
487.299	341
487.517	330
487.735	328
487.953	341
488.171	338
488.389	319
488.607	337
488.825	341
489.043	342
489.261	326
489.479	334
489.696	328
489.914	330
490.132	333
490.35	365
490.568	356
490.786	373
491.003	340
491.221	380
491.439	373
491.657	364
491.874	388
492.092	381
492.31	372
492.527	365
492.745	373
492.963	394
493.18	389
493.398	380
493.615	376
493.833	388
494.05	396
494.268	403
494.485	373
494.703	371
494.92	379
495.138	402
495.355	386
495.573	384
495.79	390
496.008	386
496.225	358
496.442	387
496.66	388
496.877	397
497.094	390
497.312	398
497.529	396
497.746	403
497.963	414
498.181	429
498.398	392
498.615	418
498.832	415
499.049	439
499.267	442
499.484	440
499.701	463
499.918	470
500.135	454
500.352	474
500.569	495
500.786	488
501.003	523
501.22	486
501.437	466
501.654	461
501.871	487
502.088	471
502.305	454
502.522	403
502.739	420
502.956	404
503.172	407
503.389	399
503.606	396
503.823	402
504.04	398
504.256	392
504.473	400
504.69	396
504.907	387
505.123	382
505.34	395
505.557	392
505.773	367
505.99	374
506.207	352
506.423	360
506.64	377
506.856	379
507.073	378
507.289	366
507.506	367
507.722	378
507.939	388
508.155	356
508.372	354
508.588	366
508.805	361
509.021	346
509.238	358
509.454	376
509.67	352
509.887	366
510.103	357
510.319	369
510.536	418
510.752	675
510.968	528
511.184	378
511.401	321
511.617	344
511.833	352
512.049	334
512.265	335
512.481	345
512.698	340
512.914	345
513.13	351
513.346	349
513.562	344
513.778	350
513.994	343
514.21	334
514.426	378
514.642	372
514.858	393
515.074	405
515.29	521
515.506	677
515.721	583
515.937	402
516.153	371
516.369	340
516.585	353
516.801	363
517.016	350
517.232	343
517.448	350
517.664	360
517.879	361
518.095	344
518.311	359
518.527	346
518.742	339
518.958	336
519.173	344
519.389	348
519.605	327
519.82	346
520.036	349
520.251	374
520.467	361
520.682	353
520.898	389
521.113	370
521.329	412
521.544	472
521.76	562
521.975	883
522.19	836
522.406	496
522.621	404
522.836	348
523.052	340
523.267	329
523.482	311
523.698	326
523.913	315
524.128	311
524.343	302
524.559	329
524.774	323
524.989	306
525.204	301
525.419	301
525.634	311
525.849	308
526.064	303
526.28	291
526.495	305
526.71	298
526.925	291
527.14	274
527.355	287
527.57	285
527.785	284
527.999	287
528.214	283
528.429	308
528.644	293
528.859	285
529.074	283
529.289	300
529.503	334
529.718	326
529.933	311
530.148	303
530.363	306
530.577	270
530.792	296
531.007	270
531.221	287
531.436	299
531.651	287
531.865	273
532.08	267
532.295	280
532.509	272
532.724	291
532.938	281
533.153	276
533.367	276
533.582	269
533.796	271
534.011	281
534.225	280
534.44	267
534.654	281
534.868	274
535.083	269
535.297	283
535.511	270
535.726	304
535.94	269
536.154	269
536.369	271
536.583	269
536.797	270
537.011	267
537.225	273
537.44	273
537.654	261
537.868	270
538.082	255
538.296	270
538.51	254
538.724	291
538.938	261
539.153	273
539.367	284
539.581	267
539.795	246
540.009	267
540.222	281
540.436	270
540.65	271
540.864	281
541.078	278
541.292	285
541.506	273
541.72	266
541.934	257
542.147	268
542.361	271
542.575	243
542.789	262
543.002	263
543.216	261
543.43	269
543.644	271
543.857	269
544.071	268
544.285	260
544.498	254
544.712	260
544.925	263
545.139	240
545.352	238
545.566	272
545.779	264
545.993	250
546.206	263
546.42	287
546.633	268
546.847	271
547.06	260
547.274	253
547.487	269
547.7	260
547.914	235
548.127	268
548.34	252
548.554	263
548.767	251
548.98	263
549.193	262
549.407	259
549.62	253
549.833	251
550.046	235
550.259	257
550.473	254
550.686	255
550.899	251
551.112	242
551.325	264
551.538	249
551.751	252
551.964	258
552.177	248
552.39	234
552.603	252
552.816	280
553.029	248
553.242	263
553.455	242
553.667	264
553.88	260
554.093	244
554.306	245
554.519	270
554.732	276
554.944	229
555.157	247
555.37	260
555.583	248
555.795	262
556.008	248
556.221	235
556.433	224
556.646	237
556.859	227
557.071	232
557.284	232
557.496	228
557.709	252
557.921	232
558.134	243
558.346	239
558.559	238
558.771	250
558.984	239
559.196	220
559.409	239
559.621	215
559.833	225
560.046	228
560.258	211
560.47	226
560.683	228
560.895	229
561.107	235
561.32	237
561.532	227
561.744	230
561.956	229
562.168	241
562.381	233
562.593	229
562.805	230
563.017	230
563.229	228
563.441	250
563.653	229
563.865	234
564.077	259
