Data from 1982.PennyLincolnUp.Lamp.En5.5.200Scan.071819.P1_HRD10591_16-47-13-963.txt Node
Date: Thu Jul 18 16:47:13 EDT 2019
User: cochatt
Spectrometer: HR+D1059
Trigger mode: 1
Integration Time (sec): 1.000000E-1
Scans to average: 1
Electric dark correction enabled: true
Nonlinearity correction enabled: false
Boxcar width: 0
XAxis mode: Wavelengths
Number of Pixels in Spectrum: 2048
>>>>>Begin Spectral Data<<<<<
223.165	-10.88
223.4	-10.88
223.635	-10.88
223.869	-12.88
224.104	-21.88
224.338	-7.88
224.573	-12.88
224.808	-20.88
225.042	-12.88
225.277	-4.88
225.511	4.12
225.746	5.12
225.98	6.12
226.215	11.12
226.449	17.12
226.683	23.12
226.918	13.12
227.152	25.12
227.387	23.12
227.621	37.12
227.856	44.12
228.09	39.12
228.324	46.12
228.559	47.12
228.793	76.12
229.027	82.12
229.262	87.12
229.496	92.12
229.73	109.12
229.964	115.12
230.199	134.12
230.433	102.12
230.667	105.12
230.901	97.12
231.136	101.12
231.37	101.12
231.604	92.12
231.838	101.12
232.072	109.12
232.306	118.12
232.541	105.12
232.775	98.12
233.009	100.12
233.243	106.12
233.477	93.12
233.711	97.12
233.945	106.12
234.179	100.12
234.413	98.12
234.647	116.12
234.881	88.12
235.115	96.12
235.349	115.12
235.583	113.12
235.817	105.12
236.051	120.12
236.285	106.12
236.519	125.12
236.753	112.12
236.987	137.12
237.221	155.12
237.455	181.12
237.689	147.12
237.922	119.12
238.156	125.12
238.39	117.12
238.624	114.12
238.858	95.12
239.091	117.12
239.325	106.12
239.559	115.12
239.793	119.12
240.027	109.12
240.26	122.12
240.494	124.12
240.728	112.12
240.961	100.12
241.195	112.12
241.429	124.12
241.662	103.12
241.896	111.12
242.13	96.12
242.363	113.12
242.597	116.12
242.83	114.12
243.064	126.12
243.298	111.12
243.531	120.12
243.765	122.12
243.998	126.12
244.232	131.12
244.465	117.12
244.699	124.12
244.932	137.12
245.166	118.12
245.399	117.12
245.633	120.12
245.866	126.12
246.099	125.12
246.333	129.12
246.566	123.12
246.8	131.12
247.033	127.12
247.266	117.12
247.5	145.12
247.733	154.12
247.966	141.12
248.2	134.12
248.433	147.12
248.666	137.12
248.899	130.12
249.133	156.12
249.366	163.12
249.599	172.12
249.832	147.12
250.066	151.12
250.299	145.12
250.532	170.12
250.765	160.12
250.998	187.12
251.231	188.12
251.465	180.12
251.698	167.12
251.931	151.12
252.164	142.12
252.397	167.12
252.63	165.12
252.863	179.12
253.096	169.12
253.329	191.12
253.562	187.12
253.795	171.12
254.028	164.12
254.261	184.12
254.494	181.12
254.727	200.12
254.96	224.12
255.193	223.12
255.426	200.12
255.659	185.12
255.892	182.12
256.124	181.12
256.357	180.12
256.59	184.12
256.823	181.12
257.056	166.12
257.289	165.12
257.521	170.12
257.754	175.12
257.987	162.12
258.22	154.12
258.452	150.12
258.685	151.12
258.918	172.12
259.151	183.12
259.383	183.12
259.616	177.12
259.849	180.12
260.081	191.12
260.314	204.12
260.547	211.12
260.779	196.12
261.012	209.12
261.244	199.12
261.477	186.12
261.71	178.12
261.942	185.12
262.175	171.12
262.407	178.12
262.64	172.12
262.872	190.12
263.105	164.12
263.337	194.12
263.57	151.12
263.802	179.12
264.035	166.12
264.267	183.12
264.499	165.12
264.732	179.12
264.964	164.12
265.197	180.12
265.429	171.12
265.661	183.12
265.894	164.12
266.126	166.12
266.358	165.12
266.591	184.12
266.823	183.12
267.055	173.12
267.287	191.12
267.52	183.12
267.752	186.12
267.984	182.12
268.216	178.12
268.448	210.12
268.681	207.12
268.913	195.12
269.145	210.12
269.377	223.12
269.609	225.12
269.841	216.12
270.073	222.12
270.306	242.12
270.538	245.12
270.77	249.12
271.002	245.12
271.234	229.12
271.466	260.12
271.698	255.12
271.93	266.12
272.162	270.12
272.394	255.12
272.626	241.12
272.858	227.12
273.09	227.12
273.322	213.12
273.553	224.12
273.785	214.12
274.017	215.12
274.249	204.12
274.481	238.12
274.713	210.12
274.945	218.12
275.176	204.12
275.408	218.12
275.64	211.12
275.872	212.12
276.104	213.12
276.335	216.12
276.567	212.12
276.799	243.12
277.031	246.12
277.262	255.12
277.494	261.12
277.726	249.12
277.957	222.12
278.189	223.12
278.421	226.12
278.652	232.12
278.884	221.12
279.115	204.12
279.347	195.12
279.579	223.12
279.81	215.12
280.042	220.12
280.273	225.12
280.505	211.12
280.736	209.12
280.968	212.12
281.199	207.12
281.431	209.12
281.662	232.12
281.894	201.12
282.125	229.12
282.356	228.12
282.588	229.12
282.819	235.12
283.051	218.12
283.282	203.12
283.513	219.12
283.745	233.12
283.976	226.12
284.207	216.12
284.439	212.12
284.67	205.12
284.901	223.12
285.132	214.12
285.364	217.12
285.595	209.12
285.826	221.12
286.057	216.12
286.288	209.12
286.52	217.12
286.751	231.12
286.982	216.12
287.213	213.12
287.444	227.12
287.675	226.12
287.906	225.12
288.138	240.12
288.369	228.12
288.6	232.12
288.831	240.12
289.062	215.12
289.293	212.12
289.524	223.12
289.755	229.12
289.986	215.12
290.217	226.12
290.448	227.12
290.679	228.12
290.91	226.12
291.141	229.12
291.371	206.12
291.602	218.12
291.833	218.12
292.064	231.12
292.295	231.12
292.526	218.12
292.757	224.12
292.987	247.12
293.218	226.12
293.449	227.12
293.68	225.12
293.91	220.12
294.141	228.12
294.372	223.12
294.603	234.12
294.833	223.12
295.064	223.12
295.295	215.12
295.525	229.12
295.756	217.12
295.987	223.12
296.217	243.12
296.448	254.12
296.679	234.12
296.909	251.12
297.14	236.12
297.37	231.12
297.601	232.12
297.831	239.12
298.062	247.12
298.292	253.12
298.523	253.12
298.753	230.12
298.984	230.12
299.214	221.12
299.445	243.12
299.675	245.12
299.905	242.12
300.136	240.12
300.366	234.12
300.597	235.12
300.827	261.12
301.057	246.12
301.288	255.12
301.518	243.12
301.748	252.12
301.979	237.12
302.209	249.12
302.439	255.12
302.669	250.12
302.9	264.12
303.13	247.12
303.36	255.12
303.59	269.12
303.82	260.12
304.051	253.12
304.281	260.12
304.511	242.12
304.741	248.12
304.971	240.12
305.201	250.12
305.431	243.12
305.661	240.12
305.891	243.12
306.121	264.12
306.352	259.12
306.582	254.12
306.812	251.12
307.042	259.12
307.272	252.12
307.502	242.12
307.731	263.12
307.961	259.12
308.191	259.12
308.421	260.12
308.651	269.12
308.881	271.12
309.111	270.12
309.341	276.12
309.571	269.12
309.8	266.12
310.03	275.12
310.26	291.12
310.49	282.12
310.72	307.12
310.949	299.12
311.179	309.12
311.409	303.12
311.639	294.12
311.868	294.12
312.098	291.12
312.328	290.12
312.557	317.12
312.787	312.12
313.017	333.12
313.246	306.12
313.476	303.12
313.706	284.12
313.935	304.12
314.165	289.12
314.394	305.12
314.624	314.12
314.853	298.12
315.083	292.12
315.312	296.12
315.542	275.12
315.771	281.12
316.001	281.12
316.23	291.12
316.46	268.12
316.689	289.12
316.919	308.12
317.148	315.12
317.377	309.12
317.607	314.12
317.836	305.12
318.065	288.12
318.295	295.12
318.524	306.12
318.753	296.12
318.983	291.12
319.212	303.12
319.441	312.12
319.67	313.12
319.9	297.12
320.129	281.12
320.358	289.12
320.587	300.12
320.816	314.12
321.046	316.12
321.275	314.12
321.504	314.12
321.733	314.12
321.962	333.12
322.191	329.12
322.42	344.12
322.649	354.12
322.878	363.12
323.108	376.12
323.337	393.12
323.566	411.12
323.795	437.12
324.024	485.12
324.253	625.12
324.482	917.12
324.71	1396.12
324.939	1792.12
325.168	1491.12
325.397	772.12
325.626	544.12
325.855	448.12
326.084	436.12
326.313	417.12
326.542	410.12
326.77	463.12
326.999	565.12
327.228	823.12
327.457	1158.12
327.686	1311.12
327.914	861.12
328.143	588.12
328.372	522.12
328.6	487.12
328.829	447.12
329.058	448.12
329.287	470.12
329.515	433.12
329.744	407.12
329.972	408.12
330.201	432.12
330.43	463.12
330.658	468.12
330.887	478.12
331.115	444.12
331.344	420.12
331.572	395.12
331.801	401.12
332.03	386.12
332.258	364.12
332.486	351.12
332.715	334.12
332.943	363.12
333.172	365.12
333.4	358.12
333.629	357.12
333.857	374.12
334.085	365.12
334.314	395.12
334.542	396.12
334.771	422.12
334.999	360.12
335.227	343.12
335.455	369.12
335.684	349.12
335.912	339.12
336.14	315.12
336.369	312.12
336.597	327.12
336.825	338.12
337.053	333.12
337.281	320.12
337.51	319.12
337.738	337.12
337.966	331.12
338.194	339.12
338.422	341.12
338.65	320.12
338.878	320.12
339.106	320.12
339.334	329.12
339.562	323.12
339.79	330.12
340.018	307.12
340.246	310.12
340.474	335.12
340.702	323.12
340.93	337.12
341.158	331.12
341.386	320.12
341.614	337.12
341.842	304.12
342.07	306.12
342.298	310.12
342.526	322.12
342.754	314.12
342.981	304.12
343.209	305.12
343.437	311.12
343.665	316.12
343.893	326.12
344.12	322.12
344.348	330.12
344.576	327.12
344.804	335.12
345.031	338.12
345.259	332.12
345.487	324.12
345.714	304.12
345.942	341.12
346.17	329.12
346.397	316.12
346.625	319.12
346.853	317.12
347.08	317.12
347.308	317.12
347.535	321.12
347.763	322.12
347.99	300.12
348.218	333.12
348.445	315.12
348.673	304.12
348.9	313.12
349.128	315.12
349.355	304.12
349.583	308.12
349.81	304.12
350.037	299.12
350.265	307.12
350.492	304.12
350.72	313.12
350.947	307.12
351.174	316.12
351.402	328.12
351.629	309.12
351.856	312.12
352.083	331.12
352.311	319.12
352.538	303.12
352.765	332.12
352.992	307.12
353.22	299.12
353.447	313.12
353.674	320.12
353.901	280.12
354.128	299.12
354.355	293.12
354.583	279.12
354.81	279.12
355.037	300.12
355.264	298.12
355.491	277.12
355.718	267.12
355.945	287.12
356.172	283.12
356.399	277.12
356.626	275.12
356.853	299.12
357.08	270.12
357.307	269.12
357.534	295.12
357.761	283.12
357.988	303.12
358.215	282.12
358.441	282.12
358.668	291.12
358.895	303.12
359.122	287.12
359.349	303.12
359.576	319.12
359.802	332.12
360.029	340.12
360.256	343.12
360.483	332.12
360.709	327.12
360.936	308.12
361.163	310.12
361.39	304.12
361.616	302.12
361.843	288.12
362.07	295.12
362.296	306.12
362.523	328.12
362.749	324.12
362.976	290.12
363.203	293.12
363.429	283.12
363.656	291.12
363.882	289.12
364.109	294.12
364.335	289.12
364.562	266.12
364.788	284.12
365.015	288.12
365.241	294.12
365.468	280.12
365.694	285.12
365.92	285.12
366.147	265.12
366.373	279.12
366.599	275.12
366.826	294.12
367.052	294.12
367.278	298.12
367.505	274.12
367.731	285.12
367.957	279.12
368.184	285.12
368.41	297.12
368.636	292.12
368.862	294.12
369.089	274.12
369.315	284.12
369.541	282.12
369.767	288.12
369.993	286.12
370.219	274.12
370.445	280.12
370.672	270.12
370.898	281.12
371.124	279.12
371.35	269.12
371.576	274.12
371.802	270.12
372.028	285.12
372.254	293.12
372.48	269.12
372.706	258.12
372.932	258.12
373.158	288.12
373.384	284.12
373.61	273.12
373.835	268.12
374.061	305.12
374.287	288.12
374.513	275.12
374.739	275.12
374.965	291.12
375.191	260.12
375.416	274.12
375.642	279.12
375.868	270.12
376.094	266.12
376.319	275.12
376.545	289.12
376.771	260.12
376.997	276.12
377.222	268.12
377.448	274.12
377.674	271.12
377.899	263.12
378.125	248.12
378.35	265.12
378.576	263.12
378.802	268.12
379.027	249.12
379.253	265.12
379.478	265.12
379.704	274.12
379.929	263.12
380.155	277.12
380.38	281.12
380.606	274.12
380.831	280.12
381.057	286.12
381.282	273.12
381.507	273.12
381.733	269.12
381.958	269.12
382.184	277.12
382.409	270.12
382.634	292.12
382.86	277.12
383.085	263.12
383.31	277.12
383.535	292.12
383.761	275.12
383.986	264.12
384.211	283.12
384.436	297.12
384.662	284.12
384.887	282.12
385.112	289.12
385.337	282.12
385.562	267.12
385.787	297.12
386.013	289.12
386.238	307.12
386.463	295.12
386.688	274.12
386.913	286.12
387.138	288.12
387.363	294.12
387.588	267.12
387.813	297.12
388.038	274.12
388.263	280.12
388.488	275.12
388.713	303.12
388.938	290.12
389.163	290.12
389.387	280.12
389.612	279.12
389.837	265.12
390.062	284.12
390.287	281.12
390.512	305.12
390.736	282.12
390.961	287.12
391.186	289.12
391.411	305.12
391.636	284.12
391.86	282.12
392.085	307.12
392.31	302.12
392.534	273.12
392.759	276.12
392.984	279.12
393.208	285.12
393.433	279.12
393.658	260.12
393.882	279.12
394.107	278.12
394.331	304.12
394.556	279.12
394.78	285.12
395.005	282.12
395.229	287.12
395.454	303.12
395.678	291.12
395.903	315.12
396.127	322.12
396.352	327.12
396.576	279.12
396.801	284.12
397.025	282.12
397.249	292.12
397.474	305.12
397.698	296.12
397.922	319.12
398.147	322.12
398.371	308.12
398.595	303.12
398.82	317.12
399.044	281.12
399.268	328.12
399.492	329.12
399.717	332.12
399.941	373.12
400.165	389.12
400.389	379.12
400.613	354.12
400.837	317.12
401.062	327.12
401.286	300.12
401.51	312.12
401.734	295.12
401.958	292.12
402.182	319.12
402.406	324.12
402.63	303.12
402.854	319.12
403.078	331.12
403.302	312.12
403.526	310.12
403.75	337.12
403.974	348.12
404.198	312.12
404.422	319.12
404.645	336.12
404.869	349.12
405.093	367.12
405.317	354.12
405.541	392.12
405.765	379.12
405.988	334.12
406.212	354.12
406.436	349.12
406.66	368.12
406.883	360.12
407.107	358.12
407.331	389.12
407.555	443.12
407.778	429.12
408.002	388.12
408.226	358.12
408.449	370.12
408.673	355.12
408.896	383.12
409.12	379.12
409.344	379.12
409.567	348.12
409.791	329.12
410.014	321.12
410.238	340.12
410.461	319.12
410.685	329.12
410.908	342.12
411.132	364.12
411.355	372.12
411.578	361.12
411.802	339.12
412.025	341.12
412.249	324.12
412.472	334.12
412.695	381.12
412.919	352.12
413.142	315.12
413.365	324.12
413.589	320.12
413.812	315.12
414.035	314.12
414.258	315.12
414.482	316.12
414.705	305.12
414.928	315.12
415.151	303.12
415.374	299.12
415.597	321.12
415.821	291.12
416.044	292.12
416.267	294.12
416.49	295.12
416.713	294.12
416.936	303.12
417.159	298.12
417.382	315.12
417.605	300.12
417.828	317.12
418.051	322.12
418.274	315.12
418.497	320.12
418.72	297.12
418.943	306.12
419.166	316.12
419.389	312.12
419.611	312.12
419.834	317.12
420.057	328.12
420.28	316.12
420.503	319.12
420.726	316.12
420.948	344.12
421.171	388.12
421.394	375.12
421.617	344.12
421.839	329.12
422.062	351.12
422.285	329.12
422.507	395.12
422.73	408.12
422.953	392.12
423.175	353.12
423.398	356.12
423.621	331.12
423.843	375.12
424.066	323.12
424.288	333.12
424.511	360.12
424.733	422.12
424.956	443.12
425.178	435.12
425.401	453.12
425.623	444.12
425.846	391.12
426.068	367.12
426.291	364.12
426.513	354.12
426.735	350.12
426.958	390.12
427.18	454.12
427.402	538.12
427.625	572.12
427.847	512.12
428.069	428.12
428.292	392.12
428.514	339.12
428.736	341.12
428.958	316.12
429.181	332.12
429.403	323.12
429.625	348.12
429.847	355.12
430.069	408.12
430.292	414.12
430.514	362.12
430.736	325.12
430.958	305.12
431.18	309.12
431.402	321.12
431.624	331.12
431.846	309.12
432.068	314.12
432.29	306.12
432.512	311.12
432.734	315.12
432.956	314.12
433.178	329.12
433.4	311.12
433.622	319.12
433.844	311.12
434.066	306.12
434.287	295.12
434.509	295.12
434.731	322.12
434.953	318.12
435.175	326.12
435.397	327.12
435.618	348.12
435.84	385.12
436.062	439.12
436.284	485.12
436.505	403.12
436.727	368.12
436.949	346.12
437.17	340.12
437.392	335.12
437.614	343.12
437.835	355.12
438.057	418.12
438.278	501.12
438.5	491.12
438.721	519.12
438.943	499.12
439.165	399.12
439.386	364.12
439.608	377.12
439.829	377.12
440.05	397.12
440.272	436.12
440.493	401.12
440.715	369.12
440.936	344.12
441.158	341.12
441.379	343.12
441.6	328.12
441.822	341.12
442.043	396.12
442.264	451.12
442.486	426.12
442.707	375.12
442.928	385.12
443.149	367.12
443.371	381.12
443.592	424.12
443.813	468.12
444.034	508.12
444.255	411.12
444.476	369.12
444.698	357.12
444.919	346.12
445.14	435.12
445.361	403.12
445.582	387.12
445.803	449.12
446.024	487.12
446.245	480.12
446.466	453.12
446.687	408.12
446.908	352.12
447.129	352.12
447.35	344.12
447.571	329.12
447.792	300.12
448.013	319.12
448.234	352.12
448.455	394.12
448.675	467.12
448.896	505.12
449.117	463.12
449.338	432.12
449.559	499.12
449.779	538.12
450	428.12
450.221	352.12
450.442	341.12
450.662	331.12
450.883	339.12
451.104	354.12
451.324	334.12
451.545	328.12
451.766	326.12
451.986	285.12
452.207	289.12
452.428	308.12
452.648	295.12
452.869	301.12
453.089	301.12
453.31	301.12
453.53	316.12
453.751	299.12
453.971	300.12
454.192	311.12
454.412	306.12
454.633	294.12
454.853	292.12
455.073	295.12
455.294	329.12
455.514	348.12
455.734	348.12
455.955	298.12
456.175	290.12
456.395	279.12
456.616	276.12
456.836	258.12
457.056	283.12
457.276	287.12
457.497	289.12
457.717	293.12
457.937	280.12
458.157	292.12
458.377	271.12
458.598	307.12
458.818	353.12
459.038	414.12
459.258	396.12
459.478	362.12
459.698	329.12
459.918	300.12
460.138	284.12
460.358	301.12
460.578	308.12
460.798	300.12
461.018	306.12
461.238	307.12
461.458	298.12
461.678	306.12
461.898	307.12
462.118	283.12
462.338	309.12
462.558	316.12
462.777	304.12
462.997	317.12
463.217	324.12
463.437	321.12
463.657	317.12
463.876	324.12
464.096	316.12
464.316	317.12
464.536	326.12
464.755	328.12
464.975	319.12
465.195	372.12
465.414	423.12
465.634	373.12
465.854	333.12
466.073	319.12
466.293	329.12
466.512	319.12
466.732	304.12
466.951	310.12
467.171	308.12
467.391	307.12
467.61	322.12
467.829	322.12
468.049	315.12
468.268	303.12
468.488	307.12
468.707	298.12
468.927	293.12
469.146	300.12
469.365	292.12
469.585	286.12
469.804	285.12
470.023	305.12
470.243	315.12
470.462	315.12
470.681	313.12
470.901	307.12
471.12	292.12
471.339	305.12
471.558	329.12
471.777	305.12
471.997	303.12
472.216	315.12
472.435	330.12
472.654	316.12
472.873	317.12
473.092	301.12
473.311	288.12
473.53	315.12
473.749	305.12
473.968	364.12
474.187	412.12
474.406	411.12
474.625	347.12
474.844	311.12
475.063	308.12
475.282	327.12
475.501	313.12
475.72	329.12
475.939	301.12
476.158	298.12
476.377	300.12
476.596	324.12
476.814	326.12
477.033	336.12
477.252	303.12
477.471	314.12
477.69	339.12
477.908	328.12
478.127	354.12
478.346	325.12
478.564	327.12
478.783	351.12
479.002	343.12
479.22	330.12
479.439	354.12
479.658	369.12
479.876	343.12
480.095	382.12
480.313	379.12
480.532	368.12
480.751	364.12
480.969	355.12
481.188	408.12
481.406	433.12
481.624	400.12
481.843	369.12
482.061	336.12
482.28	356.12
482.498	379.12
482.717	350.12
482.935	362.12
483.153	341.12
483.372	353.12
483.59	348.12
483.808	338.12
484.027	357.12
484.245	362.12
484.463	348.12
484.681	388.12
484.9	349.12
485.118	351.12
485.336	337.12
485.554	361.12
485.772	374.12
485.99	380.12
486.209	368.12
486.427	373.12
486.645	368.12
486.863	407.12
487.081	352.12
487.299	364.12
487.517	382.12
487.735	363.12
487.953	365.12
488.171	376.12
488.389	379.12
488.607	384.12
488.825	370.12
489.043	385.12
489.261	380.12
489.479	376.12
489.696	392.12
489.914	387.12
490.132	397.12
490.35	381.12
490.568	395.12
490.786	409.12
491.003	412.12
491.221	417.12
491.439	416.12
491.657	413.12
491.874	452.12
492.092	412.12
492.31	454.12
492.527	428.12
492.745	436.12
492.963	436.12
493.18	441.12
493.398	445.12
493.615	441.12
493.833	428.12
494.05	452.12
494.268	438.12
494.485	441.12
494.703	437.12
494.92	462.12
495.138	444.12
495.355	449.12
495.573	457.12
495.79	443.12
496.008	423.12
496.225	444.12
496.442	431.12
496.66	447.12
496.877	445.12
497.094	443.12
497.312	457.12
497.529	447.12
497.746	466.12
497.963	442.12
498.181	479.12
498.398	487.12
498.615	479.12
498.832	470.12
499.049	469.12
499.267	481.12
499.484	492.12
499.701	519.12
499.918	507.12
500.135	553.12
500.352	552.12
500.569	547.12
500.786	535.12
501.003	529.12
501.22	543.12
501.437	527.12
501.654	499.12
501.871	540.12
502.088	538.12
