Data from 1982.PennyLincolnUp.Lamp.En5.5.200Scan.071819.P1_HRD10591_16-46-30-962.txt Node
Date: Thu Jul 18 16:46:30 EDT 2019
User: cochatt
Spectrometer: HR+D1059
Trigger mode: 1
Integration Time (sec): 1.000000E-1
Scans to average: 1
Electric dark correction enabled: true
Nonlinearity correction enabled: false
Boxcar width: 0
XAxis mode: Wavelengths
Number of Pixels in Spectrum: 2048
>>>>>Begin Spectral Data<<<<<
223.165	-13.69
223.4	-13.69
223.635	-13.69
223.869	-21.69
224.104	-28.69
224.338	0.31
224.573	-9.69
224.808	-14.69
225.042	-9.69
225.277	-5.69
225.511	1.31
225.746	2.31
225.98	0.31
226.215	17.31
226.449	8.31
226.683	27.31
226.918	25.31
227.152	21.31
227.387	34.31
227.621	32.31
227.856	46.31
228.09	36.31
228.324	50.31
228.559	61.31
228.793	64.31
229.027	91.31
229.262	83.31
229.496	94.31
229.73	109.31
229.964	118.31
230.199	118.31
230.433	118.31
230.667	93.31
230.901	110.31
231.136	95.31
231.37	100.31
231.604	100.31
231.838	103.31
232.072	95.31
232.306	97.31
232.541	108.31
232.775	103.31
233.009	101.31
233.243	97.31
233.477	108.31
233.711	110.31
233.945	99.31
234.179	104.31
234.413	124.31
234.647	114.31
234.881	92.31
235.115	117.31
235.349	112.31
235.583	111.31
235.817	107.31
236.051	101.31
236.285	102.31
236.519	103.31
236.753	123.31
236.987	124.31
237.221	152.31
237.455	196.31
237.689	154.31
237.922	138.31
238.156	119.31
238.39	104.31
238.624	117.31
238.858	102.31
239.091	97.31
239.325	118.31
239.559	113.31
239.793	125.31
240.027	104.31
240.26	120.31
240.494	127.31
240.728	128.31
240.961	128.31
241.195	108.31
241.429	120.31
241.662	122.31
241.896	118.31
242.13	122.31
242.363	117.31
242.597	122.31
242.83	117.31
243.064	107.31
243.298	118.31
243.531	106.31
243.765	120.31
243.998	109.31
244.232	120.31
244.465	134.31
244.699	138.31
244.932	127.31
245.166	122.31
245.399	132.31
245.633	128.31
245.866	127.31
246.099	123.31
246.333	129.31
246.566	133.31
246.8	126.31
247.033	129.31
247.266	126.31
247.5	146.31
247.733	149.31
247.966	146.31
248.2	136.31
248.433	148.31
248.666	155.31
248.899	152.31
249.133	157.31
249.366	170.31
249.599	158.31
249.832	164.31
250.066	163.31
250.299	160.31
250.532	154.31
250.765	165.31
250.998	186.31
251.231	174.31
251.465	170.31
251.698	156.31
251.931	172.31
252.164	169.31
252.397	177.31
252.63	161.31
252.863	174.31
253.096	176.31
253.329	181.31
253.562	182.31
253.795	173.31
254.028	201.31
254.261	163.31
254.494	181.31
254.727	206.31
254.96	233.31
255.193	211.31
255.426	200.31
255.659	188.31
255.892	202.31
256.124	174.31
256.357	193.31
256.59	184.31
256.823	169.31
257.056	166.31
257.289	164.31
257.521	170.31
257.754	159.31
257.987	184.31
258.22	179.31
258.452	170.31
258.685	163.31
258.918	188.31
259.151	190.31
259.383	177.31
259.616	188.31
259.849	188.31
260.081	188.31
260.314	184.31
260.547	189.31
260.779	208.31
261.012	203.31
261.244	183.31
261.477	161.31
261.71	182.31
261.942	190.31
262.175	180.31
262.407	161.31
262.64	163.31
262.872	181.31
263.105	168.31
263.337	174.31
263.57	186.31
263.802	173.31
264.035	173.31
264.267	174.31
264.499	164.31
264.732	167.31
264.964	183.31
265.197	182.31
265.429	197.31
265.661	187.31
265.894	169.31
266.126	170.31
266.358	171.31
266.591	164.31
266.823	186.31
267.055	189.31
267.287	180.31
267.52	173.31
267.752	184.31
267.984	189.31
268.216	186.31
268.448	178.31
268.681	194.31
268.913	189.31
269.145	208.31
269.377	205.31
269.609	209.31
269.841	199.31
270.073	219.31
270.306	224.31
270.538	240.31
270.77	243.31
271.002	218.31
271.234	232.31
271.466	227.31
271.698	255.31
271.93	240.31
272.162	240.31
272.394	256.31
272.626	240.31
272.858	253.31
273.09	231.31
273.322	216.31
273.553	213.31
273.785	223.31
274.017	214.31
274.249	209.31
274.481	204.31
274.713	215.31
274.945	204.31
275.176	221.31
275.408	216.31
275.64	229.31
275.872	208.31
276.104	204.31
276.335	196.31
276.567	217.31
276.799	230.31
277.031	247.31
277.262	237.31
277.494	254.31
277.726	242.31
277.957	224.31
278.189	211.31
278.421	224.31
278.652	218.31
278.884	216.31
279.115	209.31
279.347	196.31
279.579	213.31
279.81	210.31
280.042	221.31
280.273	198.31
280.505	220.31
280.736	200.31
280.968	215.31
281.199	204.31
281.431	208.31
281.662	223.31
281.894	226.31
282.125	210.31
282.356	217.31
282.588	241.31
282.819	237.31
283.051	215.31
283.282	197.31
283.513	211.31
283.745	219.31
283.976	209.31
284.207	216.31
284.439	228.31
284.67	219.31
284.901	205.31
285.132	206.31
285.364	190.31
285.595	226.31
285.826	229.31
286.057	210.31
286.288	225.31
286.52	193.31
286.751	204.31
286.982	210.31
287.213	216.31
287.444	207.31
287.675	234.31
287.906	237.31
288.138	224.31
288.369	235.31
288.6	244.31
288.831	230.31
289.062	221.31
289.293	245.31
289.524	244.31
289.755	211.31
289.986	217.31
290.217	228.31
290.448	213.31
290.679	222.31
290.91	216.31
291.141	219.31
291.371	233.31
291.602	230.31
291.833	214.31
292.064	218.31
292.295	216.31
292.526	211.31
292.757	208.31
292.987	216.31
293.218	210.31
293.449	228.31
293.68	217.31
293.91	235.31
294.141	222.31
294.372	213.31
294.603	221.31
294.833	222.31
295.064	229.31
295.295	214.31
295.525	236.31
295.756	236.31
295.987	244.31
296.217	250.31
296.448	250.31
296.679	242.31
296.909	228.31
297.14	222.31
297.37	231.31
297.601	225.31
297.831	231.31
298.062	236.31
298.292	233.31
298.523	218.31
298.753	238.31
298.984	237.31
299.214	242.31
299.445	241.31
299.675	239.31
299.905	230.31
300.136	232.31
300.366	231.31
300.597	247.31
300.827	233.31
301.057	244.31
301.288	236.31
301.518	239.31
301.748	234.31
301.979	242.31
302.209	252.31
302.439	247.31
302.669	239.31
302.9	259.31
303.13	246.31
303.36	249.31
303.59	258.31
303.82	260.31
304.051	270.31
304.281	262.31
304.511	226.31
304.741	251.31
304.971	238.31
305.201	226.31
305.431	254.31
305.661	241.31
305.891	250.31
306.121	242.31
306.352	257.31
306.582	271.31
306.812	260.31
307.042	245.31
307.272	263.31
307.502	257.31
307.731	242.31
307.961	249.31
308.191	265.31
308.421	255.31
308.651	265.31
308.881	250.31
309.111	252.31
309.341	253.31
309.571	278.31
309.8	278.31
310.03	286.31
310.26	278.31
310.49	280.31
310.72	300.31
310.949	308.31
311.179	312.31
311.409	293.31
311.639	275.31
311.868	285.31
312.098	314.31
312.328	311.31
312.557	296.31
312.787	318.31
313.017	313.31
313.246	284.31
313.476	285.31
313.706	282.31
313.935	300.31
314.165	288.31
314.394	312.31
314.624	303.31
314.853	302.31
315.083	317.31
315.312	291.31
315.542	262.31
315.771	284.31
316.001	293.31
316.23	295.31
316.46	288.31
316.689	286.31
316.919	279.31
317.148	293.31
317.377	298.31
317.607	297.31
317.836	286.31
318.065	288.31
318.295	289.31
318.524	283.31
318.753	295.31
318.983	283.31
319.212	280.31
319.441	295.31
319.67	306.31
319.9	283.31
320.129	293.31
320.358	304.31
320.587	293.31
320.816	303.31
321.046	292.31
321.275	312.31
321.504	306.31
321.733	312.31
321.962	330.31
322.191	320.31
322.42	336.31
322.649	348.31
322.878	362.31
323.108	377.31
323.337	390.31
323.566	418.31
323.795	426.31
324.024	490.31
324.253	589.31
324.482	871.31
324.71	1345.31
324.939	1711.31
325.168	1394.31
325.397	749.31
325.626	516.31
325.855	450.31
326.084	416.31
326.313	381.31
326.542	406.31
326.77	437.31
326.999	546.31
327.228	820.31
327.457	1134.31
327.686	1257.31
327.914	844.31
328.143	583.31
328.372	506.31
328.6	475.31
328.829	458.31
329.058	462.31
329.287	450.31
329.515	424.31
329.744	422.31
329.972	424.31
330.201	406.31
330.43	453.31
330.658	468.31
330.887	438.31
331.115	449.31
331.344	403.31
331.572	376.31
331.801	374.31
332.03	380.31
332.258	367.31
332.486	351.31
332.715	327.31
332.943	346.31
333.172	339.31
333.4	332.31
333.629	338.31
333.857	384.31
334.085	354.31
334.314	374.31
334.542	394.31
334.771	408.31
334.999	377.31
335.227	365.31
335.455	342.31
335.684	338.31
335.912	337.31
336.14	324.31
336.369	334.31
336.597	324.31
336.825	308.31
337.053	327.31
337.281	319.31
337.51	324.31
337.738	330.31
337.966	322.31
338.194	325.31
338.422	321.31
338.65	333.31
338.878	311.31
339.106	309.31
339.334	300.31
339.562	301.31
339.79	319.31
340.018	324.31
340.246	323.31
340.474	310.31
340.702	308.31
340.93	314.31
341.158	315.31
341.386	318.31
341.614	324.31
341.842	309.31
342.07	316.31
342.298	310.31
342.526	308.31
342.754	314.31
342.981	309.31
343.209	295.31
343.437	309.31
343.665	320.31
343.893	312.31
344.12	305.31
344.348	318.31
344.576	331.31
344.804	325.31
345.031	330.31
345.259	339.31
345.487	313.31
345.714	310.31
345.942	317.31
346.17	304.31
346.397	302.31
346.625	317.31
346.853	301.31
347.08	326.31
347.308	308.31
347.535	326.31
347.763	317.31
347.99	310.31
348.218	335.31
348.445	325.31
348.673	313.31
348.9	297.31
349.128	282.31
349.355	288.31
349.583	293.31
349.81	281.31
350.037	302.31
350.265	297.31
350.492	300.31
350.72	297.31
350.947	294.31
351.174	320.31
351.402	326.31
351.629	312.31
351.856	312.31
352.083	318.31
352.311	320.31
352.538	321.31
352.765	319.31
352.992	316.31
353.22	300.31
353.447	309.31
353.674	294.31
353.901	302.31
354.128	284.31
354.355	284.31
354.583	296.31
354.81	295.31
355.037	278.31
355.264	282.31
355.491	274.31
355.718	285.31
355.945	278.31
356.172	275.31
356.399	272.31
356.626	272.31
356.853	280.31
357.08	285.31
357.307	289.31
357.534	284.31
357.761	282.31
357.988	279.31
358.215	284.31
358.441	276.31
358.668	287.31
358.895	289.31
359.122	288.31
359.349	293.31
359.576	323.31
359.802	332.31
360.029	337.31
360.256	324.31
360.483	326.31
360.709	300.31
360.936	308.31
361.163	298.31
361.39	284.31
361.616	296.31
361.843	316.31
362.07	300.31
362.296	301.31
362.523	303.31
362.749	299.31
362.976	299.31
363.203	270.31
363.429	288.31
363.656	287.31
363.882	301.31
364.109	289.31
364.335	276.31
364.562	274.31
364.788	292.31
365.015	282.31
365.241	285.31
365.468	298.31
365.694	280.31
365.92	319.31
366.147	294.31
366.373	263.31
366.599	284.31
366.826	286.31
367.052	290.31
367.278	297.31
367.505	280.31
367.731	297.31
367.957	273.31
368.184	289.31
368.41	273.31
368.636	279.31
368.862	290.31
369.089	291.31
369.315	272.31
369.541	299.31
369.767	292.31
369.993	275.31
370.219	281.31
370.445	273.31
370.672	273.31
370.898	267.31
371.124	290.31
371.35	254.31
371.576	293.31
371.802	278.31
372.028	264.31
372.254	271.31
372.48	278.31
372.706	272.31
372.932	282.31
373.158	281.31
373.384	284.31
373.61	286.31
373.835	271.31
374.061	266.31
374.287	297.31
374.513	289.31
374.739	267.31
374.965	280.31
375.191	287.31
375.416	287.31
375.642	280.31
375.868	267.31
376.094	278.31
376.319	265.31
376.545	262.31
376.771	272.31
376.997	263.31
377.222	258.31
377.448	266.31
377.674	278.31
377.899	268.31
378.125	263.31
378.35	257.31
378.576	279.31
378.802	273.31
379.027	260.31
379.253	266.31
379.478	290.31
379.704	260.31
379.929	272.31
380.155	273.31
380.38	268.31
380.606	278.31
380.831	274.31
381.057	287.31
381.282	273.31
381.507	272.31
381.733	273.31
381.958	274.31
382.184	281.31
382.409	284.31
382.634	273.31
382.86	276.31
383.085	276.31
383.31	271.31
383.535	278.31
383.761	278.31
383.986	281.31
384.211	281.31
384.436	281.31
384.662	273.31
384.887	271.31
385.112	282.31
385.337	268.31
385.562	270.31
385.787	275.31
386.013	281.31
386.238	288.31
386.463	286.31
386.688	284.31
386.913	280.31
387.138	284.31
387.363	281.31
387.588	264.31
387.813	297.31
388.038	273.31
388.263	273.31
388.488	285.31
388.713	290.31
388.938	285.31
389.163	289.31
389.387	283.31
389.612	277.31
389.837	288.31
390.062	260.31
390.287	289.31
390.512	297.31
390.736	269.31
390.961	282.31
391.186	270.31
391.411	282.31
391.636	284.31
391.86	282.31
392.085	274.31
392.31	289.31
392.534	301.31
392.759	267.31
392.984	289.31
393.208	290.31
393.433	271.31
393.658	290.31
393.882	297.31
394.107	274.31
394.331	259.31
394.556	266.31
394.78	274.31
395.005	285.31
395.229	292.31
395.454	287.31
395.678	296.31
395.903	285.31
396.127	321.31
396.352	320.31
396.576	289.31
396.801	297.31
397.025	288.31
397.249	312.31
397.474	295.31
397.698	312.31
397.922	286.31
398.147	289.31
398.371	321.31
398.595	297.31
398.82	310.31
399.044	294.31
399.268	327.31
399.492	334.31
399.717	349.31
399.941	372.31
400.165	372.31
400.389	376.31
400.613	345.31
400.837	322.31
401.062	318.31
401.286	313.31
401.51	313.31
401.734	301.31
401.958	312.31
402.182	304.31
402.406	314.31
402.63	320.31
402.854	298.31
403.078	314.31
403.302	319.31
403.526	314.31
403.75	305.31
403.974	330.31
404.198	300.31
404.422	310.31
404.645	328.31
404.869	338.31
405.093	348.31
405.317	355.31
405.541	396.31
405.765	349.31
405.988	336.31
406.212	352.31
406.436	366.31
406.66	348.31
406.883	344.31
407.107	357.31
407.331	378.31
407.555	415.31
407.778	414.31
408.002	359.31
408.226	353.31
408.449	363.31
408.673	369.31
408.896	387.31
409.12	388.31
409.344	380.31
409.567	344.31
409.791	324.31
410.014	320.31
410.238	337.31
410.461	322.31
410.685	313.31
410.908	333.31
411.132	352.31
411.355	369.31
411.578	359.31
411.802	338.31
412.025	309.31
412.249	326.31
412.472	342.31
412.695	372.31
412.919	355.31
413.142	322.31
413.365	313.31
413.589	302.31
413.812	324.31
414.035	313.31
414.258	286.31
414.482	312.31
414.705	296.31
414.928	300.31
415.151	282.31
415.374	299.31
415.597	314.31
415.821	297.31
416.044	310.31
416.267	305.31
416.49	287.31
416.713	285.31
416.936	316.31
417.159	274.31
417.382	314.31
417.605	295.31
417.828	310.31
418.051	300.31
418.274	292.31
418.497	305.31
418.72	308.31
418.943	302.31
419.166	322.31
419.389	320.31
419.611	316.31
419.834	314.31
420.057	314.31
420.28	315.31
420.503	321.31
420.726	323.31
420.948	332.31
421.171	343.31
421.394	377.31
421.617	325.31
421.839	321.31
422.062	309.31
422.285	335.31
422.507	390.31
422.73	424.31
422.953	378.31
423.175	355.31
423.398	316.31
423.621	308.31
423.843	343.31
424.066	335.31
424.288	346.31
424.511	351.31
424.733	384.31
424.956	438.31
425.178	430.31
425.401	403.31
425.623	435.31
425.846	386.31
426.068	358.31
426.291	358.31
426.513	357.31
426.735	363.31
426.958	382.31
427.18	432.31
427.402	541.31
427.625	545.31
427.847	513.31
428.069	422.31
428.292	388.31
428.514	353.31
428.736	307.31
428.958	340.31
429.181	312.31
429.403	315.31
429.625	343.31
429.847	369.31
430.069	402.31
430.292	394.31
430.514	341.31
430.736	320.31
430.958	321.31
431.18	301.31
431.402	326.31
431.624	308.31
431.846	308.31
432.068	310.31
432.29	318.31
432.512	303.31
432.734	312.31
432.956	308.31
433.178	321.31
433.4	315.31
433.622	288.31
433.844	308.31
434.066	306.31
434.287	283.31
434.509	304.31
434.731	308.31
434.953	328.31
435.175	333.31
435.397	360.31
435.618	364.31
435.84	377.31
436.062	428.31
436.284	466.31
436.505	387.31
436.727	373.31
436.949	332.31
437.17	331.31
437.392	326.31
437.614	328.31
437.835	369.31
438.057	440.31
438.278	479.31
438.5	461.31
438.721	538.31
438.943	518.31
439.165	408.31
439.386	372.31
439.608	350.31
439.829	364.31
440.05	385.31
440.272	411.31
440.493	374.31
440.715	364.31
440.936	356.31
441.158	342.31
441.379	322.31
441.6	336.31
441.822	353.31
442.043	363.31
442.264	417.31
442.486	411.31
442.707	387.31
442.928	359.31
443.149	365.31
443.371	376.31
443.592	398.31
443.813	445.31
444.034	491.31
444.255	412.31
444.476	364.31
444.698	358.31
444.919	338.31
445.14	428.31
445.361	394.31
445.582	386.31
445.803	418.31
446.024	486.31
446.245	491.31
446.466	430.31
446.687	391.31
446.908	364.31
447.129	343.31
447.35	337.31
447.571	333.31
447.792	325.31
448.013	330.31
448.234	342.31
448.455	381.31
448.675	440.31
448.896	487.31
449.117	433.31
449.338	432.31
449.559	470.31
449.779	533.31
450	412.31
450.221	365.31
450.442	367.31
450.662	332.31
450.883	325.31
451.104	338.31
451.324	330.31
451.545	315.31
451.766	334.31
451.986	286.31
452.207	290.31
452.428	300.31
452.648	298.31
452.869	288.31
453.089	298.31
453.31	301.31
453.53	309.31
453.751	319.31
453.971	293.31
454.192	304.31
454.412	300.31
454.633	285.31
454.853	289.31
455.073	306.31
455.294	317.31
455.514	364.31
455.734	346.31
455.955	300.31
456.175	276.31
456.395	267.31
456.616	303.31
456.836	288.31
457.056	293.31
457.276	266.31
457.497	290.31
457.717	282.31
457.937	278.31
458.157	279.31
458.377	311.31
458.598	306.31
458.818	342.31
459.038	380.31
459.258	401.31
459.478	343.31
459.698	313.31
459.918	324.31
460.138	294.31
460.358	292.31
460.578	290.31
460.798	305.31
461.018	306.31
461.238	284.31
461.458	292.31
461.678	286.31
461.898	310.31
462.118	293.31
462.338	288.31
462.558	308.31
462.777	302.31
462.997	326.31
463.217	305.31
463.437	312.31
463.657	310.31
463.876	311.31
464.096	302.31
464.316	323.31
464.536	319.31
464.755	328.31
464.975	334.31
465.195	356.31
465.414	407.31
465.634	348.31
465.854	343.31
466.073	326.31
466.293	306.31
466.512	290.31
466.732	291.31
466.951	302.31
467.171	319.31
467.391	308.31
467.61	306.31
467.829	298.31
468.049	294.31
468.268	313.31
468.488	299.31
468.707	292.31
468.927	286.31
469.146	272.31
469.365	288.31
469.585	293.31
469.804	288.31
470.023	282.31
470.243	300.31
470.462	324.31
470.681	311.31
470.901	299.31
471.12	298.31
471.339	304.31
471.558	302.31
471.777	297.31
471.997	316.31
472.216	303.31
472.435	322.31
472.654	310.31
472.873	296.31
473.092	301.31
473.311	300.31
473.53	293.31
473.749	306.31
473.968	328.31
474.187	404.31
474.406	411.31
474.625	342.31
474.844	331.31
475.063	311.31
475.282	302.31
475.501	313.31
475.72	348.31
475.939	308.31
476.158	306.31
476.377	318.31
476.596	305.31
476.814	312.31
477.033	325.31
477.252	325.31
477.471	304.31
477.69	310.31
477.908	327.31
478.127	329.31
478.346	323.31
478.564	321.31
478.783	326.31
479.002	326.31
479.22	325.31
479.439	351.31
479.658	345.31
479.876	342.31
480.095	362.31
480.313	369.31
480.532	354.31
480.751	360.31
480.969	370.31
481.188	415.31
481.406	419.31
481.624	381.31
481.843	368.31
482.061	361.31
482.28	349.31
482.498	351.31
482.717	338.31
482.935	340.31
483.153	345.31
483.372	342.31
483.59	337.31
483.808	345.31
484.027	350.31
484.245	339.31
484.463	364.31
484.681	368.31
484.9	363.31
485.118	337.31
485.336	341.31
485.554	333.31
485.772	351.31
485.99	356.31
486.209	363.31
486.427	356.31
486.645	363.31
486.863	381.31
487.081	386.31
487.299	381.31
487.517	384.31
487.735	384.31
487.953	368.31
488.171	363.31
488.389	384.31
488.607	380.31
488.825	380.31
489.043	367.31
489.261	376.31
489.479	378.31
489.696	370.31
489.914	384.31
490.132	378.31
490.35	375.31
490.568	381.31
490.786	410.31
491.003	406.31
491.221	408.31
491.439	407.31
491.657	392.31
491.874	413.31
492.092	433.31
492.31	418.31
492.527	430.31
492.745	413.31
492.963	416.31
493.18	426.31
493.398	426.31
493.615	437.31
493.833	428.31
494.05	423.31
494.268	430.31
494.485	447.31
494.703	421.31
494.92	442.31
495.138	421.31
495.355	427.31
495.573	459.31
495.79	439.31
496.008	442.31
496.225	438.31
496.442	446.31
496.66	424.31
496.877	441.31
497.094	430.31
497.312	408.31
497.529	427.31
497.746	455.31
497.963	464.31
498.181	457.31
498.398	474.31
498.615	465.31
498.832	453.31
499.049	461.31
499.267	477.31
499.484	479.31
499.701	503.31
499.918	512.31
500.135	541.31
500.352	518.31
500.569	536.31
500.786	552.31
501.003	529.31
501.22	541.31
501.437	521.31
501.654	508.31
501.871	511.31
502.088	513.31
