Data from 1982.PennyLincolnUp.Lamp.En5.5.200Scan.071819.P1_HRD10591_16-47-06-963.txt Node
Date: Thu Jul 18 16:47:06 EDT 2019
User: cochatt
Spectrometer: HR+D1059
Trigger mode: 1
Integration Time (sec): 1.000000E-1
Scans to average: 1
Electric dark correction enabled: true
Nonlinearity correction enabled: false
Boxcar width: 0
XAxis mode: Wavelengths
Number of Pixels in Spectrum: 2048
>>>>>Begin Spectral Data<<<<<
223.165	-18.06
223.4	-18.06
223.635	-18.06
223.869	-24.06
224.104	-28.06
224.338	-5.06
224.573	-10.06
224.808	-11.06
225.042	20.94
225.277	-10.06
225.511	-11.06
225.746	1.94
225.98	2.94
226.215	3.94
226.449	21.94
226.683	16.94
226.918	26.94
227.152	21.94
227.387	26.94
227.621	43.94
227.856	31.94
228.09	39.94
228.324	47.94
228.559	58.94
228.793	64.94
229.027	89.94
229.262	91.94
229.496	111.94
229.73	109.94
229.964	126.94
230.199	110.94
230.433	107.94
230.667	102.94
230.901	91.94
231.136	94.94
231.37	105.94
231.604	111.94
231.838	115.94
232.072	114.94
232.306	91.94
232.541	102.94
232.775	97.94
233.009	101.94
233.243	102.94
233.477	94.94
233.711	107.94
233.945	91.94
234.179	96.94
234.413	95.94
234.647	103.94
234.881	111.94
235.115	113.94
235.349	106.94
235.583	103.94
235.817	107.94
236.051	118.94
236.285	109.94
236.519	117.94
236.753	110.94
236.987	125.94
237.221	150.94
237.455	199.94
237.689	162.94
237.922	115.94
238.156	107.94
238.39	120.94
238.624	107.94
238.858	103.94
239.091	108.94
239.325	92.94
239.559	111.94
239.793	125.94
240.027	119.94
240.26	124.94
240.494	128.94
240.728	129.94
240.961	131.94
241.195	136.94
241.429	116.94
241.662	106.94
241.896	106.94
242.13	123.94
242.363	123.94
242.597	127.94
242.83	138.94
243.064	105.94
243.298	99.94
243.531	116.94
243.765	113.94
243.998	113.94
244.232	134.94
244.465	106.94
244.699	118.94
244.932	129.94
245.166	125.94
245.399	134.94
245.633	118.94
245.866	127.94
246.099	130.94
246.333	121.94
246.566	129.94
246.8	125.94
247.033	116.94
247.266	138.94
247.5	141.94
247.733	142.94
247.966	142.94
248.2	168.94
248.433	133.94
248.666	139.94
248.899	149.94
249.133	157.94
249.366	179.94
249.599	153.94
249.832	161.94
250.066	140.94
250.299	153.94
250.532	169.94
250.765	167.94
250.998	179.94
251.231	181.94
251.465	178.94
251.698	177.94
251.931	166.94
252.164	160.94
252.397	173.94
252.63	155.94
252.863	175.94
253.096	187.94
253.329	187.94
253.562	180.94
253.795	185.94
254.028	170.94
254.261	179.94
254.494	196.94
254.727	195.94
254.96	242.94
255.193	212.94
255.426	201.94
255.659	196.94
255.892	200.94
256.124	191.94
256.357	181.94
256.59	186.94
256.823	179.94
257.056	180.94
257.289	172.94
257.521	160.94
257.754	185.94
257.987	173.94
258.22	181.94
258.452	182.94
258.685	161.94
258.918	177.94
259.151	185.94
259.383	180.94
259.616	183.94
259.849	198.94
260.081	205.94
260.314	202.94
260.547	190.94
260.779	207.94
261.012	187.94
261.244	189.94
261.477	185.94
261.71	184.94
261.942	170.94
262.175	184.94
262.407	198.94
262.64	168.94
262.872	184.94
263.105	192.94
263.337	185.94
263.57	181.94
263.802	170.94
264.035	163.94
264.267	168.94
264.499	154.94
264.732	178.94
264.964	197.94
265.197	187.94
265.429	165.94
265.661	172.94
265.894	164.94
266.126	167.94
266.358	169.94
266.591	170.94
266.823	166.94
267.055	183.94
267.287	183.94
267.52	185.94
267.752	184.94
267.984	183.94
268.216	187.94
268.448	192.94
268.681	181.94
268.913	201.94
269.145	214.94
269.377	222.94
269.609	220.94
269.841	211.94
270.073	217.94
270.306	242.94
270.538	269.94
270.77	245.94
271.002	253.94
271.234	236.94
271.466	251.94
271.698	255.94
271.93	255.94
272.162	254.94
272.394	250.94
272.626	250.94
272.858	229.94
273.09	244.94
273.322	217.94
273.553	212.94
273.785	207.94
274.017	215.94
274.249	216.94
274.481	226.94
274.713	220.94
274.945	216.94
275.176	220.94
275.408	212.94
275.64	225.94
275.872	213.94
276.104	216.94
276.335	211.94
276.567	225.94
276.799	220.94
277.031	243.94
277.262	279.94
277.494	259.94
277.726	249.94
277.957	231.94
278.189	244.94
278.421	245.94
278.652	217.94
278.884	219.94
279.115	231.94
279.347	218.94
279.579	196.94
279.81	206.94
280.042	214.94
280.273	219.94
280.505	202.94
280.736	206.94
280.968	225.94
281.199	193.94
281.431	206.94
281.662	214.94
281.894	214.94
282.125	227.94
282.356	228.94
282.588	244.94
282.819	245.94
283.051	205.94
283.282	214.94
283.513	215.94
283.745	211.94
283.976	223.94
284.207	231.94
284.439	214.94
284.67	206.94
284.901	211.94
285.132	210.94
285.364	222.94
285.595	226.94
285.826	190.94
286.057	202.94
286.288	223.94
286.52	244.94
286.751	218.94
286.982	205.94
287.213	222.94
287.444	213.94
287.675	225.94
287.906	231.94
288.138	254.94
288.369	234.94
288.6	236.94
288.831	226.94
289.062	228.94
289.293	212.94
289.524	236.94
289.755	236.94
289.986	205.94
290.217	218.94
290.448	221.94
290.679	217.94
290.91	231.94
291.141	204.94
291.371	227.94
291.602	236.94
291.833	240.94
292.064	222.94
292.295	205.94
292.526	217.94
292.757	226.94
292.987	219.94
293.218	227.94
293.449	234.94
293.68	233.94
293.91	230.94
294.141	235.94
294.372	217.94
294.603	216.94
294.833	215.94
295.064	225.94
295.295	234.94
295.525	222.94
295.756	238.94
295.987	234.94
296.217	233.94
296.448	254.94
296.679	235.94
296.909	235.94
297.14	227.94
297.37	228.94
297.601	237.94
297.831	223.94
298.062	226.94
298.292	235.94
298.523	217.94
298.753	237.94
298.984	247.94
299.214	234.94
299.445	241.94
299.675	253.94
299.905	265.94
300.136	251.94
300.366	243.94
300.597	239.94
300.827	236.94
301.057	247.94
301.288	236.94
301.518	252.94
301.748	239.94
301.979	243.94
302.209	245.94
302.439	245.94
302.669	254.94
302.9	258.94
303.13	253.94
303.36	245.94
303.59	245.94
303.82	262.94
304.051	258.94
304.281	259.94
304.511	257.94
304.741	245.94
304.971	261.94
305.201	265.94
305.431	266.94
305.661	239.94
305.891	261.94
306.121	262.94
306.352	270.94
306.582	251.94
306.812	250.94
307.042	258.94
307.272	272.94
307.502	275.94
307.731	266.94
307.961	260.94
308.191	260.94
308.421	273.94
308.651	270.94
308.881	270.94
309.111	277.94
309.341	269.94
309.571	281.94
309.8	281.94
310.03	284.94
310.26	302.94
310.49	293.94
310.72	282.94
310.949	300.94
311.179	305.94
311.409	289.94
311.639	267.94
311.868	300.94
312.098	299.94
312.328	295.94
312.557	321.94
312.787	337.94
313.017	322.94
313.246	309.94
313.476	291.94
313.706	301.94
313.935	306.94
314.165	331.94
314.394	307.94
314.624	300.94
314.853	330.94
315.083	314.94
315.312	307.94
315.542	285.94
315.771	285.94
316.001	306.94
316.23	287.94
316.46	298.94
316.689	305.94
316.919	291.94
317.148	310.94
317.377	297.94
317.607	299.94
317.836	293.94
318.065	295.94
318.295	284.94
318.524	282.94
318.753	301.94
318.983	296.94
319.212	305.94
319.441	310.94
319.67	299.94
319.9	293.94
320.129	292.94
320.358	298.94
320.587	308.94
320.816	315.94
321.046	313.94
321.275	310.94
321.504	315.94
321.733	314.94
321.962	323.94
322.191	333.94
322.42	338.94
322.649	341.94
322.878	345.94
323.108	371.94
323.337	418.94
323.566	425.94
323.795	449.94
324.024	485.94
324.253	625.94
324.482	928.94
324.71	1376.94
324.939	1826.94
325.168	1454.94
325.397	793.94
325.626	549.94
325.855	441.94
326.084	435.94
326.313	399.94
326.542	420.94
326.77	468.94
326.999	587.94
327.228	822.94
327.457	1172.94
327.686	1346.94
327.914	871.94
328.143	580.94
328.372	509.94
328.6	466.94
328.829	458.94
329.058	475.94
329.287	465.94
329.515	444.94
329.744	419.94
329.972	411.94
330.201	424.94
330.43	471.94
330.658	477.94
330.887	482.94
331.115	477.94
331.344	392.94
331.572	403.94
331.801	379.94
332.03	362.94
332.258	341.94
332.486	343.94
332.715	345.94
332.943	353.94
333.172	369.94
333.4	358.94
333.629	350.94
333.857	355.94
334.085	365.94
334.314	388.94
334.542	413.94
334.771	402.94
334.999	376.94
335.227	364.94
335.455	350.94
335.684	350.94
335.912	332.94
336.14	333.94
336.369	360.94
336.597	346.94
336.825	338.94
337.053	344.94
337.281	351.94
337.51	331.94
337.738	327.94
337.966	318.94
338.194	342.94
338.422	317.94
338.65	319.94
338.878	327.94
339.106	326.94
339.334	314.94
339.562	317.94
339.79	311.94
340.018	334.94
340.246	329.94
340.474	329.94
340.702	319.94
340.93	323.94
341.158	323.94
341.386	321.94
341.614	334.94
341.842	319.94
342.07	325.94
342.298	320.94
342.526	309.94
342.754	307.94
342.981	286.94
343.209	307.94
343.437	302.94
343.665	331.94
343.893	325.94
344.12	318.94
344.348	309.94
344.576	319.94
344.804	343.94
345.031	325.94
345.259	334.94
345.487	345.94
345.714	325.94
345.942	306.94
346.17	313.94
346.397	305.94
346.625	317.94
346.853	299.94
347.08	315.94
347.308	327.94
347.535	323.94
347.763	321.94
347.99	310.94
348.218	317.94
348.445	319.94
348.673	326.94
348.9	306.94
349.128	317.94
349.355	299.94
349.583	303.94
349.81	291.94
350.037	299.94
350.265	296.94
350.492	315.94
350.72	301.94
350.947	311.94
351.174	330.94
351.402	318.94
351.629	310.94
351.856	322.94
352.083	322.94
352.311	325.94
352.538	313.94
352.765	297.94
352.992	322.94
353.22	298.94
353.447	299.94
353.674	297.94
353.901	292.94
354.128	288.94
354.355	279.94
354.583	286.94
354.81	275.94
355.037	292.94
355.264	280.94
355.491	297.94
355.718	277.94
355.945	282.94
356.172	293.94
356.399	311.94
356.626	263.94
356.853	279.94
357.08	265.94
357.307	290.94
357.534	289.94
357.761	301.94
357.988	284.94
358.215	285.94
358.441	294.94
358.668	275.94
358.895	281.94
359.122	281.94
359.349	294.94
359.576	309.94
359.802	323.94
360.029	346.94
360.256	347.94
360.483	349.94
360.709	310.94
360.936	297.94
361.163	309.94
361.39	318.94
361.616	297.94
361.843	283.94
362.07	287.94
362.296	299.94
362.523	320.94
362.749	307.94
362.976	299.94
363.203	311.94
363.429	309.94
363.656	281.94
363.882	278.94
364.109	294.94
364.335	298.94
364.562	292.94
364.788	284.94
365.015	283.94
365.241	285.94
365.468	309.94
365.694	300.94
365.92	287.94
366.147	295.94
366.373	283.94
366.599	281.94
366.826	272.94
367.052	301.94
367.278	279.94
367.505	287.94
367.731	292.94
367.957	297.94
368.184	291.94
368.41	286.94
368.636	293.94
368.862	306.94
369.089	295.94
369.315	275.94
369.541	308.94
369.767	285.94
369.993	267.94
370.219	281.94
370.445	288.94
370.672	277.94
370.898	297.94
371.124	287.94
371.35	270.94
371.576	289.94
371.802	285.94
372.028	273.94
372.254	259.94
372.48	268.94
372.706	290.94
372.932	295.94
373.158	261.94
373.384	280.94
373.61	272.94
373.835	279.94
374.061	281.94
374.287	292.94
374.513	274.94
374.739	275.94
374.965	264.94
375.191	267.94
375.416	283.94
375.642	269.94
375.868	283.94
376.094	268.94
376.319	268.94
376.545	279.94
376.771	272.94
376.997	264.94
377.222	266.94
377.448	281.94
377.674	268.94
377.899	270.94
378.125	264.94
378.35	269.94
378.576	275.94
378.802	257.94
379.027	265.94
379.253	249.94
379.478	277.94
379.704	278.94
379.929	277.94
380.155	274.94
380.38	270.94
380.606	265.94
380.831	270.94
381.057	280.94
381.282	273.94
381.507	289.94
381.733	276.94
381.958	264.94
382.184	271.94
382.409	269.94
382.634	264.94
382.86	268.94
383.085	268.94
383.31	273.94
383.535	275.94
383.761	285.94
383.986	271.94
384.211	289.94
384.436	268.94
384.662	282.94
384.887	296.94
385.112	288.94
385.337	293.94
385.562	306.94
385.787	286.94
386.013	313.94
386.238	308.94
386.463	285.94
386.688	310.94
386.913	309.94
387.138	259.94
387.363	274.94
387.588	283.94
387.813	281.94
388.038	285.94
388.263	279.94
388.488	274.94
388.713	286.94
388.938	310.94
389.163	286.94
389.387	289.94
389.612	285.94
389.837	288.94
390.062	278.94
390.287	265.94
390.512	285.94
390.736	277.94
390.961	285.94
391.186	273.94
391.411	297.94
391.636	275.94
391.86	278.94
392.085	309.94
392.31	265.94
392.534	284.94
392.759	288.94
392.984	273.94
393.208	276.94
393.433	294.94
393.658	283.94
393.882	280.94
394.107	287.94
394.331	284.94
394.556	280.94
394.78	295.94
395.005	291.94
395.229	284.94
395.454	292.94
395.678	270.94
395.903	311.94
396.127	328.94
396.352	301.94
396.576	279.94
396.801	291.94
397.025	296.94
397.249	301.94
397.474	310.94
397.698	311.94
397.922	326.94
398.147	315.94
398.371	324.94
398.595	305.94
398.82	313.94
399.044	316.94
399.268	314.94
399.492	321.94
399.717	351.94
399.941	364.94
400.165	376.94
400.389	359.94
400.613	335.94
400.837	329.94
401.062	314.94
401.286	319.94
401.51	330.94
401.734	303.94
401.958	327.94
402.182	317.94
402.406	330.94
402.63	315.94
402.854	319.94
403.078	318.94
403.302	326.94
403.526	335.94
403.75	321.94
403.974	317.94
404.198	326.94
404.422	325.94
404.645	335.94
404.869	346.94
405.093	343.94
405.317	385.94
405.541	411.94
405.765	360.94
405.988	329.94
406.212	374.94
406.436	355.94
406.66	377.94
406.883	363.94
407.107	366.94
407.331	374.94
407.555	429.94
407.778	414.94
408.002	378.94
408.226	377.94
408.449	363.94
408.673	339.94
408.896	371.94
409.12	403.94
409.344	371.94
409.567	348.94
409.791	339.94
410.014	320.94
410.238	325.94
410.461	328.94
410.685	341.94
410.908	358.94
411.132	351.94
411.355	383.94
411.578	365.94
411.802	339.94
412.025	338.94
412.249	330.94
412.472	321.94
412.695	369.94
412.919	373.94
413.142	350.94
413.365	334.94
413.589	311.94
413.812	293.94
414.035	319.94
414.258	287.94
414.482	309.94
414.705	306.94
414.928	298.94
415.151	308.94
415.374	302.94
415.597	305.94
415.821	305.94
416.044	304.94
416.267	295.94
416.49	322.94
416.713	313.94
416.936	296.94
417.159	311.94
417.382	295.94
417.605	314.94
417.828	329.94
418.051	321.94
418.274	325.94
418.497	305.94
418.72	301.94
418.943	307.94
419.166	309.94
419.389	307.94
419.611	333.94
419.834	319.94
420.057	332.94
420.28	323.94
420.503	338.94
420.726	318.94
420.948	333.94
421.171	373.94
421.394	366.94
421.617	315.94
421.839	326.94
422.062	341.94
422.285	357.94
422.507	375.94
422.73	398.94
422.953	392.94
423.175	365.94
423.398	354.94
423.621	342.94
423.843	336.94
424.066	369.94
424.288	358.94
424.511	371.94
424.733	396.94
424.956	455.94
425.178	448.94
425.401	434.94
425.623	425.94
425.846	380.94
426.068	363.94
426.291	350.94
426.513	359.94
426.735	361.94
426.958	405.94
427.18	433.94
427.402	537.94
427.625	571.94
427.847	510.94
428.069	425.94
428.292	395.94
428.514	342.94
428.736	352.94
428.958	337.94
429.181	330.94
429.403	321.94
429.625	318.94
429.847	367.94
430.069	418.94
430.292	379.94
430.514	358.94
430.736	317.94
430.958	324.94
431.18	304.94
431.402	324.94
431.624	300.94
431.846	301.94
432.068	309.94
432.29	310.94
432.512	310.94
432.734	318.94
432.956	303.94
433.178	344.94
433.4	324.94
433.622	321.94
433.844	302.94
434.066	305.94
434.287	303.94
434.509	307.94
434.731	322.94
434.953	313.94
435.175	333.94
435.397	353.94
435.618	363.94
435.84	390.94
436.062	429.94
436.284	474.94
436.505	419.94
436.727	365.94
436.949	341.94
437.17	328.94
437.392	324.94
437.614	347.94
437.835	385.94
438.057	429.94
438.278	504.94
438.5	489.94
438.721	522.94
438.943	492.94
439.165	395.94
439.386	409.94
439.608	378.94
439.829	375.94
440.05	396.94
440.272	405.94
440.493	385.94
440.715	350.94
440.936	332.94
441.158	335.94
441.379	333.94
441.6	326.94
441.822	361.94
442.043	374.94
442.264	439.94
442.486	436.94
442.707	390.94
442.928	374.94
443.149	361.94
443.371	393.94
443.592	421.94
443.813	480.94
444.034	481.94
444.255	407.94
444.476	361.94
444.698	356.94
444.919	374.94
445.14	469.94
445.361	391.94
445.582	407.94
445.803	453.94
446.024	485.94
446.245	522.94
446.466	452.94
446.687	397.94
446.908	346.94
447.129	345.94
447.35	342.94
447.571	332.94
447.792	334.94
448.013	326.94
448.234	354.94
448.455	398.94
448.675	445.94
448.896	530.94
449.117	423.94
449.338	422.94
449.559	492.94
449.779	515.94
450	435.94
450.221	359.94
450.442	345.94
450.662	324.94
450.883	334.94
451.104	327.94
451.324	337.94
451.545	323.94
451.766	325.94
451.986	307.94
452.207	295.94
452.428	302.94
452.648	301.94
452.869	299.94
453.089	309.94
453.31	302.94
453.53	305.94
453.751	289.94
453.971	302.94
454.192	310.94
454.412	308.94
454.633	283.94
454.853	284.94
455.073	299.94
455.294	327.94
455.514	374.94
455.734	357.94
455.955	303.94
456.175	277.94
456.395	302.94
456.616	272.94
456.836	276.94
457.056	275.94
457.276	276.94
457.497	285.94
457.717	288.94
457.937	278.94
458.157	278.94
458.377	304.94
458.598	287.94
458.818	336.94
459.038	414.94
459.258	403.94
459.478	346.94
459.698	328.94
459.918	297.94
460.138	307.94
460.358	307.94
460.578	290.94
460.798	313.94
461.018	310.94
461.238	290.94
461.458	293.94
461.678	284.94
461.898	298.94
462.118	295.94
462.338	320.94
462.558	291.94
462.777	308.94
462.997	323.94
463.217	318.94
463.437	296.94
463.657	299.94
463.876	317.94
464.096	318.94
464.316	307.94
464.536	305.94
464.755	326.94
464.975	321.94
465.195	381.94
465.414	391.94
465.634	358.94
465.854	325.94
466.073	312.94
466.293	307.94
466.512	287.94
466.732	309.94
466.951	296.94
467.171	307.94
467.391	300.94
467.61	305.94
467.829	326.94
468.049	306.94
468.268	309.94
468.488	306.94
468.707	291.94
468.927	281.94
469.146	286.94
469.365	295.94
469.585	293.94
469.804	302.94
470.023	315.94
470.243	297.94
470.462	315.94
470.681	309.94
470.901	302.94
471.12	297.94
471.339	297.94
471.558	310.94
471.777	302.94
471.997	296.94
472.216	317.94
472.435	339.94
472.654	323.94
472.873	296.94
473.092	300.94
473.311	292.94
473.53	306.94
473.749	308.94
473.968	375.94
474.187	431.94
474.406	421.94
474.625	341.94
474.844	318.94
475.063	316.94
475.282	286.94
475.501	295.94
475.72	309.94
475.939	311.94
476.158	301.94
476.377	302.94
476.596	295.94
476.814	332.94
477.033	321.94
477.252	321.94
477.471	300.94
477.69	327.94
477.908	309.94
478.127	327.94
478.346	326.94
478.564	328.94
478.783	331.94
479.002	346.94
479.22	345.94
479.439	339.94
479.658	331.94
479.876	374.94
480.095	365.94
480.313	366.94
480.532	388.94
480.751	361.94
480.969	369.94
481.188	427.94
481.406	432.94
481.624	388.94
481.843	372.94
482.061	363.94
482.28	350.94
482.498	341.94
482.717	360.94
482.935	351.94
483.153	347.94
483.372	356.94
483.59	369.94
483.808	371.94
484.027	351.94
484.245	329.94
484.463	363.94
484.681	373.94
484.9	349.94
485.118	354.94
485.336	359.94
485.554	361.94
485.772	348.94
485.99	349.94
486.209	353.94
486.427	384.94
486.645	383.94
486.863	401.94
487.081	399.94
487.299	372.94
487.517	374.94
487.735	374.94
487.953	374.94
488.171	387.94
488.389	383.94
488.607	391.94
488.825	389.94
489.043	378.94
489.261	378.94
489.479	389.94
489.696	364.94
489.914	374.94
490.132	385.94
490.35	399.94
490.568	403.94
490.786	414.94
491.003	412.94
491.221	417.94
491.439	426.94
491.657	423.94
491.874	421.94
492.092	435.94
492.31	433.94
492.527	438.94
492.745	437.94
492.963	444.94
493.18	445.94
493.398	446.94
493.615	433.94
493.833	431.94
494.05	443.94
494.268	442.94
494.485	433.94
494.703	441.94
494.92	427.94
495.138	425.94
495.355	440.94
495.573	442.94
495.79	455.94
496.008	436.94
496.225	458.94
496.442	439.94
496.66	449.94
496.877	437.94
497.094	472.94
497.312	455.94
497.529	435.94
497.746	453.94
497.963	468.94
498.181	473.94
498.398	473.94
498.615	491.94
498.832	467.94
499.049	464.94
499.267	492.94
499.484	483.94
499.701	484.94
499.918	536.94
500.135	535.94
500.352	531.94
500.569	542.94
500.786	558.94
501.003	538.94
501.22	539.94
501.437	531.94
501.654	546.94
501.871	541.94
502.088	519.94
