Data from 1982.PennyLincolnUp.Lamp.En5.5.200Scan.071819.P1_HRD10591_16-46-42-962.txt Node
Date: Thu Jul 18 16:46:42 EDT 2019
User: cochatt
Spectrometer: HR+D1059
Trigger mode: 1
Integration Time (sec): 1.000000E-1
Scans to average: 1
Electric dark correction enabled: true
Nonlinearity correction enabled: false
Boxcar width: 0
XAxis mode: Wavelengths
Number of Pixels in Spectrum: 2048
>>>>>Begin Spectral Data<<<<<
223.165	-17.25
223.4	-17.25
223.635	-17.25
223.869	-24.25
224.104	-11.25
224.338	-0.25
224.573	-11.25
224.808	-14.25
225.042	-0.25
225.277	-19.25
225.511	-13.25
225.746	0.75
225.98	2.75
226.215	-2.25
226.449	23.75
226.683	15.75
226.918	33.75
227.152	36.75
227.387	45.75
227.621	41.75
227.856	45.75
228.09	40.75
228.324	39.75
228.559	44.75
228.793	58.75
229.027	83.75
229.262	91.75
229.496	79.75
229.73	121.75
229.964	118.75
230.199	123.75
230.433	104.75
230.667	110.75
230.901	92.75
231.136	97.75
231.37	89.75
231.604	89.75
231.838	116.75
232.072	97.75
232.306	113.75
232.541	112.75
232.775	107.75
233.009	87.75
233.243	100.75
233.477	98.75
233.711	105.75
233.945	113.75
234.179	113.75
234.413	101.75
234.647	98.75
234.881	102.75
235.115	106.75
235.349	109.75
235.583	109.75
235.817	114.75
236.051	121.75
236.285	110.75
236.519	109.75
236.753	105.75
236.987	125.75
237.221	159.75
237.455	196.75
237.689	163.75
237.922	135.75
238.156	117.75
238.39	106.75
238.624	116.75
238.858	120.75
239.091	113.75
239.325	113.75
239.559	108.75
239.793	105.75
240.027	109.75
240.26	122.75
240.494	143.75
240.728	132.75
240.961	140.75
241.195	145.75
241.429	126.75
241.662	89.75
241.896	92.75
242.13	114.75
242.363	103.75
242.597	125.75
242.83	109.75
243.064	119.75
243.298	117.75
243.531	114.75
243.765	113.75
243.998	105.75
244.232	115.75
244.465	106.75
244.699	115.75
244.932	127.75
245.166	116.75
245.399	115.75
245.633	118.75
245.866	127.75
246.099	130.75
246.333	114.75
246.566	123.75
246.8	125.75
247.033	127.75
247.266	124.75
247.5	147.75
247.733	148.75
247.966	131.75
248.2	137.75
248.433	142.75
248.666	149.75
248.899	153.75
249.133	154.75
249.366	149.75
249.599	153.75
249.832	155.75
250.066	163.75
250.299	149.75
250.532	151.75
250.765	158.75
250.998	177.75
251.231	186.75
251.465	185.75
251.698	161.75
251.931	163.75
252.164	169.75
252.397	156.75
252.63	149.75
252.863	165.75
253.096	177.75
253.329	185.75
253.562	172.75
253.795	181.75
254.028	167.75
254.261	161.75
254.494	180.75
254.727	213.75
254.96	225.75
255.193	207.75
255.426	190.75
255.659	179.75
255.892	188.75
256.124	185.75
256.357	182.75
256.59	177.75
256.823	172.75
257.056	157.75
257.289	170.75
257.521	152.75
257.754	162.75
257.987	163.75
258.22	190.75
258.452	167.75
258.685	171.75
258.918	164.75
259.151	179.75
259.383	184.75
259.616	171.75
259.849	194.75
260.081	200.75
260.314	183.75
260.547	182.75
260.779	192.75
261.012	197.75
261.244	193.75
261.477	180.75
261.71	169.75
261.942	194.75
262.175	178.75
262.407	179.75
262.64	172.75
262.872	165.75
263.105	165.75
263.337	168.75
263.57	171.75
263.802	171.75
264.035	158.75
264.267	181.75
264.499	175.75
264.732	177.75
264.964	157.75
265.197	168.75
265.429	162.75
265.661	167.75
265.894	187.75
266.126	169.75
266.358	177.75
266.591	158.75
266.823	185.75
267.055	174.75
267.287	192.75
267.52	172.75
267.752	181.75
267.984	182.75
268.216	197.75
268.448	187.75
268.681	189.75
268.913	197.75
269.145	198.75
269.377	221.75
269.609	197.75
269.841	203.75
270.073	220.75
270.306	223.75
270.538	254.75
270.77	248.75
271.002	230.75
271.234	226.75
271.466	228.75
271.698	257.75
271.93	259.75
272.162	239.75
272.394	259.75
272.626	231.75
272.858	211.75
273.09	227.75
273.322	229.75
273.553	215.75
273.785	207.75
274.017	212.75
274.249	196.75
274.481	214.75
274.713	224.75
274.945	221.75
275.176	208.75
275.408	203.75
275.64	200.75
275.872	193.75
276.104	209.75
276.335	207.75
276.567	223.75
276.799	215.75
277.031	230.75
277.262	250.75
277.494	259.75
277.726	234.75
277.957	223.75
278.189	214.75
278.421	203.75
278.652	222.75
278.884	196.75
279.115	219.75
279.347	215.75
279.579	211.75
279.81	206.75
280.042	199.75
280.273	206.75
280.505	218.75
280.736	210.75
280.968	210.75
281.199	212.75
281.431	207.75
281.662	209.75
281.894	202.75
282.125	229.75
282.356	243.75
282.588	222.75
282.819	227.75
283.051	222.75
283.282	197.75
283.513	223.75
283.745	207.75
283.976	235.75
284.207	230.75
284.439	209.75
284.67	213.75
284.901	225.75
285.132	221.75
285.364	201.75
285.595	213.75
285.826	198.75
286.057	212.75
286.288	229.75
286.52	224.75
286.751	218.75
286.982	216.75
287.213	200.75
287.444	229.75
287.675	222.75
287.906	216.75
288.138	227.75
288.369	226.75
288.6	222.75
288.831	224.75
289.062	229.75
289.293	230.75
289.524	231.75
289.755	210.75
289.986	211.75
290.217	222.75
290.448	215.75
290.679	221.75
290.91	209.75
291.141	223.75
291.371	223.75
291.602	219.75
291.833	208.75
292.064	221.75
292.295	217.75
292.526	217.75
292.757	210.75
292.987	222.75
293.218	227.75
293.449	235.75
293.68	208.75
293.91	205.75
294.141	216.75
294.372	232.75
294.603	228.75
294.833	220.75
295.064	233.75
295.295	217.75
295.525	220.75
295.756	243.75
295.987	228.75
296.217	241.75
296.448	253.75
296.679	234.75
296.909	224.75
297.14	226.75
297.37	219.75
297.601	217.75
297.831	213.75
298.062	221.75
298.292	235.75
298.523	229.75
298.753	243.75
298.984	215.75
299.214	235.75
299.445	233.75
299.675	240.75
299.905	241.75
300.136	241.75
300.366	235.75
300.597	233.75
300.827	257.75
301.057	233.75
301.288	251.75
301.518	251.75
301.748	248.75
301.979	261.75
302.209	245.75
302.439	255.75
302.669	260.75
302.9	250.75
303.13	268.75
303.36	237.75
303.59	229.75
303.82	253.75
304.051	257.75
304.281	244.75
304.511	250.75
304.741	239.75
304.971	251.75
305.201	231.75
305.431	255.75
305.661	233.75
305.891	248.75
306.121	261.75
306.352	261.75
306.582	259.75
306.812	269.75
307.042	248.75
307.272	253.75
307.502	253.75
307.731	261.75
307.961	243.75
308.191	249.75
308.421	277.75
308.651	264.75
308.881	272.75
309.111	255.75
309.341	262.75
309.571	265.75
309.8	275.75
310.03	277.75
310.26	280.75
310.49	284.75
310.72	291.75
310.949	295.75
311.179	299.75
311.409	290.75
311.639	290.75
311.868	285.75
312.098	290.75
312.328	300.75
312.557	307.75
312.787	321.75
313.017	309.75
313.246	278.75
313.476	291.75
313.706	294.75
313.935	277.75
314.165	305.75
314.394	309.75
314.624	302.75
314.853	300.75
315.083	294.75
315.312	297.75
315.542	289.75
315.771	279.75
316.001	291.75
316.23	281.75
316.46	281.75
316.689	299.75
316.919	292.75
317.148	293.75
317.377	310.75
317.607	273.75
317.836	294.75
318.065	299.75
318.295	287.75
318.524	291.75
318.753	279.75
318.983	293.75
319.212	290.75
319.441	297.75
319.67	290.75
319.9	290.75
320.129	289.75
320.358	295.75
320.587	305.75
320.816	300.75
321.046	286.75
321.275	302.75
321.504	306.75
321.733	322.75
321.962	330.75
322.191	339.75
322.42	339.75
322.649	367.75
322.878	369.75
323.108	379.75
323.337	387.75
323.566	393.75
323.795	443.75
324.024	488.75
324.253	595.75
324.482	897.75
324.71	1318.75
324.939	1765.75
325.168	1398.75
325.397	779.75
325.626	535.75
325.855	436.75
326.084	387.75
326.313	403.75
326.542	398.75
326.77	473.75
326.999	564.75
327.228	797.75
327.457	1139.75
327.686	1284.75
327.914	841.75
328.143	565.75
328.372	509.75
328.6	457.75
328.829	445.75
329.058	452.75
329.287	447.75
329.515	436.75
329.744	397.75
329.972	412.75
330.201	402.75
330.43	440.75
330.658	480.75
330.887	489.75
331.115	434.75
331.344	410.75
331.572	383.75
331.801	376.75
332.03	381.75
332.258	358.75
332.486	348.75
332.715	339.75
332.943	342.75
333.172	339.75
333.4	335.75
333.629	358.75
333.857	351.75
334.085	357.75
334.314	379.75
334.542	383.75
334.771	404.75
334.999	366.75
335.227	352.75
335.455	327.75
335.684	309.75
335.912	333.75
336.14	325.75
336.369	327.75
336.597	348.75
336.825	326.75
337.053	331.75
337.281	347.75
337.51	321.75
337.738	332.75
337.966	329.75
338.194	326.75
338.422	314.75
338.65	324.75
338.878	324.75
339.106	299.75
339.334	319.75
339.562	319.75
339.79	306.75
340.018	319.75
340.246	328.75
340.474	305.75
340.702	329.75
340.93	316.75
341.158	329.75
341.386	303.75
341.614	328.75
341.842	307.75
342.07	328.75
342.298	311.75
342.526	298.75
342.754	279.75
342.981	291.75
343.209	309.75
343.437	297.75
343.665	282.75
343.893	317.75
344.12	335.75
344.348	319.75
344.576	324.75
344.804	301.75
345.031	321.75
345.259	332.75
345.487	322.75
345.714	312.75
345.942	301.75
346.17	301.75
346.397	307.75
346.625	290.75
346.853	305.75
347.08	299.75
347.308	322.75
347.535	313.75
347.763	340.75
347.99	316.75
348.218	319.75
348.445	321.75
348.673	320.75
348.9	306.75
349.128	301.75
349.355	294.75
349.583	291.75
349.81	291.75
350.037	295.75
350.265	291.75
350.492	294.75
350.72	302.75
350.947	337.75
351.174	313.75
351.402	312.75
351.629	315.75
351.856	297.75
352.083	319.75
352.311	315.75
352.538	309.75
352.765	334.75
352.992	298.75
353.22	311.75
353.447	306.75
353.674	303.75
353.901	269.75
354.128	302.75
354.355	261.75
354.583	279.75
354.81	281.75
355.037	288.75
355.264	277.75
355.491	257.75
355.718	285.75
355.945	279.75
356.172	262.75
356.399	263.75
356.626	290.75
356.853	283.75
357.08	269.75
357.307	277.75
357.534	280.75
357.761	277.75
357.988	271.75
358.215	284.75
358.441	287.75
358.668	278.75
358.895	293.75
359.122	281.75
359.349	296.75
359.576	292.75
359.802	310.75
360.029	332.75
360.256	336.75
360.483	321.75
360.709	309.75
360.936	305.75
361.163	309.75
361.39	308.75
361.616	305.75
361.843	301.75
362.07	305.75
362.296	312.75
362.523	298.75
362.749	306.75
362.976	303.75
363.203	286.75
363.429	286.75
363.656	283.75
363.882	287.75
364.109	290.75
364.335	277.75
364.562	283.75
364.788	294.75
365.015	288.75
365.241	279.75
365.468	290.75
365.694	278.75
365.92	279.75
366.147	305.75
366.373	285.75
366.599	281.75
366.826	284.75
367.052	272.75
367.278	279.75
367.505	271.75
367.731	271.75
367.957	292.75
368.184	271.75
368.41	265.75
368.636	279.75
368.862	292.75
369.089	288.75
369.315	265.75
369.541	270.75
369.767	273.75
369.993	295.75
370.219	279.75
370.445	290.75
370.672	274.75
370.898	278.75
371.124	266.75
371.35	283.75
371.576	261.75
371.802	269.75
372.028	277.75
372.254	273.75
372.48	271.75
372.706	266.75
372.932	277.75
373.158	293.75
373.384	277.75
373.61	297.75
373.835	269.75
374.061	260.75
374.287	265.75
374.513	278.75
374.739	283.75
374.965	283.75
375.191	253.75
375.416	270.75
375.642	275.75
375.868	275.75
376.094	274.75
376.319	279.75
376.545	257.75
376.771	280.75
376.997	271.75
377.222	271.75
377.448	267.75
377.674	269.75
377.899	268.75
378.125	266.75
378.35	264.75
378.576	265.75
378.802	259.75
379.027	262.75
379.253	265.75
379.478	266.75
379.704	263.75
379.929	263.75
380.155	259.75
380.38	260.75
380.606	269.75
380.831	279.75
381.057	273.75
381.282	262.75
381.507	266.75
381.733	270.75
381.958	269.75
382.184	265.75
382.409	274.75
382.634	286.75
382.86	277.75
383.085	279.75
383.31	273.75
383.535	278.75
383.761	282.75
383.986	284.75
384.211	263.75
384.436	282.75
384.662	282.75
384.887	294.75
385.112	272.75
385.337	271.75
385.562	263.75
385.787	267.75
386.013	287.75
386.238	275.75
386.463	300.75
386.688	269.75
386.913	281.75
387.138	261.75
387.363	282.75
387.588	275.75
387.813	273.75
388.038	264.75
388.263	295.75
388.488	270.75
388.713	285.75
388.938	277.75
389.163	283.75
389.387	267.75
389.612	264.75
389.837	272.75
390.062	250.75
390.287	290.75
390.512	277.75
390.736	265.75
390.961	272.75
391.186	280.75
391.411	278.75
391.636	267.75
391.86	289.75
392.085	286.75
392.31	294.75
392.534	261.75
392.759	263.75
392.984	286.75
393.208	297.75
393.433	276.75
393.658	277.75
393.882	273.75
394.107	254.75
394.331	283.75
394.556	278.75
394.78	286.75
395.005	285.75
395.229	270.75
395.454	280.75
395.678	295.75
395.903	315.75
396.127	301.75
396.352	309.75
396.576	291.75
396.801	287.75
397.025	293.75
397.249	291.75
397.474	274.75
397.698	312.75
397.922	299.75
398.147	315.75
398.371	294.75
398.595	323.75
398.82	317.75
399.044	309.75
399.268	322.75
399.492	317.75
399.717	342.75
399.941	359.75
400.165	355.75
400.389	373.75
400.613	339.75
400.837	327.75
401.062	307.75
401.286	322.75
401.51	323.75
401.734	309.75
401.958	329.75
402.182	317.75
402.406	309.75
402.63	321.75
402.854	306.75
403.078	318.75
403.302	324.75
403.526	314.75
403.75	316.75
403.974	309.75
404.198	315.75
404.422	307.75
404.645	329.75
404.869	332.75
405.093	348.75
405.317	374.75
405.541	399.75
405.765	356.75
405.988	363.75
406.212	351.75
406.436	373.75
406.66	361.75
406.883	355.75
407.107	356.75
407.331	380.75
407.555	409.75
407.778	423.75
408.002	395.75
408.226	346.75
408.449	350.75
408.673	354.75
408.896	369.75
409.12	404.75
409.344	364.75
409.567	316.75
409.791	306.75
410.014	317.75
410.238	332.75
410.461	316.75
410.685	326.75
410.908	323.75
411.132	351.75
411.355	363.75
411.578	349.75
411.802	338.75
412.025	341.75
412.249	318.75
412.472	343.75
412.695	348.75
412.919	342.75
413.142	343.75
413.365	330.75
413.589	305.75
413.812	291.75
414.035	284.75
414.258	318.75
414.482	277.75
414.705	303.75
414.928	294.75
415.151	286.75
415.374	303.75
415.597	297.75
415.821	321.75
416.044	292.75
416.267	286.75
416.49	289.75
416.713	297.75
416.936	308.75
417.159	305.75
417.382	298.75
417.605	304.75
417.828	302.75
418.051	302.75
418.274	312.75
418.497	296.75
418.72	313.75
418.943	285.75
419.166	298.75
419.389	317.75
419.611	309.75
419.834	328.75
420.057	315.75
420.28	314.75
420.503	312.75
420.726	340.75
420.948	332.75
421.171	359.75
421.394	362.75
421.617	343.75
421.839	326.75
422.062	341.75
422.285	332.75
422.507	356.75
422.73	394.75
422.953	387.75
423.175	346.75
423.398	333.75
423.621	336.75
423.843	342.75
424.066	344.75
424.288	332.75
424.511	345.75
424.733	383.75
424.956	440.75
425.178	419.75
425.401	416.75
425.623	430.75
425.846	357.75
426.068	363.75
426.291	355.75
426.513	356.75
426.735	353.75
426.958	390.75
427.18	429.75
427.402	510.75
427.625	577.75
427.847	509.75
428.069	439.75
428.292	392.75
428.514	360.75
428.736	334.75
428.958	319.75
429.181	310.75
429.403	296.75
429.625	321.75
429.847	357.75
430.069	381.75
430.292	398.75
430.514	338.75
430.736	317.75
430.958	317.75
431.18	303.75
431.402	291.75
431.624	285.75
431.846	296.75
432.068	293.75
432.29	297.75
432.512	297.75
432.734	302.75
432.956	310.75
433.178	303.75
433.4	322.75
433.622	309.75
433.844	289.75
434.066	315.75
434.287	313.75
434.509	300.75
434.731	299.75
434.953	316.75
435.175	327.75
435.397	346.75
435.618	362.75
435.84	364.75
436.062	420.75
436.284	478.75
436.505	411.75
436.727	354.75
436.949	343.75
437.17	334.75
437.392	321.75
437.614	338.75
437.835	354.75
438.057	437.75
438.278	482.75
438.5	490.75
438.721	518.75
438.943	495.75
439.165	402.75
439.386	349.75
439.608	337.75
439.829	373.75
440.05	388.75
440.272	403.75
440.493	373.75
440.715	339.75
440.936	323.75
441.158	316.75
441.379	326.75
441.6	309.75
441.822	357.75
442.043	386.75
442.264	427.75
442.486	420.75
442.707	361.75
442.928	375.75
443.149	370.75
443.371	389.75
443.592	412.75
443.813	445.75
444.034	493.75
444.255	399.75
444.476	343.75
444.698	343.75
444.919	343.75
445.14	430.75
445.361	395.75
445.582	380.75
445.803	438.75
446.024	489.75
446.245	487.75
446.466	452.75
446.687	395.75
446.908	346.75
447.129	317.75
447.35	335.75
447.571	327.75
447.792	307.75
448.013	327.75
448.234	353.75
448.455	396.75
448.675	451.75
448.896	509.75
449.117	437.75
449.338	422.75
449.559	486.75
449.779	522.75
450	426.75
450.221	348.75
450.442	348.75
450.662	326.75
450.883	329.75
451.104	350.75
451.324	341.75
451.545	320.75
451.766	297.75
451.986	302.75
452.207	309.75
452.428	313.75
452.648	315.75
452.869	295.75
453.089	291.75
453.31	314.75
453.53	307.75
453.751	289.75
453.971	301.75
454.192	309.75
454.412	315.75
454.633	298.75
454.853	279.75
455.073	298.75
455.294	318.75
455.514	363.75
455.734	345.75
455.955	294.75
456.175	261.75
456.395	295.75
456.616	268.75
456.836	261.75
457.056	271.75
457.276	272.75
457.497	270.75
457.717	291.75
457.937	281.75
458.157	264.75
458.377	284.75
458.598	305.75
458.818	359.75
459.038	394.75
459.258	401.75
459.478	336.75
459.698	311.75
459.918	296.75
460.138	307.75
460.358	306.75
460.578	308.75
460.798	290.75
461.018	308.75
461.238	297.75
461.458	300.75
461.678	301.75
461.898	310.75
462.118	297.75
462.338	281.75
462.558	314.75
462.777	305.75
462.997	317.75
463.217	307.75
463.437	328.75
463.657	319.75
463.876	305.75
464.096	305.75
464.316	305.75
464.536	310.75
464.755	314.75
464.975	311.75
465.195	369.75
465.414	391.75
465.634	354.75
465.854	329.75
466.073	301.75
466.293	299.75
466.512	297.75
466.732	276.75
466.951	292.75
467.171	266.75
467.391	271.75
467.61	300.75
467.829	310.75
468.049	300.75
468.268	283.75
468.488	293.75
468.707	277.75
468.927	279.75
469.146	275.75
469.365	287.75
469.585	271.75
469.804	281.75
470.023	316.75
470.243	284.75
470.462	318.75
470.681	308.75
470.901	317.75
471.12	297.75
471.339	293.75
471.558	300.75
471.777	286.75
471.997	299.75
472.216	312.75
472.435	326.75
472.654	310.75
472.873	309.75
473.092	290.75
473.311	308.75
473.53	302.75
473.749	311.75
473.968	355.75
474.187	412.75
474.406	399.75
474.625	347.75
474.844	293.75
475.063	296.75
475.282	319.75
475.501	316.75
475.72	301.75
475.939	320.75
476.158	307.75
476.377	309.75
476.596	301.75
476.814	299.75
477.033	315.75
477.252	298.75
477.471	308.75
477.69	301.75
477.908	299.75
478.127	325.75
478.346	308.75
478.564	321.75
478.783	325.75
479.002	328.75
479.22	330.75
479.439	355.75
479.658	346.75
479.876	344.75
480.095	359.75
480.313	370.75
480.532	363.75
480.751	350.75
480.969	372.75
481.188	421.75
481.406	414.75
481.624	381.75
481.843	369.75
482.061	339.75
482.28	335.75
482.498	347.75
482.717	343.75
482.935	347.75
483.153	328.75
483.372	352.75
483.59	341.75
483.808	335.75
484.027	333.75
484.245	329.75
484.463	333.75
484.681	357.75
484.9	336.75
485.118	354.75
485.336	358.75
485.554	340.75
485.772	334.75
485.99	361.75
486.209	343.75
486.427	357.75
486.645	358.75
486.863	379.75
487.081	383.75
487.299	381.75
487.517	377.75
487.735	363.75
487.953	383.75
488.171	368.75
488.389	366.75
488.607	383.75
488.825	371.75
489.043	373.75
489.261	377.75
489.479	387.75
489.696	380.75
489.914	368.75
490.132	393.75
490.35	379.75
490.568	379.75
490.786	387.75
491.003	398.75
491.221	405.75
491.439	419.75
491.657	400.75
491.874	410.75
492.092	419.75
492.31	395.75
492.527	426.75
492.745	442.75
492.963	427.75
493.18	421.75
493.398	447.75
493.615	436.75
493.833	438.75
494.05	438.75
494.268	433.75
494.485	426.75
494.703	457.75
494.92	437.75
495.138	452.75
495.355	426.75
495.573	423.75
495.79	433.75
496.008	447.75
496.225	423.75
496.442	428.75
496.66	446.75
496.877	435.75
497.094	437.75
497.312	432.75
497.529	442.75
497.746	461.75
497.963	463.75
498.181	459.75
498.398	478.75
498.615	465.75
498.832	483.75
499.049	476.75
499.267	475.75
499.484	466.75
499.701	479.75
499.918	515.75
500.135	487.75
500.352	521.75
500.569	533.75
500.786	535.75
501.003	539.75
501.22	532.75
501.437	516.75
501.654	520.75
501.871	522.75
502.088	505.75
