Data from 1982.PennyLincolnUp.Lamp.En5.5.200Scan.071819.P1_HRD10591_16-45-51-962.txt Node
Date: Thu Jul 18 16:45:51 EDT 2019
User: cochatt
Spectrometer: HR+D1059
Trigger mode: 1
Integration Time (sec): 1.000000E-1
Scans to average: 1
Electric dark correction enabled: true
Nonlinearity correction enabled: false
Boxcar width: 0
XAxis mode: Wavelengths
Number of Pixels in Spectrum: 2048
>>>>>Begin Spectral Data<<<<<
223.165	-17.81
223.4	-17.81
223.635	-17.81
223.869	-37.81
224.104	-14.81
224.338	-23.81
224.573	-21.81
224.808	1.19
225.042	-8.81
225.277	-9.81
225.511	-4.81
225.746	5.19
225.98	5.19
226.215	29.19
226.449	18.19
226.683	19.19
226.918	25.19
227.152	36.19
227.387	42.19
227.621	31.19
227.856	36.19
228.09	43.19
228.324	48.19
228.559	64.19
228.793	71.19
229.027	79.19
229.262	92.19
229.496	101.19
229.73	96.19
229.964	117.19
230.199	104.19
230.433	90.19
230.667	109.19
230.901	110.19
231.136	96.19
231.37	113.19
231.604	91.19
231.838	90.19
232.072	94.19
232.306	106.19
232.541	90.19
232.775	106.19
233.009	113.19
233.243	91.19
233.477	100.19
233.711	107.19
233.945	101.19
234.179	114.19
234.413	113.19
234.647	96.19
234.881	98.19
235.115	93.19
235.349	106.19
235.583	101.19
235.817	110.19
236.051	107.19
236.285	111.19
236.519	92.19
236.753	104.19
236.987	103.19
237.221	153.19
237.455	167.19
237.689	147.19
237.922	113.19
238.156	119.19
238.39	111.19
238.624	103.19
238.858	107.19
239.091	96.19
239.325	106.19
239.559	104.19
239.793	122.19
240.027	105.19
240.26	131.19
240.494	115.19
240.728	116.19
240.961	114.19
241.195	113.19
241.429	113.19
241.662	113.19
241.896	112.19
242.13	113.19
242.363	109.19
242.597	117.19
242.83	107.19
243.064	120.19
243.298	107.19
243.531	116.19
243.765	107.19
243.998	119.19
244.232	107.19
244.465	119.19
244.699	135.19
244.932	119.19
245.166	120.19
245.399	122.19
245.633	123.19
245.866	122.19
246.099	100.19
246.333	119.19
246.566	122.19
246.8	130.19
247.033	121.19
247.266	129.19
247.5	126.19
247.733	133.19
247.966	117.19
248.2	145.19
248.433	135.19
248.666	138.19
248.899	162.19
249.133	140.19
249.366	188.19
249.599	163.19
249.832	142.19
250.066	141.19
250.299	144.19
250.532	149.19
250.765	144.19
250.998	164.19
251.231	167.19
251.465	164.19
251.698	144.19
251.931	158.19
252.164	153.19
252.397	158.19
252.63	175.19
252.863	166.19
253.096	179.19
253.329	153.19
253.562	164.19
253.795	168.19
254.028	161.19
254.261	163.19
254.494	181.19
254.727	201.19
254.96	205.19
255.193	214.19
255.426	207.19
255.659	191.19
255.892	168.19
256.124	191.19
256.357	190.19
256.59	171.19
256.823	170.19
257.056	161.19
257.289	156.19
257.521	165.19
257.754	170.19
257.987	162.19
258.22	150.19
258.452	165.19
258.685	152.19
258.918	154.19
259.151	162.19
259.383	156.19
259.616	165.19
259.849	197.19
260.081	185.19
260.314	207.19
260.547	199.19
260.779	173.19
261.012	178.19
261.244	177.19
261.477	191.19
261.71	152.19
261.942	181.19
262.175	184.19
262.407	196.19
262.64	166.19
262.872	169.19
263.105	158.19
263.337	178.19
263.57	181.19
263.802	167.19
264.035	160.19
264.267	157.19
264.499	158.19
264.732	163.19
264.964	170.19
265.197	166.19
265.429	173.19
265.661	166.19
265.894	165.19
266.126	168.19
266.358	163.19
266.591	165.19
266.823	179.19
267.055	164.19
267.287	175.19
267.52	183.19
267.752	168.19
267.984	181.19
268.216	177.19
268.448	174.19
268.681	171.19
268.913	197.19
269.145	199.19
269.377	200.19
269.609	214.19
269.841	202.19
270.073	203.19
270.306	223.19
270.538	230.19
270.77	239.19
271.002	244.19
271.234	228.19
271.466	216.19
271.698	235.19
271.93	230.19
272.162	242.19
272.394	253.19
272.626	240.19
272.858	233.19
273.09	219.19
273.322	216.19
273.553	190.19
273.785	196.19
274.017	191.19
274.249	188.19
274.481	202.19
274.713	213.19
274.945	209.19
275.176	209.19
275.408	193.19
275.64	193.19
275.872	197.19
276.104	199.19
276.335	212.19
276.567	210.19
276.799	217.19
277.031	225.19
277.262	233.19
277.494	212.19
277.726	232.19
277.957	226.19
278.189	209.19
278.421	202.19
278.652	217.19
278.884	216.19
279.115	198.19
279.347	207.19
279.579	198.19
279.81	210.19
280.042	189.19
280.273	179.19
280.505	183.19
280.736	202.19
280.968	186.19
281.199	201.19
281.431	192.19
281.662	208.19
281.894	202.19
282.125	207.19
282.356	207.19
282.588	232.19
282.819	229.19
283.051	201.19
283.282	210.19
283.513	208.19
283.745	215.19
283.976	223.19
284.207	197.19
284.439	214.19
284.67	203.19
284.901	210.19
285.132	212.19
285.364	210.19
285.595	211.19
285.826	215.19
286.057	226.19
286.288	197.19
286.52	199.19
286.751	214.19
286.982	213.19
287.213	216.19
287.444	221.19
287.675	211.19
287.906	211.19
288.138	216.19
288.369	225.19
288.6	224.19
288.831	217.19
289.062	208.19
289.293	229.19
289.524	224.19
289.755	217.19
289.986	194.19
290.217	222.19
290.448	199.19
290.679	226.19
290.91	225.19
291.141	225.19
291.371	210.19
291.602	203.19
291.833	208.19
292.064	190.19
292.295	211.19
292.526	208.19
292.757	209.19
292.987	213.19
293.218	213.19
293.449	213.19
293.68	224.19
293.91	205.19
294.141	218.19
294.372	211.19
294.603	213.19
294.833	225.19
295.064	218.19
295.295	213.19
295.525	224.19
295.756	218.19
295.987	228.19
296.217	234.19
296.448	237.19
296.679	224.19
296.909	215.19
297.14	216.19
297.37	219.19
297.601	234.19
297.831	215.19
298.062	222.19
298.292	229.19
298.523	225.19
298.753	222.19
298.984	221.19
299.214	222.19
299.445	223.19
299.675	218.19
299.905	230.19
300.136	226.19
300.366	242.19
300.597	229.19
300.827	234.19
301.057	250.19
301.288	233.19
301.518	234.19
301.748	217.19
301.979	231.19
302.209	247.19
302.439	246.19
302.669	228.19
302.9	249.19
303.13	234.19
303.36	247.19
303.59	236.19
303.82	251.19
304.051	245.19
304.281	234.19
304.511	242.19
304.741	223.19
304.971	236.19
305.201	233.19
305.431	229.19
305.661	238.19
305.891	237.19
306.121	241.19
306.352	242.19
306.582	244.19
306.812	244.19
307.042	242.19
307.272	242.19
307.502	248.19
307.731	268.19
307.961	253.19
308.191	242.19
308.421	251.19
308.651	245.19
308.881	249.19
309.111	248.19
309.341	256.19
309.571	270.19
309.8	261.19
310.03	272.19
310.26	276.19
310.49	275.19
310.72	287.19
310.949	295.19
311.179	286.19
311.409	293.19
311.639	284.19
311.868	274.19
312.098	275.19
312.328	286.19
312.557	283.19
312.787	315.19
313.017	305.19
313.246	279.19
313.476	279.19
313.706	255.19
313.935	267.19
314.165	286.19
314.394	297.19
314.624	285.19
314.853	283.19
315.083	279.19
315.312	267.19
315.542	270.19
315.771	262.19
316.001	279.19
316.23	298.19
316.46	261.19
316.689	271.19
316.919	288.19
317.148	288.19
317.377	297.19
317.607	293.19
317.836	288.19
318.065	257.19
318.295	281.19
318.524	285.19
318.753	280.19
318.983	270.19
319.212	283.19
319.441	281.19
319.67	296.19
319.9	286.19
320.129	284.19
320.358	303.19
320.587	289.19
320.816	280.19
321.046	301.19
321.275	306.19
321.504	294.19
321.733	297.19
321.962	305.19
322.191	309.19
322.42	314.19
322.649	327.19
322.878	347.19
323.108	366.19
323.337	373.19
323.566	402.19
323.795	391.19
324.024	455.19
324.253	574.19
324.482	814.19
324.71	1247.19
324.939	1590.19
325.168	1325.19
325.397	705.19
325.626	467.19
325.855	418.19
326.084	394.19
326.313	373.19
326.542	394.19
326.77	437.19
326.999	517.19
327.228	688.19
327.457	1009.19
327.686	1167.19
327.914	755.19
328.143	527.19
328.372	469.19
328.6	438.19
328.829	410.19
329.058	430.19
329.287	426.19
329.515	380.19
329.744	375.19
329.972	370.19
330.201	399.19
330.43	407.19
330.658	411.19
330.887	437.19
331.115	410.19
331.344	362.19
331.572	370.19
331.801	338.19
332.03	358.19
332.258	334.19
332.486	334.19
332.715	314.19
332.943	319.19
333.172	330.19
333.4	315.19
333.629	333.19
333.857	333.19
334.085	331.19
334.314	337.19
334.542	347.19
334.771	379.19
334.999	330.19
335.227	319.19
335.455	345.19
335.684	332.19
335.912	321.19
336.14	306.19
336.369	312.19
336.597	319.19
336.825	332.19
337.053	327.19
337.281	310.19
337.51	311.19
337.738	304.19
337.966	322.19
338.194	314.19
338.422	321.19
338.65	297.19
338.878	308.19
339.106	315.19
339.334	283.19
339.562	313.19
339.79	290.19
340.018	313.19
340.246	293.19
340.474	314.19
340.702	317.19
340.93	298.19
341.158	300.19
341.386	290.19
341.614	306.19
341.842	325.19
342.07	312.19
342.298	308.19
342.526	285.19
342.754	287.19
342.981	293.19
343.209	278.19
343.437	305.19
343.665	312.19
343.893	294.19
344.12	320.19
344.348	311.19
344.576	314.19
344.804	307.19
345.031	304.19
345.259	321.19
345.487	335.19
345.714	320.19
345.942	301.19
346.17	297.19
346.397	286.19
346.625	305.19
346.853	295.19
347.08	305.19
347.308	294.19
347.535	313.19
347.763	301.19
347.99	295.19
348.218	317.19
348.445	293.19
348.673	276.19
348.9	290.19
349.128	282.19
349.355	286.19
349.583	271.19
349.81	280.19
350.037	289.19
350.265	282.19
350.492	299.19
350.72	267.19
350.947	280.19
351.174	295.19
351.402	296.19
351.629	274.19
351.856	303.19
352.083	311.19
352.311	319.19
352.538	295.19
352.765	313.19
352.992	301.19
353.22	304.19
353.447	282.19
353.674	284.19
353.901	294.19
354.128	284.19
354.355	279.19
354.583	268.19
354.81	296.19
355.037	259.19
355.264	294.19
355.491	272.19
355.718	266.19
355.945	290.19
356.172	287.19
356.399	273.19
356.626	266.19
356.853	249.19
357.08	273.19
357.307	269.19
357.534	262.19
357.761	261.19
357.988	239.19
358.215	275.19
358.441	275.19
358.668	283.19
358.895	267.19
359.122	258.19
359.349	271.19
359.576	302.19
359.802	316.19
360.029	315.19
360.256	341.19
360.483	307.19
360.709	284.19
360.936	309.19
361.163	291.19
361.39	304.19
361.616	305.19
361.843	296.19
362.07	282.19
362.296	293.19
362.523	297.19
362.749	266.19
362.976	295.19
363.203	289.19
363.429	273.19
363.656	271.19
363.882	265.19
364.109	285.19
364.335	278.19
364.562	286.19
364.788	271.19
365.015	258.19
365.241	270.19
365.468	295.19
365.694	290.19
365.92	289.19
366.147	293.19
366.373	280.19
366.599	280.19
366.826	269.19
367.052	278.19
367.278	281.19
367.505	273.19
367.731	256.19
367.957	274.19
368.184	281.19
368.41	290.19
368.636	282.19
368.862	280.19
369.089	279.19
369.315	269.19
369.541	280.19
369.767	254.19
369.993	286.19
370.219	275.19
370.445	284.19
370.672	267.19
370.898	262.19
371.124	273.19
371.35	255.19
371.576	277.19
371.802	263.19
372.028	274.19
372.254	277.19
372.48	259.19
372.706	277.19
372.932	283.19
373.158	258.19
373.384	251.19
373.61	274.19
373.835	263.19
374.061	243.19
374.287	262.19
374.513	266.19
374.739	257.19
374.965	296.19
375.191	268.19
375.416	272.19
375.642	254.19
375.868	261.19
376.094	255.19
376.319	263.19
376.545	261.19
376.771	259.19
376.997	266.19
377.222	261.19
377.448	250.19
377.674	258.19
377.899	266.19
378.125	260.19
378.35	249.19
378.576	260.19
378.802	267.19
379.027	271.19
379.253	272.19
379.478	259.19
379.704	261.19
379.929	256.19
380.155	273.19
380.38	281.19
380.606	274.19
380.831	248.19
381.057	274.19
381.282	279.19
381.507	277.19
381.733	262.19
381.958	250.19
382.184	275.19
382.409	265.19
382.634	245.19
382.86	272.19
383.085	258.19
383.31	255.19
383.535	266.19
383.761	266.19
383.986	271.19
384.211	267.19
384.436	265.19
384.662	267.19
384.887	290.19
385.112	275.19
385.337	246.19
385.562	257.19
385.787	279.19
386.013	290.19
386.238	278.19
386.463	285.19
386.688	281.19
386.913	279.19
387.138	271.19
387.363	284.19
387.588	267.19
387.813	264.19
388.038	273.19
388.263	266.19
388.488	285.19
388.713	268.19
388.938	282.19
389.163	269.19
389.387	268.19
389.612	281.19
389.837	286.19
390.062	248.19
390.287	281.19
390.512	261.19
390.736	287.19
390.961	283.19
391.186	292.19
391.411	291.19
391.636	284.19
391.86	265.19
392.085	269.19
392.31	280.19
392.534	289.19
392.759	280.19
392.984	282.19
393.208	299.19
393.433	286.19
393.658	281.19
393.882	264.19
394.107	285.19
394.331	272.19
394.556	273.19
394.78	265.19
395.005	279.19
395.229	271.19
395.454	282.19
395.678	263.19
395.903	282.19
396.127	275.19
396.352	309.19
396.576	285.19
396.801	287.19
397.025	273.19
397.249	290.19
397.474	271.19
397.698	293.19
397.922	310.19
398.147	297.19
398.371	292.19
398.595	314.19
398.82	292.19
399.044	311.19
399.268	311.19
399.492	332.19
399.717	330.19
399.941	340.19
400.165	351.19
400.389	377.19
400.613	325.19
400.837	309.19
401.062	338.19
401.286	325.19
401.51	316.19
401.734	311.19
401.958	309.19
402.182	306.19
402.406	328.19
402.63	318.19
402.854	285.19
403.078	310.19
403.302	317.19
403.526	303.19
403.75	314.19
403.974	325.19
404.198	303.19
404.422	324.19
404.645	319.19
404.869	308.19
405.093	335.19
405.317	346.19
405.541	366.19
405.765	334.19
405.988	356.19
406.212	339.19
406.436	352.19
406.66	344.19
406.883	345.19
407.107	356.19
407.331	388.19
407.555	410.19
407.778	410.19
408.002	369.19
408.226	342.19
408.449	333.19
408.673	351.19
408.896	367.19
409.12	371.19
409.344	356.19
409.567	339.19
409.791	310.19
410.014	315.19
410.238	305.19
410.461	301.19
410.685	307.19
410.908	330.19
411.132	339.19
411.355	382.19
411.578	353.19
411.802	311.19
412.025	311.19
412.249	331.19
412.472	328.19
412.695	346.19
412.919	324.19
413.142	324.19
413.365	317.19
413.589	305.19
413.812	292.19
414.035	298.19
414.258	300.19
414.482	310.19
414.705	304.19
414.928	303.19
415.151	295.19
415.374	291.19
415.597	299.19
415.821	320.19
416.044	276.19
416.267	294.19
416.49	301.19
416.713	277.19
416.936	296.19
417.159	288.19
417.382	297.19
417.605	303.19
417.828	299.19
418.051	310.19
418.274	311.19
418.497	305.19
418.72	297.19
418.943	282.19
419.166	311.19
419.389	329.19
419.611	318.19
419.834	290.19
420.057	318.19
420.28	308.19
420.503	302.19
420.726	315.19
420.948	327.19
421.171	344.19
421.394	371.19
421.617	319.19
421.839	309.19
422.062	325.19
422.285	328.19
422.507	351.19
422.73	400.19
422.953	375.19
423.175	357.19
423.398	328.19
423.621	323.19
423.843	330.19
424.066	345.19
424.288	345.19
424.511	356.19
424.733	378.19
424.956	425.19
425.178	409.19
425.401	415.19
425.623	409.19
425.846	373.19
426.068	340.19
426.291	337.19
426.513	342.19
426.735	351.19
426.958	370.19
427.18	399.19
427.402	519.19
427.625	551.19
427.847	511.19
428.069	427.19
428.292	366.19
428.514	336.19
428.736	331.19
428.958	310.19
429.181	314.19
429.403	305.19
429.625	311.19
429.847	351.19
430.069	379.19
430.292	365.19
430.514	323.19
430.736	319.19
430.958	321.19
431.18	313.19
431.402	306.19
431.624	273.19
431.846	302.19
432.068	296.19
432.29	291.19
432.512	303.19
432.734	317.19
432.956	313.19
433.178	298.19
433.4	330.19
433.622	304.19
433.844	290.19
434.066	299.19
434.287	290.19
434.509	293.19
434.731	289.19
434.953	296.19
435.175	339.19
435.397	325.19
435.618	324.19
435.84	361.19
436.062	430.19
436.284	467.19
436.505	377.19
436.727	353.19
436.949	323.19
437.17	325.19
437.392	331.19
437.614	325.19
437.835	359.19
438.057	423.19
438.278	468.19
438.5	451.19
438.721	470.19
438.943	474.19
439.165	387.19
439.386	360.19
439.608	339.19
439.829	367.19
440.05	358.19
440.272	391.19
440.493	372.19
440.715	335.19
440.936	327.19
441.158	334.19
441.379	313.19
441.6	329.19
441.822	358.19
442.043	373.19
442.264	394.19
442.486	405.19
442.707	396.19
442.928	355.19
443.149	363.19
443.371	365.19
443.592	393.19
443.813	447.19
444.034	464.19
444.255	395.19
444.476	339.19
444.698	339.19
444.919	335.19
445.14	441.19
445.361	391.19
445.582	373.19
445.803	410.19
446.024	481.19
446.245	464.19
446.466	422.19
446.687	375.19
446.908	345.19
447.129	314.19
447.35	307.19
447.571	321.19
447.792	305.19
448.013	305.19
448.234	328.19
448.455	384.19
448.675	433.19
448.896	487.19
449.117	418.19
449.338	389.19
449.559	467.19
449.779	497.19
450	410.19
450.221	354.19
450.442	339.19
450.662	333.19
450.883	324.19
451.104	349.19
451.324	331.19
451.545	301.19
451.766	292.19
451.986	285.19
452.207	289.19
452.428	286.19
452.648	291.19
452.869	295.19
453.089	294.19
453.31	306.19
453.53	299.19
453.751	293.19
453.971	285.19
454.192	307.19
454.412	302.19
454.633	277.19
454.853	311.19
455.073	295.19
455.294	326.19
455.514	329.19
455.734	340.19
455.955	280.19
456.175	286.19
456.395	282.19
456.616	273.19
456.836	264.19
457.056	262.19
457.276	267.19
457.497	291.19
457.717	267.19
457.937	291.19
458.157	273.19
458.377	287.19
458.598	303.19
458.818	329.19
459.038	370.19
459.258	374.19
459.478	333.19
459.698	301.19
459.918	308.19
460.138	282.19
460.358	294.19
460.578	291.19
460.798	295.19
461.018	321.19
461.238	285.19
461.458	291.19
461.678	299.19
461.898	295.19
462.118	312.19
462.338	306.19
462.558	287.19
462.777	305.19
462.997	294.19
463.217	305.19
463.437	311.19
463.657	317.19
463.876	301.19
464.096	320.19
464.316	312.19
464.536	313.19
464.755	317.19
464.975	314.19
465.195	374.19
465.414	387.19
465.634	343.19
465.854	314.19
466.073	314.19
466.293	303.19
466.512	299.19
466.732	296.19
466.951	286.19
467.171	290.19
467.391	289.19
467.61	302.19
467.829	312.19
468.049	293.19
468.268	302.19
468.488	287.19
468.707	292.19
468.927	273.19
469.146	293.19
469.365	296.19
469.585	283.19
469.804	305.19
470.023	296.19
470.243	311.19
470.462	305.19
470.681	287.19
470.901	301.19
471.12	298.19
471.339	309.19
471.558	315.19
471.777	295.19
471.997	271.19
472.216	295.19
472.435	289.19
472.654	305.19
472.873	307.19
473.092	298.19
473.311	291.19
473.53	297.19
473.749	318.19
473.968	331.19
474.187	389.19
474.406	389.19
474.625	329.19
474.844	310.19
475.063	298.19
475.282	280.19
475.501	310.19
475.72	310.19
475.939	292.19
476.158	294.19
476.377	310.19
476.596	304.19
476.814	316.19
477.033	307.19
477.252	316.19
477.471	310.19
477.69	324.19
477.908	323.19
478.127	305.19
478.346	310.19
478.564	309.19
478.783	318.19
479.002	311.19
479.22	351.19
479.439	367.19
479.658	327.19
479.876	367.19
480.095	350.19
480.313	358.19
480.532	354.19
480.751	352.19
480.969	338.19
481.188	377.19
481.406	383.19
481.624	355.19
481.843	356.19
482.061	338.19
482.28	350.19
482.498	334.19
482.717	335.19
482.935	354.19
483.153	367.19
483.372	330.19
483.59	362.19
483.808	336.19
484.027	339.19
484.245	329.19
484.463	344.19
484.681	343.19
484.9	325.19
485.118	350.19
485.336	343.19
485.554	356.19
485.772	331.19
485.99	333.19
486.209	347.19
486.427	365.19
486.645	376.19
486.863	370.19
487.081	366.19
487.299	357.19
487.517	359.19
487.735	359.19
487.953	357.19
488.171	358.19
488.389	362.19
488.607	346.19
488.825	360.19
489.043	372.19
489.261	375.19
489.479	374.19
489.696	362.19
489.914	359.19
490.132	387.19
490.35	387.19
490.568	352.19
490.786	378.19
491.003	387.19
491.221	397.19
491.439	395.19
491.657	438.19
491.874	419.19
492.092	411.19
492.31	422.19
492.527	403.19
492.745	405.19
492.963	415.19
493.18	415.19
493.398	409.19
493.615	449.19
493.833	427.19
494.05	431.19
494.268	432.19
494.485	415.19
494.703	427.19
494.92	425.19
495.138	423.19
495.355	425.19
495.573	424.19
495.79	415.19
496.008	426.19
496.225	410.19
496.442	430.19
496.66	454.19
496.877	448.19
497.094	406.19
497.312	439.19
497.529	434.19
497.746	425.19
497.963	445.19
498.181	450.19
498.398	450.19
498.615	463.19
498.832	471.19
499.049	452.19
499.267	470.19
499.484	474.19
499.701	482.19
499.918	519.19
500.135	519.19
500.352	538.19
500.569	530.19
500.786	525.19
501.003	524.19
501.22	529.19
501.437	514.19
501.654	507.19
501.871	516.19
502.088	498.19
