Data from 1982.PennyLincolnUp.Lamp.En5.5.200Scan.071819.P1_HRD10591_16-47-22-962.txt Node
Date: Thu Jul 18 16:47:22 EDT 2019
User: cochatt
Spectrometer: HR+D1059
Trigger mode: 1
Integration Time (sec): 1.000000E-1
Scans to average: 1
Electric dark correction enabled: true
Nonlinearity correction enabled: false
Boxcar width: 0
XAxis mode: Wavelengths
Number of Pixels in Spectrum: 2048
>>>>>Begin Spectral Data<<<<<
223.165	-19.75
223.4	-19.75
223.635	-19.75
223.869	-18.75
224.104	-12.75
224.338	-6.75
224.573	-10.75
224.808	-15.75
225.042	-2.75
225.277	-7.75
225.511	-2.75
225.746	10.25
225.98	-2.75
226.215	9.25
226.449	1.25
226.683	11.25
226.918	37.25
227.152	31.25
227.387	38.25
227.621	36.25
227.856	52.25
228.09	47.25
228.324	46.25
228.559	65.25
228.793	70.25
229.027	85.25
229.262	98.25
229.496	123.25
229.73	105.25
229.964	119.25
230.199	113.25
230.433	112.25
230.667	101.25
230.901	107.25
231.136	101.25
231.37	81.25
231.604	101.25
231.838	112.25
232.072	104.25
232.306	102.25
232.541	106.25
232.775	101.25
233.009	116.25
233.243	91.25
233.477	100.25
233.711	104.25
233.945	92.25
234.179	88.25
234.413	100.25
234.647	96.25
234.881	107.25
235.115	96.25
235.349	108.25
235.583	105.25
235.817	97.25
236.051	108.25
236.285	108.25
236.519	102.25
236.753	102.25
236.987	129.25
237.221	157.25
237.455	181.25
237.689	157.25
237.922	129.25
238.156	108.25
238.39	111.25
238.624	101.25
238.858	122.25
239.091	113.25
239.325	121.25
239.559	106.25
239.793	123.25
240.027	108.25
240.26	114.25
240.494	133.25
240.728	132.25
240.961	118.25
241.195	132.25
241.429	119.25
241.662	118.25
241.896	123.25
242.13	123.25
242.363	115.25
242.597	106.25
242.83	106.25
243.064	111.25
243.298	112.25
243.531	114.25
243.765	125.25
243.998	120.25
244.232	111.25
244.465	117.25
244.699	100.25
244.932	111.25
245.166	126.25
245.399	121.25
245.633	119.25
245.866	120.25
246.099	114.25
246.333	127.25
246.566	121.25
246.8	126.25
247.033	116.25
247.266	119.25
247.5	119.25
247.733	137.25
247.966	136.25
248.2	132.25
248.433	146.25
248.666	134.25
248.899	155.25
249.133	158.25
249.366	158.25
249.599	162.25
249.832	167.25
250.066	146.25
250.299	160.25
250.532	157.25
250.765	175.25
250.998	176.25
251.231	185.25
251.465	181.25
251.698	159.25
251.931	167.25
252.164	153.25
252.397	161.25
252.63	180.25
252.863	170.25
253.096	177.25
253.329	175.25
253.562	168.25
253.795	172.25
254.028	165.25
254.261	182.25
254.494	193.25
254.727	204.25
254.96	220.25
255.193	198.25
255.426	208.25
255.659	188.25
255.892	178.25
256.124	179.25
256.357	181.25
256.59	185.25
256.823	174.25
257.056	187.25
257.289	165.25
257.521	170.25
257.754	157.25
257.987	158.25
258.22	172.25
258.452	149.25
258.685	165.25
258.918	168.25
259.151	162.25
259.383	168.25
259.616	172.25
259.849	169.25
260.081	192.25
260.314	200.25
260.547	212.25
260.779	204.25
261.012	193.25
261.244	194.25
261.477	181.25
261.71	183.25
261.942	183.25
262.175	196.25
262.407	196.25
262.64	176.25
262.872	180.25
263.105	166.25
263.337	169.25
263.57	169.25
263.802	167.25
264.035	157.25
264.267	172.25
264.499	185.25
264.732	164.25
264.964	170.25
265.197	161.25
265.429	164.25
265.661	178.25
265.894	170.25
266.126	183.25
266.358	167.25
266.591	187.25
266.823	183.25
267.055	169.25
267.287	181.25
267.52	155.25
267.752	179.25
267.984	189.25
268.216	181.25
268.448	189.25
268.681	204.25
268.913	193.25
269.145	212.25
269.377	223.25
269.609	211.25
269.841	226.25
270.073	224.25
270.306	213.25
270.538	242.25
270.77	242.25
271.002	230.25
271.234	229.25
271.466	232.25
271.698	251.25
271.93	265.25
272.162	263.25
272.394	266.25
272.626	240.25
272.858	218.25
273.09	203.25
273.322	211.25
273.553	215.25
273.785	209.25
274.017	204.25
274.249	203.25
274.481	223.25
274.713	208.25
274.945	198.25
275.176	206.25
275.408	218.25
275.64	201.25
275.872	200.25
276.104	231.25
276.335	213.25
276.567	217.25
276.799	213.25
277.031	232.25
277.262	240.25
277.494	239.25
277.726	233.25
277.957	217.25
278.189	201.25
278.421	205.25
278.652	205.25
278.884	204.25
279.115	198.25
279.347	211.25
279.579	187.25
279.81	203.25
280.042	200.25
280.273	221.25
280.505	197.25
280.736	209.25
280.968	216.25
281.199	209.25
281.431	198.25
281.662	212.25
281.894	203.25
282.125	204.25
282.356	219.25
282.588	232.25
282.819	233.25
283.051	219.25
283.282	195.25
283.513	191.25
283.745	191.25
283.976	226.25
284.207	219.25
284.439	211.25
284.67	211.25
284.901	187.25
285.132	199.25
285.364	212.25
285.595	223.25
285.826	219.25
286.057	214.25
286.288	197.25
286.52	209.25
286.751	219.25
286.982	214.25
287.213	212.25
287.444	200.25
287.675	218.25
287.906	246.25
288.138	216.25
288.369	207.25
288.6	252.25
288.831	233.25
289.062	222.25
289.293	221.25
289.524	224.25
289.755	224.25
289.986	219.25
290.217	215.25
290.448	211.25
290.679	216.25
290.91	220.25
291.141	197.25
291.371	219.25
291.602	208.25
291.833	221.25
292.064	216.25
292.295	205.25
292.526	228.25
292.757	219.25
292.987	221.25
293.218	228.25
293.449	221.25
293.68	221.25
293.91	196.25
294.141	216.25
294.372	211.25
294.603	226.25
294.833	218.25
295.064	215.25
295.295	205.25
295.525	211.25
295.756	218.25
295.987	237.25
296.217	233.25
296.448	243.25
296.679	239.25
296.909	234.25
297.14	240.25
297.37	215.25
297.601	229.25
297.831	227.25
298.062	231.25
298.292	222.25
298.523	238.25
298.753	232.25
298.984	226.25
299.214	237.25
299.445	225.25
299.675	231.25
299.905	232.25
300.136	245.25
300.366	236.25
300.597	243.25
300.827	247.25
301.057	243.25
301.288	254.25
301.518	257.25
301.748	232.25
301.979	238.25
302.209	247.25
302.439	243.25
302.669	260.25
302.9	253.25
303.13	226.25
303.36	241.25
303.59	260.25
303.82	264.25
304.051	249.25
304.281	251.25
304.511	241.25
304.741	256.25
304.971	241.25
305.201	228.25
305.431	260.25
305.661	249.25
305.891	260.25
306.121	245.25
306.352	258.25
306.582	264.25
306.812	276.25
307.042	242.25
307.272	249.25
307.502	249.25
307.731	268.25
307.961	265.25
308.191	261.25
308.421	257.25
308.651	255.25
308.881	255.25
309.111	269.25
309.341	272.25
309.571	286.25
309.8	273.25
310.03	266.25
310.26	275.25
310.49	288.25
310.72	295.25
310.949	305.25
311.179	298.25
311.409	285.25
311.639	294.25
311.868	306.25
312.098	295.25
312.328	306.25
312.557	317.25
312.787	317.25
313.017	315.25
313.246	303.25
313.476	299.25
313.706	299.25
313.935	298.25
314.165	293.25
314.394	311.25
314.624	311.25
314.853	289.25
315.083	279.25
315.312	297.25
315.542	285.25
315.771	282.25
316.001	281.25
316.23	281.25
316.46	282.25
316.689	291.25
316.919	284.25
317.148	324.25
317.377	298.25
317.607	301.25
317.836	286.25
318.065	307.25
318.295	287.25
318.524	285.25
318.753	293.25
318.983	290.25
319.212	272.25
319.441	301.25
319.67	297.25
319.9	297.25
320.129	293.25
320.358	283.25
320.587	290.25
320.816	299.25
321.046	310.25
321.275	313.25
321.504	320.25
321.733	314.25
321.962	293.25
322.191	321.25
322.42	343.25
322.649	352.25
322.878	357.25
323.108	377.25
323.337	375.25
323.566	424.25
323.795	423.25
324.024	491.25
324.253	620.25
324.482	891.25
324.71	1361.25
324.939	1753.25
325.168	1452.25
325.397	780.25
325.626	505.25
325.855	438.25
326.084	399.25
326.313	405.25
326.542	404.25
326.77	470.25
326.999	563.25
327.228	835.25
327.457	1148.25
327.686	1293.25
327.914	872.25
328.143	583.25
328.372	491.25
328.6	483.25
328.829	443.25
329.058	474.25
329.287	483.25
329.515	448.25
329.744	423.25
329.972	425.25
330.201	435.25
330.43	441.25
330.658	474.25
330.887	491.25
331.115	455.25
331.344	424.25
331.572	387.25
331.801	377.25
332.03	403.25
332.258	362.25
332.486	353.25
332.715	331.25
332.943	343.25
333.172	361.25
333.4	342.25
333.629	339.25
333.857	361.25
334.085	361.25
334.314	365.25
334.542	397.25
334.771	399.25
334.999	381.25
335.227	353.25
335.455	341.25
335.684	321.25
335.912	315.25
336.14	322.25
336.369	307.25
336.597	332.25
336.825	347.25
337.053	322.25
337.281	331.25
337.51	319.25
337.738	335.25
337.966	334.25
338.194	328.25
338.422	333.25
338.65	312.25
338.878	319.25
339.106	308.25
339.334	314.25
339.562	312.25
339.79	322.25
340.018	338.25
340.246	323.25
340.474	331.25
340.702	320.25
340.93	329.25
341.158	317.25
341.386	311.25
341.614	317.25
341.842	325.25
342.07	337.25
342.298	292.25
342.526	307.25
342.754	291.25
342.981	285.25
343.209	300.25
343.437	307.25
343.665	295.25
343.893	292.25
344.12	313.25
344.348	309.25
344.576	317.25
344.804	314.25
345.031	303.25
345.259	328.25
345.487	329.25
345.714	300.25
345.942	300.25
346.17	307.25
346.397	308.25
346.625	304.25
346.853	323.25
347.08	303.25
347.308	311.25
347.535	331.25
347.763	322.25
347.99	316.25
348.218	322.25
348.445	311.25
348.673	307.25
348.9	290.25
349.128	303.25
349.355	300.25
349.583	309.25
349.81	300.25
350.037	303.25
350.265	290.25
350.492	284.25
350.72	298.25
350.947	317.25
351.174	309.25
351.402	322.25
351.629	322.25
351.856	295.25
352.083	304.25
352.311	318.25
352.538	322.25
352.765	326.25
352.992	325.25
353.22	289.25
353.447	292.25
353.674	280.25
353.901	291.25
354.128	291.25
354.355	261.25
354.583	285.25
354.81	286.25
355.037	295.25
355.264	275.25
355.491	272.25
355.718	276.25
355.945	262.25
356.172	277.25
356.399	288.25
356.626	274.25
356.853	266.25
357.08	279.25
357.307	250.25
357.534	296.25
357.761	294.25
357.988	285.25
358.215	273.25
358.441	284.25
358.668	284.25
358.895	279.25
359.122	291.25
359.349	288.25
359.576	313.25
359.802	330.25
360.029	360.25
360.256	342.25
360.483	332.25
360.709	301.25
360.936	269.25
361.163	281.25
361.39	313.25
361.616	311.25
361.843	288.25
362.07	295.25
362.296	287.25
362.523	293.25
362.749	292.25
362.976	295.25
363.203	279.25
363.429	279.25
363.656	288.25
363.882	293.25
364.109	289.25
364.335	282.25
364.562	290.25
364.788	277.25
365.015	253.25
365.241	283.25
365.468	287.25
365.694	305.25
365.92	298.25
366.147	291.25
366.373	263.25
366.599	265.25
366.826	254.25
367.052	259.25
367.278	280.25
367.505	279.25
367.731	266.25
367.957	277.25
368.184	274.25
368.41	257.25
368.636	285.25
368.862	277.25
369.089	288.25
369.315	276.25
369.541	278.25
369.767	265.25
369.993	279.25
370.219	285.25
370.445	288.25
370.672	280.25
370.898	275.25
371.124	265.25
371.35	268.25
371.576	273.25
371.802	269.25
372.028	257.25
372.254	267.25
372.48	274.25
372.706	265.25
372.932	267.25
373.158	273.25
373.384	281.25
373.61	266.25
373.835	262.25
374.061	272.25
374.287	281.25
374.513	270.25
374.739	275.25
374.965	273.25
375.191	257.25
375.416	290.25
375.642	268.25
375.868	273.25
376.094	259.25
376.319	275.25
376.545	263.25
376.771	263.25
376.997	265.25
377.222	270.25
377.448	284.25
377.674	277.25
377.899	253.25
378.125	261.25
378.35	260.25
378.576	259.25
378.802	247.25
379.027	253.25
379.253	259.25
379.478	259.25
379.704	264.25
379.929	245.25
380.155	253.25
380.38	258.25
380.606	275.25
380.831	267.25
381.057	268.25
381.282	249.25
381.507	270.25
381.733	252.25
381.958	288.25
382.184	279.25
382.409	274.25
382.634	266.25
382.86	258.25
383.085	249.25
383.31	268.25
383.535	280.25
383.761	267.25
383.986	266.25
384.211	274.25
384.436	280.25
384.662	276.25
384.887	291.25
385.112	280.25
385.337	269.25
385.562	277.25
385.787	301.25
386.013	281.25
386.238	288.25
386.463	288.25
386.688	312.25
386.913	279.25
387.138	279.25
387.363	280.25
387.588	279.25
387.813	281.25
388.038	278.25
388.263	275.25
388.488	277.25
388.713	265.25
388.938	280.25
389.163	278.25
389.387	264.25
389.612	275.25
389.837	282.25
390.062	269.25
390.287	267.25
390.512	281.25
390.736	279.25
390.961	287.25
391.186	269.25
391.411	289.25
391.636	297.25
391.86	271.25
392.085	267.25
392.31	274.25
392.534	278.25
392.759	288.25
392.984	274.25
393.208	282.25
393.433	288.25
393.658	275.25
393.882	289.25
394.107	273.25
394.331	265.25
394.556	269.25
394.78	260.25
395.005	288.25
395.229	280.25
395.454	276.25
395.678	291.25
395.903	282.25
396.127	284.25
396.352	300.25
396.576	291.25
396.801	259.25
397.025	289.25
397.249	272.25
397.474	277.25
397.698	287.25
397.922	308.25
398.147	304.25
398.371	305.25
398.595	307.25
398.82	308.25
399.044	297.25
399.268	338.25
399.492	344.25
399.717	339.25
399.941	349.25
400.165	372.25
400.389	389.25
400.613	325.25
400.837	311.25
401.062	312.25
401.286	296.25
401.51	331.25
401.734	313.25
401.958	312.25
402.182	323.25
402.406	322.25
402.63	333.25
402.854	334.25
403.078	309.25
403.302	305.25
403.526	325.25
403.75	320.25
403.974	300.25
404.198	305.25
404.422	308.25
404.645	329.25
404.869	329.25
405.093	340.25
405.317	349.25
405.541	380.25
405.765	337.25
405.988	339.25
406.212	346.25
406.436	372.25
406.66	351.25
406.883	339.25
407.107	372.25
407.331	395.25
407.555	379.25
407.778	400.25
408.002	393.25
408.226	360.25
408.449	340.25
408.673	369.25
408.896	361.25
409.12	383.25
409.344	359.25
409.567	333.25
409.791	323.25
410.014	311.25
410.238	319.25
410.461	326.25
410.685	325.25
410.908	348.25
411.132	354.25
411.355	395.25
411.578	367.25
411.802	325.25
412.025	315.25
412.249	340.25
412.472	343.25
412.695	363.25
412.919	354.25
413.142	325.25
413.365	291.25
413.589	312.25
413.812	289.25
414.035	297.25
414.258	288.25
414.482	311.25
414.705	310.25
414.928	309.25
415.151	295.25
415.374	289.25
415.597	306.25
415.821	297.25
416.044	313.25
416.267	315.25
416.49	288.25
416.713	321.25
416.936	286.25
417.159	293.25
417.382	298.25
417.605	309.25
417.828	322.25
418.051	317.25
418.274	313.25
418.497	310.25
418.72	314.25
418.943	300.25
419.166	305.25
419.389	307.25
419.611	312.25
419.834	316.25
420.057	319.25
420.28	319.25
420.503	317.25
420.726	335.25
420.948	319.25
421.171	376.25
421.394	353.25
421.617	332.25
421.839	304.25
422.062	305.25
422.285	321.25
422.507	353.25
422.73	402.25
422.953	398.25
423.175	356.25
423.398	340.25
423.621	328.25
423.843	329.25
424.066	359.25
424.288	333.25
424.511	364.25
424.733	410.25
424.956	441.25
425.178	433.25
425.401	434.25
425.623	416.25
425.846	350.25
426.068	350.25
426.291	357.25
426.513	335.25
426.735	351.25
426.958	402.25
427.18	451.25
427.402	507.25
427.625	572.25
427.847	506.25
428.069	432.25
428.292	405.25
428.514	348.25
428.736	337.25
428.958	316.25
429.181	329.25
429.403	329.25
429.625	345.25
429.847	374.25
430.069	391.25
430.292	379.25
430.514	330.25
430.736	315.25
430.958	325.25
431.18	303.25
431.402	309.25
431.624	301.25
431.846	285.25
432.068	273.25
432.29	306.25
432.512	320.25
432.734	299.25
432.956	309.25
433.178	287.25
433.4	331.25
433.622	314.25
433.844	307.25
434.066	298.25
434.287	289.25
434.509	310.25
434.731	324.25
434.953	308.25
435.175	299.25
435.397	340.25
435.618	329.25
435.84	370.25
436.062	445.25
436.284	467.25
436.505	407.25
436.727	348.25
436.949	343.25
437.17	333.25
437.392	322.25
437.614	327.25
437.835	352.25
438.057	409.25
438.278	474.25
438.5	510.25
438.721	514.25
438.943	478.25
439.165	400.25
439.386	344.25
439.608	353.25
439.829	361.25
440.05	379.25
440.272	412.25
440.493	376.25
440.715	351.25
440.936	344.25
441.158	332.25
441.379	319.25
441.6	329.25
441.822	350.25
442.043	374.25
442.264	432.25
442.486	453.25
442.707	358.25
442.928	363.25
443.149	372.25
443.371	395.25
443.592	419.25
443.813	455.25
444.034	478.25
444.255	417.25
444.476	352.25
444.698	345.25
444.919	360.25
445.14	432.25
445.361	399.25
445.582	379.25
445.803	437.25
446.024	504.25
446.245	492.25
446.466	448.25
446.687	384.25
446.908	362.25
447.129	336.25
447.35	330.25
447.571	315.25
447.792	330.25
448.013	331.25
448.234	354.25
448.455	404.25
448.675	465.25
448.896	509.25
449.117	423.25
449.338	443.25
449.559	467.25
449.779	535.25
450	415.25
450.221	367.25
450.442	325.25
450.662	336.25
450.883	342.25
451.104	354.25
451.324	319.25
451.545	311.25
451.766	318.25
451.986	298.25
452.207	276.25
452.428	284.25
452.648	296.25
452.869	296.25
453.089	311.25
453.31	300.25
453.53	275.25
453.751	292.25
453.971	281.25
454.192	323.25
454.412	309.25
454.633	297.25
454.853	292.25
455.073	281.25
455.294	298.25
455.514	348.25
455.734	329.25
455.955	312.25
456.175	283.25
456.395	298.25
456.616	289.25
456.836	277.25
457.056	273.25
457.276	270.25
457.497	268.25
457.717	292.25
457.937	281.25
458.157	279.25
458.377	279.25
458.598	323.25
458.818	352.25
459.038	407.25
459.258	399.25
459.478	345.25
459.698	305.25
459.918	285.25
460.138	293.25
460.358	315.25
460.578	307.25
460.798	282.25
461.018	289.25
461.238	291.25
461.458	297.25
461.678	303.25
461.898	289.25
462.118	302.25
462.338	288.25
462.558	325.25
462.777	313.25
462.997	305.25
463.217	328.25
463.437	316.25
463.657	288.25
463.876	291.25
464.096	298.25
464.316	311.25
464.536	292.25
464.755	295.25
464.975	322.25
465.195	365.25
465.414	400.25
465.634	338.25
465.854	336.25
466.073	315.25
466.293	321.25
466.512	290.25
466.732	288.25
466.951	310.25
467.171	296.25
467.391	291.25
467.61	292.25
467.829	299.25
468.049	306.25
468.268	323.25
468.488	282.25
468.707	288.25
468.927	288.25
469.146	286.25
469.365	283.25
469.585	289.25
469.804	297.25
470.023	307.25
470.243	303.25
470.462	299.25
470.681	330.25
470.901	305.25
471.12	260.25
471.339	284.25
471.558	311.25
471.777	311.25
471.997	288.25
472.216	304.25
472.435	317.25
472.654	310.25
472.873	297.25
473.092	303.25
473.311	295.25
473.53	308.25
473.749	297.25
473.968	347.25
474.187	404.25
474.406	433.25
474.625	330.25
474.844	313.25
475.063	301.25
475.282	300.25
475.501	306.25
475.72	313.25
475.939	309.25
476.158	298.25
476.377	303.25
476.596	301.25
476.814	318.25
477.033	331.25
477.252	297.25
477.471	307.25
477.69	335.25
477.908	326.25
478.127	312.25
478.346	312.25
478.564	325.25
478.783	301.25
479.002	326.25
479.22	319.25
479.439	343.25
479.658	352.25
479.876	351.25
480.095	359.25
480.313	380.25
480.532	369.25
480.751	359.25
480.969	346.25
481.188	424.25
481.406	440.25
481.624	370.25
481.843	375.25
482.061	335.25
482.28	326.25
482.498	349.25
482.717	352.25
482.935	344.25
483.153	339.25
483.372	347.25
483.59	355.25
483.808	339.25
484.027	344.25
484.245	338.25
484.463	336.25
484.681	343.25
484.9	353.25
485.118	353.25
485.336	352.25
485.554	345.25
485.772	372.25
485.99	343.25
486.209	339.25
486.427	345.25
486.645	350.25
486.863	367.25
487.081	391.25
487.299	376.25
487.517	381.25
487.735	365.25
487.953	364.25
488.171	373.25
488.389	371.25
488.607	375.25
488.825	365.25
489.043	365.25
489.261	372.25
489.479	381.25
489.696	395.25
489.914	369.25
490.132	384.25
490.35	384.25
490.568	389.25
490.786	390.25
491.003	406.25
491.221	401.25
491.439	391.25
491.657	412.25
491.874	432.25
492.092	416.25
492.31	415.25
492.527	443.25
492.745	436.25
492.963	402.25
493.18	454.25
493.398	434.25
493.615	430.25
493.833	418.25
494.05	417.25
494.268	436.25
494.485	430.25
494.703	444.25
494.92	447.25
495.138	418.25
495.355	427.25
495.573	440.25
495.79	448.25
496.008	429.25
496.225	411.25
496.442	434.25
496.66	446.25
496.877	427.25
497.094	439.25
497.312	428.25
497.529	450.25
497.746	451.25
497.963	454.25
498.181	457.25
498.398	461.25
498.615	472.25
498.832	481.25
499.049	476.25
499.267	476.25
499.484	492.25
499.701	485.25
499.918	483.25
500.135	520.25
500.352	519.25
500.569	536.25
500.786	547.25
501.003	535.25
501.22	545.25
501.437	528.25
501.654	522.25
501.871	526.25
502.088	519.25
