Data from 1982.PennyLincolnUp.Lamp.En5.5.200Scan.071819.P1_HRD10591_16-44-51-960.txt Node
Date: Thu Jul 18 16:44:51 EDT 2019
User: cochatt
Spectrometer: HR+D1059
Trigger mode: 1
Integration Time (sec): 1.000000E-1
Scans to average: 1
Electric dark correction enabled: true
Nonlinearity correction enabled: false
Boxcar width: 0
XAxis mode: Wavelengths
Number of Pixels in Spectrum: 2048
>>>>>Begin Spectral Data<<<<<
223.165	-10.19
223.4	-10.19
223.635	-10.19
223.869	-14.19
224.104	-27.19
224.338	-9.19
224.573	-8.19
224.808	-13.19
225.042	12.81
225.277	-4.19
225.511	-8.19
225.746	9.81
225.98	-2.19
226.215	4.81
226.449	4.81
226.683	12.81
226.918	24.81
227.152	26.81
227.387	30.81
227.621	36.81
227.856	44.81
228.09	42.81
228.324	37.81
228.559	55.81
228.793	56.81
229.027	84.81
229.262	86.81
229.496	95.81
229.73	101.81
229.964	96.81
230.199	94.81
230.433	101.81
230.667	95.81
230.901	89.81
231.136	89.81
231.37	89.81
231.604	86.81
231.838	106.81
232.072	93.81
232.306	90.81
232.541	93.81
232.775	73.81
233.009	89.81
233.243	93.81
233.477	85.81
233.711	100.81
233.945	102.81
234.179	93.81
234.413	106.81
234.647	88.81
234.881	97.81
235.115	102.81
235.349	89.81
235.583	107.81
235.817	94.81
236.051	85.81
236.285	100.81
236.519	106.81
236.753	107.81
236.987	109.81
237.221	117.81
237.455	146.81
237.689	121.81
237.922	112.81
238.156	106.81
238.39	108.81
238.624	100.81
238.858	89.81
239.091	90.81
239.325	109.81
239.559	109.81
239.793	110.81
240.027	112.81
240.26	113.81
240.494	116.81
240.728	103.81
240.961	109.81
241.195	110.81
241.429	109.81
241.662	112.81
241.896	104.81
242.13	113.81
242.363	97.81
242.597	110.81
242.83	104.81
243.064	112.81
243.298	106.81
243.531	112.81
243.765	98.81
243.998	103.81
244.232	103.81
244.465	108.81
244.699	125.81
244.932	118.81
245.166	110.81
245.399	118.81
245.633	109.81
245.866	125.81
246.099	111.81
246.333	116.81
246.566	113.81
246.8	115.81
247.033	115.81
247.266	112.81
247.5	106.81
247.733	136.81
247.966	134.81
248.2	144.81
248.433	154.81
248.666	130.81
248.899	128.81
249.133	136.81
249.366	153.81
249.599	159.81
249.832	137.81
250.066	131.81
250.299	125.81
250.532	141.81
250.765	150.81
250.998	150.81
251.231	155.81
251.465	136.81
251.698	136.81
251.931	137.81
252.164	130.81
252.397	150.81
252.63	142.81
252.863	142.81
253.096	161.81
253.329	168.81
253.562	153.81
253.795	149.81
254.028	138.81
254.261	160.81
254.494	136.81
254.727	170.81
254.96	171.81
255.193	171.81
255.426	156.81
255.659	162.81
255.892	156.81
256.124	159.81
256.357	149.81
256.59	150.81
256.823	131.81
257.056	138.81
257.289	163.81
257.521	154.81
257.754	152.81
257.987	141.81
258.22	154.81
258.452	141.81
258.685	148.81
258.918	150.81
259.151	138.81
259.383	146.81
259.616	148.81
259.849	154.81
260.081	158.81
260.314	165.81
260.547	167.81
260.779	180.81
261.012	162.81
261.244	163.81
261.477	154.81
261.71	152.81
261.942	152.81
262.175	150.81
262.407	155.81
262.64	160.81
262.872	144.81
263.105	152.81
263.337	154.81
263.57	153.81
263.802	163.81
264.035	168.81
264.267	137.81
264.499	156.81
264.732	156.81
264.964	148.81
265.197	147.81
265.429	149.81
265.661	152.81
265.894	147.81
266.126	141.81
266.358	153.81
266.591	164.81
266.823	166.81
267.055	167.81
267.287	176.81
267.52	164.81
267.752	171.81
267.984	167.81
268.216	144.81
268.448	158.81
268.681	166.81
268.913	168.81
269.145	171.81
269.377	174.81
269.609	176.81
269.841	183.81
270.073	188.81
270.306	180.81
270.538	193.81
270.77	208.81
271.002	196.81
271.234	182.81
271.466	184.81
271.698	187.81
271.93	197.81
272.162	201.81
272.394	206.81
272.626	189.81
272.858	189.81
273.09	189.81
273.322	185.81
273.553	177.81
273.785	193.81
274.017	186.81
274.249	190.81
274.481	177.81
274.713	183.81
274.945	181.81
275.176	182.81
275.408	181.81
275.64	166.81
275.872	184.81
276.104	184.81
276.335	183.81
276.567	197.81
276.799	174.81
277.031	181.81
277.262	199.81
277.494	203.81
277.726	197.81
277.957	173.81
278.189	193.81
278.421	199.81
278.652	177.81
278.884	188.81
279.115	188.81
279.347	180.81
279.579	180.81
279.81	193.81
280.042	182.81
280.273	186.81
280.505	177.81
280.736	193.81
280.968	165.81
281.199	178.81
281.431	193.81
281.662	177.81
281.894	192.81
282.125	178.81
282.356	196.81
282.588	203.81
282.819	205.81
283.051	182.81
283.282	180.81
283.513	195.81
283.745	189.81
283.976	185.81
284.207	179.81
284.439	185.81
284.67	178.81
284.901	184.81
285.132	176.81
285.364	188.81
285.595	190.81
285.826	189.81
286.057	185.81
286.288	176.81
286.52	199.81
286.751	181.81
286.982	171.81
287.213	187.81
287.444	185.81
287.675	196.81
287.906	198.81
288.138	197.81
288.369	203.81
288.6	202.81
288.831	208.81
289.062	203.81
289.293	197.81
289.524	170.81
289.755	187.81
289.986	181.81
290.217	196.81
290.448	198.81
290.679	184.81
290.91	203.81
291.141	189.81
291.371	188.81
291.602	202.81
291.833	188.81
292.064	187.81
292.295	212.81
292.526	198.81
292.757	179.81
292.987	194.81
293.218	190.81
293.449	176.81
293.68	204.81
293.91	190.81
294.141	199.81
294.372	196.81
294.603	187.81
294.833	201.81
295.064	197.81
295.295	182.81
295.525	202.81
295.756	181.81
295.987	205.81
296.217	203.81
296.448	204.81
296.679	200.81
296.909	207.81
297.14	183.81
297.37	187.81
297.601	214.81
297.831	190.81
298.062	200.81
298.292	206.81
298.523	202.81
298.753	191.81
298.984	188.81
299.214	217.81
299.445	205.81
299.675	201.81
299.905	211.81
300.136	213.81
300.366	206.81
300.597	208.81
300.827	213.81
301.057	205.81
301.288	202.81
301.518	206.81
301.748	213.81
301.979	194.81
302.209	196.81
302.439	209.81
302.669	210.81
302.9	212.81
303.13	222.81
303.36	208.81
303.59	209.81
303.82	205.81
304.051	200.81
304.281	205.81
304.511	205.81
304.741	206.81
304.971	213.81
305.201	192.81
305.431	206.81
305.661	202.81
305.891	226.81
306.121	226.81
306.352	212.81
306.582	215.81
306.812	202.81
307.042	235.81
307.272	213.81
307.502	225.81
307.731	212.81
307.961	199.81
308.191	227.81
308.421	210.81
308.651	219.81
308.881	232.81
309.111	203.81
309.341	204.81
309.571	224.81
309.8	219.81
310.03	232.81
310.26	243.81
310.49	240.81
310.72	225.81
310.949	235.81
311.179	230.81
311.409	221.81
311.639	226.81
311.868	240.81
312.098	246.81
312.328	261.81
312.557	247.81
312.787	252.81
313.017	247.81
313.246	234.81
313.476	246.81
313.706	236.81
313.935	225.81
314.165	245.81
314.394	238.81
314.624	252.81
314.853	244.81
315.083	232.81
315.312	230.81
315.542	243.81
315.771	240.81
316.001	235.81
316.23	238.81
316.46	236.81
316.689	248.81
316.919	252.81
317.148	233.81
317.377	254.81
317.607	229.81
317.836	252.81
318.065	258.81
318.295	220.81
318.524	230.81
318.753	234.81
318.983	245.81
319.212	252.81
319.441	243.81
319.67	243.81
319.9	234.81
320.129	240.81
320.358	239.81
320.587	265.81
320.816	243.81
321.046	259.81
321.275	258.81
321.504	252.81
321.733	247.81
321.962	258.81
322.191	275.81
322.42	253.81
322.649	275.81
322.878	287.81
323.108	284.81
323.337	294.81
323.566	314.81
323.795	322.81
324.024	356.81
324.253	398.81
324.482	615.81
324.71	886.81
324.939	1125.81
325.168	940.81
325.397	524.81
325.626	391.81
325.855	316.81
326.084	292.81
326.313	292.81
326.542	284.81
326.77	334.81
326.999	404.81
327.228	547.81
327.457	765.81
327.686	812.81
327.914	544.81
328.143	394.81
328.372	371.81
328.6	331.81
328.829	340.81
329.058	334.81
329.287	324.81
329.515	306.81
329.744	307.81
329.972	298.81
330.201	336.81
330.43	321.81
330.658	342.81
330.887	354.81
331.115	349.81
331.344	293.81
331.572	288.81
331.801	290.81
332.03	305.81
332.258	279.81
332.486	271.81
332.715	277.81
332.943	285.81
333.172	278.81
333.4	264.81
333.629	295.81
333.857	296.81
334.085	269.81
334.314	281.81
334.542	295.81
334.771	289.81
334.999	298.81
335.227	269.81
335.455	281.81
335.684	290.81
335.912	275.81
336.14	274.81
336.369	274.81
336.597	271.81
336.825	284.81
337.053	274.81
337.281	268.81
337.51	260.81
337.738	258.81
337.966	275.81
338.194	263.81
338.422	277.81
338.65	262.81
338.878	264.81
339.106	260.81
339.334	276.81
339.562	269.81
339.79	259.81
340.018	258.81
340.246	250.81
340.474	270.81
340.702	269.81
340.93	250.81
341.158	262.81
341.386	267.81
341.614	262.81
341.842	265.81
342.07	263.81
342.298	277.81
342.526	276.81
342.754	251.81
342.981	258.81
343.209	264.81
343.437	256.81
343.665	254.81
343.893	276.81
344.12	285.81
344.348	291.81
344.576	266.81
344.804	266.81
345.031	269.81
345.259	267.81
345.487	274.81
345.714	276.81
345.942	264.81
346.17	268.81
346.397	259.81
346.625	263.81
346.853	250.81
347.08	268.81
347.308	272.81
347.535	248.81
347.763	274.81
347.99	244.81
348.218	264.81
348.445	244.81
348.673	260.81
348.9	243.81
349.128	260.81
349.355	227.81
349.583	242.81
349.81	244.81
350.037	242.81
350.265	267.81
350.492	252.81
350.72	257.81
350.947	245.81
351.174	244.81
351.402	245.81
351.629	274.81
351.856	252.81
352.083	256.81
352.311	257.81
352.538	254.81
352.765	263.81
352.992	280.81
353.22	255.81
353.447	261.81
353.674	245.81
353.901	243.81
354.128	247.81
354.355	261.81
354.583	247.81
354.81	237.81
355.037	235.81
355.264	238.81
355.491	238.81
355.718	242.81
355.945	258.81
356.172	255.81
356.399	244.81
356.626	246.81
356.853	260.81
357.08	228.81
357.307	223.81
357.534	246.81
357.761	244.81
357.988	257.81
358.215	229.81
358.441	220.81
358.668	244.81
358.895	256.81
359.122	245.81
359.349	238.81
359.576	262.81
359.802	263.81
360.029	240.81
360.256	264.81
360.483	262.81
360.709	249.81
360.936	271.81
361.163	247.81
361.39	259.81
361.616	256.81
361.843	255.81
362.07	245.81
362.296	243.81
362.523	255.81
362.749	253.81
362.976	276.81
363.203	258.81
363.429	235.81
363.656	246.81
363.882	245.81
364.109	252.81
364.335	237.81
364.562	230.81
364.788	229.81
365.015	248.81
365.241	237.81
365.468	242.81
365.694	266.81
365.92	246.81
366.147	242.81
366.373	245.81
366.599	261.81
366.826	240.81
367.052	241.81
367.278	257.81
367.505	246.81
367.731	255.81
367.957	247.81
368.184	237.81
368.41	241.81
368.636	234.81
368.862	258.81
369.089	242.81
369.315	233.81
369.541	220.81
369.767	231.81
369.993	229.81
370.219	236.81
370.445	248.81
370.672	246.81
370.898	237.81
371.124	240.81
371.35	226.81
371.576	242.81
371.802	227.81
372.028	220.81
372.254	234.81
372.48	229.81
372.706	245.81
372.932	258.81
373.158	244.81
373.384	240.81
373.61	232.81
373.835	252.81
374.061	238.81
374.287	245.81
374.513	243.81
374.739	228.81
374.965	229.81
375.191	230.81
375.416	268.81
375.642	227.81
375.868	259.81
376.094	229.81
376.319	235.81
376.545	232.81
376.771	232.81
376.997	226.81
377.222	233.81
377.448	234.81
377.674	232.81
377.899	241.81
378.125	251.81
378.35	246.81
378.576	245.81
378.802	232.81
379.027	234.81
379.253	244.81
379.478	237.81
379.704	239.81
379.929	232.81
380.155	232.81
380.38	239.81
380.606	236.81
380.831	237.81
381.057	255.81
381.282	240.81
381.507	263.81
381.733	237.81
381.958	240.81
382.184	223.81
382.409	231.81
382.634	230.81
382.86	236.81
383.085	243.81
383.31	237.81
383.535	246.81
383.761	249.81
383.986	258.81
384.211	235.81
384.436	248.81
384.662	231.81
384.887	231.81
385.112	250.81
385.337	244.81
385.562	252.81
385.787	231.81
386.013	265.81
386.238	255.81
386.463	259.81
386.688	261.81
386.913	233.81
387.138	240.81
387.363	240.81
387.588	243.81
387.813	249.81
388.038	264.81
388.263	252.81
388.488	240.81
388.713	255.81
388.938	250.81
389.163	244.81
389.387	241.81
389.612	245.81
389.837	247.81
390.062	250.81
390.287	248.81
390.512	250.81
390.736	234.81
390.961	260.81
391.186	254.81
391.411	247.81
391.636	264.81
391.86	267.81
392.085	272.81
392.31	248.81
392.534	255.81
392.759	266.81
392.984	244.81
393.208	256.81
393.433	253.81
393.658	260.81
393.882	240.81
394.107	257.81
394.331	250.81
394.556	257.81
394.78	267.81
395.005	262.81
395.229	244.81
395.454	260.81
395.678	260.81
395.903	251.81
396.127	272.81
396.352	284.81
396.576	260.81
396.801	256.81
397.025	266.81
397.249	278.81
397.474	264.81
397.698	274.81
397.922	270.81
398.147	264.81
398.371	280.81
398.595	263.81
398.82	278.81
399.044	269.81
399.268	301.81
399.492	304.81
399.717	292.81
399.941	285.81
400.165	336.81
400.389	313.81
400.613	313.81
400.837	311.81
401.062	279.81
401.286	269.81
401.51	294.81
401.734	271.81
401.958	278.81
402.182	270.81
402.406	294.81
402.63	274.81
402.854	280.81
403.078	267.81
403.302	268.81
403.526	281.81
403.75	292.81
403.974	299.81
404.198	290.81
404.422	293.81
404.645	282.81
404.869	282.81
405.093	297.81
405.317	307.81
405.541	334.81
405.765	308.81
405.988	287.81
406.212	310.81
406.436	308.81
406.66	323.81
406.883	302.81
407.107	313.81
407.331	323.81
407.555	358.81
407.778	342.81
408.002	319.81
408.226	315.81
408.449	293.81
408.673	293.81
408.896	319.81
409.12	345.81
409.344	323.81
409.567	285.81
409.791	286.81
410.014	289.81
410.238	268.81
410.461	272.81
410.685	289.81
410.908	296.81
411.132	327.81
411.355	316.81
411.578	309.81
411.802	289.81
412.025	274.81
412.249	275.81
412.472	291.81
412.695	309.81
412.919	292.81
413.142	280.81
413.365	276.81
413.589	290.81
413.812	280.81
414.035	275.81
414.258	268.81
414.482	258.81
414.705	267.81
414.928	246.81
415.151	254.81
415.374	264.81
415.597	265.81
415.821	271.81
416.044	261.81
416.267	256.81
416.49	275.81
416.713	270.81
416.936	276.81
417.159	256.81
417.382	254.81
417.605	285.81
417.828	275.81
418.051	287.81
418.274	259.81
418.497	281.81
418.72	288.81
418.943	261.81
419.166	272.81
419.389	285.81
419.611	285.81
419.834	272.81
420.057	266.81
420.28	261.81
420.503	281.81
420.726	292.81
420.948	284.81
421.171	305.81
421.394	331.81
421.617	275.81
421.839	271.81
422.062	269.81
422.285	262.81
422.507	314.81
422.73	329.81
422.953	323.81
423.175	300.81
423.398	288.81
423.621	287.81
423.843	297.81
424.066	305.81
424.288	282.81
424.511	287.81
424.733	329.81
424.956	356.81
425.178	346.81
425.401	350.81
425.623	361.81
425.846	331.81
426.068	286.81
426.291	308.81
426.513	292.81
426.735	285.81
426.958	314.81
427.18	364.81
427.402	416.81
427.625	456.81
427.847	402.81
428.069	337.81
428.292	318.81
428.514	294.81
428.736	291.81
428.958	268.81
429.181	289.81
429.403	294.81
429.625	290.81
429.847	310.81
430.069	333.81
430.292	329.81
430.514	280.81
430.736	277.81
430.958	276.81
431.18	268.81
431.402	274.81
431.624	258.81
431.846	244.81
432.068	251.81
432.29	280.81
432.512	260.81
432.734	267.81
432.956	265.81
433.178	273.81
433.4	280.81
433.622	270.81
433.844	268.81
434.066	283.81
434.287	269.81
434.509	265.81
434.731	261.81
434.953	274.81
435.175	285.81
435.397	298.81
435.618	294.81
435.84	322.81
436.062	369.81
436.284	374.81
436.505	334.81
436.727	305.81
436.949	272.81
437.17	286.81
437.392	280.81
437.614	280.81
437.835	301.81
438.057	353.81
438.278	399.81
438.5	398.81
438.721	441.81
438.943	416.81
439.165	330.81
439.386	322.81
439.608	306.81
439.829	308.81
440.05	318.81
440.272	344.81
440.493	323.81
440.715	310.81
440.936	277.81
441.158	282.81
441.379	255.81
441.6	289.81
441.822	290.81
442.043	327.81
442.264	359.81
442.486	370.81
442.707	324.81
442.928	302.81
443.149	299.81
443.371	303.81
443.592	352.81
443.813	383.81
444.034	405.81
444.255	347.81
444.476	310.81
444.698	296.81
444.919	297.81
445.14	374.81
445.361	348.81
445.582	343.81
445.803	361.81
446.024	404.81
446.245	396.81
446.466	366.81
446.687	289.81
446.908	297.81
447.129	293.81
447.35	281.81
447.571	278.81
447.792	253.81
448.013	289.81
448.234	278.81
448.455	301.81
448.675	364.81
448.896	414.81
449.117	374.81
449.338	359.81
449.559	410.81
449.779	428.81
450	350.81
450.221	312.81
450.442	288.81
450.662	274.81
450.883	283.81
451.104	268.81
451.324	259.81
451.545	265.81
451.766	243.81
451.986	251.81
452.207	241.81
452.428	248.81
452.648	249.81
452.869	253.81
453.089	262.81
453.31	256.81
453.53	250.81
453.751	260.81
453.971	243.81
454.192	263.81
454.412	272.81
454.633	248.81
454.853	246.81
455.073	255.81
455.294	281.81
455.514	282.81
455.734	286.81
455.955	259.81
456.175	241.81
456.395	230.81
456.616	235.81
456.836	235.81
457.056	226.81
457.276	241.81
457.497	256.81
457.717	246.81
457.937	258.81
458.157	244.81
458.377	261.81
458.598	249.81
458.818	282.81
459.038	344.81
459.258	331.81
459.478	288.81
459.698	262.81
459.918	276.81
460.138	269.81
460.358	280.81
460.578	269.81
460.798	264.81
461.018	246.81
461.238	269.81
461.458	264.81
461.678	262.81
461.898	274.81
462.118	276.81
462.338	258.81
462.558	276.81
462.777	275.81
462.997	281.81
463.217	282.81
463.437	271.81
463.657	298.81
463.876	306.81
464.096	269.81
464.316	280.81
464.536	280.81
464.755	285.81
464.975	268.81
465.195	298.81
465.414	308.81
465.634	309.81
465.854	290.81
466.073	270.81
466.293	270.81
466.512	261.81
466.732	248.81
466.951	256.81
467.171	259.81
467.391	260.81
467.61	253.81
467.829	254.81
468.049	251.81
468.268	257.81
468.488	264.81
468.707	254.81
468.927	248.81
469.146	245.81
469.365	248.81
469.585	244.81
469.804	246.81
470.023	244.81
470.243	261.81
470.462	265.81
470.681	272.81
470.901	256.81
471.12	268.81
471.339	266.81
471.558	268.81
471.777	254.81
471.997	253.81
472.216	249.81
472.435	275.81
472.654	277.81
472.873	270.81
473.092	272.81
473.311	242.81
473.53	266.81
473.749	269.81
473.968	287.81
474.187	341.81
474.406	332.81
474.625	293.81
474.844	270.81
475.063	263.81
475.282	248.81
475.501	271.81
475.72	272.81
475.939	265.81
476.158	253.81
476.377	268.81
476.596	267.81
476.814	267.81
477.033	284.81
477.252	289.81
477.471	278.81
477.69	289.81
477.908	282.81
478.127	277.81
478.346	266.81
478.564	275.81
478.783	278.81
479.002	290.81
479.22	281.81
479.439	292.81
479.658	305.81
479.876	295.81
480.095	312.81
480.313	327.81
480.532	314.81
480.751	300.81
480.969	304.81
481.188	346.81
481.406	340.81
481.624	293.81
481.843	300.81
482.061	291.81
482.28	289.81
482.498	299.81
482.717	282.81
482.935	310.81
483.153	281.81
483.372	297.81
483.59	295.81
483.808	302.81
484.027	302.81
484.245	302.81
484.463	307.81
484.681	313.81
484.9	299.81
485.118	314.81
485.336	299.81
485.554	306.81
485.772	312.81
485.99	330.81
486.209	298.81
486.427	314.81
486.645	317.81
486.863	315.81
487.081	315.81
487.299	310.81
487.517	314.81
487.735	323.81
487.953	324.81
488.171	306.81
488.389	301.81
488.607	323.81
488.825	309.81
489.043	337.81
489.261	316.81
489.479	340.81
489.696	322.81
489.914	336.81
490.132	318.81
490.35	331.81
490.568	336.81
490.786	330.81
491.003	355.81
491.221	334.81
491.439	349.81
491.657	344.81
491.874	352.81
492.092	363.81
492.31	360.81
492.527	351.81
492.745	340.81
492.963	365.81
493.18	363.81
493.398	364.81
493.615	365.81
493.833	353.81
494.05	349.81
494.268	371.81
494.485	374.81
494.703	389.81
494.92	382.81
495.138	361.81
495.355	380.81
495.573	360.81
495.79	363.81
496.008	377.81
496.225	358.81
496.442	392.81
496.66	356.81
496.877	382.81
497.094	392.81
497.312	382.81
497.529	374.81
497.746	394.81
497.963	406.81
498.181	396.81
498.398	388.81
498.615	406.81
498.832	398.81
499.049	408.81
499.267	430.81
499.484	430.81
499.701	424.81
499.918	427.81
500.135	481.81
500.352	481.81
500.569	476.81
500.786	461.81
501.003	458.81
501.22	461.81
501.437	447.81
501.654	453.81
501.871	441.81
502.088	434.81
502.305	398.81
