Data from 1982.PennyLincolnUp.Lamp.En5.5.200Scan.071819.P1_HRD10591_16-45-06-962.txt Node
Date: Thu Jul 18 16:45:06 EDT 2019
User: cochatt
Spectrometer: HR+D1059
Trigger mode: 1
Integration Time (sec): 1.000000E-1
Scans to average: 1
Electric dark correction enabled: true
Nonlinearity correction enabled: false
Boxcar width: 0
XAxis mode: Wavelengths
Number of Pixels in Spectrum: 2048
>>>>>Begin Spectral Data<<<<<
223.165	-33.38
223.4	-33.38
223.635	-33.38
223.869	-15.38
224.104	-2.38
224.338	-18.38
224.573	-7.38
224.808	-3.38
225.042	-30.38
225.277	-3.38
225.511	-8.38
225.746	6.62
225.98	15.62
226.215	11.62
226.449	8.62
226.683	31.62
226.918	13.62
227.152	34.62
227.387	24.62
227.621	31.62
227.856	39.62
228.09	37.62
228.324	33.62
228.559	58.62
228.793	63.62
229.027	74.62
229.262	82.62
229.496	91.62
229.73	92.62
229.964	99.62
230.199	110.62
230.433	98.62
230.667	91.62
230.901	90.62
231.136	112.62
231.37	94.62
231.604	97.62
231.838	84.62
232.072	91.62
232.306	83.62
232.541	101.62
232.775	91.62
233.009	88.62
233.243	93.62
233.477	98.62
233.711	107.62
233.945	101.62
234.179	108.62
234.413	90.62
234.647	100.62
234.881	88.62
235.115	89.62
235.349	108.62
235.583	106.62
235.817	102.62
236.051	109.62
236.285	107.62
236.519	111.62
236.753	117.62
236.987	97.62
237.221	129.62
237.455	164.62
237.689	125.62
237.922	98.62
238.156	91.62
238.39	112.62
238.624	101.62
238.858	95.62
239.091	110.62
239.325	111.62
239.559	96.62
239.793	103.62
240.027	108.62
240.26	117.62
240.494	121.62
240.728	116.62
240.961	116.62
241.195	99.62
241.429	116.62
241.662	114.62
241.896	97.62
242.13	100.62
242.363	99.62
242.597	95.62
242.83	92.62
243.064	118.62
243.298	114.62
243.531	105.62
243.765	103.62
243.998	101.62
244.232	117.62
244.465	112.62
244.699	114.62
244.932	107.62
245.166	103.62
245.399	95.62
245.633	103.62
245.866	118.62
246.099	129.62
246.333	114.62
246.566	120.62
246.8	128.62
247.033	125.62
247.266	118.62
247.5	132.62
247.733	115.62
247.966	106.62
248.2	122.62
248.433	138.62
248.666	133.62
248.899	130.62
249.133	144.62
249.366	135.62
249.599	137.62
249.832	146.62
250.066	145.62
250.299	137.62
250.532	126.62
250.765	142.62
250.998	155.62
251.231	170.62
251.465	156.62
251.698	135.62
251.931	151.62
252.164	150.62
252.397	129.62
252.63	146.62
252.863	157.62
253.096	152.62
253.329	156.62
253.562	152.62
253.795	148.62
254.028	153.62
254.261	151.62
254.494	156.62
254.727	177.62
254.96	184.62
255.193	170.62
255.426	160.62
255.659	161.62
255.892	164.62
256.124	176.62
256.357	162.62
256.59	150.62
256.823	169.62
257.056	151.62
257.289	161.62
257.521	148.62
257.754	147.62
257.987	148.62
258.22	156.62
258.452	148.62
258.685	155.62
258.918	149.62
259.151	155.62
259.383	167.62
259.616	150.62
259.849	167.62
260.081	169.62
260.314	160.62
260.547	179.62
260.779	169.62
261.012	153.62
261.244	156.62
261.477	163.62
261.71	165.62
261.942	165.62
262.175	164.62
262.407	167.62
262.64	150.62
262.872	169.62
263.105	145.62
263.337	160.62
263.57	141.62
263.802	168.62
264.035	153.62
264.267	149.62
264.499	163.62
264.732	151.62
264.964	147.62
265.197	141.62
265.429	159.62
265.661	155.62
265.894	154.62
266.126	165.62
266.358	151.62
266.591	147.62
266.823	168.62
267.055	165.62
267.287	159.62
267.52	172.62
267.752	177.62
267.984	169.62
268.216	168.62
268.448	156.62
268.681	167.62
268.913	165.62
269.145	196.62
269.377	193.62
269.609	191.62
269.841	181.62
270.073	188.62
270.306	184.62
270.538	198.62
270.77	211.62
271.002	212.62
271.234	200.62
271.466	208.62
271.698	223.62
271.93	196.62
272.162	199.62
272.394	212.62
272.626	185.62
272.858	206.62
273.09	215.62
273.322	179.62
273.553	192.62
273.785	191.62
274.017	182.62
274.249	196.62
274.481	193.62
274.713	199.62
274.945	170.62
275.176	182.62
275.408	204.62
275.64	179.62
275.872	178.62
276.104	195.62
276.335	183.62
276.567	193.62
276.799	197.62
277.031	208.62
277.262	223.62
277.494	217.62
277.726	196.62
277.957	205.62
278.189	207.62
278.421	206.62
278.652	183.62
278.884	175.62
279.115	199.62
279.347	187.62
279.579	201.62
279.81	186.62
280.042	185.62
280.273	184.62
280.505	183.62
280.736	164.62
280.968	185.62
281.199	181.62
281.431	183.62
281.662	184.62
281.894	182.62
282.125	193.62
282.356	199.62
282.588	194.62
282.819	198.62
283.051	180.62
283.282	197.62
283.513	180.62
283.745	177.62
283.976	196.62
284.207	180.62
284.439	186.62
284.67	199.62
284.901	200.62
285.132	196.62
285.364	183.62
285.595	183.62
285.826	195.62
286.057	201.62
286.288	184.62
286.52	198.62
286.751	192.62
286.982	187.62
287.213	184.62
287.444	207.62
287.675	190.62
287.906	191.62
288.138	212.62
288.369	200.62
288.6	203.62
288.831	208.62
289.062	213.62
289.293	189.62
289.524	180.62
289.755	205.62
289.986	195.62
290.217	224.62
290.448	172.62
290.679	206.62
290.91	195.62
291.141	205.62
291.371	188.62
291.602	189.62
291.833	193.62
292.064	202.62
292.295	183.62
292.526	194.62
292.757	187.62
292.987	180.62
293.218	208.62
293.449	191.62
293.68	196.62
293.91	218.62
294.141	198.62
294.372	190.62
294.603	194.62
294.833	208.62
295.064	203.62
295.295	199.62
295.525	198.62
295.756	206.62
295.987	205.62
296.217	218.62
296.448	205.62
296.679	202.62
296.909	215.62
297.14	208.62
297.37	202.62
297.601	203.62
297.831	203.62
298.062	197.62
298.292	212.62
298.523	220.62
298.753	202.62
298.984	205.62
299.214	201.62
299.445	208.62
299.675	217.62
299.905	203.62
300.136	209.62
300.366	212.62
300.597	224.62
300.827	209.62
301.057	215.62
301.288	212.62
301.518	207.62
301.748	210.62
301.979	205.62
302.209	212.62
302.439	216.62
302.669	221.62
302.9	216.62
303.13	218.62
303.36	219.62
303.59	209.62
303.82	208.62
304.051	241.62
304.281	220.62
304.511	210.62
304.741	220.62
304.971	242.62
305.201	234.62
305.431	235.62
305.661	221.62
305.891	212.62
306.121	211.62
306.352	201.62
306.582	210.62
306.812	237.62
307.042	218.62
307.272	220.62
307.502	214.62
307.731	225.62
307.961	220.62
308.191	232.62
308.421	237.62
308.651	224.62
308.881	207.62
309.111	215.62
309.341	227.62
309.571	246.62
309.8	236.62
310.03	236.62
310.26	239.62
310.49	251.62
310.72	252.62
310.949	248.62
311.179	247.62
311.409	257.62
311.639	263.62
311.868	277.62
312.098	254.62
312.328	263.62
312.557	283.62
312.787	282.62
313.017	256.62
313.246	265.62
313.476	246.62
313.706	255.62
313.935	251.62
314.165	248.62
314.394	252.62
314.624	238.62
314.853	274.62
315.083	270.62
315.312	254.62
315.542	243.62
315.771	264.62
316.001	249.62
316.23	247.62
316.46	251.62
316.689	248.62
316.919	260.62
317.148	273.62
317.377	272.62
317.607	263.62
317.836	232.62
318.065	243.62
318.295	245.62
318.524	248.62
318.753	226.62
318.983	258.62
319.212	255.62
319.441	250.62
319.67	260.62
319.9	261.62
320.129	264.62
320.358	254.62
320.587	269.62
320.816	267.62
321.046	279.62
321.275	283.62
321.504	260.62
321.733	286.62
321.962	272.62
322.191	285.62
322.42	298.62
322.649	304.62
322.878	305.62
323.108	311.62
323.337	308.62
323.566	346.62
323.795	349.62
324.024	385.62
324.253	492.62
324.482	679.62
324.71	1000.62
324.939	1301.62
325.168	1066.62
325.397	581.62
325.626	413.62
325.855	346.62
326.084	335.62
326.313	329.62
326.542	340.62
326.77	362.62
326.999	451.62
327.228	606.62
327.457	855.62
327.686	943.62
327.914	647.62
328.143	437.62
328.372	419.62
328.6	354.62
328.829	353.62
329.058	377.62
329.287	360.62
329.515	335.62
329.744	317.62
329.972	330.62
330.201	333.62
330.43	368.62
330.658	381.62
330.887	381.62
331.115	368.62
331.344	329.62
331.572	313.62
331.801	302.62
332.03	296.62
332.258	329.62
332.486	302.62
332.715	291.62
332.943	288.62
333.172	309.62
333.4	282.62
333.629	309.62
333.857	304.62
334.085	291.62
334.314	318.62
334.542	337.62
334.771	333.62
334.999	313.62
335.227	314.62
335.455	307.62
335.684	303.62
335.912	293.62
336.14	311.62
336.369	295.62
336.597	275.62
336.825	291.62
337.053	307.62
337.281	304.62
337.51	294.62
337.738	281.62
337.966	265.62
338.194	284.62
338.422	290.62
338.65	285.62
338.878	283.62
339.106	277.62
339.334	284.62
339.562	277.62
339.79	276.62
340.018	270.62
340.246	270.62
340.474	274.62
340.702	288.62
340.93	271.62
341.158	256.62
341.386	266.62
341.614	267.62
341.842	292.62
342.07	267.62
342.298	267.62
342.526	244.62
342.754	265.62
342.981	260.62
343.209	258.62
343.437	295.62
343.665	293.62
343.893	280.62
344.12	300.62
344.348	280.62
344.576	272.62
344.804	290.62
345.031	299.62
345.259	289.62
345.487	279.62
345.714	285.62
345.942	271.62
346.17	277.62
346.397	269.62
346.625	274.62
346.853	271.62
347.08	274.62
347.308	265.62
347.535	275.62
347.763	281.62
347.99	284.62
348.218	287.62
348.445	277.62
348.673	279.62
348.9	291.62
349.128	267.62
349.355	255.62
349.583	245.62
349.81	270.62
350.037	267.62
350.265	287.62
350.492	265.62
350.72	248.62
350.947	270.62
351.174	252.62
351.402	276.62
351.629	273.62
351.856	274.62
352.083	265.62
352.311	277.62
352.538	274.62
352.765	292.62
352.992	269.62
353.22	270.62
353.447	256.62
353.674	277.62
353.901	269.62
354.128	269.62
354.355	260.62
354.583	248.62
354.81	259.62
355.037	261.62
355.264	243.62
355.491	266.62
355.718	241.62
355.945	253.62
356.172	244.62
356.399	244.62
356.626	242.62
356.853	256.62
357.08	255.62
357.307	234.62
357.534	232.62
357.761	236.62
357.988	239.62
358.215	234.62
358.441	259.62
358.668	258.62
358.895	253.62
359.122	263.62
359.349	270.62
359.576	274.62
359.802	282.62
360.029	293.62
360.256	293.62
360.483	271.62
360.709	273.62
360.936	276.62
361.163	263.62
361.39	265.62
361.616	278.62
361.843	241.62
362.07	258.62
362.296	278.62
362.523	268.62
362.749	259.62
362.976	262.62
363.203	268.62
363.429	247.62
363.656	261.62
363.882	259.62
364.109	269.62
364.335	236.62
364.562	260.62
364.788	258.62
365.015	253.62
365.241	232.62
365.468	241.62
365.694	265.62
365.92	251.62
366.147	257.62
366.373	247.62
366.599	239.62
366.826	233.62
367.052	255.62
367.278	243.62
367.505	254.62
367.731	260.62
367.957	247.62
368.184	259.62
368.41	247.62
368.636	255.62
368.862	267.62
369.089	261.62
369.315	259.62
369.541	247.62
369.767	240.62
369.993	252.62
370.219	251.62
370.445	243.62
370.672	255.62
370.898	250.62
371.124	243.62
371.35	247.62
371.576	224.62
371.802	263.62
372.028	244.62
372.254	267.62
372.48	244.62
372.706	259.62
372.932	245.62
373.158	243.62
373.384	255.62
373.61	258.62
373.835	232.62
374.061	239.62
374.287	233.62
374.513	249.62
374.739	248.62
374.965	245.62
375.191	253.62
375.416	267.62
375.642	253.62
375.868	265.62
376.094	257.62
376.319	242.62
376.545	264.62
376.771	235.62
376.997	233.62
377.222	240.62
377.448	239.62
377.674	246.62
377.899	246.62
378.125	239.62
378.35	243.62
378.576	240.62
378.802	234.62
379.027	240.62
379.253	253.62
379.478	239.62
379.704	246.62
379.929	250.62
380.155	245.62
380.38	253.62
380.606	240.62
380.831	244.62
381.057	240.62
381.282	250.62
381.507	239.62
381.733	244.62
381.958	259.62
382.184	244.62
382.409	234.62
382.634	244.62
382.86	242.62
383.085	249.62
383.31	243.62
383.535	259.62
383.761	258.62
383.986	262.62
384.211	236.62
384.436	267.62
384.662	241.62
384.887	249.62
385.112	262.62
385.337	262.62
385.562	273.62
385.787	259.62
386.013	249.62
386.238	251.62
386.463	266.62
386.688	281.62
386.913	248.62
387.138	252.62
387.363	249.62
387.588	246.62
387.813	255.62
388.038	265.62
388.263	268.62
388.488	274.62
388.713	252.62
388.938	268.62
389.163	259.62
389.387	254.62
389.612	264.62
389.837	279.62
390.062	243.62
390.287	260.62
390.512	267.62
390.736	247.62
390.961	273.62
391.186	263.62
391.411	255.62
391.636	261.62
391.86	245.62
392.085	269.62
392.31	253.62
392.534	250.62
392.759	271.62
392.984	243.62
393.208	261.62
393.433	246.62
393.658	269.62
393.882	265.62
394.107	255.62
394.331	259.62
394.556	277.62
394.78	253.62
395.005	259.62
395.229	261.62
395.454	268.62
395.678	269.62
395.903	279.62
396.127	296.62
396.352	283.62
396.576	249.62
396.801	260.62
397.025	252.62
397.249	258.62
397.474	270.62
397.698	273.62
397.922	290.62
398.147	291.62
398.371	281.62
398.595	273.62
398.82	278.62
399.044	294.62
399.268	292.62
399.492	304.62
399.717	321.62
399.941	319.62
400.165	335.62
400.389	341.62
400.613	305.62
400.837	306.62
401.062	305.62
401.286	286.62
401.51	295.62
401.734	278.62
401.958	287.62
402.182	289.62
402.406	282.62
402.63	301.62
402.854	276.62
403.078	295.62
403.302	289.62
403.526	292.62
403.75	284.62
403.974	299.62
404.198	283.62
404.422	298.62
404.645	294.62
404.869	309.62
405.093	303.62
405.317	320.62
405.541	328.62
405.765	308.62
405.988	307.62
406.212	321.62
406.436	318.62
406.66	327.62
406.883	328.62
407.107	334.62
407.331	351.62
407.555	358.62
407.778	379.62
408.002	348.62
408.226	311.62
408.449	326.62
408.673	312.62
408.896	333.62
409.12	360.62
409.344	326.62
409.567	305.62
409.791	297.62
410.014	293.62
410.238	295.62
410.461	287.62
410.685	282.62
410.908	309.62
411.132	309.62
411.355	332.62
411.578	312.62
411.802	276.62
412.025	291.62
412.249	288.62
412.472	300.62
412.695	328.62
412.919	322.62
413.142	284.62
413.365	299.62
413.589	284.62
413.812	281.62
414.035	280.62
414.258	293.62
414.482	277.62
414.705	258.62
414.928	283.62
415.151	272.62
415.374	254.62
415.597	270.62
415.821	266.62
416.044	279.62
416.267	283.62
416.49	268.62
416.713	261.62
416.936	265.62
417.159	275.62
417.382	276.62
417.605	281.62
417.828	285.62
418.051	284.62
418.274	286.62
418.497	296.62
418.72	278.62
418.943	295.62
419.166	298.62
419.389	289.62
419.611	301.62
419.834	297.62
420.057	278.62
420.28	289.62
420.503	270.62
420.726	286.62
420.948	296.62
421.171	309.62
421.394	333.62
421.617	297.62
421.839	295.62
422.062	289.62
422.285	290.62
422.507	349.62
422.73	376.62
422.953	345.62
423.175	313.62
423.398	291.62
423.621	303.62
423.843	316.62
424.066	312.62
424.288	313.62
424.511	324.62
424.733	353.62
424.956	386.62
425.178	359.62
425.401	375.62
425.623	393.62
425.846	338.62
426.068	324.62
426.291	309.62
426.513	320.62
426.735	315.62
426.958	348.62
427.18	381.62
427.402	438.62
427.625	471.62
427.847	440.62
428.069	363.62
428.292	341.62
428.514	308.62
428.736	286.62
428.958	279.62
429.181	305.62
429.403	305.62
429.625	276.62
429.847	346.62
430.069	331.62
430.292	336.62
430.514	297.62
430.736	289.62
430.958	264.62
431.18	285.62
431.402	272.62
431.624	281.62
431.846	268.62
432.068	278.62
432.29	268.62
432.512	275.62
432.734	273.62
432.956	282.62
433.178	274.62
433.4	296.62
433.622	282.62
433.844	267.62
434.066	261.62
434.287	283.62
434.509	283.62
434.731	279.62
434.953	290.62
435.175	284.62
435.397	307.62
435.618	331.62
435.84	346.62
436.062	373.62
436.284	397.62
436.505	342.62
436.727	329.62
436.949	308.62
437.17	290.62
437.392	282.62
437.614	322.62
437.835	323.62
438.057	364.62
438.278	401.62
438.5	427.62
438.721	451.62
438.943	418.62
439.165	355.62
439.386	332.62
439.608	321.62
439.829	311.62
440.05	332.62
440.272	349.62
440.493	343.62
440.715	316.62
440.936	294.62
441.158	288.62
441.379	304.62
441.6	292.62
441.822	328.62
442.043	342.62
442.264	357.62
442.486	383.62
442.707	352.62
442.928	322.62
443.149	312.62
443.371	335.62
443.592	356.62
443.813	395.62
444.034	420.62
444.255	351.62
444.476	309.62
444.698	317.62
444.919	322.62
445.14	381.62
445.361	346.62
445.582	336.62
445.803	369.62
446.024	427.62
446.245	449.62
446.466	398.62
446.687	325.62
446.908	317.62
447.129	284.62
447.35	291.62
447.571	296.62
447.792	288.62
448.013	285.62
448.234	300.62
448.455	323.62
448.675	406.62
448.896	449.62
449.117	370.62
449.338	368.62
449.559	417.62
449.779	453.62
450	359.62
450.221	330.62
450.442	282.62
450.662	292.62
450.883	283.62
451.104	285.62
451.324	299.62
451.545	283.62
451.766	254.62
451.986	247.62
452.207	269.62
452.428	265.62
452.648	281.62
452.869	263.62
453.089	246.62
453.31	272.62
453.53	271.62
453.751	265.62
453.971	255.62
454.192	279.62
454.412	273.62
454.633	275.62
454.853	246.62
455.073	260.62
455.294	280.62
455.514	300.62
455.734	305.62
455.955	279.62
456.175	256.62
456.395	250.62
456.616	246.62
456.836	243.62
457.056	234.62
457.276	234.62
457.497	243.62
457.717	246.62
457.937	240.62
458.157	235.62
458.377	268.62
458.598	252.62
458.818	307.62
459.038	337.62
459.258	347.62
459.478	297.62
459.698	282.62
459.918	268.62
460.138	268.62
460.358	257.62
460.578	261.62
460.798	244.62
461.018	299.62
461.238	275.62
461.458	275.62
461.678	274.62
461.898	290.62
462.118	282.62
462.338	264.62
462.558	285.62
462.777	290.62
462.997	287.62
463.217	284.62
463.437	291.62
463.657	289.62
463.876	298.62
464.096	278.62
464.316	307.62
464.536	294.62
464.755	297.62
464.975	286.62
465.195	310.62
465.414	339.62
465.634	301.62
465.854	295.62
466.073	298.62
466.293	279.62
466.512	261.62
466.732	267.62
466.951	256.62
467.171	250.62
467.391	272.62
467.61	261.62
467.829	279.62
468.049	281.62
468.268	282.62
468.488	262.62
468.707	264.62
468.927	268.62
469.146	260.62
469.365	267.62
469.585	251.62
469.804	269.62
470.023	269.62
470.243	268.62
470.462	277.62
470.681	277.62
470.901	303.62
471.12	269.62
471.339	267.62
471.558	273.62
471.777	283.62
471.997	261.62
472.216	265.62
472.435	288.62
472.654	275.62
472.873	264.62
473.092	275.62
473.311	266.62
473.53	265.62
473.749	281.62
473.968	295.62
474.187	346.62
474.406	365.62
474.625	303.62
474.844	281.62
475.063	246.62
475.282	294.62
475.501	279.62
475.72	279.62
475.939	274.62
476.158	282.62
476.377	281.62
476.596	269.62
476.814	283.62
477.033	289.62
477.252	300.62
477.471	283.62
477.69	293.62
477.908	289.62
478.127	299.62
478.346	279.62
478.564	300.62
478.783	316.62
479.002	316.62
479.22	304.62
479.439	310.62
479.658	315.62
479.876	327.62
480.095	303.62
480.313	332.62
480.532	313.62
480.751	301.62
480.969	330.62
481.188	354.62
481.406	351.62
481.624	333.62
481.843	311.62
482.061	312.62
482.28	320.62
482.498	308.62
482.717	315.62
482.935	327.62
483.153	315.62
483.372	305.62
483.59	315.62
483.808	315.62
484.027	320.62
484.245	315.62
484.463	319.62
484.681	320.62
484.9	311.62
485.118	336.62
485.336	320.62
485.554	321.62
485.772	317.62
485.99	310.62
486.209	340.62
486.427	324.62
486.645	332.62
486.863	336.62
487.081	331.62
487.299	320.62
487.517	325.62
487.735	333.62
487.953	336.62
488.171	340.62
488.389	317.62
488.607	342.62
488.825	322.62
489.043	326.62
489.261	337.62
489.479	339.62
489.696	352.62
489.914	332.62
490.132	328.62
490.35	344.62
490.568	346.62
490.786	344.62
491.003	357.62
491.221	353.62
491.439	363.62
491.657	367.62
491.874	378.62
492.092	387.62
492.31	392.62
492.527	363.62
492.745	386.62
492.963	375.62
493.18	381.62
493.398	388.62
493.615	380.62
493.833	375.62
494.05	389.62
494.268	393.62
494.485	397.62
494.703	385.62
494.92	381.62
495.138	383.62
495.355	375.62
495.573	371.62
495.79	412.62
496.008	401.62
496.225	395.62
496.442	374.62
496.66	405.62
496.877	405.62
497.094	387.62
497.312	409.62
497.529	404.62
497.746	405.62
497.963	421.62
498.181	429.62
498.398	415.62
498.615	403.62
498.832	399.62
499.049	418.62
499.267	443.62
499.484	441.62
499.701	438.62
499.918	454.62
500.135	472.62
500.352	487.62
500.569	500.62
500.786	499.62
501.003	482.62
501.22	481.62
501.437	441.62
501.654	465.62
501.871	473.62
502.088	443.62
502.305	428.62
