Data from 1982.PennyLincolnUp.Lamp.En5.5.200Scan.071819.P1_HRD10591_16-47-46-963.txt Node
Date: Thu Jul 18 16:47:46 EDT 2019
User: cochatt
Spectrometer: HR+D1059
Trigger mode: 1
Integration Time (sec): 1.000000E-1
Scans to average: 1
Electric dark correction enabled: true
Nonlinearity correction enabled: false
Boxcar width: 0
XAxis mode: Wavelengths
Number of Pixels in Spectrum: 2048
>>>>>Begin Spectral Data<<<<<
223.165	-8.06
223.4	-8.06
223.635	-8.06
223.869	-16.06
224.104	-20.06
224.338	-23.06
224.573	-17.06
224.808	-4.06
225.042	2.94
225.277	-3.06
225.511	-4.06
225.746	-4.06
225.98	-0.06
226.215	18.94
226.449	15.94
226.683	20.94
226.918	24.94
227.152	15.94
227.387	42.94
227.621	39.94
227.856	52.94
228.09	55.94
228.324	44.94
228.559	53.94
228.793	56.94
229.027	80.94
229.262	86.94
229.496	112.94
229.73	117.94
229.964	132.94
230.199	108.94
230.433	105.94
230.667	105.94
230.901	96.94
231.136	104.94
231.37	97.94
231.604	107.94
231.838	106.94
232.072	99.94
232.306	114.94
232.541	98.94
232.775	91.94
233.009	101.94
233.243	103.94
233.477	112.94
233.711	111.94
233.945	103.94
234.179	99.94
234.413	120.94
234.647	119.94
234.881	103.94
235.115	103.94
235.349	105.94
235.583	118.94
235.817	110.94
236.051	116.94
236.285	114.94
236.519	106.94
236.753	134.94
236.987	130.94
237.221	153.94
237.455	201.94
237.689	172.94
237.922	124.94
238.156	124.94
238.39	123.94
238.624	124.94
238.858	112.94
239.091	104.94
239.325	114.94
239.559	110.94
239.793	106.94
240.027	115.94
240.26	122.94
240.494	146.94
240.728	118.94
240.961	124.94
241.195	123.94
241.429	135.94
241.662	129.94
241.896	105.94
242.13	129.94
242.363	127.94
242.597	129.94
242.83	115.94
243.064	115.94
243.298	127.94
243.531	103.94
243.765	128.94
243.998	128.94
244.232	119.94
244.465	135.94
244.699	115.94
244.932	123.94
245.166	132.94
245.399	135.94
245.633	114.94
245.866	122.94
246.099	132.94
246.333	130.94
246.566	137.94
246.8	141.94
247.033	137.94
247.266	135.94
247.5	122.94
247.733	136.94
247.966	150.94
248.2	155.94
248.433	127.94
248.666	148.94
248.899	162.94
249.133	159.94
249.366	171.94
249.599	169.94
249.832	129.94
250.066	159.94
250.299	166.94
250.532	164.94
250.765	174.94
250.998	181.94
251.231	199.94
251.465	179.94
251.698	162.94
251.931	182.94
252.164	152.94
252.397	173.94
252.63	166.94
252.863	177.94
253.096	185.94
253.329	196.94
253.562	173.94
253.795	173.94
254.028	174.94
254.261	180.94
254.494	196.94
254.727	226.94
254.96	216.94
255.193	214.94
255.426	195.94
255.659	193.94
255.892	187.94
256.124	184.94
256.357	188.94
256.59	195.94
256.823	184.94
257.056	203.94
257.289	190.94
257.521	191.94
257.754	166.94
257.987	175.94
258.22	165.94
258.452	182.94
258.685	171.94
258.918	172.94
259.151	173.94
259.383	185.94
259.616	178.94
259.849	198.94
260.081	196.94
260.314	204.94
260.547	208.94
260.779	201.94
261.012	200.94
261.244	183.94
261.477	203.94
261.71	177.94
261.942	179.94
262.175	192.94
262.407	185.94
262.64	183.94
262.872	180.94
263.105	179.94
263.337	194.94
263.57	180.94
263.802	172.94
264.035	181.94
264.267	190.94
264.499	174.94
264.732	182.94
264.964	190.94
265.197	179.94
265.429	179.94
265.661	179.94
265.894	190.94
266.126	162.94
266.358	186.94
266.591	180.94
266.823	176.94
267.055	194.94
267.287	191.94
267.52	190.94
267.752	184.94
267.984	188.94
268.216	192.94
268.448	194.94
268.681	195.94
268.913	213.94
269.145	218.94
269.377	239.94
269.609	210.94
269.841	218.94
270.073	228.94
270.306	240.94
270.538	266.94
270.77	251.94
271.002	258.94
271.234	252.94
271.466	249.94
271.698	278.94
271.93	267.94
272.162	264.94
272.394	266.94
272.626	255.94
272.858	252.94
273.09	238.94
273.322	223.94
273.553	218.94
273.785	219.94
274.017	198.94
274.249	221.94
274.481	222.94
274.713	233.94
274.945	228.94
275.176	204.94
275.408	222.94
275.64	219.94
275.872	207.94
276.104	223.94
276.335	215.94
276.567	229.94
276.799	227.94
277.031	255.94
277.262	260.94
277.494	255.94
277.726	243.94
277.957	242.94
278.189	230.94
278.421	231.94
278.652	212.94
278.884	220.94
279.115	220.94
279.347	216.94
279.579	216.94
279.81	234.94
280.042	209.94
280.273	215.94
280.505	194.94
280.736	199.94
280.968	208.94
281.199	222.94
281.431	212.94
281.662	206.94
281.894	218.94
282.125	224.94
282.356	231.94
282.588	260.94
282.819	253.94
283.051	227.94
283.282	217.94
283.513	246.94
283.745	232.94
283.976	232.94
284.207	232.94
284.439	235.94
284.67	227.94
284.901	222.94
285.132	229.94
285.364	217.94
285.595	228.94
285.826	236.94
286.057	220.94
286.288	212.94
286.52	205.94
286.751	228.94
286.982	227.94
287.213	221.94
287.444	229.94
287.675	226.94
287.906	242.94
288.138	243.94
288.369	227.94
288.6	234.94
288.831	244.94
289.062	246.94
289.293	237.94
289.524	218.94
289.755	235.94
289.986	208.94
290.217	221.94
290.448	233.94
290.679	237.94
290.91	231.94
291.141	228.94
291.371	244.94
291.602	227.94
291.833	239.94
292.064	231.94
292.295	236.94
292.526	239.94
292.757	219.94
292.987	234.94
293.218	243.94
293.449	242.94
293.68	239.94
293.91	239.94
294.141	232.94
294.372	226.94
294.603	233.94
294.833	236.94
295.064	239.94
295.295	227.94
295.525	237.94
295.756	248.94
295.987	244.94
296.217	257.94
296.448	262.94
296.679	254.94
296.909	244.94
297.14	233.94
297.37	243.94
297.601	244.94
297.831	229.94
298.062	221.94
298.292	242.94
298.523	251.94
298.753	261.94
298.984	236.94
299.214	225.94
299.445	241.94
299.675	234.94
299.905	242.94
300.136	244.94
300.366	243.94
300.597	228.94
300.827	243.94
301.057	240.94
301.288	270.94
301.518	253.94
301.748	267.94
301.979	266.94
302.209	257.94
302.439	246.94
302.669	248.94
302.9	259.94
303.13	259.94
303.36	262.94
303.59	291.94
303.82	265.94
304.051	260.94
304.281	263.94
304.511	245.94
304.741	244.94
304.971	247.94
305.201	239.94
305.431	260.94
305.661	246.94
305.891	259.94
306.121	261.94
306.352	266.94
306.582	264.94
306.812	269.94
307.042	270.94
307.272	279.94
307.502	269.94
307.731	268.94
307.961	262.94
308.191	277.94
308.421	263.94
308.651	266.94
308.881	279.94
309.111	284.94
309.341	272.94
309.571	287.94
309.8	290.94
310.03	306.94
310.26	292.94
310.49	303.94
310.72	306.94
310.949	316.94
311.179	315.94
311.409	318.94
311.639	300.94
311.868	298.94
312.098	298.94
312.328	288.94
312.557	342.94
312.787	359.94
313.017	325.94
313.246	318.94
313.476	285.94
313.706	283.94
313.935	318.94
314.165	314.94
314.394	318.94
314.624	320.94
314.853	309.94
315.083	303.94
315.312	312.94
315.542	292.94
315.771	303.94
316.001	311.94
316.23	298.94
316.46	294.94
316.689	297.94
316.919	295.94
317.148	312.94
317.377	317.94
317.607	313.94
317.836	306.94
318.065	287.94
318.295	319.94
318.524	298.94
318.753	287.94
318.983	302.94
319.212	295.94
319.441	307.94
319.67	316.94
319.9	296.94
320.129	309.94
320.358	297.94
320.587	300.94
320.816	317.94
321.046	324.94
321.275	323.94
321.504	328.94
321.733	326.94
321.962	351.94
322.191	336.94
322.42	357.94
322.649	362.94
322.878	358.94
323.108	394.94
323.337	412.94
323.566	425.94
323.795	470.94
324.024	512.94
324.253	647.94
324.482	958.94
324.71	1452.94
324.939	1886.94
325.168	1495.94
325.397	796.94
325.626	558.94
325.855	462.94
326.084	443.94
326.313	429.94
326.542	436.94
326.77	487.94
326.999	598.94
327.228	848.94
327.457	1255.94
327.686	1375.94
327.914	900.94
328.143	610.94
328.372	543.94
328.6	496.94
328.829	484.94
329.058	480.94
329.287	493.94
329.515	436.94
329.744	426.94
329.972	438.94
330.201	448.94
330.43	471.94
330.658	494.94
330.887	523.94
331.115	499.94
331.344	429.94
331.572	400.94
331.801	398.94
332.03	387.94
332.258	387.94
332.486	350.94
332.715	350.94
332.943	360.94
333.172	355.94
333.4	356.94
333.629	365.94
333.857	374.94
334.085	386.94
334.314	387.94
334.542	428.94
334.771	449.94
334.999	398.94
335.227	369.94
335.455	364.94
335.684	354.94
335.912	349.94
336.14	347.94
336.369	337.94
336.597	351.94
336.825	356.94
337.053	344.94
337.281	339.94
337.51	360.94
337.738	332.94
337.966	338.94
338.194	351.94
338.422	349.94
338.65	352.94
338.878	334.94
339.106	318.94
339.334	329.94
339.562	330.94
339.79	339.94
340.018	341.94
340.246	330.94
340.474	340.94
340.702	332.94
340.93	341.94
341.158	318.94
341.386	338.94
341.614	333.94
341.842	328.94
342.07	333.94
342.298	328.94
342.526	318.94
342.754	322.94
342.981	320.94
343.209	324.94
343.437	335.94
343.665	320.94
343.893	327.94
344.12	316.94
344.348	328.94
344.576	332.94
344.804	325.94
345.031	324.94
345.259	361.94
345.487	352.94
345.714	319.94
345.942	349.94
346.17	327.94
346.397	324.94
346.625	311.94
346.853	331.94
347.08	331.94
347.308	330.94
347.535	325.94
347.763	340.94
347.99	331.94
348.218	341.94
348.445	332.94
348.673	326.94
348.9	318.94
349.128	296.94
349.355	310.94
349.583	301.94
349.81	321.94
350.037	314.94
350.265	308.94
350.492	315.94
350.72	327.94
350.947	331.94
351.174	320.94
351.402	349.94
351.629	326.94
351.856	332.94
352.083	330.94
352.311	333.94
352.538	342.94
352.765	331.94
352.992	321.94
353.22	327.94
353.447	329.94
353.674	330.94
353.901	309.94
354.128	316.94
354.355	315.94
354.583	298.94
354.81	299.94
355.037	294.94
355.264	296.94
355.491	301.94
355.718	295.94
355.945	296.94
356.172	295.94
356.399	286.94
356.626	283.94
356.853	286.94
357.08	277.94
357.307	268.94
357.534	310.94
357.761	299.94
357.988	306.94
358.215	293.94
358.441	283.94
358.668	286.94
358.895	285.94
359.122	297.94
359.349	320.94
359.576	328.94
359.802	326.94
360.029	350.94
360.256	359.94
360.483	350.94
360.709	320.94
360.936	302.94
361.163	321.94
361.39	306.94
361.616	328.94
361.843	303.94
362.07	301.94
362.296	332.94
362.523	296.94
362.749	310.94
362.976	308.94
363.203	294.94
363.429	287.94
363.656	280.94
363.882	292.94
364.109	304.94
364.335	292.94
364.562	302.94
364.788	291.94
365.015	300.94
365.241	300.94
365.468	313.94
365.694	290.94
365.92	291.94
366.147	294.94
366.373	311.94
366.599	297.94
366.826	292.94
367.052	285.94
367.278	307.94
367.505	285.94
367.731	301.94
367.957	287.94
368.184	301.94
368.41	295.94
368.636	300.94
368.862	310.94
369.089	302.94
369.315	288.94
369.541	291.94
369.767	297.94
369.993	286.94
370.219	290.94
370.445	296.94
370.672	302.94
370.898	272.94
371.124	280.94
371.35	287.94
371.576	279.94
371.802	281.94
372.028	272.94
372.254	297.94
372.48	284.94
372.706	291.94
372.932	284.94
373.158	283.94
373.384	318.94
373.61	302.94
373.835	287.94
374.061	286.94
374.287	276.94
374.513	298.94
374.739	285.94
374.965	277.94
375.191	278.94
375.416	279.94
375.642	291.94
375.868	308.94
376.094	302.94
376.319	290.94
376.545	264.94
376.771	266.94
376.997	279.94
377.222	281.94
377.448	270.94
377.674	282.94
377.899	272.94
378.125	248.94
378.35	286.94
378.576	301.94
378.802	261.94
379.027	277.94
379.253	279.94
379.478	266.94
379.704	300.94
379.929	276.94
380.155	275.94
380.38	267.94
380.606	278.94
380.831	285.94
381.057	314.94
381.282	267.94
381.507	278.94
381.733	287.94
381.958	296.94
382.184	275.94
382.409	278.94
382.634	296.94
382.86	276.94
383.085	284.94
383.31	283.94
383.535	272.94
383.761	276.94
383.986	294.94
384.211	280.94
384.436	294.94
384.662	282.94
384.887	283.94
385.112	294.94
385.337	294.94
385.562	290.94
385.787	288.94
386.013	316.94
386.238	309.94
386.463	299.94
386.688	314.94
386.913	310.94
387.138	298.94
387.363	316.94
387.588	287.94
387.813	310.94
388.038	280.94
388.263	298.94
388.488	292.94
388.713	300.94
388.938	287.94
389.163	312.94
389.387	300.94
389.612	300.94
389.837	307.94
390.062	286.94
390.287	292.94
390.512	283.94
390.736	294.94
390.961	279.94
391.186	302.94
391.411	296.94
391.636	312.94
391.86	278.94
392.085	293.94
392.31	292.94
392.534	293.94
392.759	292.94
392.984	311.94
393.208	306.94
393.433	295.94
393.658	282.94
393.882	285.94
394.107	276.94
394.331	292.94
394.556	272.94
394.78	296.94
395.005	277.94
395.229	295.94
395.454	301.94
395.678	294.94
395.903	310.94
396.127	298.94
396.352	325.94
396.576	298.94
396.801	298.94
397.025	308.94
397.249	306.94
397.474	303.94
397.698	309.94
397.922	328.94
398.147	322.94
398.371	323.94
398.595	323.94
398.82	313.94
399.044	315.94
399.268	318.94
399.492	331.94
399.717	351.94
399.941	384.94
400.165	373.94
400.389	397.94
400.613	364.94
400.837	326.94
401.062	326.94
401.286	327.94
401.51	337.94
401.734	330.94
401.958	342.94
402.182	350.94
402.406	336.94
402.63	322.94
402.854	335.94
403.078	340.94
403.302	338.94
403.526	327.94
403.75	318.94
403.974	352.94
404.198	340.94
404.422	324.94
404.645	322.94
404.869	357.94
405.093	351.94
405.317	374.94
405.541	404.94
405.765	390.94
405.988	362.94
406.212	357.94
406.436	368.94
406.66	379.94
406.883	352.94
407.107	376.94
407.331	414.94
407.555	457.94
407.778	436.94
408.002	400.94
408.226	365.94
408.449	376.94
408.673	363.94
408.896	382.94
409.12	414.94
409.344	396.94
409.567	367.94
409.791	345.94
410.014	351.94
410.238	324.94
410.461	338.94
410.685	342.94
410.908	348.94
411.132	391.94
411.355	392.94
411.578	373.94
411.802	344.94
412.025	341.94
412.249	349.94
412.472	362.94
412.695	375.94
412.919	371.94
413.142	342.94
413.365	319.94
413.589	340.94
413.812	316.94
414.035	351.94
414.258	319.94
414.482	314.94
414.705	306.94
414.928	322.94
415.151	294.94
415.374	315.94
415.597	296.94
415.821	294.94
416.044	304.94
416.267	325.94
416.49	315.94
416.713	316.94
416.936	294.94
417.159	308.94
417.382	321.94
417.605	314.94
417.828	354.94
418.051	330.94
418.274	322.94
418.497	325.94
418.72	304.94
418.943	311.94
419.166	338.94
419.389	344.94
419.611	334.94
419.834	322.94
420.057	322.94
420.28	357.94
420.503	331.94
420.726	348.94
420.948	361.94
421.171	391.94
421.394	386.94
421.617	348.94
421.839	342.94
422.062	340.94
422.285	354.94
422.507	390.94
422.73	437.94
422.953	404.94
423.175	378.94
423.398	356.94
423.621	340.94
423.843	343.94
424.066	370.94
424.288	360.94
424.511	374.94
424.733	412.94
424.956	475.94
425.178	453.94
425.401	431.94
425.623	449.94
425.846	386.94
426.068	363.94
426.291	366.94
426.513	372.94
426.735	370.94
426.958	403.94
427.18	468.94
427.402	549.94
427.625	605.94
427.847	534.94
428.069	473.94
428.292	426.94
428.514	370.94
428.736	346.94
428.958	342.94
429.181	347.94
429.403	355.94
429.625	348.94
429.847	372.94
430.069	412.94
430.292	420.94
430.514	358.94
430.736	318.94
430.958	319.94
431.18	312.94
431.402	315.94
431.624	301.94
431.846	313.94
432.068	314.94
432.29	320.94
432.512	326.94
432.734	315.94
432.956	319.94
433.178	325.94
433.4	320.94
433.622	321.94
433.844	318.94
434.066	318.94
434.287	312.94
434.509	335.94
434.731	331.94
434.953	311.94
435.175	346.94
435.397	355.94
435.618	370.94
435.84	394.94
436.062	477.94
436.284	477.94
436.505	419.94
436.727	381.94
436.949	374.94
437.17	340.94
437.392	346.94
437.614	349.94
437.835	380.94
438.057	426.94
438.278	510.94
438.5	502.94
438.721	546.94
438.943	522.94
439.165	408.94
439.386	377.94
439.608	355.94
439.829	394.94
440.05	398.94
440.272	431.94
440.493	411.94
440.715	373.94
440.936	353.94
441.158	330.94
441.379	371.94
441.6	362.94
441.822	358.94
442.043	374.94
442.264	470.94
442.486	488.94
442.707	395.94
442.928	382.94
443.149	396.94
443.371	413.94
443.592	398.94
443.813	505.94
444.034	501.94
444.255	416.94
444.476	395.94
444.698	355.94
444.919	360.94
445.14	462.94
445.361	427.94
445.582	399.94
445.803	450.94
446.024	512.94
446.245	540.94
446.466	471.94
446.687	378.94
446.908	377.94
447.129	327.94
447.35	343.94
447.571	340.94
447.792	362.94
448.013	336.94
448.234	353.94
448.455	392.94
448.675	482.94
448.896	532.94
449.117	460.94
449.338	447.94
449.559	501.94
449.779	582.94
450	463.94
450.221	365.94
450.442	345.94
450.662	342.94
450.883	357.94
451.104	350.94
451.324	352.94
451.545	327.94
451.766	312.94
451.986	312.94
452.207	303.94
452.428	292.94
452.648	310.94
452.869	324.94
453.089	315.94
453.31	325.94
453.53	295.94
453.751	303.94
453.971	294.94
454.192	331.94
454.412	310.94
454.633	301.94
454.853	318.94
455.073	300.94
455.294	328.94
455.514	368.94
455.734	373.94
455.955	316.94
456.175	303.94
456.395	278.94
456.616	295.94
456.836	276.94
457.056	288.94
457.276	282.94
457.497	298.94
457.717	288.94
457.937	278.94
458.157	306.94
458.377	303.94
458.598	317.94
458.818	367.94
459.038	394.94
459.258	408.94
459.478	352.94
459.698	343.94
459.918	301.94
460.138	316.94
460.358	302.94
460.578	312.94
460.798	304.94
461.018	307.94
461.238	316.94
461.458	304.94
461.678	315.94
461.898	306.94
462.118	307.94
462.338	322.94
462.558	318.94
462.777	318.94
462.997	326.94
463.217	314.94
463.437	310.94
463.657	326.94
463.876	325.94
464.096	338.94
464.316	333.94
464.536	332.94
464.755	346.94
464.975	319.94
465.195	383.94
465.414	431.94
465.634	378.94
465.854	334.94
466.073	333.94
466.293	331.94
466.512	313.94
466.732	300.94
466.951	302.94
467.171	320.94
467.391	314.94
467.61	317.94
467.829	321.94
468.049	325.94
468.268	321.94
468.488	324.94
468.707	310.94
468.927	295.94
469.146	310.94
469.365	301.94
469.585	306.94
469.804	287.94
470.023	316.94
470.243	328.94
470.462	314.94
470.681	338.94
470.901	329.94
471.12	315.94
471.339	324.94
471.558	328.94
471.777	311.94
471.997	312.94
472.216	334.94
472.435	354.94
472.654	323.94
472.873	327.94
473.092	306.94
473.311	312.94
473.53	320.94
473.749	323.94
473.968	359.94
474.187	427.94
474.406	444.94
474.625	337.94
474.844	311.94
475.063	310.94
475.282	320.94
475.501	317.94
475.72	310.94
475.939	331.94
476.158	316.94
476.377	324.94
476.596	333.94
476.814	326.94
477.033	335.94
477.252	328.94
477.471	341.94
477.69	329.94
477.908	318.94
478.127	322.94
478.346	330.94
478.564	335.94
478.783	351.94
479.002	347.94
479.22	357.94
479.439	344.94
479.658	379.94
479.876	384.94
480.095	393.94
480.313	394.94
480.532	384.94
480.751	382.94
480.969	397.94
481.188	431.94
481.406	458.94
481.624	402.94
481.843	352.94
482.061	380.94
482.28	364.94
482.498	355.94
482.717	347.94
482.935	346.94
483.153	362.94
483.372	358.94
483.59	366.94
483.808	360.94
484.027	363.94
484.245	380.94
484.463	359.94
484.681	372.94
484.9	361.94
485.118	367.94
485.336	378.94
485.554	378.94
485.772	388.94
485.99	377.94
486.209	381.94
486.427	390.94
486.645	387.94
486.863	379.94
487.081	395.94
487.299	407.94
487.517	377.94
487.735	367.94
487.953	386.94
488.171	394.94
488.389	385.94
488.607	382.94
488.825	406.94
489.043	375.94
489.261	407.94
489.479	382.94
489.696	398.94
489.914	387.94
490.132	416.94
490.35	413.94
490.568	410.94
490.786	406.94
491.003	413.94
491.221	428.94
491.439	427.94
491.657	423.94
491.874	443.94
492.092	457.94
492.31	444.94
492.527	418.94
492.745	451.94
492.963	446.94
493.18	453.94
493.398	455.94
493.615	459.94
493.833	440.94
494.05	458.94
494.268	470.94
494.485	461.94
494.703	436.94
494.92	450.94
495.138	459.94
495.355	451.94
495.573	456.94
495.79	453.94
496.008	458.94
496.225	439.94
496.442	468.94
496.66	444.94
496.877	472.94
497.094	464.94
497.312	459.94
497.529	454.94
497.746	457.94
497.963	471.94
498.181	486.94
498.398	493.94
498.615	485.94
498.832	486.94
499.049	508.94
499.267	528.94
499.484	533.94
499.701	516.94
499.918	544.94
500.135	563.94
500.352	564.94
500.569	566.94
500.786	559.94
501.003	570.94
501.22	568.94
501.437	551.94
501.654	535.94
501.871	568.94
502.088	536.94
