Data from 1982.PennyLincolnUp.Lamp.En5.5.200Scan.071819.P1_HRD10591_16-47-52-962.txt Node
Date: Thu Jul 18 16:47:52 EDT 2019
User: cochatt
Spectrometer: HR+D1059
Trigger mode: 1
Integration Time (sec): 1.000000E-1
Scans to average: 1
Electric dark correction enabled: true
Nonlinearity correction enabled: false
Boxcar width: 0
XAxis mode: Wavelengths
Number of Pixels in Spectrum: 2048
>>>>>Begin Spectral Data<<<<<
223.165	-15
223.4	-15
223.635	-15
223.869	-24
224.104	-29
224.338	-15
224.573	-23
224.808	-7
225.042	3
225.277	1
225.511	8
225.746	8
225.98	0
226.215	8
226.449	-1
226.683	25
226.918	17
227.152	44
227.387	38
227.621	32
227.856	39
228.09	43
228.324	43
228.559	44
228.793	71
229.027	97
229.262	94
229.496	110
229.73	108
229.964	109
230.199	111
230.433	111
230.667	109
230.901	109
231.136	104
231.37	102
231.604	77
231.838	98
232.072	118
232.306	113
232.541	101
232.775	98
233.009	110
233.243	118
233.477	104
233.711	112
233.945	106
234.179	94
234.413	109
234.647	104
234.881	109
235.115	98
235.349	114
235.583	109
235.817	116
236.051	107
236.285	104
236.519	116
236.753	131
236.987	145
237.221	165
237.455	189
237.689	138
237.922	128
238.156	110
238.39	105
238.624	118
238.858	107
239.091	116
239.325	117
239.559	117
239.793	110
240.027	118
240.26	126
240.494	135
240.728	142
240.961	137
241.195	123
241.429	134
241.662	104
241.896	118
242.13	124
242.363	129
242.597	123
242.83	130
243.064	135
243.298	131
243.531	118
243.765	128
243.998	132
244.232	117
244.465	130
244.699	115
244.932	135
245.166	121
245.399	133
245.633	132
245.866	120
246.099	116
246.333	133
246.566	127
246.8	152
247.033	137
247.266	128
247.5	144
247.733	142
247.966	152
248.2	140
248.433	152
248.666	137
248.899	153
249.133	160
249.366	189
249.599	187
249.832	155
250.066	162
250.299	168
250.532	166
250.765	167
250.998	186
251.231	180
251.465	184
251.698	172
251.931	166
252.164	154
252.397	150
252.63	169
252.863	167
253.096	184
253.329	189
253.562	204
253.795	183
254.028	189
254.261	184
254.494	175
254.727	220
254.96	244
255.193	220
255.426	209
255.659	202
255.892	194
256.124	192
256.357	207
256.59	194
256.823	175
257.056	179
257.289	170
257.521	184
257.754	170
257.987	177
258.22	176
258.452	171
258.685	192
258.918	170
259.151	175
259.383	187
259.616	199
259.849	184
260.081	191
260.314	209
260.547	215
260.779	209
261.012	194
261.244	184
261.477	181
261.71	186
261.942	193
262.175	210
262.407	189
262.64	173
262.872	186
263.105	178
263.337	191
263.57	178
263.802	188
264.035	189
264.267	196
264.499	186
264.732	192
264.964	197
265.197	171
265.429	180
265.661	177
265.894	172
266.126	182
266.358	195
266.591	197
266.823	196
267.055	184
267.287	199
267.52	198
267.752	182
267.984	209
268.216	191
268.448	198
268.681	186
268.913	204
269.145	222
269.377	225
269.609	236
269.841	217
270.073	246
270.306	246
270.538	264
270.77	240
271.002	250
271.234	242
271.466	247
271.698	256
271.93	253
272.162	244
272.394	253
272.626	265
272.858	249
273.09	225
273.322	215
273.553	220
273.785	210
274.017	217
274.249	225
274.481	225
274.713	214
274.945	222
275.176	211
275.408	211
275.64	222
275.872	221
276.104	205
276.335	217
276.567	209
276.799	223
277.031	242
277.262	234
277.494	255
277.726	260
277.957	232
278.189	226
278.421	221
278.652	216
278.884	214
279.115	217
279.347	230
279.579	207
279.81	213
280.042	218
280.273	205
280.505	196
280.736	217
280.968	209
281.199	229
281.431	211
281.662	230
281.894	216
282.125	214
282.356	225
282.588	251
282.819	235
283.051	224
283.282	214
283.513	230
283.745	228
283.976	228
284.207	233
284.439	233
284.67	229
284.901	231
285.132	224
285.364	238
285.595	211
285.826	221
286.057	212
286.288	216
286.52	223
286.751	234
286.982	238
287.213	224
287.444	230
287.675	214
287.906	222
288.138	249
288.369	245
288.6	248
288.831	219
289.062	230
289.293	218
289.524	234
289.755	228
289.986	235
290.217	225
290.448	225
290.679	226
290.91	222
291.141	233
291.371	225
291.602	224
291.833	228
292.064	220
292.295	227
292.526	247
292.757	232
292.987	222
293.218	229
293.449	241
293.68	231
293.91	217
294.141	227
294.372	243
294.603	221
294.833	234
295.064	244
295.295	239
295.525	227
295.756	230
295.987	250
296.217	242
296.448	259
296.679	235
296.909	230
297.14	224
297.37	242
297.601	244
297.831	235
298.062	225
298.292	237
298.523	239
298.753	239
298.984	236
299.214	248
299.445	242
299.675	223
299.905	239
300.136	242
300.366	245
300.597	252
300.827	249
301.057	253
301.288	255
301.518	246
301.748	263
301.979	262
302.209	261
302.439	254
302.669	242
302.9	247
303.13	225
303.36	253
303.59	252
303.82	259
304.051	262
304.281	240
304.511	251
304.741	247
304.971	247
305.201	260
305.431	272
305.661	264
305.891	256
306.121	273
306.352	270
306.582	269
306.812	273
307.042	272
307.272	282
307.502	250
307.731	262
307.961	269
308.191	248
308.421	273
308.651	281
308.881	269
309.111	261
309.341	264
309.571	301
309.8	297
310.03	290
310.26	274
310.49	303
310.72	321
310.949	310
311.179	299
311.409	316
311.639	294
311.868	310
312.098	309
312.328	300
312.557	333
312.787	333
313.017	329
313.246	329
313.476	311
313.706	292
313.935	321
314.165	300
314.394	306
314.624	308
314.853	310
315.083	312
315.312	318
315.542	300
315.771	301
316.001	288
316.23	291
316.46	303
316.689	298
316.919	295
317.148	287
317.377	296
317.607	295
317.836	326
318.065	295
318.295	338
318.524	310
318.753	301
318.983	289
319.212	305
319.441	289
319.67	311
319.9	320
320.129	289
320.358	298
320.587	307
320.816	309
321.046	327
321.275	324
321.504	311
321.733	322
321.962	332
322.191	336
322.42	344
322.649	363
322.878	374
323.108	404
323.337	391
323.566	410
323.795	455
324.024	504
324.253	634
324.482	922
324.71	1417
324.939	1828
325.168	1492
325.397	811
325.626	569
325.855	463
326.084	423
326.313	416
326.542	432
326.77	471
326.999	585
327.228	838
327.457	1198
327.686	1325
327.914	868
328.143	586
328.372	525
328.6	478
328.829	480
329.058	471
329.287	489
329.515	453
329.744	440
329.972	422
330.201	451
330.43	481
330.658	495
330.887	509
331.115	483
331.344	405
331.572	385
331.801	380
332.03	386
332.258	367
332.486	342
332.715	333
332.943	343
333.172	351
333.4	368
333.629	368
333.857	362
334.085	374
334.314	400
334.542	420
334.771	417
334.999	372
335.227	367
335.455	337
335.684	349
335.912	339
336.14	343
336.369	332
336.597	345
336.825	338
337.053	328
337.281	334
337.51	351
337.738	333
337.966	326
338.194	342
338.422	350
338.65	319
338.878	328
339.106	318
339.334	337
339.562	337
339.79	313
340.018	346
340.246	309
340.474	322
340.702	340
340.93	320
341.158	324
341.386	326
341.614	313
341.842	316
342.07	327
342.298	321
342.526	316
342.754	299
342.981	300
343.209	315
343.437	336
343.665	317
343.893	323
344.12	340
344.348	319
344.576	325
344.804	327
345.031	340
345.259	346
345.487	317
345.714	328
345.942	329
346.17	321
346.397	320
346.625	326
346.853	339
347.08	322
347.308	314
347.535	330
347.763	326
347.99	343
348.218	324
348.445	343
348.673	338
348.9	330
349.128	305
349.355	309
349.583	300
349.81	310
350.037	313
350.265	315
350.492	320
350.72	307
350.947	317
351.174	318
351.402	322
351.629	339
351.856	302
352.083	345
352.311	334
352.538	329
352.765	338
352.992	336
353.22	297
353.447	313
353.674	301
353.901	304
354.128	300
354.355	310
354.583	290
354.81	293
355.037	285
355.264	296
355.491	278
355.718	304
355.945	296
356.172	284
356.399	291
356.626	270
356.853	282
357.08	282
357.307	268
357.534	281
357.761	276
357.988	287
358.215	281
358.441	278
358.668	297
358.895	297
359.122	270
359.349	306
359.576	311
359.802	339
360.029	366
360.256	353
360.483	346
360.709	325
360.936	312
361.163	305
361.39	294
361.616	312
361.843	303
362.07	299
362.296	314
362.523	299
362.749	308
362.976	302
363.203	297
363.429	298
363.656	294
363.882	285
364.109	284
364.335	291
364.562	282
364.788	288
365.015	309
365.241	276
365.468	297
365.694	310
365.92	317
366.147	302
366.373	296
366.599	290
366.826	282
367.052	287
367.278	301
367.505	296
367.731	282
367.957	294
368.184	281
368.41	295
368.636	288
368.862	289
369.089	297
369.315	300
369.541	299
369.767	287
369.993	293
370.219	288
370.445	272
370.672	273
370.898	289
371.124	300
371.35	288
371.576	267
371.802	286
372.028	272
372.254	287
372.48	274
372.706	278
372.932	279
373.158	278
373.384	273
373.61	282
373.835	283
374.061	287
374.287	295
374.513	292
374.739	284
374.965	296
375.191	264
375.416	271
375.642	292
375.868	282
376.094	286
376.319	288
376.545	274
376.771	298
376.997	267
377.222	268
377.448	280
377.674	261
377.899	266
378.125	258
378.35	261
378.576	288
378.802	271
379.027	273
379.253	268
379.478	255
379.704	281
379.929	263
380.155	252
380.38	289
380.606	284
380.831	283
381.057	284
381.282	297
381.507	268
381.733	279
381.958	270
382.184	278
382.409	289
382.634	273
382.86	274
383.085	297
383.31	285
383.535	278
383.761	277
383.986	285
384.211	274
384.436	283
384.662	285
384.887	277
385.112	284
385.337	280
385.562	273
385.787	288
386.013	315
386.238	310
386.463	316
386.688	272
386.913	274
387.138	289
387.363	284
387.588	296
387.813	286
388.038	272
388.263	276
388.488	288
388.713	298
388.938	285
389.163	286
389.387	291
389.612	284
389.837	286
390.062	292
390.287	292
390.512	301
390.736	282
390.961	290
391.186	298
391.411	286
391.636	285
391.86	301
392.085	288
392.31	281
392.534	296
392.759	278
392.984	282
393.208	320
393.433	286
393.658	282
393.882	280
394.107	278
394.331	278
394.556	306
394.78	281
395.005	284
395.229	294
395.454	308
395.678	294
395.903	311
396.127	306
396.352	302
396.576	295
396.801	297
397.025	284
397.249	296
397.474	288
397.698	309
397.922	294
398.147	324
398.371	341
398.595	322
398.82	305
399.044	319
399.268	348
399.492	333
399.717	366
399.941	365
400.165	376
400.389	388
400.613	362
400.837	352
401.062	329
401.286	329
401.51	326
401.734	323
401.958	322
402.182	333
402.406	340
402.63	342
402.854	322
403.078	336
403.302	346
403.526	333
403.75	321
403.974	317
404.198	319
404.422	327
404.645	330
404.869	324
405.093	360
405.317	383
405.541	382
405.765	366
405.988	348
406.212	344
406.436	356
406.66	373
406.883	378
407.107	357
407.331	380
407.555	430
407.778	438
408.002	390
408.226	368
408.449	360
408.673	359
408.896	369
409.12	406
409.344	377
409.567	341
409.791	344
410.014	328
410.238	329
410.461	317
410.685	347
410.908	332
411.132	367
411.355	363
411.578	376
411.802	332
412.025	329
412.249	345
412.472	353
412.695	385
412.919	343
413.142	341
413.365	327
413.589	330
413.812	321
414.035	319
414.258	315
414.482	307
414.705	326
414.928	294
415.151	306
415.374	303
415.597	303
415.821	287
416.044	298
416.267	315
416.49	287
416.713	301
416.936	322
417.159	300
417.382	309
417.605	318
417.828	326
418.051	318
418.274	338
418.497	316
418.72	324
418.943	325
419.166	310
419.389	320
419.611	317
419.834	309
420.057	331
420.28	337
420.503	338
420.726	321
420.948	334
421.171	368
421.394	374
421.617	351
421.839	308
422.062	323
422.285	343
422.507	385
422.73	423
422.953	415
423.175	369
423.398	332
423.621	351
423.843	368
424.066	380
424.288	357
424.511	383
424.733	412
424.956	459
425.178	444
425.401	450
425.623	448
425.846	381
426.068	353
426.291	356
426.513	356
426.735	373
426.958	400
427.18	456
427.402	524
427.625	573
427.847	540
428.069	436
428.292	408
428.514	367
428.736	349
428.958	328
429.181	323
429.403	299
429.625	351
429.847	362
430.069	401
430.292	414
430.514	350
430.736	344
430.958	324
431.18	301
431.402	315
431.624	320
431.846	298
432.068	302
432.29	311
432.512	312
432.734	320
432.956	318
433.178	330
433.4	328
433.622	324
433.844	326
434.066	316
434.287	314
434.509	316
434.731	311
434.953	313
435.175	330
435.397	337
435.618	350
435.84	390
436.062	459
436.284	477
436.505	412
436.727	372
436.949	331
437.17	341
437.392	338
437.614	336
437.835	386
438.057	438
438.278	507
438.5	503
438.721	536
438.943	518
439.165	403
439.386	386
439.608	378
439.829	374
440.05	398
440.272	424
440.493	400
440.715	350
440.936	345
441.158	334
441.379	348
441.6	345
441.822	365
442.043	382
442.264	432
442.486	474
442.707	404
442.928	373
443.149	360
443.371	378
443.592	410
443.813	464
444.034	495
444.255	394
444.476	371
444.698	344
444.919	354
445.14	454
445.361	414
445.582	396
445.803	414
446.024	504
446.245	500
446.466	478
446.687	376
446.908	376
447.129	344
447.35	340
447.571	329
447.792	341
448.013	344
448.234	352
448.455	393
448.675	451
448.896	519
449.117	460
449.338	423
449.559	510
449.779	546
450	444
450.221	373
450.442	336
450.662	344
450.883	345
451.104	335
451.324	344
451.545	317
451.766	288
451.986	313
452.207	275
452.428	312
452.648	308
452.869	286
453.089	313
453.31	314
453.53	310
453.751	315
453.971	306
454.192	321
454.412	320
454.633	295
454.853	284
455.073	308
455.294	323
455.514	369
455.734	334
455.955	318
456.175	300
456.395	296
456.616	292
456.836	271
457.056	293
457.276	277
457.497	289
457.717	279
457.937	276
458.157	294
458.377	292
458.598	286
458.818	369
459.038	416
459.258	422
459.478	356
459.698	320
459.918	314
460.138	317
460.358	310
460.578	301
460.798	318
461.018	312
461.238	284
461.458	320
461.678	296
461.898	302
462.118	320
462.338	316
462.558	324
462.777	326
462.997	312
463.217	332
463.437	327
463.657	305
463.876	312
464.096	335
464.316	327
464.536	333
464.755	324
464.975	327
465.195	377
465.414	394
465.634	373
465.854	337
466.073	326
466.293	313
466.512	314
466.732	312
466.951	309
467.171	298
467.391	301
467.61	306
467.829	305
468.049	306
468.268	315
468.488	317
468.707	302
468.927	300
469.146	309
469.365	280
469.585	297
469.804	294
470.023	312
470.243	303
470.462	318
470.681	345
470.901	323
471.12	322
471.339	306
471.558	314
471.777	305
471.997	292
472.216	303
472.435	330
472.654	310
472.873	304
473.092	311
473.311	318
473.53	315
473.749	301
473.968	364
474.187	420
474.406	429
474.625	357
474.844	332
475.063	331
475.282	320
475.501	316
475.72	330
475.939	319
476.158	328
476.377	303
476.596	303
476.814	331
477.033	336
477.252	330
477.471	329
477.69	329
477.908	334
478.127	324
478.346	327
478.564	332
478.783	324
479.002	344
479.22	341
479.439	367
479.658	349
479.876	361
480.095	363
480.313	390
480.532	376
480.751	367
480.969	383
481.188	426
481.406	437
481.624	390
481.843	373
482.061	386
482.28	368
482.498	365
482.717	356
482.935	357
483.153	349
483.372	349
483.59	344
483.808	352
484.027	340
484.245	351
484.463	358
484.681	364
484.9	361
485.118	353
485.336	381
485.554	366
485.772	352
485.99	358
486.209	340
486.427	356
486.645	360
486.863	389
487.081	369
487.299	378
487.517	384
487.735	369
487.953	384
488.171	380
488.389	393
488.607	384
488.825	353
489.043	374
489.261	380
489.479	396
489.696	383
489.914	386
490.132	382
490.35	389
490.568	402
490.786	422
491.003	412
491.221	415
491.439	427
491.657	432
491.874	426
492.092	446
492.31	451
492.527	433
492.745	429
492.963	443
493.18	442
493.398	448
493.615	455
493.833	458
494.05	453
494.268	449
494.485	436
494.703	452
494.92	452
495.138	445
495.355	440
495.573	442
495.79	457
496.008	446
496.225	446
496.442	460
496.66	447
496.877	448
497.094	457
497.312	452
497.529	450
497.746	452
497.963	459
498.181	461
498.398	487
498.615	484
498.832	492
499.049	500
499.267	477
499.484	497
499.701	531
499.918	503
500.135	530
500.352	536
500.569	528
500.786	562
501.003	564
501.22	548
501.437	541
501.654	540
501.871	531
502.088	510
502.305	499
502.522	476
502.739	476
502.956	463
503.172	445
503.389	456
503.606	471
503.823	445
504.04	457
504.256	451
504.473	442
504.69	446
504.907	447
505.123	415
505.34	434
505.557	433
505.773	449
505.99	424
506.207	442
506.423	440
506.64	428
506.856	427
507.073	411
507.289	439
507.506	424
507.722	436
507.939	449
508.155	439
508.372	413
508.588	410
508.805	412
509.021	428
509.238	417
509.454	438
509.67	438
509.887	429
510.103	422
510.319	442
510.536	508
510.752	843
510.968	664
511.184	458
511.401	417
511.617	422
511.833	408
512.049	381
512.265	414
512.481	406
512.698	399
512.914	399
513.13	395
513.346	393
513.562	403
513.778	412
513.994	411
514.21	430
514.426	431
514.642	468
514.858	475
515.074	493
515.29	615
515.506	919
515.721	722
515.937	496
516.153	463
516.369	435
516.585	422
516.801	399
517.016	408
517.232	412
517.448	391
517.664	402
517.879	384
518.095	415
518.311	382
518.527	383
518.742	388
518.958	392
519.173	398
519.389	404
519.605	420
519.82	412
520.036	389
520.251	426
520.467	475
520.682	438
520.898	437
521.113	484
521.329	493
521.544	570
521.76	757
521.975	1210
522.19	1134
522.406	641
522.621	487
522.836	433
523.052	406
523.267	402
523.482	396
523.698	390
523.913	384
524.128	374
524.343	342
524.559	369
524.774	353
524.989	348
525.204	364
525.419	358
525.634	358
525.849	364
526.064	332
526.28	342
526.495	329
526.71	334
526.925	344
527.14	315
527.355	326
527.57	341
527.785	320
527.999	315
528.214	311
528.429	320
528.644	325
528.859	326
529.074	335
529.289	348
529.503	402
529.718	394
529.933	348
530.148	348
530.363	334
530.577	325
530.792	332
531.007	318
531.221	324
531.436	322
531.651	299
531.865	288
532.08	298
532.295	300
532.509	336
532.724	313
532.938	326
533.153	302
533.367	316
533.582	317
533.796	288
534.011	302
534.225	318
534.44	278
534.654	288
534.868	289
535.083	275
535.297	313
535.511	303
535.726	319
535.94	316
536.154	290
536.369	308
536.583	303
536.797	304
537.011	314
537.225	305
537.44	296
537.654	304
537.868	286
538.082	300
538.296	299
538.51	301
538.724	298
538.938	327
539.153	301
539.367	319
539.581	325
539.795	306
540.009	302
540.222	296
540.436	302
540.65	292
540.864	298
541.078	312
541.292	310
541.506	317
541.72	306
541.934	299
542.147	274
542.361	297
542.575	305
542.789	294
543.002	301
543.216	293
543.43	301
543.644	310
543.857	297
544.071	305
544.285	311
544.498	307
544.712	299
544.925	296
545.139	297
545.352	302
545.566	290
545.779	301
545.993	299
546.206	283
546.42	275
546.633	288
546.847	281
547.06	268
547.274	275
547.487	287
547.7	286
547.914	275
548.127	272
548.34	260
548.554	263
548.767	300
548.98	284
549.193	287
549.407	280
549.62	288
549.833	271
550.046	281
550.259	262
550.473	272
550.686	277
550.899	289
551.112	272
551.325	277
551.538	270
551.751	296
551.964	264
552.177	288
552.39	280
552.603	272
552.816	270
553.029	272
553.242	279
553.455	267
553.667	295
553.88	305
554.093	279
554.306	270
554.519	300
554.732	266
554.944	261
555.157	274
555.37	276
555.583	275
555.795	264
556.008	246
556.221	260
556.433	274
556.646	266
556.859	265
557.071	267
557.284	243
557.496	251
557.709	261
557.921	262
558.134	261
558.346	258
558.559	262
558.771	246
558.984	255
559.196	246
559.409	255
559.621	267
559.833	248
560.046	239
560.258	250
560.47	248
560.683	266
560.895	267
561.107	248
561.32	249
561.532	254
561.744	257
561.956	249
562.168	253
562.381	244
562.593	249
562.805	260
563.017	260
563.229	259
563.441	248
563.653	247
563.865	248
