Data from 1982.PennyLincolnUp.Lamp.En5.5.200Scan.071819.P1_HRD10591_16-46-57-961.txt Node
Date: Thu Jul 18 16:46:57 EDT 2019
User: cochatt
Spectrometer: HR+D1059
Trigger mode: 1
Integration Time (sec): 1.000000E-1
Scans to average: 1
Electric dark correction enabled: true
Nonlinearity correction enabled: false
Boxcar width: 0
XAxis mode: Wavelengths
Number of Pixels in Spectrum: 2048
>>>>>Begin Spectral Data<<<<<
223.165	-16.75
223.4	-16.75
223.635	-16.75
223.869	-14.75
224.104	-4.75
224.338	-13.75
224.573	-30.75
224.808	-24.75
225.042	-22.75
225.277	-5.75
225.511	-4.75
225.746	6.25
225.98	13.25
226.215	22.25
226.449	15.25
226.683	16.25
226.918	35.25
227.152	30.25
227.387	30.25
227.621	29.25
227.856	36.25
228.09	41.25
228.324	40.25
228.559	45.25
228.793	56.25
229.027	71.25
229.262	93.25
229.496	92.25
229.73	120.25
229.964	129.25
230.199	109.25
230.433	100.25
230.667	106.25
230.901	102.25
231.136	104.25
231.37	86.25
231.604	108.25
231.838	106.25
232.072	95.25
232.306	110.25
232.541	96.25
232.775	99.25
233.009	102.25
233.243	110.25
233.477	100.25
233.711	113.25
233.945	97.25
234.179	103.25
234.413	104.25
234.647	100.25
234.881	95.25
235.115	119.25
235.349	94.25
235.583	133.25
235.817	109.25
236.051	90.25
236.285	105.25
236.519	86.25
236.753	115.25
236.987	126.25
237.221	153.25
237.455	183.25
237.689	146.25
237.922	116.25
238.156	121.25
238.39	120.25
238.624	126.25
238.858	107.25
239.091	113.25
239.325	106.25
239.559	108.25
239.793	122.25
240.027	111.25
240.26	124.25
240.494	141.25
240.728	120.25
240.961	117.25
241.195	119.25
241.429	117.25
241.662	116.25
241.896	114.25
242.13	122.25
242.363	106.25
242.597	110.25
242.83	124.25
243.064	101.25
243.298	111.25
243.531	115.25
243.765	117.25
243.998	126.25
244.232	132.25
244.465	123.25
244.699	133.25
244.932	130.25
245.166	126.25
245.399	131.25
245.633	121.25
245.866	116.25
246.099	123.25
246.333	126.25
246.566	135.25
246.8	131.25
247.033	120.25
247.266	116.25
247.5	140.25
247.733	145.25
247.966	155.25
248.2	150.25
248.433	151.25
248.666	142.25
248.899	152.25
249.133	159.25
249.366	163.25
249.599	166.25
249.832	146.25
250.066	151.25
250.299	154.25
250.532	140.25
250.765	170.25
250.998	175.25
251.231	196.25
251.465	175.25
251.698	158.25
251.931	176.25
252.164	161.25
252.397	167.25
252.63	180.25
252.863	167.25
253.096	184.25
253.329	173.25
253.562	199.25
253.795	174.25
254.028	178.25
254.261	189.25
254.494	185.25
254.727	202.25
254.96	235.25
255.193	207.25
255.426	193.25
255.659	185.25
255.892	186.25
256.124	189.25
256.357	181.25
256.59	176.25
256.823	168.25
257.056	156.25
257.289	158.25
257.521	158.25
257.754	168.25
257.987	175.25
258.22	169.25
258.452	172.25
258.685	166.25
258.918	174.25
259.151	173.25
259.383	182.25
259.616	187.25
259.849	166.25
260.081	199.25
260.314	205.25
260.547	202.25
260.779	199.25
261.012	199.25
261.244	182.25
261.477	189.25
261.71	179.25
261.942	181.25
262.175	180.25
262.407	189.25
262.64	195.25
262.872	167.25
263.105	201.25
263.337	187.25
263.57	173.25
263.802	155.25
264.035	165.25
264.267	166.25
264.499	172.25
264.732	171.25
264.964	167.25
265.197	183.25
265.429	178.25
265.661	179.25
265.894	182.25
266.126	175.25
266.358	173.25
266.591	165.25
266.823	198.25
267.055	192.25
267.287	194.25
267.52	186.25
267.752	185.25
267.984	181.25
268.216	184.25
268.448	186.25
268.681	202.25
268.913	200.25
269.145	205.25
269.377	214.25
269.609	203.25
269.841	201.25
270.073	225.25
270.306	223.25
270.538	257.25
270.77	241.25
271.002	242.25
271.234	228.25
271.466	221.25
271.698	242.25
271.93	250.25
272.162	274.25
272.394	261.25
272.626	239.25
272.858	220.25
273.09	219.25
273.322	224.25
273.553	220.25
273.785	210.25
274.017	214.25
274.249	218.25
274.481	229.25
274.713	206.25
274.945	233.25
275.176	223.25
275.408	217.25
275.64	223.25
275.872	208.25
276.104	211.25
276.335	212.25
276.567	213.25
276.799	216.25
277.031	237.25
277.262	253.25
277.494	246.25
277.726	228.25
277.957	231.25
278.189	220.25
278.421	221.25
278.652	216.25
278.884	200.25
279.115	206.25
279.347	224.25
279.579	243.25
279.81	212.25
280.042	212.25
280.273	220.25
280.505	217.25
280.736	213.25
280.968	195.25
281.199	216.25
281.431	215.25
281.662	207.25
281.894	211.25
282.125	207.25
282.356	223.25
282.588	226.25
282.819	242.25
283.051	205.25
283.282	199.25
283.513	207.25
283.745	214.25
283.976	206.25
284.207	236.25
284.439	219.25
284.67	215.25
284.901	224.25
285.132	219.25
285.364	233.25
285.595	222.25
285.826	222.25
286.057	203.25
286.288	205.25
286.52	214.25
286.751	225.25
286.982	205.25
287.213	205.25
287.444	228.25
287.675	213.25
287.906	234.25
288.138	232.25
288.369	221.25
288.6	231.25
288.831	226.25
289.062	217.25
289.293	226.25
289.524	212.25
289.755	218.25
289.986	214.25
290.217	221.25
290.448	235.25
290.679	226.25
290.91	220.25
291.141	217.25
291.371	220.25
291.602	252.25
291.833	235.25
292.064	231.25
292.295	234.25
292.526	208.25
292.757	227.25
292.987	225.25
293.218	214.25
293.449	251.25
293.68	231.25
293.91	212.25
294.141	233.25
294.372	226.25
294.603	224.25
294.833	224.25
295.064	219.25
295.295	222.25
295.525	223.25
295.756	232.25
295.987	230.25
296.217	230.25
296.448	265.25
296.679	238.25
296.909	230.25
297.14	243.25
297.37	217.25
297.601	213.25
297.831	230.25
298.062	222.25
298.292	230.25
298.523	216.25
298.753	225.25
298.984	228.25
299.214	226.25
299.445	246.25
299.675	248.25
299.905	252.25
300.136	234.25
300.366	226.25
300.597	249.25
300.827	241.25
301.057	246.25
301.288	256.25
301.518	262.25
301.748	258.25
301.979	259.25
302.209	257.25
302.439	270.25
302.669	250.25
302.9	257.25
303.13	255.25
303.36	258.25
303.59	246.25
303.82	259.25
304.051	255.25
304.281	250.25
304.511	264.25
304.741	253.25
304.971	259.25
305.201	242.25
305.431	241.25
305.661	241.25
305.891	266.25
306.121	259.25
306.352	260.25
306.582	257.25
306.812	242.25
307.042	255.25
307.272	271.25
307.502	270.25
307.731	269.25
307.961	265.25
308.191	246.25
308.421	278.25
308.651	252.25
308.881	279.25
309.111	279.25
309.341	287.25
309.571	279.25
309.8	287.25
310.03	295.25
310.26	301.25
310.49	308.25
310.72	301.25
310.949	305.25
311.179	327.25
311.409	291.25
311.639	301.25
311.868	313.25
312.098	299.25
312.328	293.25
312.557	335.25
312.787	325.25
313.017	311.25
313.246	315.25
313.476	285.25
313.706	317.25
313.935	311.25
314.165	322.25
314.394	303.25
314.624	293.25
314.853	300.25
315.083	291.25
315.312	293.25
315.542	286.25
315.771	313.25
316.001	288.25
316.23	302.25
316.46	299.25
316.689	275.25
316.919	301.25
317.148	307.25
317.377	297.25
317.607	301.25
317.836	302.25
318.065	317.25
318.295	300.25
318.524	299.25
318.753	281.25
318.983	289.25
319.212	305.25
319.441	299.25
319.67	308.25
319.9	303.25
320.129	301.25
320.358	289.25
320.587	306.25
320.816	300.25
321.046	314.25
321.275	314.25
321.504	293.25
321.733	315.25
321.962	325.25
322.191	332.25
322.42	334.25
322.649	351.25
322.878	367.25
323.108	377.25
323.337	379.25
323.566	405.25
323.795	429.25
324.024	470.25
324.253	613.25
324.482	949.25
324.71	1350.25
324.939	1849.25
325.168	1456.25
325.397	762.25
325.626	544.25
325.855	463.25
326.084	429.25
326.313	410.25
326.542	428.25
326.77	469.25
326.999	564.25
327.228	810.25
327.457	1149.25
327.686	1264.25
327.914	837.25
328.143	583.25
328.372	514.25
328.6	489.25
328.829	469.25
329.058	461.25
329.287	449.25
329.515	451.25
329.744	435.25
329.972	409.25
330.201	429.25
330.43	458.25
330.658	492.25
330.887	490.25
331.115	469.25
331.344	398.25
331.572	383.25
331.801	397.25
332.03	382.25
332.258	356.25
332.486	355.25
332.715	336.25
332.943	341.25
333.172	323.25
333.4	355.25
333.629	371.25
333.857	364.25
334.085	362.25
334.314	374.25
334.542	397.25
334.771	426.25
334.999	380.25
335.227	359.25
335.455	354.25
335.684	367.25
335.912	330.25
336.14	339.25
336.369	321.25
336.597	343.25
336.825	355.25
337.053	334.25
337.281	337.25
337.51	335.25
337.738	333.25
337.966	315.25
338.194	336.25
338.422	343.25
338.65	332.25
338.878	331.25
339.106	319.25
339.334	332.25
339.562	317.25
339.79	332.25
340.018	323.25
340.246	322.25
340.474	311.25
340.702	309.25
340.93	318.25
341.158	314.25
341.386	313.25
341.614	327.25
341.842	316.25
342.07	335.25
342.298	327.25
342.526	304.25
342.754	325.25
342.981	314.25
343.209	293.25
343.437	313.25
343.665	300.25
343.893	325.25
344.12	331.25
344.348	309.25
344.576	333.25
344.804	331.25
345.031	329.25
345.259	346.25
345.487	320.25
345.714	322.25
345.942	339.25
346.17	317.25
346.397	288.25
346.625	313.25
346.853	302.25
347.08	310.25
347.308	308.25
347.535	346.25
347.763	331.25
347.99	314.25
348.218	317.25
348.445	309.25
348.673	334.25
348.9	325.25
349.128	293.25
349.355	298.25
349.583	300.25
349.81	297.25
350.037	291.25
350.265	292.25
350.492	297.25
350.72	305.25
350.947	313.25
351.174	305.25
351.402	317.25
351.629	297.25
351.856	327.25
352.083	322.25
352.311	330.25
352.538	342.25
352.765	334.25
352.992	320.25
353.22	327.25
353.447	325.25
353.674	301.25
353.901	299.25
354.128	270.25
354.355	294.25
354.583	305.25
354.81	289.25
355.037	309.25
355.264	269.25
355.491	265.25
355.718	276.25
355.945	287.25
356.172	286.25
356.399	296.25
356.626	259.25
356.853	282.25
357.08	297.25
357.307	274.25
357.534	277.25
357.761	289.25
357.988	271.25
358.215	293.25
358.441	272.25
358.668	286.25
358.895	293.25
359.122	309.25
359.349	297.25
359.576	317.25
359.802	319.25
360.029	346.25
360.256	339.25
360.483	326.25
360.709	309.25
360.936	298.25
361.163	317.25
361.39	298.25
361.616	311.25
361.843	297.25
362.07	311.25
362.296	303.25
362.523	299.25
362.749	321.25
362.976	322.25
363.203	299.25
363.429	289.25
363.656	282.25
363.882	299.25
364.109	294.25
364.335	301.25
364.562	283.25
364.788	287.25
365.015	286.25
365.241	296.25
365.468	302.25
365.694	298.25
365.92	289.25
366.147	295.25
366.373	301.25
366.599	271.25
366.826	270.25
367.052	291.25
367.278	291.25
367.505	284.25
367.731	295.25
367.957	286.25
368.184	290.25
368.41	298.25
368.636	291.25
368.862	298.25
369.089	292.25
369.315	284.25
369.541	275.25
369.767	273.25
369.993	266.25
370.219	288.25
370.445	279.25
370.672	284.25
370.898	267.25
371.124	287.25
371.35	282.25
371.576	279.25
371.802	279.25
372.028	274.25
372.254	281.25
372.48	271.25
372.706	281.25
372.932	267.25
373.158	288.25
373.384	289.25
373.61	276.25
373.835	277.25
374.061	271.25
374.287	284.25
374.513	292.25
374.739	295.25
374.965	277.25
375.191	262.25
375.416	296.25
375.642	292.25
375.868	290.25
376.094	296.25
376.319	267.25
376.545	263.25
376.771	275.25
376.997	275.25
377.222	265.25
377.448	278.25
377.674	283.25
377.899	269.25
378.125	273.25
378.35	268.25
378.576	277.25
378.802	261.25
379.027	279.25
379.253	270.25
379.478	248.25
379.704	272.25
379.929	282.25
380.155	268.25
380.38	264.25
380.606	271.25
380.831	277.25
381.057	281.25
381.282	276.25
381.507	277.25
381.733	285.25
381.958	266.25
382.184	291.25
382.409	274.25
382.634	271.25
382.86	267.25
383.085	272.25
383.31	279.25
383.535	278.25
383.761	259.25
383.986	278.25
384.211	278.25
384.436	292.25
384.662	289.25
384.887	286.25
385.112	276.25
385.337	284.25
385.562	277.25
385.787	290.25
386.013	293.25
386.238	312.25
386.463	283.25
386.688	277.25
386.913	285.25
387.138	287.25
387.363	283.25
387.588	281.25
387.813	299.25
388.038	274.25
388.263	285.25
388.488	289.25
388.713	277.25
388.938	286.25
389.163	283.25
389.387	278.25
389.612	292.25
389.837	280.25
390.062	289.25
390.287	287.25
390.512	270.25
390.736	284.25
390.961	274.25
391.186	286.25
391.411	276.25
391.636	274.25
391.86	309.25
392.085	300.25
392.31	300.25
392.534	297.25
392.759	271.25
392.984	281.25
393.208	283.25
393.433	303.25
393.658	290.25
393.882	286.25
394.107	275.25
394.331	279.25
394.556	274.25
394.78	302.25
395.005	291.25
395.229	283.25
395.454	300.25
395.678	297.25
395.903	324.25
396.127	326.25
396.352	331.25
396.576	305.25
396.801	316.25
397.025	302.25
397.249	298.25
397.474	298.25
397.698	305.25
397.922	317.25
398.147	323.25
398.371	306.25
398.595	310.25
398.82	313.25
399.044	326.25
399.268	336.25
399.492	326.25
399.717	355.25
399.941	369.25
400.165	367.25
400.389	377.25
400.613	332.25
400.837	349.25
401.062	322.25
401.286	313.25
401.51	319.25
401.734	322.25
401.958	311.25
402.182	323.25
402.406	330.25
402.63	329.25
402.854	319.25
403.078	319.25
403.302	332.25
403.526	330.25
403.75	328.25
403.974	348.25
404.198	330.25
404.422	312.25
404.645	323.25
404.869	333.25
405.093	352.25
405.317	394.25
405.541	370.25
405.765	380.25
405.988	350.25
406.212	359.25
406.436	362.25
406.66	378.25
406.883	366.25
407.107	362.25
407.331	389.25
407.555	420.25
407.778	430.25
408.002	382.25
408.226	365.25
408.449	377.25
408.673	363.25
408.896	365.25
409.12	390.25
409.344	379.25
409.567	335.25
409.791	332.25
410.014	333.25
410.238	342.25
410.461	312.25
410.685	332.25
410.908	338.25
411.132	382.25
411.355	378.25
411.578	370.25
411.802	334.25
412.025	341.25
412.249	321.25
412.472	371.25
412.695	375.25
412.919	374.25
413.142	350.25
413.365	313.25
413.589	316.25
413.812	294.25
414.035	318.25
414.258	313.25
414.482	318.25
414.705	311.25
414.928	302.25
415.151	307.25
415.374	319.25
415.597	296.25
415.821	305.25
416.044	309.25
416.267	316.25
416.49	317.25
416.713	317.25
416.936	323.25
417.159	315.25
417.382	324.25
417.605	314.25
417.828	333.25
418.051	334.25
418.274	332.25
418.497	314.25
418.72	298.25
418.943	312.25
419.166	331.25
419.389	331.25
419.611	319.25
419.834	310.25
420.057	321.25
420.28	335.25
420.503	327.25
420.726	343.25
420.948	350.25
421.171	350.25
421.394	368.25
421.617	333.25
421.839	319.25
422.062	342.25
422.285	345.25
422.507	364.25
422.73	407.25
422.953	403.25
423.175	340.25
423.398	335.25
423.621	358.25
423.843	347.25
424.066	345.25
424.288	359.25
424.511	374.25
424.733	411.25
424.956	449.25
425.178	427.25
425.401	438.25
425.623	453.25
425.846	370.25
426.068	357.25
426.291	373.25
426.513	361.25
426.735	363.25
426.958	394.25
427.18	437.25
427.402	524.25
427.625	558.25
427.847	495.25
428.069	431.25
428.292	406.25
428.514	350.25
428.736	330.25
428.958	336.25
429.181	339.25
429.403	330.25
429.625	333.25
429.847	367.25
430.069	383.25
430.292	384.25
430.514	345.25
430.736	346.25
430.958	327.25
431.18	312.25
431.402	328.25
431.624	311.25
431.846	334.25
432.068	305.25
432.29	310.25
432.512	327.25
432.734	334.25
432.956	343.25
433.178	330.25
433.4	305.25
433.622	313.25
433.844	294.25
434.066	316.25
434.287	309.25
434.509	318.25
434.731	316.25
434.953	318.25
435.175	326.25
435.397	351.25
435.618	339.25
435.84	374.25
436.062	439.25
436.284	475.25
436.505	403.25
436.727	365.25
436.949	362.25
437.17	345.25
437.392	311.25
437.614	337.25
437.835	361.25
438.057	421.25
438.278	482.25
438.5	486.25
438.721	514.25
438.943	489.25
439.165	403.25
439.386	379.25
439.608	357.25
439.829	377.25
440.05	392.25
440.272	451.25
440.493	384.25
440.715	380.25
440.936	363.25
441.158	337.25
441.379	344.25
441.6	333.25
441.822	352.25
442.043	396.25
442.264	443.25
442.486	469.25
442.707	401.25
442.928	363.25
443.149	361.25
443.371	403.25
443.592	430.25
443.813	455.25
444.034	497.25
444.255	413.25
444.476	381.25
444.698	350.25
444.919	347.25
445.14	419.25
445.361	426.25
445.582	396.25
445.803	437.25
446.024	484.25
446.245	509.25
446.466	460.25
446.687	377.25
446.908	369.25
447.129	331.25
447.35	344.25
447.571	347.25
447.792	340.25
448.013	349.25
448.234	362.25
448.455	402.25
448.675	455.25
448.896	527.25
449.117	431.25
449.338	411.25
449.559	500.25
449.779	525.25
450	457.25
450.221	377.25
450.442	343.25
450.662	324.25
450.883	341.25
451.104	349.25
451.324	327.25
451.545	319.25
451.766	327.25
451.986	293.25
452.207	297.25
452.428	294.25
452.648	293.25
452.869	313.25
453.089	313.25
453.31	321.25
453.53	308.25
453.751	288.25
453.971	310.25
454.192	323.25
454.412	322.25
454.633	313.25
454.853	305.25
455.073	296.25
455.294	330.25
455.514	369.25
455.734	354.25
455.955	296.25
456.175	293.25
456.395	288.25
456.616	296.25
456.836	283.25
457.056	280.25
457.276	278.25
457.497	277.25
457.717	283.25
457.937	294.25
458.157	296.25
458.377	299.25
458.598	299.25
458.818	343.25
459.038	394.25
459.258	407.25
459.478	328.25
459.698	309.25
459.918	301.25
460.138	313.25
460.358	314.25
460.578	293.25
460.798	295.25
461.018	299.25
461.238	309.25
461.458	306.25
461.678	301.25
461.898	322.25
462.118	311.25
462.338	306.25
462.558	298.25
462.777	316.25
462.997	312.25
463.217	312.25
463.437	322.25
463.657	300.25
463.876	324.25
464.096	318.25
464.316	329.25
464.536	322.25
464.755	339.25
464.975	334.25
465.195	370.25
465.414	409.25
465.634	351.25
465.854	311.25
466.073	334.25
466.293	319.25
466.512	301.25
466.732	298.25
466.951	313.25
467.171	319.25
467.391	306.25
467.61	306.25
467.829	332.25
468.049	301.25
468.268	294.25
468.488	310.25
468.707	280.25
468.927	296.25
469.146	286.25
469.365	292.25
469.585	305.25
469.804	287.25
470.023	312.25
470.243	321.25
470.462	321.25
470.681	324.25
470.901	321.25
471.12	300.25
471.339	311.25
471.558	289.25
471.777	308.25
471.997	313.25
472.216	333.25
472.435	316.25
472.654	331.25
472.873	321.25
473.092	311.25
473.311	317.25
473.53	306.25
473.749	323.25
473.968	371.25
474.187	420.25
474.406	423.25
474.625	355.25
474.844	313.25
475.063	311.25
475.282	325.25
475.501	297.25
475.72	311.25
475.939	314.25
476.158	325.25
476.377	327.25
476.596	299.25
476.814	313.25
477.033	320.25
477.252	345.25
477.471	335.25
477.69	347.25
477.908	321.25
478.127	322.25
478.346	330.25
478.564	339.25
478.783	350.25
479.002	347.25
479.22	342.25
479.439	357.25
479.658	360.25
479.876	353.25
480.095	356.25
480.313	399.25
480.532	375.25
480.751	345.25
480.969	366.25
481.188	428.25
481.406	440.25
481.624	398.25
481.843	381.25
482.061	364.25
482.28	337.25
482.498	355.25
482.717	374.25
482.935	354.25
483.153	359.25
483.372	345.25
483.59	343.25
483.808	348.25
484.027	369.25
484.245	330.25
484.463	352.25
484.681	381.25
484.9	373.25
485.118	355.25
485.336	363.25
485.554	356.25
485.772	369.25
485.99	377.25
486.209	378.25
486.427	366.25
486.645	361.25
486.863	404.25
487.081	398.25
487.299	393.25
487.517	384.25
487.735	370.25
487.953	378.25
488.171	385.25
488.389	373.25
488.607	381.25
488.825	388.25
489.043	375.25
489.261	391.25
489.479	387.25
489.696	402.25
489.914	383.25
490.132	388.25
490.35	378.25
490.568	387.25
490.786	399.25
491.003	387.25
491.221	418.25
491.439	414.25
491.657	426.25
491.874	418.25
492.092	409.25
492.31	419.25
492.527	423.25
492.745	429.25
492.963	429.25
493.18	424.25
493.398	445.25
493.615	449.25
493.833	444.25
494.05	453.25
494.268	440.25
494.485	433.25
494.703	439.25
494.92	428.25
495.138	453.25
495.355	446.25
495.573	444.25
495.79	428.25
496.008	429.25
496.225	436.25
496.442	453.25
496.66	433.25
496.877	431.25
497.094	435.25
497.312	461.25
497.529	447.25
497.746	458.25
497.963	479.25
498.181	476.25
498.398	477.25
498.615	494.25
498.832	481.25
499.049	467.25
499.267	501.25
499.484	511.25
499.701	511.25
499.918	526.25
500.135	536.25
500.352	519.25
500.569	558.25
500.786	538.25
501.003	525.25
501.22	533.25
501.437	557.25
501.654	543.25
501.871	537.25
502.088	523.25
