Data from 1982.PennyLincolnUp.Lamp.En5.5.200Scan.071819.P1_HRD10591_16-46-41-962.txt Node
Date: Thu Jul 18 16:46:41 EDT 2019
User: cochatt
Spectrometer: HR+D1059
Trigger mode: 1
Integration Time (sec): 1.000000E-1
Scans to average: 1
Electric dark correction enabled: true
Nonlinearity correction enabled: false
Boxcar width: 0
XAxis mode: Wavelengths
Number of Pixels in Spectrum: 2048
>>>>>Begin Spectral Data<<<<<
223.165	-22.69
223.4	-22.69
223.635	-22.69
223.869	-18.69
224.104	-19.69
224.338	-16.69
224.573	-6.69
224.808	-19.69
225.042	-4.69
225.277	-4.69
225.511	7.31
225.746	15.31
225.98	-2.69
226.215	18.31
226.449	5.31
226.683	20.31
226.918	25.31
227.152	24.31
227.387	33.31
227.621	44.31
227.856	45.31
228.09	47.31
228.324	58.31
228.559	67.31
228.793	68.31
229.027	81.31
229.262	107.31
229.496	97.31
229.73	131.31
229.964	129.31
230.199	111.31
230.433	105.31
230.667	97.31
230.901	101.31
231.136	106.31
231.37	98.31
231.604	96.31
231.838	102.31
232.072	103.31
232.306	102.31
232.541	106.31
232.775	99.31
233.009	99.31
233.243	110.31
233.477	113.31
233.711	103.31
233.945	101.31
234.179	106.31
234.413	105.31
234.647	105.31
234.881	120.31
235.115	105.31
235.349	123.31
235.583	111.31
235.817	97.31
236.051	122.31
236.285	120.31
236.519	112.31
236.753	122.31
236.987	144.31
237.221	149.31
237.455	179.31
237.689	166.31
237.922	127.31
238.156	129.31
238.39	125.31
238.624	115.31
238.858	111.31
239.091	126.31
239.325	95.31
239.559	125.31
239.793	131.31
240.027	119.31
240.26	122.31
240.494	138.31
240.728	134.31
240.961	139.31
241.195	127.31
241.429	115.31
241.662	110.31
241.896	108.31
242.13	115.31
242.363	129.31
242.597	110.31
242.83	115.31
243.064	123.31
243.298	110.31
243.531	110.31
243.765	142.31
243.998	142.31
244.232	140.31
244.465	122.31
244.699	128.31
244.932	122.31
245.166	112.31
245.399	108.31
245.633	119.31
245.866	127.31
246.099	120.31
246.333	119.31
246.566	123.31
246.8	122.31
247.033	139.31
247.266	127.31
247.5	134.31
247.733	151.31
247.966	152.31
248.2	140.31
248.433	158.31
248.666	153.31
248.899	158.31
249.133	159.31
249.366	161.31
249.599	169.31
249.832	161.31
250.066	170.31
250.299	154.31
250.532	178.31
250.765	174.31
250.998	167.31
251.231	177.31
251.465	194.31
251.698	169.31
251.931	187.31
252.164	156.31
252.397	157.31
252.63	159.31
252.863	189.31
253.096	180.31
253.329	183.31
253.562	197.31
253.795	193.31
254.028	185.31
254.261	182.31
254.494	208.31
254.727	200.31
254.96	210.31
255.193	219.31
255.426	194.31
255.659	190.31
255.892	183.31
256.124	183.31
256.357	177.31
256.59	193.31
256.823	175.31
257.056	183.31
257.289	166.31
257.521	170.31
257.754	184.31
257.987	169.31
258.22	175.31
258.452	173.31
258.685	181.31
258.918	191.31
259.151	162.31
259.383	186.31
259.616	171.31
259.849	176.31
260.081	206.31
260.314	218.31
260.547	208.31
260.779	194.31
261.012	190.31
261.244	175.31
261.477	181.31
261.71	197.31
261.942	194.31
262.175	177.31
262.407	186.31
262.64	183.31
262.872	191.31
263.105	184.31
263.337	176.31
263.57	177.31
263.802	185.31
264.035	181.31
264.267	184.31
264.499	178.31
264.732	173.31
264.964	183.31
265.197	182.31
265.429	197.31
265.661	177.31
265.894	189.31
266.126	173.31
266.358	176.31
266.591	188.31
266.823	182.31
267.055	199.31
267.287	184.31
267.52	181.31
267.752	183.31
267.984	179.31
268.216	199.31
268.448	198.31
268.681	210.31
268.913	208.31
269.145	216.31
269.377	229.31
269.609	229.31
269.841	221.31
270.073	202.31
270.306	238.31
270.538	245.31
270.77	250.31
271.002	256.31
271.234	219.31
271.466	241.31
271.698	247.31
271.93	274.31
272.162	256.31
272.394	265.31
272.626	242.31
272.858	214.31
273.09	217.31
273.322	207.31
273.553	203.31
273.785	239.31
274.017	218.31
274.249	214.31
274.481	223.31
274.713	206.31
274.945	219.31
275.176	239.31
275.408	204.31
275.64	222.31
275.872	211.31
276.104	223.31
276.335	224.31
276.567	216.31
276.799	234.31
277.031	273.31
277.262	257.31
277.494	242.31
277.726	243.31
277.957	227.31
278.189	234.31
278.421	216.31
278.652	217.31
278.884	218.31
279.115	209.31
279.347	213.31
279.579	209.31
279.81	219.31
280.042	219.31
280.273	210.31
280.505	235.31
280.736	223.31
280.968	219.31
281.199	218.31
281.431	198.31
281.662	232.31
281.894	206.31
282.125	228.31
282.356	229.31
282.588	239.31
282.819	232.31
283.051	229.31
283.282	217.31
283.513	221.31
283.745	226.31
283.976	223.31
284.207	237.31
284.439	216.31
284.67	240.31
284.901	232.31
285.132	225.31
285.364	236.31
285.595	231.31
285.826	211.31
286.057	224.31
286.288	229.31
286.52	223.31
286.751	210.31
286.982	215.31
287.213	245.31
287.444	223.31
287.675	225.31
287.906	250.31
288.138	226.31
288.369	221.31
288.6	240.31
288.831	211.31
289.062	237.31
289.293	226.31
289.524	224.31
289.755	229.31
289.986	230.31
290.217	234.31
290.448	236.31
290.679	247.31
290.91	249.31
291.141	229.31
291.371	237.31
291.602	227.31
291.833	229.31
292.064	218.31
292.295	234.31
292.526	221.31
292.757	230.31
292.987	239.31
293.218	205.31
293.449	227.31
293.68	242.31
293.91	222.31
294.141	225.31
294.372	220.31
294.603	233.31
294.833	234.31
295.064	252.31
295.295	239.31
295.525	241.31
295.756	237.31
295.987	228.31
296.217	246.31
296.448	264.31
296.679	238.31
296.909	236.31
297.14	232.31
297.37	232.31
297.601	223.31
297.831	226.31
298.062	236.31
298.292	254.31
298.523	246.31
298.753	239.31
298.984	253.31
299.214	252.31
299.445	251.31
299.675	226.31
299.905	265.31
300.136	254.31
300.366	255.31
300.597	266.31
300.827	254.31
301.057	254.31
301.288	237.31
301.518	258.31
301.748	233.31
301.979	258.31
302.209	263.31
302.439	265.31
302.669	252.31
302.9	276.31
303.13	237.31
303.36	260.31
303.59	247.31
303.82	273.31
304.051	269.31
304.281	261.31
304.511	256.31
304.741	247.31
304.971	236.31
305.201	253.31
305.431	251.31
305.661	250.31
305.891	249.31
306.121	255.31
306.352	273.31
306.582	273.31
306.812	272.31
307.042	256.31
307.272	269.31
307.502	277.31
307.731	256.31
307.961	264.31
308.191	263.31
308.421	280.31
308.651	272.31
308.881	265.31
309.111	266.31
309.341	290.31
309.571	281.31
309.8	303.31
310.03	304.31
310.26	290.31
310.49	306.31
310.72	310.31
310.949	311.31
311.179	320.31
311.409	304.31
311.639	301.31
311.868	301.31
312.098	310.31
312.328	313.31
312.557	302.31
312.787	333.31
313.017	321.31
313.246	302.31
313.476	313.31
313.706	298.31
313.935	301.31
314.165	314.31
314.394	309.31
314.624	311.31
314.853	317.31
315.083	294.31
315.312	297.31
315.542	303.31
315.771	307.31
316.001	276.31
316.23	306.31
316.46	300.31
316.689	293.31
316.919	322.31
317.148	303.31
317.377	295.31
317.607	313.31
317.836	309.31
318.065	290.31
318.295	303.31
318.524	289.31
318.753	269.31
318.983	292.31
319.212	303.31
319.441	312.31
319.67	319.31
319.9	294.31
320.129	319.31
320.358	319.31
320.587	301.31
320.816	319.31
321.046	325.31
321.275	322.31
321.504	330.31
321.733	322.31
321.962	332.31
322.191	318.31
322.42	355.31
322.649	369.31
322.878	360.31
323.108	383.31
323.337	391.31
323.566	405.31
323.795	443.31
324.024	493.31
324.253	637.31
324.482	931.31
324.71	1381.31
324.939	1834.31
325.168	1463.31
325.397	749.31
325.626	545.31
325.855	433.31
326.084	422.31
326.313	406.31
326.542	417.31
326.77	480.31
326.999	571.31
327.228	814.31
327.457	1171.31
327.686	1280.31
327.914	864.31
328.143	582.31
328.372	507.31
328.6	473.31
328.829	463.31
329.058	477.31
329.287	473.31
329.515	450.31
329.744	409.31
329.972	448.31
330.201	421.31
330.43	454.31
330.658	469.31
330.887	469.31
331.115	458.31
331.344	404.31
331.572	399.31
331.801	380.31
332.03	365.31
332.258	355.31
332.486	349.31
332.715	350.31
332.943	336.31
333.172	366.31
333.4	350.31
333.629	363.31
333.857	370.31
334.085	389.31
334.314	395.31
334.542	395.31
334.771	404.31
334.999	372.31
335.227	375.31
335.455	349.31
335.684	349.31
335.912	377.31
336.14	337.31
336.369	344.31
336.597	344.31
336.825	349.31
337.053	347.31
337.281	343.31
337.51	310.31
337.738	337.31
337.966	321.31
338.194	355.31
338.422	347.31
338.65	343.31
338.878	324.31
339.106	323.31
339.334	329.31
339.562	321.31
339.79	330.31
340.018	310.31
340.246	330.31
340.474	341.31
340.702	325.31
340.93	309.31
341.158	321.31
341.386	320.31
341.614	313.31
341.842	331.31
342.07	332.31
342.298	321.31
342.526	302.31
342.754	325.31
342.981	307.31
343.209	299.31
343.437	331.31
343.665	318.31
343.893	311.31
344.12	336.31
344.348	326.31
344.576	321.31
344.804	325.31
345.031	331.31
345.259	344.31
345.487	337.31
345.714	326.31
345.942	300.31
346.17	320.31
346.397	311.31
346.625	317.31
346.853	327.31
347.08	313.31
347.308	318.31
347.535	322.31
347.763	309.31
347.99	336.31
348.218	324.31
348.445	308.31
348.673	322.31
348.9	345.31
349.128	312.31
349.355	309.31
349.583	301.31
349.81	306.31
350.037	295.31
350.265	296.31
350.492	322.31
350.72	305.31
350.947	313.31
351.174	329.31
351.402	306.31
351.629	310.31
351.856	339.31
352.083	319.31
352.311	320.31
352.538	331.31
352.765	322.31
352.992	322.31
353.22	305.31
353.447	305.31
353.674	296.31
353.901	290.31
354.128	296.31
354.355	294.31
354.583	291.31
354.81	288.31
355.037	301.31
355.264	291.31
355.491	282.31
355.718	279.31
355.945	306.31
356.172	292.31
356.399	278.31
356.626	280.31
356.853	304.31
357.08	293.31
357.307	291.31
357.534	284.31
357.761	281.31
357.988	303.31
358.215	293.31
358.441	311.31
358.668	295.31
358.895	289.31
359.122	304.31
359.349	322.31
359.576	332.31
359.802	342.31
360.029	360.31
360.256	352.31
360.483	345.31
360.709	318.31
360.936	316.31
361.163	303.31
361.39	307.31
361.616	310.31
361.843	312.31
362.07	318.31
362.296	302.31
362.523	303.31
362.749	313.31
362.976	303.31
363.203	299.31
363.429	291.31
363.656	288.31
363.882	282.31
364.109	299.31
364.335	303.31
364.562	290.31
364.788	270.31
365.015	301.31
365.241	294.31
365.468	299.31
365.694	286.31
365.92	301.31
366.147	291.31
366.373	306.31
366.599	292.31
366.826	278.31
367.052	293.31
367.278	283.31
367.505	265.31
367.731	293.31
367.957	302.31
368.184	307.31
368.41	294.31
368.636	299.31
368.862	293.31
369.089	305.31
369.315	274.31
369.541	281.31
369.767	291.31
369.993	283.31
370.219	279.31
370.445	273.31
370.672	277.31
370.898	304.31
371.124	285.31
371.35	288.31
371.576	285.31
371.802	277.31
372.028	307.31
372.254	283.31
372.48	288.31
372.706	294.31
372.932	279.31
373.158	285.31
373.384	273.31
373.61	272.31
373.835	274.31
374.061	263.31
374.287	289.31
374.513	285.31
374.739	286.31
374.965	282.31
375.191	271.31
375.416	289.31
375.642	281.31
375.868	286.31
376.094	303.31
376.319	288.31
376.545	275.31
376.771	280.31
376.997	285.31
377.222	273.31
377.448	287.31
377.674	289.31
377.899	275.31
378.125	302.31
378.35	265.31
378.576	276.31
378.802	287.31
379.027	283.31
379.253	275.31
379.478	262.31
379.704	261.31
379.929	275.31
380.155	283.31
380.38	282.31
380.606	288.31
380.831	282.31
381.057	279.31
381.282	279.31
381.507	302.31
381.733	269.31
381.958	290.31
382.184	267.31
382.409	282.31
382.634	271.31
382.86	295.31
383.085	297.31
383.31	285.31
383.535	297.31
383.761	285.31
383.986	275.31
384.211	278.31
384.436	289.31
384.662	289.31
384.887	286.31
385.112	299.31
385.337	303.31
385.562	314.31
385.787	289.31
386.013	304.31
386.238	290.31
386.463	286.31
386.688	310.31
386.913	291.31
387.138	293.31
387.363	287.31
387.588	294.31
387.813	297.31
388.038	301.31
388.263	288.31
388.488	284.31
388.713	285.31
388.938	280.31
389.163	284.31
389.387	285.31
389.612	293.31
389.837	281.31
390.062	295.31
390.287	288.31
390.512	280.31
390.736	299.31
390.961	313.31
391.186	269.31
391.411	278.31
391.636	302.31
391.86	285.31
392.085	296.31
392.31	289.31
392.534	294.31
392.759	289.31
392.984	283.31
393.208	284.31
393.433	271.31
393.658	267.31
393.882	290.31
394.107	290.31
394.331	284.31
394.556	285.31
394.78	287.31
395.005	280.31
395.229	276.31
395.454	309.31
395.678	309.31
395.903	289.31
396.127	323.31
396.352	323.31
396.576	302.31
396.801	303.31
397.025	319.31
397.249	273.31
397.474	300.31
397.698	294.31
397.922	310.31
398.147	319.31
398.371	317.31
398.595	298.31
398.82	320.31
399.044	300.31
399.268	327.31
399.492	347.31
399.717	356.31
399.941	375.31
400.165	377.31
400.389	390.31
400.613	360.31
400.837	342.31
401.062	344.31
401.286	338.31
401.51	327.31
401.734	329.31
401.958	307.31
402.182	312.31
402.406	337.31
402.63	323.31
402.854	317.31
403.078	317.31
403.302	324.31
403.526	329.31
403.75	330.31
403.974	331.31
404.198	326.31
404.422	353.31
404.645	327.31
404.869	334.31
405.093	369.31
405.317	377.31
405.541	361.31
405.765	348.31
405.988	357.31
406.212	352.31
406.436	356.31
406.66	380.31
406.883	361.31
407.107	379.31
407.331	403.31
407.555	423.31
407.778	448.31
408.002	425.31
408.226	366.31
408.449	381.31
408.673	361.31
408.896	371.31
409.12	409.31
409.344	383.31
409.567	362.31
409.791	335.31
410.014	333.31
410.238	336.31
410.461	354.31
410.685	340.31
410.908	330.31
411.132	369.31
411.355	385.31
411.578	374.31
411.802	336.31
412.025	354.31
412.249	350.31
412.472	356.31
412.695	351.31
412.919	379.31
413.142	329.31
413.365	320.31
413.589	326.31
413.812	319.31
414.035	332.31
414.258	329.31
414.482	304.31
414.705	311.31
414.928	321.31
415.151	317.31
415.374	322.31
415.597	311.31
415.821	327.31
416.044	299.31
416.267	316.31
416.49	309.31
416.713	315.31
416.936	338.31
417.159	309.31
417.382	314.31
417.605	317.31
417.828	327.31
418.051	331.31
418.274	313.31
418.497	317.31
418.72	309.31
418.943	315.31
419.166	315.31
419.389	320.31
419.611	322.31
419.834	339.31
420.057	331.31
420.28	329.31
420.503	341.31
420.726	330.31
420.948	338.31
421.171	365.31
421.394	378.31
421.617	352.31
421.839	319.31
422.062	337.31
422.285	345.31
422.507	384.31
422.73	420.31
422.953	413.31
423.175	375.31
423.398	345.31
423.621	341.31
423.843	349.31
424.066	367.31
424.288	355.31
424.511	365.31
424.733	403.31
424.956	457.31
425.178	428.31
425.401	403.31
425.623	423.31
425.846	385.31
426.068	348.31
426.291	367.31
426.513	345.31
426.735	370.31
426.958	398.31
427.18	469.31
427.402	516.31
427.625	594.31
427.847	505.31
428.069	454.31
428.292	402.31
428.514	344.31
428.736	351.31
428.958	342.31
429.181	335.31
429.403	347.31
429.625	363.31
429.847	376.31
430.069	419.31
430.292	399.31
430.514	359.31
430.736	315.31
430.958	314.31
431.18	309.31
431.402	308.31
431.624	321.31
431.846	302.31
432.068	317.31
432.29	310.31
432.512	295.31
432.734	326.31
432.956	307.31
433.178	306.31
433.4	328.31
433.622	303.31
433.844	327.31
434.066	319.31
434.287	309.31
434.509	327.31
434.731	333.31
434.953	331.31
435.175	328.31
435.397	361.31
435.618	359.31
435.84	387.31
436.062	465.31
436.284	480.31
436.505	410.31
436.727	369.31
436.949	343.31
437.17	355.31
437.392	343.31
437.614	348.31
437.835	374.31
438.057	449.31
438.278	497.31
438.5	480.31
438.721	538.31
438.943	494.31
439.165	418.31
439.386	385.31
439.608	388.31
439.829	393.31
440.05	406.31
440.272	439.31
440.493	400.31
440.715	357.31
440.936	360.31
441.158	315.31
441.379	333.31
441.6	341.31
441.822	362.31
442.043	407.31
442.264	445.31
442.486	463.31
442.707	382.31
442.928	381.31
443.149	382.31
443.371	410.31
443.592	441.31
443.813	480.31
444.034	510.31
444.255	426.31
444.476	374.31
444.698	382.31
444.919	360.31
445.14	445.31
445.361	411.31
445.582	416.31
445.803	447.31
446.024	517.31
446.245	515.31
446.466	461.31
446.687	384.31
446.908	357.31
447.129	367.31
447.35	360.31
447.571	341.31
447.792	327.31
448.013	360.31
448.234	360.31
448.455	396.31
448.675	473.31
448.896	527.31
449.117	462.31
449.338	437.31
449.559	523.31
449.779	559.31
450	451.31
450.221	384.31
450.442	343.31
450.662	345.31
450.883	329.31
451.104	373.31
451.324	329.31
451.545	329.31
451.766	305.31
451.986	328.31
452.207	325.31
452.428	302.31
452.648	316.31
452.869	305.31
453.089	305.31
453.31	309.31
453.53	328.31
453.751	325.31
453.971	323.31
454.192	316.31
454.412	313.31
454.633	301.31
454.853	291.31
455.073	314.31
455.294	336.31
455.514	366.31
455.734	345.31
455.955	300.31
456.175	295.31
456.395	278.31
456.616	287.31
456.836	283.31
457.056	293.31
457.276	284.31
457.497	279.31
457.717	289.31
457.937	293.31
458.157	299.31
458.377	305.31
458.598	313.31
458.818	352.31
459.038	407.31
459.258	405.31
459.478	354.31
459.698	313.31
459.918	327.31
460.138	310.31
460.358	319.31
460.578	310.31
460.798	316.31
461.018	304.31
461.238	303.31
461.458	318.31
461.678	289.31
461.898	286.31
462.118	309.31
462.338	327.31
462.558	307.31
462.777	321.31
462.997	309.31
463.217	328.31
463.437	338.31
463.657	320.31
463.876	330.31
464.096	345.31
464.316	321.31
464.536	328.31
464.755	336.31
464.975	333.31
465.195	369.31
465.414	410.31
465.634	367.31
465.854	327.31
466.073	325.31
466.293	315.31
466.512	311.31
466.732	299.31
466.951	310.31
467.171	289.31
467.391	317.31
467.61	318.31
467.829	332.31
468.049	323.31
468.268	327.31
468.488	294.31
468.707	303.31
468.927	303.31
469.146	302.31
469.365	303.31
469.585	280.31
469.804	307.31
470.023	298.31
470.243	309.31
470.462	311.31
470.681	348.31
470.901	316.31
471.12	291.31
471.339	324.31
471.558	311.31
471.777	327.31
471.997	309.31
472.216	296.31
472.435	340.31
472.654	321.31
472.873	330.31
473.092	310.31
473.311	312.31
473.53	323.31
473.749	312.31
473.968	363.31
474.187	429.31
474.406	415.31
474.625	363.31
474.844	323.31
475.063	335.31
475.282	320.31
475.501	313.31
475.72	313.31
475.939	310.31
476.158	318.31
476.377	322.31
476.596	328.31
476.814	322.31
477.033	329.31
477.252	330.31
477.471	328.31
477.69	327.31
477.908	343.31
478.127	334.31
478.346	327.31
478.564	339.31
478.783	316.31
479.002	336.31
479.22	359.31
479.439	363.31
479.658	360.31
479.876	366.31
480.095	377.31
480.313	389.31
480.532	369.31
480.751	374.31
480.969	396.31
481.188	425.31
481.406	439.31
481.624	389.31
481.843	375.31
482.061	359.31
482.28	366.31
482.498	369.31
482.717	350.31
482.935	350.31
483.153	362.31
483.372	360.31
483.59	357.31
483.808	356.31
484.027	351.31
484.245	353.31
484.463	374.31
484.681	368.31
484.9	358.31
485.118	373.31
485.336	367.31
485.554	361.31
485.772	379.31
485.99	342.31
486.209	383.31
486.427	392.31
486.645	371.31
486.863	390.31
487.081	400.31
487.299	382.31
487.517	377.31
487.735	383.31
487.953	381.31
488.171	407.31
488.389	379.31
488.607	383.31
488.825	368.31
489.043	378.31
489.261	385.31
489.479	385.31
489.696	384.31
489.914	419.31
490.132	409.31
490.35	405.31
490.568	408.31
490.786	387.31
491.003	414.31
491.221	419.31
491.439	419.31
491.657	419.31
491.874	420.31
492.092	434.31
492.31	422.31
492.527	432.31
492.745	427.31
492.963	443.31
493.18	454.31
493.398	471.31
493.615	441.31
493.833	477.31
494.05	446.31
494.268	439.31
494.485	462.31
494.703	442.31
494.92	441.31
495.138	432.31
495.355	435.31
495.573	454.31
495.79	468.31
496.008	472.31
496.225	453.31
496.442	462.31
496.66	457.31
496.877	473.31
497.094	465.31
497.312	451.31
497.529	481.31
497.746	453.31
497.963	470.31
498.181	501.31
498.398	471.31
498.615	476.31
498.832	488.31
499.049	478.31
499.267	505.31
499.484	515.31
499.701	502.31
499.918	523.31
500.135	521.31
500.352	538.31
500.569	543.31
500.786	572.31
501.003	546.31
501.22	555.31
501.437	547.31
501.654	538.31
501.871	544.31
502.088	541.31
