Data from 1982.PennyLincolnUp.Lamp.En5.5.200Scan.071819.P1_HRD10591_16-46-56-962.txt Node
Date: Thu Jul 18 16:46:56 EDT 2019
User: cochatt
Spectrometer: HR+D1059
Trigger mode: 1
Integration Time (sec): 1.000000E-1
Scans to average: 1
Electric dark correction enabled: true
Nonlinearity correction enabled: false
Boxcar width: 0
XAxis mode: Wavelengths
Number of Pixels in Spectrum: 2048
>>>>>Begin Spectral Data<<<<<
223.165	-12.75
223.4	-12.75
223.635	-12.75
223.869	-12.75
224.104	-19.75
224.338	-13.75
224.573	-6.75
224.808	-13.75
225.042	-11.75
225.277	-11.75
225.511	-7.75
225.746	4.25
225.98	4.25
226.215	11.25
226.449	12.25
226.683	16.25
226.918	31.25
227.152	31.25
227.387	43.25
227.621	41.25
227.856	43.25
228.09	54.25
228.324	34.25
228.559	52.25
228.793	68.25
229.027	95.25
229.262	105.25
229.496	110.25
229.73	106.25
229.964	129.25
230.199	120.25
230.433	109.25
230.667	122.25
230.901	107.25
231.136	103.25
231.37	102.25
231.604	99.25
231.838	90.25
232.072	102.25
232.306	111.25
232.541	111.25
232.775	106.25
233.009	107.25
233.243	115.25
233.477	101.25
233.711	117.25
233.945	95.25
234.179	95.25
234.413	103.25
234.647	115.25
234.881	116.25
235.115	89.25
235.349	108.25
235.583	114.25
235.817	108.25
236.051	121.25
236.285	118.25
236.519	127.25
236.753	119.25
236.987	118.25
237.221	155.25
237.455	177.25
237.689	144.25
237.922	118.25
238.156	114.25
238.39	123.25
238.624	111.25
238.858	107.25
239.091	105.25
239.325	116.25
239.559	102.25
239.793	130.25
240.027	126.25
240.26	109.25
240.494	140.25
240.728	130.25
240.961	136.25
241.195	133.25
241.429	127.25
241.662	130.25
241.896	118.25
242.13	109.25
242.363	122.25
242.597	120.25
242.83	120.25
243.064	128.25
243.298	131.25
243.531	121.25
243.765	116.25
243.998	125.25
244.232	126.25
244.465	123.25
244.699	124.25
244.932	112.25
245.166	118.25
245.399	122.25
245.633	142.25
245.866	127.25
246.099	127.25
246.333	125.25
246.566	132.25
246.8	140.25
247.033	129.25
247.266	130.25
247.5	113.25
247.733	130.25
247.966	140.25
248.2	154.25
248.433	138.25
248.666	145.25
248.899	144.25
249.133	150.25
249.366	170.25
249.599	164.25
249.832	152.25
250.066	151.25
250.299	144.25
250.532	163.25
250.765	154.25
250.998	189.25
251.231	190.25
251.465	171.25
251.698	184.25
251.931	185.25
252.164	184.25
252.397	156.25
252.63	170.25
252.863	162.25
253.096	171.25
253.329	174.25
253.562	187.25
253.795	188.25
254.028	172.25
254.261	188.25
254.494	180.25
254.727	207.25
254.96	213.25
255.193	222.25
255.426	224.25
255.659	189.25
255.892	189.25
256.124	197.25
256.357	184.25
256.59	194.25
256.823	179.25
257.056	175.25
257.289	181.25
257.521	180.25
257.754	184.25
257.987	166.25
258.22	186.25
258.452	170.25
258.685	174.25
258.918	162.25
259.151	166.25
259.383	182.25
259.616	167.25
259.849	173.25
260.081	203.25
260.314	194.25
260.547	211.25
260.779	189.25
261.012	190.25
261.244	184.25
261.477	177.25
261.71	180.25
261.942	181.25
262.175	208.25
262.407	180.25
262.64	175.25
262.872	176.25
263.105	155.25
263.337	175.25
263.57	178.25
263.802	153.25
264.035	179.25
264.267	168.25
264.499	176.25
264.732	181.25
264.964	177.25
265.197	175.25
265.429	178.25
265.661	178.25
265.894	174.25
266.126	176.25
266.358	161.25
266.591	181.25
266.823	186.25
267.055	172.25
267.287	175.25
267.52	196.25
267.752	191.25
267.984	178.25
268.216	181.25
268.448	179.25
268.681	198.25
268.913	197.25
269.145	209.25
269.377	202.25
269.609	207.25
269.841	226.25
270.073	210.25
270.306	254.25
270.538	245.25
270.77	259.25
271.002	240.25
271.234	236.25
271.466	248.25
271.698	242.25
271.93	230.25
272.162	261.25
272.394	250.25
272.626	236.25
272.858	230.25
273.09	224.25
273.322	212.25
273.553	205.25
273.785	204.25
274.017	207.25
274.249	217.25
274.481	212.25
274.713	215.25
274.945	214.25
275.176	215.25
275.408	196.25
275.64	219.25
275.872	216.25
276.104	201.25
276.335	219.25
276.567	215.25
276.799	217.25
277.031	248.25
277.262	273.25
277.494	262.25
277.726	242.25
277.957	211.25
278.189	235.25
278.421	218.25
278.652	216.25
278.884	204.25
279.115	214.25
279.347	220.25
279.579	199.25
279.81	208.25
280.042	191.25
280.273	201.25
280.505	203.25
280.736	196.25
280.968	193.25
281.199	199.25
281.431	200.25
281.662	218.25
281.894	208.25
282.125	227.25
282.356	210.25
282.588	239.25
282.819	235.25
283.051	229.25
283.282	216.25
283.513	218.25
283.745	208.25
283.976	220.25
284.207	214.25
284.439	206.25
284.67	214.25
284.901	218.25
285.132	221.25
285.364	208.25
285.595	223.25
285.826	206.25
286.057	218.25
286.288	227.25
286.52	214.25
286.751	218.25
286.982	216.25
287.213	203.25
287.444	234.25
287.675	233.25
287.906	242.25
288.138	243.25
288.369	232.25
288.6	240.25
288.831	224.25
289.062	222.25
289.293	233.25
289.524	227.25
289.755	220.25
289.986	228.25
290.217	227.25
290.448	233.25
290.679	227.25
290.91	220.25
291.141	229.25
291.371	235.25
291.602	237.25
291.833	201.25
292.064	206.25
292.295	218.25
292.526	219.25
292.757	228.25
292.987	228.25
293.218	222.25
293.449	213.25
293.68	230.25
293.91	216.25
294.141	210.25
294.372	231.25
294.603	234.25
294.833	238.25
295.064	213.25
295.295	210.25
295.525	223.25
295.756	236.25
295.987	244.25
296.217	243.25
296.448	265.25
296.679	233.25
296.909	209.25
297.14	242.25
297.37	225.25
297.601	216.25
297.831	234.25
298.062	238.25
298.292	242.25
298.523	226.25
298.753	215.25
298.984	230.25
299.214	225.25
299.445	225.25
299.675	229.25
299.905	240.25
300.136	235.25
300.366	234.25
300.597	255.25
300.827	240.25
301.057	233.25
301.288	251.25
301.518	255.25
301.748	260.25
301.979	251.25
302.209	250.25
302.439	238.25
302.669	252.25
302.9	242.25
303.13	244.25
303.36	247.25
303.59	238.25
303.82	254.25
304.051	258.25
304.281	254.25
304.511	246.25
304.741	250.25
304.971	249.25
305.201	254.25
305.431	262.25
305.661	245.25
305.891	269.25
306.121	250.25
306.352	250.25
306.582	252.25
306.812	243.25
307.042	269.25
307.272	277.25
307.502	269.25
307.731	265.25
307.961	253.25
308.191	259.25
308.421	267.25
308.651	248.25
308.881	282.25
309.111	272.25
309.341	249.25
309.571	285.25
309.8	277.25
310.03	287.25
310.26	295.25
310.49	281.25
310.72	308.25
310.949	301.25
311.179	290.25
311.409	286.25
311.639	287.25
311.868	313.25
312.098	290.25
312.328	310.25
312.557	326.25
312.787	320.25
313.017	317.25
313.246	312.25
313.476	290.25
313.706	298.25
313.935	298.25
314.165	302.25
314.394	303.25
314.624	317.25
314.853	298.25
315.083	294.25
315.312	280.25
315.542	296.25
315.771	281.25
316.001	282.25
316.23	268.25
316.46	288.25
316.689	293.25
316.919	285.25
317.148	284.25
317.377	296.25
317.607	292.25
317.836	287.25
318.065	287.25
318.295	279.25
318.524	294.25
318.753	270.25
318.983	293.25
319.212	298.25
319.441	301.25
319.67	302.25
319.9	307.25
320.129	303.25
320.358	302.25
320.587	295.25
320.816	313.25
321.046	299.25
321.275	310.25
321.504	299.25
321.733	322.25
321.962	338.25
322.191	330.25
322.42	342.25
322.649	372.25
322.878	375.25
323.108	355.25
323.337	402.25
323.566	415.25
323.795	439.25
324.024	494.25
324.253	635.25
324.482	910.25
324.71	1353.25
324.939	1803.25
325.168	1391.25
325.397	782.25
325.626	536.25
325.855	429.25
326.084	408.25
326.313	394.25
326.542	420.25
326.77	478.25
326.999	571.25
327.228	802.25
327.457	1144.25
327.686	1294.25
327.914	852.25
328.143	582.25
328.372	534.25
328.6	476.25
328.829	462.25
329.058	476.25
329.287	487.25
329.515	436.25
329.744	400.25
329.972	424.25
330.201	420.25
330.43	460.25
330.658	462.25
330.887	473.25
331.115	468.25
331.344	407.25
331.572	373.25
331.801	381.25
332.03	399.25
332.258	360.25
332.486	342.25
332.715	352.25
332.943	335.25
333.172	357.25
333.4	340.25
333.629	354.25
333.857	362.25
334.085	359.25
334.314	375.25
334.542	419.25
334.771	395.25
334.999	374.25
335.227	349.25
335.455	351.25
335.684	345.25
335.912	320.25
336.14	333.25
336.369	316.25
336.597	334.25
336.825	335.25
337.053	331.25
337.281	328.25
337.51	334.25
337.738	343.25
337.966	318.25
338.194	328.25
338.422	308.25
338.65	339.25
338.878	337.25
339.106	314.25
339.334	323.25
339.562	318.25
339.79	315.25
340.018	338.25
340.246	317.25
340.474	320.25
340.702	307.25
340.93	328.25
341.158	321.25
341.386	320.25
341.614	322.25
341.842	332.25
342.07	314.25
342.298	322.25
342.526	306.25
342.754	313.25
342.981	310.25
343.209	308.25
343.437	336.25
343.665	316.25
343.893	322.25
344.12	320.25
344.348	314.25
344.576	315.25
344.804	330.25
345.031	345.25
345.259	342.25
345.487	351.25
345.714	342.25
345.942	308.25
346.17	318.25
346.397	311.25
346.625	313.25
346.853	310.25
347.08	302.25
347.308	295.25
347.535	317.25
347.763	330.25
347.99	308.25
348.218	336.25
348.445	336.25
348.673	323.25
348.9	302.25
349.128	320.25
349.355	309.25
349.583	292.25
349.81	303.25
350.037	298.25
350.265	302.25
350.492	288.25
350.72	292.25
350.947	314.25
351.174	315.25
351.402	315.25
351.629	311.25
351.856	319.25
352.083	314.25
352.311	328.25
352.538	328.25
352.765	317.25
352.992	310.25
353.22	315.25
353.447	306.25
353.674	306.25
353.901	281.25
354.128	278.25
354.355	275.25
354.583	274.25
354.81	302.25
355.037	293.25
355.264	280.25
355.491	280.25
355.718	270.25
355.945	261.25
356.172	271.25
356.399	259.25
356.626	271.25
356.853	284.25
357.08	282.25
357.307	279.25
357.534	285.25
357.761	279.25
357.988	284.25
358.215	265.25
358.441	274.25
358.668	305.25
358.895	293.25
359.122	297.25
359.349	300.25
359.576	317.25
359.802	325.25
360.029	327.25
360.256	348.25
360.483	318.25
360.709	299.25
360.936	297.25
361.163	330.25
361.39	302.25
361.616	314.25
361.843	301.25
362.07	314.25
362.296	301.25
362.523	307.25
362.749	295.25
362.976	297.25
363.203	284.25
363.429	282.25
363.656	295.25
363.882	287.25
364.109	277.25
364.335	290.25
364.562	299.25
364.788	287.25
365.015	290.25
365.241	292.25
365.468	288.25
365.694	296.25
365.92	293.25
366.147	288.25
366.373	276.25
366.599	294.25
366.826	288.25
367.052	295.25
367.278	288.25
367.505	274.25
367.731	302.25
367.957	286.25
368.184	276.25
368.41	282.25
368.636	300.25
368.862	302.25
369.089	292.25
369.315	272.25
369.541	285.25
369.767	295.25
369.993	277.25
370.219	268.25
370.445	273.25
370.672	280.25
370.898	272.25
371.124	271.25
371.35	265.25
371.576	285.25
371.802	284.25
372.028	270.25
372.254	279.25
372.48	274.25
372.706	283.25
372.932	286.25
373.158	280.25
373.384	277.25
373.61	294.25
373.835	286.25
374.061	285.25
374.287	290.25
374.513	266.25
374.739	267.25
374.965	267.25
375.191	268.25
375.416	268.25
375.642	267.25
375.868	280.25
376.094	269.25
376.319	249.25
376.545	254.25
376.771	271.25
376.997	265.25
377.222	279.25
377.448	256.25
377.674	268.25
377.899	279.25
378.125	284.25
378.35	268.25
378.576	255.25
378.802	262.25
379.027	266.25
379.253	260.25
379.478	260.25
379.704	280.25
379.929	254.25
380.155	266.25
380.38	271.25
380.606	267.25
380.831	258.25
381.057	283.25
381.282	264.25
381.507	267.25
381.733	262.25
381.958	261.25
382.184	267.25
382.409	274.25
382.634	278.25
382.86	275.25
383.085	272.25
383.31	270.25
383.535	281.25
383.761	263.25
383.986	276.25
384.211	264.25
384.436	271.25
384.662	285.25
384.887	280.25
385.112	294.25
385.337	272.25
385.562	281.25
385.787	279.25
386.013	293.25
386.238	296.25
386.463	294.25
386.688	292.25
386.913	277.25
387.138	292.25
387.363	296.25
387.588	287.25
387.813	290.25
388.038	280.25
388.263	278.25
388.488	287.25
388.713	283.25
388.938	262.25
389.163	278.25
389.387	306.25
389.612	269.25
389.837	294.25
390.062	272.25
390.287	278.25
390.512	284.25
390.736	284.25
390.961	277.25
391.186	260.25
391.411	278.25
391.636	278.25
391.86	294.25
392.085	291.25
392.31	286.25
392.534	266.25
392.759	278.25
392.984	278.25
393.208	283.25
393.433	282.25
393.658	286.25
393.882	267.25
394.107	280.25
394.331	280.25
394.556	271.25
394.78	300.25
395.005	291.25
395.229	285.25
395.454	290.25
395.678	294.25
395.903	284.25
396.127	288.25
396.352	306.25
396.576	293.25
396.801	295.25
397.025	291.25
397.249	295.25
397.474	306.25
397.698	294.25
397.922	309.25
398.147	305.25
398.371	300.25
398.595	306.25
398.82	318.25
399.044	320.25
399.268	317.25
399.492	325.25
399.717	351.25
399.941	352.25
400.165	361.25
400.389	374.25
400.613	354.25
400.837	332.25
401.062	309.25
401.286	324.25
401.51	301.25
401.734	307.25
401.958	299.25
402.182	308.25
402.406	348.25
402.63	320.25
402.854	310.25
403.078	331.25
403.302	340.25
403.526	324.25
403.75	312.25
403.974	311.25
404.198	322.25
404.422	322.25
404.645	331.25
404.869	326.25
405.093	347.25
405.317	380.25
405.541	396.25
405.765	367.25
405.988	350.25
406.212	348.25
406.436	358.25
406.66	390.25
406.883	337.25
407.107	354.25
407.331	390.25
407.555	434.25
407.778	426.25
408.002	401.25
408.226	366.25
408.449	322.25
408.673	351.25
408.896	359.25
409.12	405.25
409.344	379.25
409.567	348.25
409.791	332.25
410.014	333.25
410.238	328.25
410.461	330.25
410.685	330.25
410.908	329.25
411.132	374.25
411.355	385.25
411.578	383.25
411.802	329.25
412.025	322.25
412.249	329.25
412.472	366.25
412.695	366.25
412.919	363.25
413.142	335.25
413.365	299.25
413.589	310.25
413.812	311.25
414.035	306.25
414.258	316.25
414.482	316.25
414.705	319.25
414.928	296.25
415.151	310.25
415.374	299.25
415.597	285.25
415.821	316.25
416.044	310.25
416.267	309.25
416.49	317.25
416.713	304.25
416.936	299.25
417.159	311.25
417.382	292.25
417.605	311.25
417.828	318.25
418.051	320.25
418.274	310.25
418.497	311.25
418.72	288.25
418.943	309.25
419.166	325.25
419.389	317.25
419.611	322.25
419.834	302.25
420.057	320.25
420.28	321.25
420.503	325.25
420.726	331.25
420.948	343.25
421.171	354.25
421.394	388.25
421.617	352.25
421.839	329.25
422.062	320.25
422.285	334.25
422.507	369.25
422.73	384.25
422.953	400.25
423.175	346.25
423.398	348.25
423.621	326.25
423.843	349.25
424.066	347.25
424.288	332.25
424.511	365.25
424.733	390.25
424.956	432.25
425.178	429.25
425.401	441.25
425.623	422.25
425.846	367.25
426.068	364.25
426.291	347.25
426.513	364.25
426.735	336.25
426.958	377.25
427.18	446.25
427.402	520.25
427.625	558.25
427.847	494.25
428.069	440.25
428.292	390.25
428.514	358.25
428.736	336.25
428.958	334.25
429.181	333.25
429.403	343.25
429.625	335.25
429.847	359.25
430.069	395.25
430.292	384.25
430.514	338.25
430.736	332.25
430.958	341.25
431.18	302.25
431.402	311.25
431.624	294.25
431.846	298.25
432.068	303.25
432.29	294.25
432.512	294.25
432.734	314.25
432.956	306.25
433.178	317.25
433.4	319.25
433.622	303.25
433.844	302.25
434.066	290.25
434.287	307.25
434.509	311.25
434.731	291.25
434.953	308.25
435.175	334.25
435.397	362.25
435.618	348.25
435.84	378.25
436.062	425.25
436.284	468.25
436.505	381.25
436.727	361.25
436.949	336.25
437.17	334.25
437.392	326.25
437.614	325.25
437.835	363.25
438.057	442.25
438.278	470.25
438.5	480.25
438.721	507.25
438.943	501.25
439.165	393.25
439.386	357.25
439.608	363.25
439.829	363.25
440.05	391.25
440.272	395.25
440.493	375.25
440.715	355.25
440.936	343.25
441.158	353.25
441.379	337.25
441.6	326.25
441.822	348.25
442.043	394.25
442.264	432.25
442.486	461.25
442.707	395.25
442.928	379.25
443.149	369.25
443.371	384.25
443.592	400.25
443.813	484.25
444.034	510.25
444.255	400.25
444.476	368.25
444.698	352.25
444.919	332.25
445.14	422.25
445.361	414.25
445.582	386.25
445.803	434.25
446.024	508.25
446.245	487.25
446.466	438.25
446.687	399.25
446.908	354.25
447.129	357.25
447.35	316.25
447.571	344.25
447.792	335.25
448.013	322.25
448.234	340.25
448.455	372.25
448.675	459.25
448.896	490.25
449.117	430.25
449.338	415.25
449.559	487.25
449.779	530.25
450	414.25
450.221	370.25
450.442	331.25
450.662	330.25
450.883	340.25
451.104	360.25
451.324	342.25
451.545	322.25
451.766	322.25
451.986	302.25
452.207	266.25
452.428	287.25
452.648	299.25
452.869	306.25
453.089	284.25
453.31	314.25
453.53	327.25
453.751	284.25
453.971	305.25
454.192	313.25
454.412	300.25
454.633	309.25
454.853	306.25
455.073	293.25
455.294	311.25
455.514	370.25
455.734	330.25
455.955	311.25
456.175	276.25
456.395	274.25
456.616	281.25
456.836	270.25
457.056	277.25
457.276	285.25
457.497	279.25
457.717	281.25
457.937	252.25
458.157	285.25
458.377	264.25
458.598	306.25
458.818	347.25
459.038	416.25
459.258	400.25
459.478	347.25
459.698	314.25
459.918	300.25
460.138	310.25
460.358	292.25
460.578	313.25
460.798	294.25
461.018	319.25
461.238	299.25
461.458	310.25
461.678	279.25
461.898	310.25
462.118	326.25
462.338	314.25
462.558	303.25
462.777	296.25
462.997	313.25
463.217	322.25
463.437	347.25
463.657	303.25
463.876	316.25
464.096	310.25
464.316	322.25
464.536	332.25
464.755	333.25
464.975	345.25
465.195	364.25
465.414	400.25
465.634	358.25
465.854	336.25
466.073	311.25
466.293	317.25
466.512	295.25
466.732	286.25
466.951	289.25
467.171	316.25
467.391	305.25
467.61	312.25
467.829	311.25
468.049	313.25
468.268	299.25
468.488	314.25
468.707	278.25
468.927	306.25
469.146	280.25
469.365	292.25
469.585	283.25
469.804	301.25
470.023	306.25
470.243	303.25
470.462	326.25
470.681	325.25
470.901	308.25
471.12	318.25
471.339	308.25
471.558	315.25
471.777	310.25
471.997	288.25
472.216	300.25
472.435	322.25
472.654	330.25
472.873	291.25
473.092	306.25
473.311	305.25
473.53	300.25
473.749	310.25
473.968	336.25
474.187	434.25
474.406	418.25
474.625	351.25
474.844	310.25
475.063	303.25
475.282	320.25
475.501	308.25
475.72	311.25
475.939	315.25
476.158	286.25
476.377	321.25
476.596	314.25
476.814	317.25
477.033	325.25
477.252	320.25
477.471	313.25
477.69	342.25
477.908	340.25
478.127	348.25
478.346	328.25
478.564	319.25
478.783	318.25
479.002	331.25
479.22	296.25
479.439	339.25
479.658	357.25
479.876	374.25
480.095	378.25
480.313	367.25
480.532	358.25
480.751	350.25
480.969	374.25
481.188	418.25
481.406	429.25
481.624	386.25
481.843	361.25
482.061	350.25
482.28	360.25
482.498	342.25
482.717	356.25
482.935	349.25
483.153	353.25
483.372	357.25
483.59	356.25
483.808	338.25
484.027	350.25
484.245	324.25
484.463	354.25
484.681	345.25
484.9	365.25
485.118	357.25
485.336	349.25
485.554	352.25
485.772	343.25
485.99	347.25
486.209	354.25
486.427	362.25
486.645	377.25
486.863	369.25
487.081	384.25
487.299	360.25
487.517	372.25
487.735	382.25
487.953	367.25
488.171	374.25
488.389	374.25
488.607	385.25
488.825	362.25
489.043	370.25
489.261	389.25
489.479	377.25
489.696	373.25
489.914	370.25
490.132	387.25
490.35	386.25
490.568	408.25
490.786	398.25
491.003	397.25
491.221	406.25
491.439	412.25
491.657	393.25
491.874	427.25
492.092	424.25
492.31	428.25
492.527	408.25
492.745	426.25
492.963	448.25
493.18	425.25
493.398	416.25
493.615	445.25
493.833	438.25
494.05	434.25
494.268	445.25
494.485	423.25
494.703	417.25
494.92	443.25
495.138	420.25
495.355	447.25
495.573	465.25
495.79	446.25
496.008	449.25
496.225	440.25
496.442	420.25
496.66	459.25
496.877	434.25
497.094	430.25
497.312	429.25
497.529	446.25
497.746	455.25
497.963	454.25
498.181	464.25
498.398	451.25
498.615	448.25
498.832	468.25
499.049	498.25
499.267	463.25
499.484	490.25
499.701	494.25
499.918	509.25
500.135	509.25
500.352	540.25
500.569	559.25
500.786	516.25
501.003	542.25
501.22	523.25
501.437	523.25
501.654	509.25
501.871	517.25
502.088	498.25
