Data from 1982.PennyLincolnUp.Lamp.En5.5.200Scan.071819.P1_HRD10591_16-45-15-961.txt Node
Date: Thu Jul 18 16:45:15 EDT 2019
User: cochatt
Spectrometer: HR+D1059
Trigger mode: 1
Integration Time (sec): 1.000000E-1
Scans to average: 1
Electric dark correction enabled: true
Nonlinearity correction enabled: false
Boxcar width: 0
XAxis mode: Wavelengths
Number of Pixels in Spectrum: 2048
>>>>>Begin Spectral Data<<<<<
223.165	-11.12
223.4	-11.12
223.635	-11.12
223.869	-13.12
224.104	-12.12
224.338	-31.12
224.573	-1.12
224.808	-1.12
225.042	-7.12
225.277	-4.12
225.511	0.88
225.746	3.88
225.98	0.88
226.215	7.88
226.449	12.88
226.683	11.88
226.918	19.88
227.152	22.88
227.387	28.88
227.621	23.88
227.856	38.88
228.09	53.88
228.324	39.88
228.559	50.88
228.793	55.88
229.027	64.88
229.262	81.88
229.496	101.88
229.73	103.88
229.964	107.88
230.199	102.88
230.433	87.88
230.667	89.88
230.901	92.88
231.136	92.88
231.37	103.88
231.604	88.88
231.838	87.88
232.072	92.88
232.306	98.88
232.541	98.88
232.775	88.88
233.009	98.88
233.243	102.88
233.477	98.88
233.711	100.88
233.945	91.88
234.179	100.88
234.413	100.88
234.647	94.88
234.881	97.88
235.115	97.88
235.349	96.88
235.583	106.88
235.817	108.88
236.051	112.88
236.285	112.88
236.519	96.88
236.753	102.88
236.987	115.88
237.221	131.88
237.455	168.88
237.689	134.88
237.922	106.88
238.156	106.88
238.39	96.88
238.624	119.88
238.858	106.88
239.091	94.88
239.325	95.88
239.559	99.88
239.793	98.88
240.027	102.88
240.26	110.88
240.494	118.88
240.728	130.88
240.961	111.88
241.195	108.88
241.429	103.88
241.662	113.88
241.896	120.88
242.13	111.88
242.363	112.88
242.597	109.88
242.83	96.88
243.064	112.88
243.298	116.88
243.531	120.88
243.765	130.88
243.998	112.88
244.232	116.88
244.465	115.88
244.699	117.88
244.932	103.88
245.166	110.88
245.399	116.88
245.633	124.88
245.866	110.88
246.099	116.88
246.333	118.88
246.566	87.88
246.8	126.88
247.033	125.88
247.266	117.88
247.5	137.88
247.733	122.88
247.966	146.88
248.2	140.88
248.433	129.88
248.666	128.88
248.899	143.88
249.133	138.88
249.366	164.88
249.599	138.88
249.832	135.88
250.066	141.88
250.299	132.88
250.532	142.88
250.765	147.88
250.998	156.88
251.231	166.88
251.465	156.88
251.698	144.88
251.931	136.88
252.164	137.88
252.397	138.88
252.63	155.88
252.863	146.88
253.096	163.88
253.329	165.88
253.562	160.88
253.795	158.88
254.028	170.88
254.261	168.88
254.494	166.88
254.727	186.88
254.96	206.88
255.193	186.88
255.426	178.88
255.659	176.88
255.892	164.88
256.124	174.88
256.357	165.88
256.59	142.88
256.823	171.88
257.056	164.88
257.289	150.88
257.521	162.88
257.754	148.88
257.987	161.88
258.22	162.88
258.452	153.88
258.685	160.88
258.918	148.88
259.151	156.88
259.383	162.88
259.616	165.88
259.849	156.88
260.081	162.88
260.314	192.88
260.547	164.88
260.779	177.88
261.012	168.88
261.244	166.88
261.477	181.88
261.71	170.88
261.942	165.88
262.175	162.88
262.407	152.88
262.64	154.88
262.872	151.88
263.105	162.88
263.337	159.88
263.57	158.88
263.802	146.88
264.035	144.88
264.267	163.88
264.499	156.88
264.732	155.88
264.964	163.88
265.197	154.88
265.429	156.88
265.661	168.88
265.894	148.88
266.126	166.88
266.358	161.88
266.591	158.88
266.823	161.88
267.055	182.88
267.287	181.88
267.52	158.88
267.752	169.88
267.984	164.88
268.216	159.88
268.448	167.88
268.681	171.88
268.913	187.88
269.145	180.88
269.377	195.88
269.609	198.88
269.841	201.88
270.073	207.88
270.306	210.88
270.538	212.88
270.77	209.88
271.002	208.88
271.234	202.88
271.466	216.88
271.698	218.88
271.93	218.88
272.162	215.88
272.394	231.88
272.626	209.88
272.858	200.88
273.09	212.88
273.322	207.88
273.553	181.88
273.785	188.88
274.017	208.88
274.249	184.88
274.481	183.88
274.713	184.88
274.945	185.88
275.176	162.88
275.408	191.88
275.64	190.88
275.872	193.88
276.104	200.88
276.335	182.88
276.567	215.88
276.799	204.88
277.031	209.88
277.262	209.88
277.494	230.88
277.726	214.88
277.957	194.88
278.189	187.88
278.421	191.88
278.652	191.88
278.884	184.88
279.115	204.88
279.347	195.88
279.579	188.88
279.81	187.88
280.042	187.88
280.273	188.88
280.505	186.88
280.736	180.88
280.968	174.88
281.199	174.88
281.431	196.88
281.662	188.88
281.894	180.88
282.125	198.88
282.356	210.88
282.588	207.88
282.819	203.88
283.051	196.88
283.282	192.88
283.513	211.88
283.745	186.88
283.976	186.88
284.207	194.88
284.439	192.88
284.67	188.88
284.901	197.88
285.132	194.88
285.364	192.88
285.595	198.88
285.826	205.88
286.057	203.88
286.288	193.88
286.52	199.88
286.751	199.88
286.982	190.88
287.213	208.88
287.444	194.88
287.675	201.88
287.906	185.88
288.138	204.88
288.369	206.88
288.6	208.88
288.831	215.88
289.062	193.88
289.293	204.88
289.524	190.88
289.755	202.88
289.986	198.88
290.217	194.88
290.448	178.88
290.679	202.88
290.91	213.88
291.141	195.88
291.371	199.88
291.602	188.88
291.833	216.88
292.064	210.88
292.295	203.88
292.526	209.88
292.757	209.88
292.987	215.88
293.218	195.88
293.449	208.88
293.68	207.88
293.91	196.88
294.141	198.88
294.372	202.88
294.603	213.88
294.833	205.88
295.064	208.88
295.295	209.88
295.525	203.88
295.756	203.88
295.987	209.88
296.217	227.88
296.448	215.88
296.679	217.88
296.909	218.88
297.14	194.88
297.37	209.88
297.601	207.88
297.831	207.88
298.062	212.88
298.292	203.88
298.523	194.88
298.753	215.88
298.984	211.88
299.214	201.88
299.445	220.88
299.675	206.88
299.905	217.88
300.136	215.88
300.366	214.88
300.597	212.88
300.827	202.88
301.057	226.88
301.288	223.88
301.518	231.88
301.748	211.88
301.979	215.88
302.209	231.88
302.439	217.88
302.669	220.88
302.9	213.88
303.13	210.88
303.36	230.88
303.59	244.88
303.82	242.88
304.051	233.88
304.281	227.88
304.511	222.88
304.741	240.88
304.971	233.88
305.201	227.88
305.431	211.88
305.661	224.88
305.891	235.88
306.121	229.88
306.352	235.88
306.582	241.88
306.812	232.88
307.042	228.88
307.272	239.88
307.502	226.88
307.731	216.88
307.961	218.88
308.191	226.88
308.421	246.88
308.651	228.88
308.881	238.88
309.111	252.88
309.341	254.88
309.571	242.88
309.8	242.88
310.03	261.88
310.26	261.88
310.49	254.88
310.72	263.88
310.949	278.88
311.179	288.88
311.409	271.88
311.639	244.88
311.868	265.88
312.098	254.88
312.328	271.88
312.557	275.88
312.787	275.88
313.017	280.88
313.246	272.88
313.476	272.88
313.706	261.88
313.935	267.88
314.165	254.88
314.394	258.88
314.624	265.88
314.853	260.88
315.083	279.88
315.312	271.88
315.542	239.88
315.771	260.88
316.001	256.88
316.23	242.88
316.46	261.88
316.689	267.88
316.919	277.88
317.148	272.88
317.377	272.88
317.607	258.88
317.836	258.88
318.065	258.88
318.295	263.88
318.524	255.88
318.753	247.88
318.983	258.88
319.212	264.88
319.441	268.88
319.67	264.88
319.9	254.88
320.129	245.88
320.358	259.88
320.587	242.88
320.816	266.88
321.046	263.88
321.275	265.88
321.504	268.88
321.733	281.88
321.962	270.88
322.191	286.88
322.42	290.88
322.649	329.88
322.878	323.88
323.108	332.88
323.337	321.88
323.566	349.88
323.795	360.88
324.024	428.88
324.253	507.88
324.482	753.88
324.71	1103.88
324.939	1433.88
325.168	1154.88
325.397	630.88
325.626	433.88
325.855	380.88
326.084	367.88
326.313	349.88
326.542	360.88
326.77	407.88
326.999	481.88
327.228	656.88
327.457	958.88
327.686	1003.88
327.914	686.88
328.143	469.88
328.372	421.88
328.6	396.88
328.829	361.88
329.058	386.88
329.287	397.88
329.515	379.88
329.744	342.88
329.972	333.88
330.201	354.88
330.43	370.88
330.658	403.88
330.887	424.88
331.115	394.88
331.344	354.88
331.572	340.88
331.801	338.88
332.03	316.88
332.258	318.88
332.486	306.88
332.715	302.88
332.943	284.88
333.172	300.88
333.4	322.88
333.629	315.88
333.857	312.88
334.085	338.88
334.314	320.88
334.542	314.88
334.771	352.88
334.999	328.88
335.227	325.88
335.455	309.88
335.684	289.88
335.912	310.88
336.14	312.88
336.369	284.88
336.597	315.88
336.825	297.88
337.053	293.88
337.281	304.88
337.51	290.88
337.738	291.88
337.966	293.88
338.194	306.88
338.422	291.88
338.65	286.88
338.878	283.88
339.106	256.88
339.334	283.88
339.562	274.88
339.79	284.88
340.018	276.88
340.246	297.88
340.474	274.88
340.702	284.88
340.93	269.88
341.158	276.88
341.386	273.88
341.614	276.88
341.842	290.88
342.07	276.88
342.298	293.88
342.526	274.88
342.754	263.88
342.981	266.88
343.209	281.88
343.437	276.88
343.665	283.88
343.893	284.88
344.12	289.88
344.348	273.88
344.576	277.88
344.804	311.88
345.031	280.88
345.259	291.88
345.487	292.88
345.714	287.88
345.942	283.88
346.17	273.88
346.397	281.88
346.625	300.88
346.853	291.88
347.08	266.88
347.308	291.88
347.535	292.88
347.763	277.88
347.99	283.88
348.218	281.88
348.445	290.88
348.673	287.88
348.9	251.88
349.128	266.88
349.355	242.88
349.583	255.88
349.81	269.88
350.037	270.88
350.265	249.88
350.492	262.88
350.72	252.88
350.947	279.88
351.174	264.88
351.402	299.88
351.629	275.88
351.856	290.88
352.083	272.88
352.311	295.88
352.538	276.88
352.765	276.88
352.992	290.88
353.22	268.88
353.447	273.88
353.674	276.88
353.901	263.88
354.128	253.88
354.355	258.88
354.583	279.88
354.81	267.88
355.037	252.88
355.264	253.88
355.491	261.88
355.718	255.88
355.945	264.88
356.172	268.88
356.399	247.88
356.626	242.88
356.853	239.88
357.08	244.88
357.307	240.88
357.534	255.88
357.761	246.88
357.988	256.88
358.215	248.88
358.441	257.88
358.668	241.88
358.895	249.88
359.122	264.88
359.349	279.88
359.576	284.88
359.802	296.88
360.029	303.88
360.256	291.88
360.483	296.88
360.709	274.88
360.936	264.88
361.163	279.88
361.39	281.88
361.616	268.88
361.843	286.88
362.07	278.88
362.296	277.88
362.523	280.88
362.749	262.88
362.976	283.88
363.203	278.88
363.429	242.88
363.656	257.88
363.882	260.88
364.109	267.88
364.335	255.88
364.562	264.88
364.788	244.88
365.015	265.88
365.241	255.88
365.468	260.88
365.694	280.88
365.92	259.88
366.147	249.88
366.373	275.88
366.599	254.88
366.826	270.88
367.052	246.88
367.278	261.88
367.505	260.88
367.731	247.88
367.957	264.88
368.184	247.88
368.41	273.88
368.636	271.88
368.862	281.88
369.089	275.88
369.315	259.88
369.541	248.88
369.767	260.88
369.993	261.88
370.219	252.88
370.445	250.88
370.672	256.88
370.898	259.88
371.124	245.88
371.35	257.88
371.576	251.88
371.802	266.88
372.028	247.88
372.254	235.88
372.48	254.88
372.706	234.88
372.932	268.88
373.158	249.88
373.384	265.88
373.61	247.88
373.835	258.88
374.061	252.88
374.287	242.88
374.513	260.88
374.739	252.88
374.965	259.88
375.191	266.88
375.416	261.88
375.642	251.88
375.868	277.88
376.094	244.88
376.319	242.88
376.545	243.88
376.771	235.88
376.997	250.88
377.222	243.88
377.448	241.88
377.674	252.88
377.899	255.88
378.125	252.88
378.35	242.88
378.576	251.88
378.802	247.88
379.027	246.88
379.253	261.88
379.478	234.88
379.704	245.88
379.929	248.88
380.155	259.88
380.38	240.88
380.606	235.88
380.831	252.88
381.057	256.88
381.282	242.88
381.507	241.88
381.733	243.88
381.958	233.88
382.184	256.88
382.409	252.88
382.634	261.88
382.86	238.88
383.085	259.88
383.31	274.88
383.535	241.88
383.761	261.88
383.986	242.88
384.211	264.88
384.436	246.88
384.662	238.88
384.887	264.88
385.112	264.88
385.337	253.88
385.562	259.88
385.787	267.88
386.013	261.88
386.238	269.88
386.463	264.88
386.688	264.88
386.913	258.88
387.138	271.88
387.363	270.88
387.588	272.88
387.813	256.88
388.038	262.88
388.263	271.88
388.488	255.88
388.713	260.88
388.938	270.88
389.163	258.88
389.387	267.88
389.612	257.88
389.837	255.88
390.062	255.88
390.287	249.88
390.512	250.88
390.736	257.88
390.961	251.88
391.186	246.88
391.411	248.88
391.636	258.88
391.86	251.88
392.085	274.88
392.31	261.88
392.534	282.88
392.759	275.88
392.984	272.88
393.208	273.88
393.433	259.88
393.658	250.88
393.882	251.88
394.107	277.88
394.331	242.88
394.556	258.88
394.78	261.88
395.005	241.88
395.229	271.88
395.454	266.88
395.678	258.88
395.903	279.88
396.127	280.88
396.352	294.88
396.576	266.88
396.801	260.88
397.025	274.88
397.249	280.88
397.474	270.88
397.698	281.88
397.922	274.88
398.147	296.88
398.371	287.88
398.595	300.88
398.82	290.88
399.044	306.88
399.268	302.88
399.492	297.88
399.717	328.88
399.941	307.88
400.165	343.88
400.389	339.88
400.613	324.88
400.837	305.88
401.062	303.88
401.286	291.88
401.51	309.88
401.734	296.88
401.958	306.88
402.182	302.88
402.406	305.88
402.63	289.88
402.854	301.88
403.078	314.88
403.302	305.88
403.526	304.88
403.75	307.88
403.974	302.88
404.198	312.88
404.422	316.88
404.645	297.88
404.869	296.88
405.093	302.88
405.317	326.88
405.541	345.88
405.765	313.88
405.988	319.88
406.212	327.88
406.436	322.88
406.66	341.88
406.883	325.88
407.107	343.88
407.331	346.88
407.555	373.88
407.778	388.88
408.002	357.88
408.226	313.88
408.449	333.88
408.673	324.88
408.896	329.88
409.12	355.88
409.344	327.88
409.567	289.88
409.791	315.88
410.014	311.88
410.238	302.88
410.461	295.88
410.685	303.88
410.908	307.88
411.132	342.88
411.355	354.88
411.578	312.88
411.802	314.88
412.025	275.88
412.249	309.88
412.472	321.88
412.695	325.88
412.919	311.88
413.142	305.88
413.365	298.88
413.589	311.88
413.812	290.88
414.035	287.88
414.258	278.88
414.482	280.88
414.705	284.88
414.928	280.88
415.151	288.88
415.374	275.88
415.597	279.88
415.821	278.88
416.044	285.88
416.267	304.88
416.49	274.88
416.713	268.88
416.936	286.88
417.159	282.88
417.382	276.88
417.605	278.88
417.828	300.88
418.051	283.88
418.274	291.88
418.497	292.88
418.72	282.88
418.943	280.88
419.166	274.88
419.389	303.88
419.611	294.88
419.834	304.88
420.057	302.88
420.28	299.88
420.503	293.88
420.726	294.88
420.948	295.88
421.171	326.88
421.394	352.88
421.617	287.88
421.839	274.88
422.062	302.88
422.285	314.88
422.507	331.88
422.73	378.88
422.953	354.88
423.175	318.88
423.398	306.88
423.621	309.88
423.843	339.88
424.066	325.88
424.288	314.88
424.511	336.88
424.733	361.88
424.956	400.88
425.178	376.88
425.401	395.88
425.623	384.88
425.846	320.88
426.068	316.88
426.291	311.88
426.513	306.88
426.735	332.88
426.958	343.88
427.18	422.88
427.402	473.88
427.625	495.88
427.847	448.88
428.069	381.88
428.292	333.88
428.514	315.88
428.736	288.88
428.958	294.88
429.181	300.88
429.403	302.88
429.625	303.88
429.847	320.88
430.069	355.88
430.292	339.88
430.514	308.88
430.736	312.88
430.958	298.88
431.18	286.88
431.402	281.88
431.624	272.88
431.846	284.88
432.068	283.88
432.29	274.88
432.512	286.88
432.734	283.88
432.956	285.88
433.178	274.88
433.4	274.88
433.622	276.88
433.844	284.88
434.066	281.88
434.287	264.88
434.509	292.88
434.731	298.88
434.953	287.88
435.175	289.88
435.397	312.88
435.618	310.88
435.84	348.88
436.062	407.88
436.284	424.88
436.505	367.88
436.727	315.88
436.949	314.88
437.17	302.88
437.392	290.88
437.614	314.88
437.835	321.88
438.057	383.88
438.278	436.88
438.5	461.88
438.721	469.88
438.943	446.88
439.165	368.88
439.386	346.88
439.608	308.88
439.829	323.88
440.05	358.88
440.272	372.88
440.493	340.88
440.715	328.88
440.936	279.88
441.158	314.88
441.379	304.88
441.6	315.88
441.822	331.88
442.043	351.88
442.264	386.88
442.486	410.88
442.707	339.88
442.928	328.88
443.149	338.88
443.371	358.88
443.592	380.88
443.813	422.88
444.034	432.88
444.255	359.88
444.476	343.88
444.698	312.88
444.919	323.88
445.14	387.88
445.361	345.88
445.582	352.88
445.803	379.88
446.024	430.88
446.245	432.88
446.466	393.88
446.687	355.88
446.908	331.88
447.129	314.88
447.35	313.88
447.571	320.88
447.792	289.88
448.013	311.88
448.234	316.88
448.455	318.88
448.675	407.88
448.896	464.88
449.117	415.88
449.338	392.88
449.559	446.88
449.779	494.88
450	403.88
450.221	335.88
450.442	295.88
450.662	296.88
450.883	294.88
451.104	311.88
451.324	292.88
451.545	270.88
451.766	263.88
451.986	268.88
452.207	264.88
452.428	256.88
452.648	276.88
452.869	297.88
453.089	282.88
453.31	288.88
453.53	270.88
453.751	273.88
453.971	261.88
454.192	286.88
454.412	277.88
454.633	272.88
454.853	266.88
455.073	274.88
455.294	288.88
455.514	324.88
455.734	321.88
455.955	265.88
456.175	258.88
456.395	253.88
456.616	258.88
456.836	247.88
457.056	250.88
457.276	242.88
457.497	262.88
457.717	240.88
457.937	266.88
458.157	267.88
458.377	255.88
458.598	284.88
458.818	306.88
459.038	347.88
459.258	336.88
459.478	309.88
459.698	286.88
459.918	271.88
460.138	268.88
460.358	283.88
460.578	280.88
460.798	276.88
461.018	277.88
461.238	283.88
461.458	280.88
461.678	274.88
461.898	267.88
462.118	261.88
462.338	261.88
462.558	287.88
462.777	312.88
462.997	292.88
463.217	299.88
463.437	300.88
463.657	273.88
463.876	286.88
464.096	308.88
464.316	283.88
464.536	303.88
464.755	299.88
464.975	304.88
465.195	332.88
465.414	374.88
465.634	332.88
465.854	296.88
466.073	291.88
466.293	292.88
466.512	267.88
466.732	276.88
466.951	274.88
467.171	275.88
467.391	267.88
467.61	295.88
467.829	297.88
468.049	275.88
468.268	293.88
468.488	274.88
468.707	250.88
468.927	270.88
469.146	276.88
469.365	265.88
469.585	258.88
469.804	292.88
470.023	274.88
470.243	290.88
470.462	276.88
470.681	302.88
470.901	290.88
471.12	271.88
471.339	272.88
471.558	291.88
471.777	287.88
471.997	268.88
472.216	284.88
472.435	287.88
472.654	284.88
472.873	269.88
473.092	286.88
473.311	273.88
473.53	276.88
473.749	287.88
473.968	332.88
474.187	392.88
474.406	387.88
474.625	305.88
474.844	300.88
475.063	282.88
475.282	272.88
475.501	276.88
475.72	279.88
475.939	274.88
476.158	274.88
476.377	283.88
476.596	273.88
476.814	295.88
477.033	296.88
477.252	280.88
477.471	287.88
477.69	280.88
477.908	309.88
478.127	286.88
478.346	296.88
478.564	293.88
478.783	295.88
479.002	316.88
479.22	312.88
479.439	292.88
479.658	332.88
479.876	328.88
480.095	332.88
480.313	347.88
480.532	327.88
480.751	323.88
480.969	344.88
481.188	372.88
481.406	380.88
481.624	345.88
481.843	331.88
482.061	318.88
482.28	322.88
482.498	310.88
482.717	322.88
482.935	313.88
483.153	310.88
483.372	319.88
483.59	304.88
483.808	316.88
484.027	320.88
484.245	322.88
484.463	314.88
484.681	326.88
484.9	319.88
485.118	324.88
485.336	305.88
485.554	319.88
485.772	324.88
485.99	351.88
486.209	342.88
486.427	312.88
486.645	341.88
486.863	358.88
487.081	348.88
487.299	346.88
487.517	335.88
487.735	328.88
487.953	356.88
488.171	328.88
488.389	349.88
488.607	320.88
488.825	336.88
489.043	319.88
489.261	327.88
489.479	344.88
489.696	332.88
489.914	351.88
490.132	356.88
490.35	339.88
490.568	360.88
490.786	348.88
491.003	360.88
491.221	361.88
491.439	384.88
491.657	378.88
491.874	371.88
492.092	375.88
492.31	393.88
492.527	382.88
492.745	425.88
492.963	366.88
493.18	388.88
493.398	402.88
493.615	408.88
493.833	387.88
494.05	395.88
494.268	382.88
494.485	385.88
494.703	407.88
494.92	402.88
495.138	412.88
495.355	380.88
495.573	414.88
495.79	413.88
496.008	412.88
496.225	392.88
496.442	407.88
496.66	414.88
496.877	401.88
497.094	417.88
497.312	416.88
497.529	421.88
497.746	426.88
497.963	435.88
498.181	428.88
498.398	430.88
498.615	428.88
498.832	444.88
499.049	430.88
499.267	457.88
499.484	444.88
499.701	483.88
499.918	478.88
500.135	471.88
500.352	490.88
500.569	490.88
500.786	523.88
501.003	509.88
501.22	473.88
501.437	474.88
501.654	479.88
501.871	468.88
502.088	476.88
502.305	461.88
