Data from 1982.PennyLincolnUp.Lamp.En5.5.200Scan.071819.P1_HRD10591_16-47-21-962.txt Node
Date: Thu Jul 18 16:47:21 EDT 2019
User: cochatt
Spectrometer: HR+D1059
Trigger mode: 1
Integration Time (sec): 1.000000E-1
Scans to average: 1
Electric dark correction enabled: true
Nonlinearity correction enabled: false
Boxcar width: 0
XAxis mode: Wavelengths
Number of Pixels in Spectrum: 2048
>>>>>Begin Spectral Data<<<<<
223.165	-14.25
223.4	-14.25
223.635	-14.25
223.869	4.75
224.104	-20.25
224.338	-30.25
224.573	-18.25
224.808	-9.25
225.042	-6.25
225.277	-2.25
225.511	-15.25
225.746	7.75
225.98	13.75
226.215	10.75
226.449	10.75
226.683	21.75
226.918	21.75
227.152	24.75
227.387	42.75
227.621	34.75
227.856	27.75
228.09	46.75
228.324	49.75
228.559	45.75
228.793	67.75
229.027	83.75
229.262	106.75
229.496	109.75
229.73	126.75
229.964	137.75
230.199	119.75
230.433	122.75
230.667	102.75
230.901	111.75
231.136	102.75
231.37	113.75
231.604	111.75
231.838	111.75
232.072	103.75
232.306	91.75
232.541	106.75
232.775	95.75
233.009	101.75
233.243	109.75
233.477	120.75
233.711	95.75
233.945	107.75
234.179	99.75
234.413	88.75
234.647	113.75
234.881	111.75
235.115	106.75
235.349	102.75
235.583	113.75
235.817	109.75
236.051	121.75
236.285	113.75
236.519	122.75
236.753	99.75
236.987	126.75
237.221	146.75
237.455	182.75
237.689	165.75
237.922	133.75
238.156	120.75
238.39	121.75
238.624	118.75
238.858	108.75
239.091	110.75
239.325	106.75
239.559	113.75
239.793	121.75
240.027	106.75
240.26	113.75
240.494	125.75
240.728	134.75
240.961	133.75
241.195	115.75
241.429	137.75
241.662	120.75
241.896	117.75
242.13	102.75
242.363	117.75
242.597	113.75
242.83	116.75
243.064	106.75
243.298	125.75
243.531	115.75
243.765	120.75
243.998	120.75
244.232	112.75
244.465	115.75
244.699	137.75
244.932	126.75
245.166	116.75
245.399	127.75
245.633	126.75
245.866	116.75
246.099	135.75
246.333	123.75
246.566	127.75
246.8	141.75
247.033	131.75
247.266	124.75
247.5	133.75
247.733	133.75
247.966	150.75
248.2	147.75
248.433	140.75
248.666	151.75
248.899	149.75
249.133	159.75
249.366	174.75
249.599	165.75
249.832	158.75
250.066	151.75
250.299	164.75
250.532	162.75
250.765	173.75
250.998	189.75
251.231	197.75
251.465	183.75
251.698	180.75
251.931	162.75
252.164	158.75
252.397	156.75
252.63	174.75
252.863	178.75
253.096	178.75
253.329	186.75
253.562	203.75
253.795	184.75
254.028	175.75
254.261	197.75
254.494	196.75
254.727	226.75
254.96	232.75
255.193	220.75
255.426	207.75
255.659	189.75
255.892	193.75
256.124	186.75
256.357	204.75
256.59	191.75
256.823	181.75
257.056	161.75
257.289	177.75
257.521	196.75
257.754	183.75
257.987	192.75
258.22	185.75
258.452	156.75
258.685	159.75
258.918	170.75
259.151	165.75
259.383	177.75
259.616	177.75
259.849	173.75
260.081	179.75
260.314	198.75
260.547	194.75
260.779	212.75
261.012	185.75
261.244	173.75
261.477	198.75
261.71	195.75
261.942	189.75
262.175	214.75
262.407	194.75
262.64	180.75
262.872	177.75
263.105	186.75
263.337	191.75
263.57	181.75
263.802	179.75
264.035	176.75
264.267	184.75
264.499	190.75
264.732	184.75
264.964	184.75
265.197	173.75
265.429	162.75
265.661	167.75
265.894	169.75
266.126	186.75
266.358	173.75
266.591	181.75
266.823	179.75
267.055	190.75
267.287	188.75
267.52	192.75
267.752	195.75
267.984	182.75
268.216	193.75
268.448	197.75
268.681	190.75
268.913	201.75
269.145	215.75
269.377	222.75
269.609	226.75
269.841	221.75
270.073	230.75
270.306	226.75
270.538	264.75
270.77	265.75
271.002	249.75
271.234	234.75
271.466	243.75
271.698	259.75
271.93	267.75
272.162	263.75
272.394	269.75
272.626	255.75
272.858	239.75
273.09	216.75
273.322	207.75
273.553	222.75
273.785	249.75
274.017	212.75
274.249	212.75
274.481	197.75
274.713	201.75
274.945	200.75
275.176	205.75
275.408	212.75
275.64	219.75
275.872	216.75
276.104	221.75
276.335	213.75
276.567	226.75
276.799	243.75
277.031	262.75
277.262	256.75
277.494	261.75
277.726	243.75
277.957	228.75
278.189	216.75
278.421	228.75
278.652	225.75
278.884	231.75
279.115	222.75
279.347	217.75
279.579	196.75
279.81	213.75
280.042	211.75
280.273	213.75
280.505	211.75
280.736	210.75
280.968	216.75
281.199	209.75
281.431	219.75
281.662	225.75
281.894	219.75
282.125	221.75
282.356	245.75
282.588	247.75
282.819	258.75
283.051	229.75
283.282	220.75
283.513	231.75
283.745	223.75
283.976	229.75
284.207	222.75
284.439	211.75
284.67	230.75
284.901	231.75
285.132	225.75
285.364	239.75
285.595	231.75
285.826	234.75
286.057	208.75
286.288	234.75
286.52	212.75
286.751	215.75
286.982	215.75
287.213	226.75
287.444	229.75
287.675	225.75
287.906	240.75
288.138	224.75
288.369	224.75
288.6	254.75
288.831	243.75
289.062	247.75
289.293	235.75
289.524	233.75
289.755	225.75
289.986	231.75
290.217	237.75
290.448	225.75
290.679	237.75
290.91	239.75
291.141	215.75
291.371	229.75
291.602	241.75
291.833	235.75
292.064	222.75
292.295	229.75
292.526	249.75
292.757	237.75
292.987	225.75
293.218	219.75
293.449	241.75
293.68	243.75
293.91	218.75
294.141	251.75
294.372	249.75
294.603	232.75
294.833	223.75
295.064	244.75
295.295	227.75
295.525	241.75
295.756	238.75
295.987	246.75
296.217	254.75
296.448	280.75
296.679	238.75
296.909	233.75
297.14	244.75
297.37	246.75
297.601	237.75
297.831	247.75
298.062	235.75
298.292	226.75
298.523	234.75
298.753	234.75
298.984	229.75
299.214	230.75
299.445	246.75
299.675	268.75
299.905	237.75
300.136	240.75
300.366	245.75
300.597	255.75
300.827	250.75
301.057	251.75
301.288	267.75
301.518	254.75
301.748	269.75
301.979	254.75
302.209	255.75
302.439	248.75
302.669	261.75
302.9	273.75
303.13	253.75
303.36	262.75
303.59	272.75
303.82	269.75
304.051	261.75
304.281	282.75
304.511	261.75
304.741	268.75
304.971	236.75
305.201	266.75
305.431	277.75
305.661	263.75
305.891	281.75
306.121	271.75
306.352	270.75
306.582	271.75
306.812	247.75
307.042	264.75
307.272	274.75
307.502	258.75
307.731	276.75
307.961	270.75
308.191	242.75
308.421	256.75
308.651	265.75
308.881	274.75
309.111	268.75
309.341	292.75
309.571	270.75
309.8	302.75
310.03	294.75
310.26	310.75
310.49	316.75
310.72	312.75
310.949	315.75
311.179	323.75
311.409	317.75
311.639	291.75
311.868	327.75
312.098	311.75
312.328	306.75
312.557	332.75
312.787	328.75
313.017	312.75
313.246	323.75
313.476	320.75
313.706	310.75
313.935	281.75
314.165	309.75
314.394	341.75
314.624	323.75
314.853	311.75
315.083	321.75
315.312	290.75
315.542	309.75
315.771	306.75
316.001	310.75
316.23	290.75
316.46	284.75
316.689	307.75
316.919	299.75
317.148	301.75
317.377	298.75
317.607	308.75
317.836	302.75
318.065	313.75
318.295	295.75
318.524	303.75
318.753	289.75
318.983	313.75
319.212	324.75
319.441	309.75
319.67	319.75
319.9	313.75
320.129	293.75
320.358	299.75
320.587	309.75
320.816	303.75
321.046	341.75
321.275	312.75
321.504	319.75
321.733	335.75
321.962	326.75
322.191	348.75
322.42	359.75
322.649	372.75
322.878	393.75
323.108	397.75
323.337	427.75
323.566	433.75
323.795	459.75
324.024	516.75
324.253	660.75
324.482	967.75
324.71	1468.75
324.939	1905.75
325.168	1538.75
325.397	789.75
325.626	547.75
325.855	446.75
326.084	445.75
326.313	433.75
326.542	435.75
326.77	486.75
326.999	586.75
327.228	842.75
327.457	1231.75
327.686	1357.75
327.914	896.75
328.143	585.75
328.372	525.75
328.6	481.75
328.829	463.75
329.058	503.75
329.287	468.75
329.515	444.75
329.744	420.75
329.972	435.75
330.201	431.75
330.43	460.75
330.658	494.75
330.887	501.75
331.115	476.75
331.344	428.75
331.572	385.75
331.801	391.75
332.03	385.75
332.258	376.75
332.486	364.75
332.715	369.75
332.943	357.75
333.172	362.75
333.4	353.75
333.629	352.75
333.857	380.75
334.085	385.75
334.314	385.75
334.542	436.75
334.771	401.75
334.999	389.75
335.227	372.75
335.455	355.75
335.684	354.75
335.912	343.75
336.14	346.75
336.369	350.75
336.597	356.75
336.825	359.75
337.053	333.75
337.281	322.75
337.51	320.75
337.738	325.75
337.966	327.75
338.194	359.75
338.422	356.75
338.65	334.75
338.878	319.75
339.106	326.75
339.334	327.75
339.562	338.75
339.79	323.75
340.018	346.75
340.246	339.75
340.474	336.75
340.702	331.75
340.93	320.75
341.158	318.75
341.386	341.75
341.614	320.75
341.842	331.75
342.07	345.75
342.298	339.75
342.526	310.75
342.754	332.75
342.981	319.75
343.209	326.75
343.437	316.75
343.665	298.75
343.893	339.75
344.12	335.75
344.348	327.75
344.576	323.75
344.804	334.75
345.031	334.75
345.259	342.75
345.487	357.75
345.714	331.75
345.942	342.75
346.17	335.75
346.397	309.75
346.625	335.75
346.853	303.75
347.08	313.75
347.308	326.75
347.535	320.75
347.763	326.75
347.99	342.75
348.218	325.75
348.445	327.75
348.673	345.75
348.9	330.75
349.128	321.75
349.355	298.75
349.583	313.75
349.81	296.75
350.037	298.75
350.265	311.75
350.492	309.75
350.72	314.75
350.947	323.75
351.174	322.75
351.402	316.75
351.629	323.75
351.856	297.75
352.083	328.75
352.311	321.75
352.538	333.75
352.765	312.75
352.992	339.75
353.22	332.75
353.447	330.75
353.674	315.75
353.901	307.75
354.128	295.75
354.355	290.75
354.583	279.75
354.81	283.75
355.037	286.75
355.264	275.75
355.491	289.75
355.718	297.75
355.945	301.75
356.172	278.75
356.399	294.75
356.626	273.75
356.853	301.75
357.08	291.75
357.307	286.75
357.534	278.75
357.761	292.75
357.988	290.75
358.215	319.75
358.441	294.75
358.668	299.75
358.895	298.75
359.122	309.75
359.349	307.75
359.576	326.75
359.802	348.75
360.029	364.75
360.256	367.75
360.483	340.75
360.709	317.75
360.936	319.75
361.163	312.75
361.39	310.75
361.616	290.75
361.843	326.75
362.07	312.75
362.296	318.75
362.523	316.75
362.749	296.75
362.976	309.75
363.203	309.75
363.429	298.75
363.656	289.75
363.882	293.75
364.109	290.75
364.335	293.75
364.562	287.75
364.788	302.75
365.015	308.75
365.241	269.75
365.468	288.75
365.694	308.75
365.92	324.75
366.147	295.75
366.373	287.75
366.599	291.75
366.826	269.75
367.052	267.75
367.278	295.75
367.505	299.75
367.731	304.75
367.957	305.75
368.184	289.75
368.41	283.75
368.636	302.75
368.862	296.75
369.089	307.75
369.315	278.75
369.541	282.75
369.767	297.75
369.993	307.75
370.219	277.75
370.445	274.75
370.672	269.75
370.898	269.75
371.124	300.75
371.35	291.75
371.576	279.75
371.802	269.75
372.028	296.75
372.254	298.75
372.48	269.75
372.706	269.75
372.932	271.75
373.158	284.75
373.384	283.75
373.61	290.75
373.835	281.75
374.061	300.75
374.287	294.75
374.513	297.75
374.739	296.75
374.965	298.75
375.191	284.75
375.416	284.75
375.642	300.75
375.868	291.75
376.094	290.75
376.319	297.75
376.545	280.75
376.771	277.75
376.997	277.75
377.222	265.75
377.448	301.75
377.674	282.75
377.899	278.75
378.125	282.75
378.35	281.75
378.576	277.75
378.802	277.75
379.027	278.75
379.253	271.75
379.478	279.75
379.704	271.75
379.929	286.75
380.155	283.75
380.38	273.75
380.606	279.75
380.831	281.75
381.057	285.75
381.282	265.75
381.507	286.75
381.733	288.75
381.958	279.75
382.184	277.75
382.409	289.75
382.634	283.75
382.86	268.75
383.085	290.75
383.31	277.75
383.535	270.75
383.761	267.75
383.986	282.75
384.211	280.75
384.436	284.75
384.662	284.75
384.887	298.75
385.112	291.75
385.337	279.75
385.562	289.75
385.787	285.75
386.013	303.75
386.238	310.75
386.463	321.75
386.688	302.75
386.913	286.75
387.138	295.75
387.363	294.75
387.588	281.75
387.813	284.75
388.038	289.75
388.263	286.75
388.488	289.75
388.713	275.75
388.938	289.75
389.163	302.75
389.387	283.75
389.612	290.75
389.837	284.75
390.062	303.75
390.287	281.75
390.512	293.75
390.736	295.75
390.961	302.75
391.186	292.75
391.411	305.75
391.636	296.75
391.86	288.75
392.085	295.75
392.31	287.75
392.534	285.75
392.759	299.75
392.984	290.75
393.208	287.75
393.433	267.75
393.658	287.75
393.882	297.75
394.107	314.75
394.331	285.75
394.556	285.75
394.78	284.75
395.005	278.75
395.229	275.75
395.454	286.75
395.678	304.75
395.903	321.75
396.127	323.75
396.352	318.75
396.576	298.75
396.801	314.75
397.025	323.75
397.249	313.75
397.474	315.75
397.698	301.75
397.922	315.75
398.147	337.75
398.371	330.75
398.595	327.75
398.82	301.75
399.044	323.75
399.268	337.75
399.492	332.75
399.717	369.75
399.941	375.75
400.165	374.75
400.389	366.75
400.613	355.75
400.837	347.75
401.062	326.75
401.286	327.75
401.51	327.75
401.734	338.75
401.958	325.75
402.182	341.75
402.406	348.75
402.63	346.75
402.854	329.75
403.078	339.75
403.302	326.75
403.526	329.75
403.75	341.75
403.974	332.75
404.198	321.75
404.422	360.75
404.645	345.75
404.869	341.75
405.093	361.75
405.317	384.75
405.541	405.75
405.765	384.75
405.988	355.75
406.212	379.75
406.436	364.75
406.66	385.75
406.883	379.75
407.107	379.75
407.331	405.75
407.555	448.75
407.778	447.75
408.002	391.75
408.226	375.75
408.449	375.75
408.673	359.75
408.896	381.75
409.12	390.75
409.344	391.75
409.567	360.75
409.791	346.75
410.014	338.75
410.238	342.75
410.461	329.75
410.685	333.75
410.908	360.75
411.132	373.75
411.355	391.75
411.578	377.75
411.802	338.75
412.025	337.75
412.249	349.75
412.472	361.75
412.695	382.75
412.919	370.75
413.142	366.75
413.365	338.75
413.589	334.75
413.812	314.75
414.035	312.75
414.258	321.75
414.482	330.75
414.705	315.75
414.928	300.75
415.151	314.75
415.374	325.75
415.597	316.75
415.821	324.75
416.044	315.75
416.267	313.75
416.49	313.75
416.713	314.75
416.936	311.75
417.159	320.75
417.382	324.75
417.605	314.75
417.828	341.75
418.051	351.75
418.274	324.75
418.497	322.75
418.72	331.75
418.943	313.75
419.166	318.75
419.389	342.75
419.611	336.75
419.834	332.75
420.057	350.75
420.28	338.75
420.503	327.75
420.726	338.75
420.948	340.75
421.171	369.75
421.394	403.75
421.617	323.75
421.839	316.75
422.062	350.75
422.285	339.75
422.507	371.75
422.73	422.75
422.953	415.75
423.175	370.75
423.398	347.75
423.621	335.75
423.843	371.75
424.066	358.75
424.288	369.75
424.511	375.75
424.733	406.75
424.956	460.75
425.178	449.75
425.401	437.75
425.623	457.75
425.846	392.75
426.068	380.75
426.291	354.75
426.513	369.75
426.735	374.75
426.958	397.75
427.18	450.75
427.402	539.75
427.625	603.75
427.847	548.75
428.069	433.75
428.292	402.75
428.514	359.75
428.736	335.75
428.958	334.75
429.181	333.75
429.403	349.75
429.625	352.75
429.847	377.75
430.069	403.75
430.292	389.75
430.514	360.75
430.736	364.75
430.958	330.75
431.18	331.75
431.402	322.75
431.624	313.75
431.846	297.75
432.068	307.75
432.29	325.75
432.512	322.75
432.734	326.75
432.956	308.75
433.178	355.75
433.4	362.75
433.622	316.75
433.844	295.75
434.066	321.75
434.287	316.75
434.509	327.75
434.731	325.75
434.953	324.75
435.175	342.75
435.397	371.75
435.618	363.75
435.84	396.75
436.062	475.75
436.284	499.75
436.505	426.75
436.727	387.75
436.949	364.75
437.17	325.75
437.392	330.75
437.614	346.75
437.835	382.75
438.057	449.75
438.278	522.75
438.5	495.75
438.721	552.75
438.943	497.75
439.165	404.75
439.386	371.75
439.608	384.75
439.829	366.75
440.05	403.75
440.272	455.75
440.493	409.75
440.715	373.75
440.936	340.75
441.158	333.75
441.379	333.75
441.6	358.75
441.822	365.75
442.043	403.75
442.264	445.75
442.486	471.75
442.707	410.75
442.928	390.75
443.149	398.75
443.371	381.75
443.592	403.75
443.813	486.75
444.034	533.75
444.255	422.75
444.476	380.75
444.698	356.75
444.919	361.75
445.14	445.75
445.361	415.75
445.582	395.75
445.803	447.75
446.024	517.75
446.245	519.75
446.466	468.75
446.687	398.75
446.908	374.75
447.129	357.75
447.35	352.75
447.571	354.75
447.792	343.75
448.013	342.75
448.234	367.75
448.455	405.75
448.675	470.75
448.896	525.75
449.117	469.75
449.338	448.75
449.559	517.75
449.779	573.75
450	463.75
450.221	385.75
450.442	351.75
450.662	339.75
450.883	338.75
451.104	353.75
451.324	346.75
451.545	343.75
451.766	313.75
451.986	310.75
452.207	293.75
452.428	301.75
452.648	290.75
452.869	316.75
453.089	319.75
453.31	311.75
453.53	300.75
453.751	297.75
453.971	308.75
454.192	325.75
454.412	327.75
454.633	314.75
454.853	297.75
455.073	300.75
455.294	326.75
455.514	385.75
455.734	377.75
455.955	311.75
456.175	293.75
456.395	305.75
456.616	306.75
456.836	279.75
457.056	290.75
457.276	285.75
457.497	295.75
457.717	287.75
457.937	275.75
458.157	285.75
458.377	302.75
458.598	310.75
458.818	368.75
459.038	436.75
459.258	414.75
459.478	346.75
459.698	321.75
459.918	306.75
460.138	302.75
460.358	318.75
460.578	309.75
460.798	298.75
461.018	317.75
461.238	317.75
461.458	323.75
461.678	319.75
461.898	309.75
462.118	311.75
462.338	313.75
462.558	315.75
462.777	321.75
462.997	341.75
463.217	345.75
463.437	333.75
463.657	329.75
463.876	329.75
464.096	319.75
464.316	331.75
464.536	324.75
464.755	341.75
464.975	340.75
465.195	377.75
465.414	415.75
465.634	367.75
465.854	345.75
466.073	316.75
466.293	299.75
466.512	291.75
466.732	308.75
466.951	305.75
467.171	304.75
467.391	321.75
467.61	294.75
467.829	326.75
468.049	329.75
468.268	325.75
468.488	289.75
468.707	300.75
468.927	291.75
469.146	292.75
469.365	286.75
469.585	298.75
469.804	310.75
470.023	315.75
470.243	319.75
470.462	313.75
470.681	344.75
470.901	334.75
471.12	342.75
471.339	300.75
471.558	330.75
471.777	312.75
471.997	297.75
472.216	313.75
472.435	353.75
472.654	331.75
472.873	312.75
473.092	310.75
473.311	305.75
473.53	296.75
473.749	326.75
473.968	358.75
474.187	419.75
474.406	426.75
474.625	364.75
474.844	325.75
475.063	317.75
475.282	319.75
475.501	315.75
475.72	322.75
475.939	303.75
476.158	321.75
476.377	305.75
476.596	316.75
476.814	328.75
477.033	332.75
477.252	351.75
477.471	319.75
477.69	343.75
477.908	335.75
478.127	341.75
478.346	323.75
478.564	342.75
478.783	335.75
479.002	340.75
479.22	352.75
479.439	359.75
479.658	373.75
479.876	378.75
480.095	380.75
480.313	395.75
480.532	382.75
480.751	346.75
480.969	381.75
481.188	438.75
481.406	476.75
481.624	398.75
481.843	390.75
482.061	366.75
482.28	352.75
482.498	346.75
482.717	369.75
482.935	348.75
483.153	343.75
483.372	343.75
483.59	371.75
483.808	336.75
484.027	378.75
484.245	361.75
484.463	369.75
484.681	380.75
484.9	353.75
485.118	377.75
485.336	357.75
485.554	349.75
485.772	374.75
485.99	375.75
486.209	375.75
486.427	353.75
486.645	376.75
486.863	391.75
487.081	387.75
487.299	400.75
487.517	398.75
487.735	389.75
487.953	363.75
488.171	383.75
488.389	386.75
488.607	398.75
488.825	396.75
489.043	387.75
489.261	387.75
489.479	378.75
489.696	393.75
489.914	401.75
490.132	422.75
490.35	405.75
490.568	413.75
490.786	413.75
491.003	401.75
491.221	427.75
491.439	405.75
491.657	408.75
491.874	439.75
492.092	460.75
492.31	443.75
492.527	456.75
492.745	450.75
492.963	437.75
493.18	460.75
493.398	462.75
493.615	478.75
493.833	446.75
494.05	443.75
494.268	456.75
494.485	466.75
494.703	426.75
494.92	451.75
495.138	467.75
495.355	439.75
495.573	466.75
495.79	460.75
496.008	448.75
496.225	441.75
496.442	447.75
496.66	448.75
496.877	445.75
497.094	451.75
497.312	476.75
497.529	442.75
497.746	469.75
497.963	486.75
498.181	486.75
498.398	473.75
498.615	471.75
498.832	479.75
499.049	473.75
499.267	531.75
499.484	520.75
499.701	521.75
499.918	525.75
500.135	547.75
500.352	542.75
500.569	569.75
500.786	577.75
501.003	596.75
501.22	563.75
501.437	547.75
501.654	551.75
501.871	558.75
502.088	525.75
