Data from 1982.PennyLincolnUp.Lamp.En5.5.200Scan.071819.P1_HRD10591_16-45-32-961.txt Node
Date: Thu Jul 18 16:45:32 EDT 2019
User: cochatt
Spectrometer: HR+D1059
Trigger mode: 1
Integration Time (sec): 1.000000E-1
Scans to average: 1
Electric dark correction enabled: true
Nonlinearity correction enabled: false
Boxcar width: 0
XAxis mode: Wavelengths
Number of Pixels in Spectrum: 2048
>>>>>Begin Spectral Data<<<<<
223.165	-9.5
223.4	-9.5
223.635	-9.5
223.869	-6.5
224.104	-19.5
224.338	-25.5
224.573	-5.5
224.808	-20.5
225.042	-3.5
225.277	-7.5
225.511	-2.5
225.746	11.5
225.98	3.5
226.215	2.5
226.449	6.5
226.683	23.5
226.918	19.5
227.152	33.5
227.387	26.5
227.621	41.5
227.856	42.5
228.09	45.5
228.324	41.5
228.559	59.5
228.793	69.5
229.027	78.5
229.262	90.5
229.496	99.5
229.73	122.5
229.964	102.5
230.199	108.5
230.433	113.5
230.667	103.5
230.901	98.5
231.136	92.5
231.37	97.5
231.604	91.5
231.838	100.5
232.072	98.5
232.306	99.5
232.541	100.5
232.775	126.5
233.009	104.5
233.243	106.5
233.477	106.5
233.711	95.5
233.945	108.5
234.179	94.5
234.413	89.5
234.647	112.5
234.881	97.5
235.115	116.5
235.349	107.5
235.583	109.5
235.817	111.5
236.051	114.5
236.285	119.5
236.519	113.5
236.753	105.5
236.987	119.5
237.221	150.5
237.455	167.5
237.689	142.5
237.922	129.5
238.156	111.5
238.39	101.5
238.624	118.5
238.858	92.5
239.091	112.5
239.325	102.5
239.559	103.5
239.793	111.5
240.027	109.5
240.26	110.5
240.494	137.5
240.728	119.5
240.961	125.5
241.195	115.5
241.429	111.5
241.662	112.5
241.896	103.5
242.13	105.5
242.363	108.5
242.597	102.5
242.83	112.5
243.064	131.5
243.298	103.5
243.531	106.5
243.765	131.5
243.998	117.5
244.232	105.5
244.465	106.5
244.699	122.5
244.932	119.5
245.166	120.5
245.399	126.5
245.633	90.5
245.866	119.5
246.099	125.5
246.333	119.5
246.566	129.5
246.8	127.5
247.033	127.5
247.266	130.5
247.5	135.5
247.733	133.5
247.966	130.5
248.2	135.5
248.433	135.5
248.666	153.5
248.899	155.5
249.133	164.5
249.366	134.5
249.599	153.5
249.832	142.5
250.066	147.5
250.299	159.5
250.532	137.5
250.765	163.5
250.998	167.5
251.231	171.5
251.465	171.5
251.698	156.5
251.931	163.5
252.164	164.5
252.397	146.5
252.63	161.5
252.863	160.5
253.096	168.5
253.329	175.5
253.562	177.5
253.795	187.5
254.028	157.5
254.261	174.5
254.494	186.5
254.727	193.5
254.96	192.5
255.193	222.5
255.426	204.5
255.659	175.5
255.892	170.5
256.124	185.5
256.357	181.5
256.59	178.5
256.823	173.5
257.056	172.5
257.289	179.5
257.521	165.5
257.754	163.5
257.987	168.5
258.22	169.5
258.452	167.5
258.685	173.5
258.918	151.5
259.151	164.5
259.383	159.5
259.616	181.5
259.849	173.5
260.081	181.5
260.314	185.5
260.547	193.5
260.779	192.5
261.012	187.5
261.244	189.5
261.477	185.5
261.71	172.5
261.942	188.5
262.175	180.5
262.407	181.5
262.64	163.5
262.872	155.5
263.105	165.5
263.337	171.5
263.57	167.5
263.802	168.5
264.035	150.5
264.267	171.5
264.499	175.5
264.732	169.5
264.964	157.5
265.197	158.5
265.429	169.5
265.661	160.5
265.894	156.5
266.126	165.5
266.358	174.5
266.591	172.5
266.823	164.5
267.055	172.5
267.287	179.5
267.52	185.5
267.752	173.5
267.984	184.5
268.216	183.5
268.448	166.5
268.681	178.5
268.913	187.5
269.145	199.5
269.377	196.5
269.609	202.5
269.841	206.5
270.073	201.5
270.306	212.5
270.538	232.5
270.77	231.5
271.002	209.5
271.234	222.5
271.466	227.5
271.698	235.5
271.93	237.5
272.162	238.5
272.394	225.5
272.626	221.5
272.858	204.5
273.09	218.5
273.322	213.5
273.553	217.5
273.785	186.5
274.017	193.5
274.249	179.5
274.481	190.5
274.713	206.5
274.945	211.5
275.176	205.5
275.408	194.5
275.64	197.5
275.872	197.5
276.104	192.5
276.335	197.5
276.567	217.5
276.799	206.5
277.031	226.5
277.262	230.5
277.494	243.5
277.726	224.5
277.957	217.5
278.189	219.5
278.421	213.5
278.652	202.5
278.884	195.5
279.115	195.5
279.347	205.5
279.579	200.5
279.81	208.5
280.042	215.5
280.273	198.5
280.505	219.5
280.736	197.5
280.968	184.5
281.199	206.5
281.431	211.5
281.662	185.5
281.894	215.5
282.125	212.5
282.356	216.5
282.588	216.5
282.819	217.5
283.051	200.5
283.282	221.5
283.513	208.5
283.745	195.5
283.976	187.5
284.207	201.5
284.439	212.5
284.67	210.5
284.901	209.5
285.132	188.5
285.364	206.5
285.595	210.5
285.826	204.5
286.057	205.5
286.288	212.5
286.52	210.5
286.751	213.5
286.982	198.5
287.213	214.5
287.444	206.5
287.675	221.5
287.906	219.5
288.138	207.5
288.369	230.5
288.6	228.5
288.831	218.5
289.062	225.5
289.293	214.5
289.524	191.5
289.755	208.5
289.986	205.5
290.217	213.5
290.448	217.5
290.679	220.5
290.91	213.5
291.141	216.5
291.371	199.5
291.602	227.5
291.833	211.5
292.064	214.5
292.295	207.5
292.526	206.5
292.757	197.5
292.987	206.5
293.218	213.5
293.449	201.5
293.68	225.5
293.91	221.5
294.141	217.5
294.372	213.5
294.603	227.5
294.833	217.5
295.064	223.5
295.295	219.5
295.525	226.5
295.756	234.5
295.987	226.5
296.217	237.5
296.448	243.5
296.679	225.5
296.909	205.5
297.14	234.5
297.37	221.5
297.601	206.5
297.831	216.5
298.062	211.5
298.292	215.5
298.523	220.5
298.753	220.5
298.984	229.5
299.214	221.5
299.445	230.5
299.675	232.5
299.905	218.5
300.136	242.5
300.366	215.5
300.597	225.5
300.827	231.5
301.057	237.5
301.288	237.5
301.518	217.5
301.748	236.5
301.979	231.5
302.209	236.5
302.439	239.5
302.669	249.5
302.9	234.5
303.13	225.5
303.36	243.5
303.59	234.5
303.82	247.5
304.051	243.5
304.281	233.5
304.511	239.5
304.741	233.5
304.971	242.5
305.201	235.5
305.431	245.5
305.661	252.5
305.891	222.5
306.121	235.5
306.352	231.5
306.582	254.5
306.812	228.5
307.042	241.5
307.272	237.5
307.502	226.5
307.731	260.5
307.961	240.5
308.191	227.5
308.421	254.5
308.651	251.5
308.881	249.5
309.111	273.5
309.341	255.5
309.571	238.5
309.8	263.5
310.03	259.5
310.26	280.5
310.49	277.5
310.72	278.5
310.949	280.5
311.179	293.5
311.409	289.5
311.639	263.5
311.868	282.5
312.098	276.5
312.328	284.5
312.557	277.5
312.787	290.5
313.017	293.5
313.246	283.5
313.476	280.5
313.706	289.5
313.935	268.5
314.165	273.5
314.394	317.5
314.624	281.5
314.853	270.5
315.083	278.5
315.312	283.5
315.542	273.5
315.771	272.5
316.001	300.5
316.23	274.5
316.46	279.5
316.689	270.5
316.919	285.5
317.148	270.5
317.377	290.5
317.607	275.5
317.836	282.5
318.065	266.5
318.295	291.5
318.524	260.5
318.753	263.5
318.983	273.5
319.212	267.5
319.441	297.5
319.67	285.5
319.9	282.5
320.129	280.5
320.358	264.5
320.587	285.5
320.816	282.5
321.046	295.5
321.275	303.5
321.504	301.5
321.733	306.5
321.962	307.5
322.191	310.5
322.42	311.5
322.649	323.5
322.878	350.5
323.108	329.5
323.337	370.5
323.566	365.5
323.795	405.5
324.024	440.5
324.253	538.5
324.482	780.5
324.71	1146.5
324.939	1577.5
325.168	1257.5
325.397	680.5
325.626	471.5
325.855	413.5
326.084	386.5
326.313	369.5
326.542	369.5
326.77	399.5
326.999	514.5
327.228	719.5
327.457	1040.5
327.686	1125.5
327.914	741.5
328.143	518.5
328.372	459.5
328.6	409.5
328.829	421.5
329.058	415.5
329.287	430.5
329.515	378.5
329.744	365.5
329.972	364.5
330.201	389.5
330.43	414.5
330.658	449.5
330.887	435.5
331.115	429.5
331.344	362.5
331.572	365.5
331.801	373.5
332.03	357.5
332.258	328.5
332.486	333.5
332.715	321.5
332.943	301.5
333.172	324.5
333.4	329.5
333.629	327.5
333.857	330.5
334.085	326.5
334.314	340.5
334.542	353.5
334.771	366.5
334.999	347.5
335.227	327.5
335.455	330.5
335.684	303.5
335.912	324.5
336.14	314.5
336.369	322.5
336.597	313.5
336.825	310.5
337.053	299.5
337.281	308.5
337.51	315.5
337.738	295.5
337.966	320.5
338.194	325.5
338.422	313.5
338.65	321.5
338.878	297.5
339.106	291.5
339.334	307.5
339.562	300.5
339.79	293.5
340.018	281.5
340.246	309.5
340.474	289.5
340.702	302.5
340.93	305.5
341.158	307.5
341.386	294.5
341.614	302.5
341.842	313.5
342.07	298.5
342.298	292.5
342.526	293.5
342.754	300.5
342.981	294.5
343.209	317.5
343.437	291.5
343.665	305.5
343.893	299.5
344.12	319.5
344.348	294.5
344.576	313.5
344.804	309.5
345.031	308.5
345.259	306.5
345.487	316.5
345.714	308.5
345.942	301.5
346.17	278.5
346.397	295.5
346.625	300.5
346.853	307.5
347.08	311.5
347.308	285.5
347.535	293.5
347.763	318.5
347.99	310.5
348.218	306.5
348.445	308.5
348.673	309.5
348.9	299.5
349.128	284.5
349.355	260.5
349.583	287.5
349.81	269.5
350.037	292.5
350.265	279.5
350.492	270.5
350.72	289.5
350.947	311.5
351.174	305.5
351.402	304.5
351.629	293.5
351.856	320.5
352.083	305.5
352.311	310.5
352.538	314.5
352.765	313.5
352.992	302.5
353.22	295.5
353.447	306.5
353.674	279.5
353.901	271.5
354.128	271.5
354.355	275.5
354.583	267.5
354.81	285.5
355.037	281.5
355.264	282.5
355.491	275.5
355.718	273.5
355.945	268.5
356.172	256.5
356.399	277.5
356.626	261.5
356.853	260.5
357.08	274.5
357.307	265.5
357.534	273.5
357.761	269.5
357.988	241.5
358.215	282.5
358.441	238.5
358.668	270.5
358.895	265.5
359.122	288.5
359.349	278.5
359.576	295.5
359.802	313.5
360.029	327.5
360.256	329.5
360.483	298.5
360.709	306.5
360.936	306.5
361.163	280.5
361.39	286.5
361.616	289.5
361.843	284.5
362.07	288.5
362.296	289.5
362.523	291.5
362.749	270.5
362.976	286.5
363.203	272.5
363.429	268.5
363.656	281.5
363.882	265.5
364.109	257.5
364.335	274.5
364.562	270.5
364.788	261.5
365.015	285.5
365.241	265.5
365.468	282.5
365.694	271.5
365.92	278.5
366.147	277.5
366.373	275.5
366.599	269.5
366.826	261.5
367.052	258.5
367.278	252.5
367.505	266.5
367.731	262.5
367.957	276.5
368.184	283.5
368.41	281.5
368.636	274.5
368.862	309.5
369.089	281.5
369.315	272.5
369.541	288.5
369.767	284.5
369.993	266.5
370.219	275.5
370.445	267.5
370.672	282.5
370.898	269.5
371.124	260.5
371.35	269.5
371.576	260.5
371.802	261.5
372.028	273.5
372.254	267.5
372.48	271.5
372.706	270.5
372.932	254.5
373.158	291.5
373.384	289.5
373.61	271.5
373.835	274.5
374.061	296.5
374.287	267.5
374.513	278.5
374.739	283.5
374.965	249.5
375.191	281.5
375.416	267.5
375.642	277.5
375.868	269.5
376.094	242.5
376.319	289.5
376.545	271.5
376.771	259.5
376.997	270.5
377.222	242.5
377.448	262.5
377.674	249.5
377.899	246.5
378.125	249.5
378.35	265.5
378.576	254.5
378.802	265.5
379.027	250.5
379.253	263.5
379.478	263.5
379.704	259.5
379.929	259.5
380.155	255.5
380.38	261.5
380.606	275.5
380.831	268.5
381.057	261.5
381.282	260.5
381.507	275.5
381.733	277.5
381.958	260.5
382.184	251.5
382.409	275.5
382.634	243.5
382.86	272.5
383.085	282.5
383.31	279.5
383.535	277.5
383.761	264.5
383.986	263.5
384.211	263.5
384.436	254.5
384.662	256.5
384.887	287.5
385.112	273.5
385.337	267.5
385.562	266.5
385.787	274.5
386.013	297.5
386.238	277.5
386.463	271.5
386.688	279.5
386.913	262.5
387.138	275.5
387.363	264.5
387.588	257.5
387.813	268.5
388.038	267.5
388.263	275.5
388.488	276.5
388.713	275.5
388.938	279.5
389.163	293.5
389.387	280.5
389.612	269.5
389.837	281.5
390.062	262.5
390.287	272.5
390.512	267.5
390.736	272.5
390.961	268.5
391.186	283.5
391.411	273.5
391.636	278.5
391.86	266.5
392.085	273.5
392.31	276.5
392.534	294.5
392.759	285.5
392.984	294.5
393.208	291.5
393.433	275.5
393.658	267.5
393.882	277.5
394.107	282.5
394.331	281.5
394.556	265.5
394.78	281.5
395.005	266.5
395.229	279.5
395.454	297.5
395.678	285.5
395.903	300.5
396.127	297.5
396.352	307.5
396.576	273.5
396.801	269.5
397.025	281.5
397.249	283.5
397.474	268.5
397.698	262.5
397.922	275.5
398.147	309.5
398.371	323.5
398.595	307.5
398.82	303.5
399.044	307.5
399.268	300.5
399.492	329.5
399.717	334.5
399.941	343.5
400.165	374.5
400.389	366.5
400.613	345.5
400.837	320.5
401.062	321.5
401.286	319.5
401.51	301.5
401.734	311.5
401.958	327.5
402.182	310.5
402.406	314.5
402.63	320.5
402.854	322.5
403.078	323.5
403.302	325.5
403.526	327.5
403.75	322.5
403.974	307.5
404.198	302.5
404.422	316.5
404.645	311.5
404.869	325.5
405.093	349.5
405.317	351.5
405.541	360.5
405.765	339.5
405.988	335.5
406.212	345.5
406.436	345.5
406.66	342.5
406.883	347.5
407.107	364.5
407.331	384.5
407.555	387.5
407.778	401.5
408.002	378.5
408.226	366.5
408.449	344.5
408.673	337.5
408.896	365.5
409.12	382.5
409.344	364.5
409.567	314.5
409.791	320.5
410.014	306.5
410.238	314.5
410.461	314.5
410.685	320.5
410.908	312.5
411.132	327.5
411.355	342.5
411.578	356.5
411.802	316.5
412.025	319.5
412.249	333.5
412.472	335.5
412.695	358.5
412.919	328.5
413.142	330.5
413.365	313.5
413.589	307.5
413.812	307.5
414.035	284.5
414.258	296.5
414.482	285.5
414.705	291.5
414.928	290.5
415.151	297.5
415.374	307.5
415.597	306.5
415.821	293.5
416.044	323.5
416.267	309.5
416.49	288.5
416.713	277.5
416.936	304.5
417.159	315.5
417.382	298.5
417.605	295.5
417.828	291.5
418.051	315.5
418.274	300.5
418.497	288.5
418.72	292.5
418.943	285.5
419.166	286.5
419.389	315.5
419.611	315.5
419.834	306.5
420.057	309.5
420.28	311.5
420.503	301.5
420.726	313.5
420.948	325.5
421.171	346.5
421.394	363.5
421.617	318.5
421.839	311.5
422.062	308.5
422.285	309.5
422.507	340.5
422.73	381.5
422.953	377.5
423.175	335.5
423.398	328.5
423.621	301.5
423.843	323.5
424.066	337.5
424.288	335.5
424.511	352.5
424.733	376.5
424.956	405.5
425.178	385.5
425.401	393.5
425.623	410.5
425.846	360.5
426.068	341.5
426.291	329.5
426.513	330.5
426.735	350.5
426.958	379.5
427.18	420.5
427.402	509.5
427.625	525.5
427.847	473.5
428.069	422.5
428.292	360.5
428.514	323.5
428.736	339.5
428.958	319.5
429.181	312.5
429.403	305.5
429.625	318.5
429.847	346.5
430.069	365.5
430.292	369.5
430.514	329.5
430.736	329.5
430.958	319.5
431.18	296.5
431.402	311.5
431.624	297.5
431.846	285.5
432.068	300.5
432.29	283.5
432.512	278.5
432.734	308.5
432.956	301.5
433.178	305.5
433.4	300.5
433.622	301.5
433.844	300.5
434.066	298.5
434.287	292.5
434.509	285.5
434.731	301.5
434.953	308.5
435.175	312.5
435.397	325.5
435.618	355.5
435.84	379.5
436.062	420.5
436.284	449.5
436.505	365.5
436.727	336.5
436.949	336.5
437.17	309.5
437.392	335.5
437.614	336.5
437.835	344.5
438.057	414.5
438.278	462.5
438.5	460.5
438.721	513.5
438.943	476.5
439.165	379.5
439.386	371.5
439.608	357.5
439.829	362.5
440.05	369.5
440.272	391.5
440.493	366.5
440.715	317.5
440.936	330.5
441.158	314.5
441.379	292.5
441.6	317.5
441.822	349.5
442.043	354.5
442.264	415.5
442.486	429.5
442.707	361.5
442.928	351.5
443.149	356.5
443.371	366.5
443.592	408.5
443.813	430.5
444.034	469.5
444.255	382.5
444.476	357.5
444.698	329.5
444.919	332.5
445.14	423.5
445.361	399.5
445.582	359.5
445.803	389.5
446.024	474.5
446.245	478.5
446.466	421.5
446.687	367.5
446.908	356.5
447.129	315.5
447.35	320.5
447.571	291.5
447.792	317.5
448.013	308.5
448.234	330.5
448.455	341.5
448.675	439.5
448.896	500.5
449.117	415.5
449.338	406.5
449.559	467.5
449.779	499.5
450	406.5
450.221	350.5
450.442	331.5
450.662	306.5
450.883	334.5
451.104	339.5
451.324	323.5
451.545	296.5
451.766	278.5
451.986	298.5
452.207	259.5
452.428	293.5
452.648	261.5
452.869	290.5
453.089	305.5
453.31	295.5
453.53	303.5
453.751	298.5
453.971	281.5
454.192	284.5
454.412	289.5
454.633	277.5
454.853	282.5
455.073	288.5
455.294	315.5
455.514	330.5
455.734	325.5
455.955	287.5
456.175	273.5
456.395	268.5
456.616	281.5
456.836	282.5
457.056	274.5
457.276	268.5
457.497	279.5
457.717	251.5
457.937	269.5
458.157	270.5
458.377	290.5
458.598	292.5
458.818	341.5
459.038	375.5
459.258	389.5
459.478	328.5
459.698	299.5
459.918	293.5
460.138	308.5
460.358	295.5
460.578	277.5
460.798	295.5
461.018	305.5
461.238	298.5
461.458	292.5
461.678	292.5
461.898	299.5
462.118	282.5
462.338	279.5
462.558	296.5
462.777	300.5
462.997	278.5
463.217	331.5
463.437	316.5
463.657	326.5
463.876	325.5
464.096	298.5
464.316	311.5
464.536	316.5
464.755	312.5
464.975	321.5
465.195	345.5
465.414	366.5
465.634	339.5
465.854	313.5
466.073	294.5
466.293	283.5
466.512	277.5
466.732	271.5
466.951	269.5
467.171	308.5
467.391	294.5
467.61	293.5
467.829	297.5
468.049	302.5
468.268	289.5
468.488	284.5
468.707	267.5
468.927	277.5
469.146	277.5
469.365	290.5
469.585	293.5
469.804	275.5
470.023	295.5
470.243	285.5
470.462	300.5
470.681	299.5
470.901	314.5
471.12	297.5
471.339	283.5
471.558	298.5
471.777	305.5
471.997	301.5
472.216	302.5
472.435	324.5
472.654	298.5
472.873	305.5
473.092	281.5
473.311	276.5
473.53	298.5
473.749	288.5
473.968	314.5
474.187	393.5
474.406	404.5
474.625	323.5
474.844	296.5
475.063	293.5
475.282	288.5
475.501	293.5
475.72	291.5
475.939	317.5
476.158	296.5
476.377	306.5
476.596	300.5
476.814	321.5
477.033	328.5
477.252	315.5
477.471	316.5
477.69	321.5
477.908	330.5
478.127	301.5
478.346	313.5
478.564	316.5
478.783	324.5
479.002	315.5
479.22	310.5
479.439	326.5
479.658	334.5
479.876	365.5
480.095	361.5
480.313	363.5
480.532	362.5
480.751	351.5
480.969	342.5
481.188	393.5
481.406	407.5
481.624	356.5
481.843	348.5
482.061	337.5
482.28	335.5
482.498	348.5
482.717	322.5
482.935	332.5
483.153	340.5
483.372	333.5
483.59	331.5
483.808	347.5
484.027	333.5
484.245	317.5
484.463	343.5
484.681	345.5
484.9	341.5
485.118	353.5
485.336	331.5
485.554	336.5
485.772	350.5
485.99	363.5
486.209	353.5
486.427	345.5
486.645	358.5
486.863	377.5
487.081	370.5
487.299	349.5
487.517	355.5
487.735	343.5
487.953	356.5
488.171	378.5
488.389	355.5
488.607	354.5
488.825	350.5
489.043	340.5
489.261	364.5
489.479	340.5
489.696	358.5
489.914	357.5
490.132	378.5
490.35	371.5
490.568	356.5
490.786	395.5
491.003	373.5
491.221	381.5
491.439	381.5
491.657	399.5
491.874	407.5
492.092	398.5
492.31	422.5
492.527	409.5
492.745	427.5
492.963	406.5
493.18	397.5
493.398	410.5
493.615	391.5
493.833	401.5
494.05	419.5
494.268	425.5
494.485	402.5
494.703	407.5
494.92	401.5
495.138	423.5
495.355	397.5
495.573	402.5
495.79	402.5
496.008	416.5
496.225	421.5
496.442	409.5
496.66	419.5
496.877	414.5
497.094	427.5
497.312	420.5
497.529	421.5
497.746	444.5
497.963	448.5
498.181	423.5
498.398	453.5
498.615	453.5
498.832	482.5
499.049	465.5
499.267	467.5
499.484	491.5
499.701	491.5
499.918	499.5
500.135	506.5
500.352	522.5
500.569	500.5
500.786	533.5
501.003	519.5
501.22	504.5
501.437	505.5
501.654	476.5
501.871	503.5
502.088	497.5
502.305	468.5
502.522	450.5
502.739	434.5
502.956	425.5
503.172	443.5
503.389	428.5
503.606	444.5
503.823	443.5
504.04	434.5
504.256	441.5
504.473	414.5
504.69	401.5
504.907	408.5
505.123	415.5
505.34	418.5
505.557	412.5
505.773	403.5
505.99	407.5
506.207	413.5
506.423	400.5
506.64	401.5
506.856	402.5
507.073	419.5
507.289	398.5
507.506	395.5
507.722	407.5
507.939	412.5
508.155	419.5
508.372	403.5
508.588	379.5
508.805	399.5
509.021	391.5
509.238	392.5
509.454	405.5
509.67	393.5
509.887	387.5
510.103	395.5
510.319	412.5
510.536	475.5
510.752	753.5
510.968	586.5
511.184	423.5
511.401	392.5
511.617	373.5
511.833	366.5
512.049	360.5
512.265	344.5
512.481	375.5
512.698	381.5
512.914	354.5
513.13	367.5
513.346	374.5
513.562	367.5
513.778	387.5
513.994	385.5
514.21	378.5
514.426	407.5
514.642	407.5
514.858	440.5
515.074	443.5
515.29	569.5
515.506	793.5
515.721	651.5
515.937	457.5
516.153	411.5
516.369	395.5
516.585	380.5
516.801	387.5
517.016	386.5
517.232	374.5
517.448	379.5
517.664	386.5
517.879	360.5
518.095	370.5
518.311	371.5
518.527	378.5
518.742	388.5
518.958	388.5
519.173	373.5
519.389	374.5
519.605	371.5
519.82	371.5
520.036	386.5
520.251	397.5
