Data from 1982.PennyLincolnUp.Lamp.En5.5.200Scan.071819.P1_HRD10591_16-47-05-963.txt Node
Date: Thu Jul 18 16:47:05 EDT 2019
User: cochatt
Spectrometer: HR+D1059
Trigger mode: 1
Integration Time (sec): 1.000000E-1
Scans to average: 1
Electric dark correction enabled: true
Nonlinearity correction enabled: false
Boxcar width: 0
XAxis mode: Wavelengths
Number of Pixels in Spectrum: 2048
>>>>>Begin Spectral Data<<<<<
223.165	-3.38
223.4	-3.38
223.635	-3.38
223.869	0.62
224.104	-2.38
224.338	-15.38
224.573	-14.38
224.808	-23.38
225.042	-3.38
225.277	-23.38
225.511	-1.38
225.746	-2.38
225.98	0.62
226.215	12.62
226.449	18.62
226.683	11.62
226.918	12.62
227.152	32.62
227.387	33.62
227.621	26.62
227.856	36.62
228.09	42.62
228.324	52.62
228.559	56.62
228.793	59.62
229.027	93.62
229.262	85.62
229.496	91.62
229.73	102.62
229.964	125.62
230.199	116.62
230.433	91.62
230.667	107.62
230.901	102.62
231.136	95.62
231.37	98.62
231.604	96.62
231.838	104.62
232.072	94.62
232.306	106.62
232.541	103.62
232.775	106.62
233.009	85.62
233.243	94.62
233.477	96.62
233.711	106.62
233.945	109.62
234.179	107.62
234.413	102.62
234.647	109.62
234.881	112.62
235.115	96.62
235.349	100.62
235.583	104.62
235.817	103.62
236.051	118.62
236.285	107.62
236.519	97.62
236.753	104.62
236.987	132.62
237.221	141.62
237.455	176.62
237.689	140.62
237.922	113.62
238.156	116.62
238.39	104.62
238.624	125.62
238.858	115.62
239.091	99.62
239.325	101.62
239.559	109.62
239.793	120.62
240.027	117.62
240.26	116.62
240.494	130.62
240.728	128.62
240.961	116.62
241.195	108.62
241.429	120.62
241.662	113.62
241.896	106.62
242.13	121.62
242.363	110.62
242.597	120.62
242.83	118.62
243.064	106.62
243.298	110.62
243.531	120.62
243.765	109.62
243.998	132.62
244.232	108.62
244.465	109.62
244.699	129.62
244.932	120.62
245.166	118.62
245.399	117.62
245.633	120.62
245.866	117.62
246.099	112.62
246.333	136.62
246.566	110.62
246.8	126.62
247.033	124.62
247.266	122.62
247.5	137.62
247.733	131.62
247.966	140.62
248.2	126.62
248.433	143.62
248.666	128.62
248.899	152.62
249.133	160.62
249.366	156.62
249.599	157.62
249.832	151.62
250.066	156.62
250.299	131.62
250.532	145.62
250.765	165.62
250.998	166.62
251.231	156.62
251.465	184.62
251.698	167.62
251.931	158.62
252.164	156.62
252.397	153.62
252.63	155.62
252.863	166.62
253.096	157.62
253.329	184.62
253.562	190.62
253.795	157.62
254.028	168.62
254.261	176.62
254.494	174.62
254.727	207.62
254.96	209.62
255.193	208.62
255.426	190.62
255.659	194.62
255.892	209.62
256.124	168.62
256.357	179.62
256.59	202.62
256.823	182.62
257.056	156.62
257.289	162.62
257.521	173.62
257.754	187.62
257.987	162.62
258.22	171.62
258.452	161.62
258.685	162.62
258.918	158.62
259.151	176.62
259.383	160.62
259.616	180.62
259.849	186.62
260.081	190.62
260.314	209.62
260.547	205.62
260.779	186.62
261.012	202.62
261.244	190.62
261.477	177.62
261.71	174.62
261.942	185.62
262.175	178.62
262.407	189.62
262.64	188.62
262.872	167.62
263.105	171.62
263.337	167.62
263.57	164.62
263.802	174.62
264.035	165.62
264.267	158.62
264.499	153.62
264.732	165.62
264.964	166.62
265.197	173.62
265.429	167.62
265.661	170.62
265.894	152.62
266.126	170.62
266.358	169.62
266.591	163.62
266.823	177.62
267.055	188.62
267.287	177.62
267.52	182.62
267.752	189.62
267.984	184.62
268.216	192.62
268.448	183.62
268.681	186.62
268.913	200.62
269.145	210.62
269.377	229.62
269.609	213.62
269.841	200.62
270.073	204.62
270.306	235.62
270.538	243.62
270.77	244.62
271.002	222.62
271.234	224.62
271.466	233.62
271.698	242.62
271.93	244.62
272.162	252.62
272.394	246.62
272.626	242.62
272.858	234.62
273.09	209.62
273.322	225.62
273.553	215.62
273.785	203.62
274.017	199.62
274.249	199.62
274.481	206.62
274.713	207.62
274.945	203.62
275.176	219.62
275.408	218.62
275.64	200.62
275.872	200.62
276.104	209.62
276.335	227.62
276.567	213.62
276.799	224.62
277.031	235.62
277.262	235.62
277.494	222.62
277.726	216.62
277.957	204.62
278.189	217.62
278.421	197.62
278.652	233.62
278.884	209.62
279.115	216.62
279.347	213.62
279.579	220.62
279.81	225.62
280.042	220.62
280.273	213.62
280.505	201.62
280.736	206.62
280.968	213.62
281.199	187.62
281.431	188.62
281.662	205.62
281.894	202.62
282.125	214.62
282.356	230.62
282.588	248.62
282.819	232.62
283.051	215.62
283.282	215.62
283.513	215.62
283.745	204.62
283.976	211.62
284.207	217.62
284.439	216.62
284.67	211.62
284.901	197.62
285.132	206.62
285.364	194.62
285.595	208.62
285.826	206.62
286.057	214.62
286.288	216.62
286.52	221.62
286.751	209.62
286.982	209.62
287.213	206.62
287.444	226.62
287.675	227.62
287.906	224.62
288.138	241.62
288.369	211.62
288.6	243.62
288.831	233.62
289.062	223.62
289.293	219.62
289.524	235.62
289.755	229.62
289.986	228.62
290.217	209.62
290.448	230.62
290.679	213.62
290.91	208.62
291.141	207.62
291.371	216.62
291.602	219.62
291.833	209.62
292.064	213.62
292.295	224.62
292.526	227.62
292.757	215.62
292.987	222.62
293.218	217.62
293.449	227.62
293.68	214.62
293.91	228.62
294.141	214.62
294.372	215.62
294.603	209.62
294.833	233.62
295.064	236.62
295.295	223.62
295.525	230.62
295.756	218.62
295.987	206.62
296.217	237.62
296.448	253.62
296.679	220.62
296.909	206.62
297.14	237.62
297.37	219.62
297.601	213.62
297.831	232.62
298.062	235.62
298.292	225.62
298.523	213.62
298.753	225.62
298.984	228.62
299.214	215.62
299.445	213.62
299.675	244.62
299.905	221.62
300.136	236.62
300.366	244.62
300.597	228.62
300.827	247.62
301.057	264.62
301.288	232.62
301.518	250.62
301.748	251.62
301.979	257.62
302.209	244.62
302.439	235.62
302.669	246.62
302.9	243.62
303.13	261.62
303.36	244.62
303.59	236.62
303.82	263.62
304.051	251.62
304.281	232.62
304.511	247.62
304.741	253.62
304.971	240.62
305.201	242.62
305.431	260.62
305.661	253.62
305.891	238.62
306.121	221.62
306.352	235.62
306.582	252.62
306.812	243.62
307.042	258.62
307.272	250.62
307.502	268.62
307.731	245.62
307.961	245.62
308.191	244.62
308.421	240.62
308.651	249.62
308.881	274.62
309.111	260.62
309.341	253.62
309.571	271.62
309.8	272.62
310.03	273.62
310.26	275.62
310.49	292.62
310.72	301.62
310.949	308.62
311.179	307.62
311.409	283.62
311.639	302.62
311.868	270.62
312.098	267.62
312.328	296.62
312.557	300.62
312.787	302.62
313.017	328.62
313.246	292.62
313.476	276.62
313.706	295.62
313.935	274.62
314.165	308.62
314.394	308.62
314.624	305.62
314.853	309.62
315.083	291.62
315.312	290.62
315.542	283.62
315.771	283.62
316.001	294.62
316.23	295.62
316.46	271.62
316.689	288.62
316.919	295.62
317.148	307.62
317.377	298.62
317.607	298.62
317.836	290.62
318.065	286.62
318.295	276.62
318.524	264.62
318.753	271.62
318.983	274.62
319.212	262.62
319.441	318.62
319.67	301.62
319.9	276.62
320.129	269.62
320.358	283.62
320.587	285.62
320.816	298.62
321.046	312.62
321.275	313.62
321.504	304.62
321.733	294.62
321.962	322.62
322.191	336.62
322.42	330.62
322.649	335.62
322.878	339.62
323.108	372.62
323.337	372.62
323.566	394.62
323.795	432.62
324.024	477.62
324.253	628.62
324.482	890.62
324.71	1355.62
324.939	1736.62
325.168	1408.62
325.397	780.62
325.626	524.62
325.855	426.62
326.084	413.62
326.313	396.62
326.542	403.62
326.77	457.62
326.999	552.62
327.228	792.62
327.457	1135.62
327.686	1237.62
327.914	857.62
328.143	555.62
328.372	492.62
328.6	453.62
328.829	465.62
329.058	479.62
329.287	463.62
329.515	420.62
329.744	405.62
329.972	389.62
330.201	410.62
330.43	427.62
330.658	458.62
330.887	477.62
331.115	439.62
331.344	398.62
331.572	380.62
331.801	380.62
332.03	357.62
332.258	349.62
332.486	325.62
332.715	326.62
332.943	332.62
333.172	338.62
333.4	354.62
333.629	344.62
333.857	375.62
334.085	372.62
334.314	377.62
334.542	394.62
334.771	380.62
334.999	368.62
335.227	344.62
335.455	322.62
335.684	328.62
335.912	326.62
336.14	313.62
336.369	324.62
336.597	336.62
336.825	328.62
337.053	306.62
337.281	331.62
337.51	325.62
337.738	317.62
337.966	331.62
338.194	311.62
338.422	312.62
338.65	326.62
338.878	330.62
339.106	311.62
339.334	299.62
339.562	321.62
339.79	312.62
340.018	312.62
340.246	325.62
340.474	323.62
340.702	318.62
340.93	320.62
341.158	303.62
341.386	314.62
341.614	312.62
341.842	311.62
342.07	302.62
342.298	298.62
342.526	288.62
342.754	301.62
342.981	298.62
343.209	291.62
343.437	301.62
343.665	292.62
343.893	300.62
344.12	306.62
344.348	320.62
344.576	315.62
344.804	304.62
345.031	317.62
345.259	328.62
345.487	326.62
345.714	304.62
345.942	304.62
346.17	288.62
346.397	301.62
346.625	293.62
346.853	302.62
347.08	299.62
347.308	299.62
347.535	296.62
347.763	299.62
347.99	307.62
348.218	329.62
348.445	312.62
348.673	305.62
348.9	283.62
349.128	293.62
349.355	286.62
349.583	282.62
349.81	297.62
350.037	298.62
350.265	292.62
350.492	278.62
350.72	300.62
350.947	302.62
351.174	317.62
351.402	308.62
351.629	320.62
351.856	324.62
352.083	325.62
352.311	318.62
352.538	298.62
352.765	298.62
352.992	301.62
353.22	299.62
353.447	300.62
353.674	294.62
353.901	293.62
354.128	292.62
354.355	293.62
354.583	285.62
354.81	267.62
355.037	280.62
355.264	244.62
355.491	293.62
355.718	264.62
355.945	275.62
356.172	270.62
356.399	274.62
356.626	276.62
356.853	264.62
357.08	270.62
357.307	274.62
357.534	293.62
357.761	266.62
357.988	277.62
358.215	280.62
358.441	280.62
358.668	260.62
358.895	296.62
359.122	283.62
359.349	310.62
359.576	293.62
359.802	302.62
360.029	342.62
360.256	342.62
360.483	313.62
360.709	300.62
360.936	289.62
361.163	285.62
361.39	313.62
361.616	298.62
361.843	269.62
362.07	307.62
362.296	300.62
362.523	302.62
362.749	292.62
362.976	279.62
363.203	278.62
363.429	285.62
363.656	283.62
363.882	269.62
364.109	281.62
364.335	282.62
364.562	288.62
364.788	291.62
365.015	289.62
365.241	284.62
365.468	296.62
365.694	286.62
365.92	286.62
366.147	268.62
366.373	266.62
366.599	273.62
366.826	261.62
367.052	281.62
367.278	266.62
367.505	273.62
367.731	274.62
367.957	278.62
368.184	275.62
368.41	262.62
368.636	291.62
368.862	282.62
369.089	278.62
369.315	271.62
369.541	282.62
369.767	269.62
369.993	280.62
370.219	272.62
370.445	277.62
370.672	263.62
370.898	247.62
371.124	268.62
371.35	258.62
371.576	277.62
371.802	284.62
372.028	283.62
372.254	265.62
372.48	270.62
372.706	270.62
372.932	265.62
373.158	268.62
373.384	268.62
373.61	266.62
373.835	262.62
374.061	254.62
374.287	281.62
374.513	272.62
374.739	268.62
374.965	273.62
375.191	272.62
375.416	253.62
375.642	278.62
375.868	268.62
376.094	276.62
376.319	249.62
376.545	254.62
376.771	255.62
376.997	268.62
377.222	275.62
377.448	250.62
377.674	262.62
377.899	266.62
378.125	258.62
378.35	260.62
378.576	243.62
378.802	257.62
379.027	255.62
379.253	289.62
379.478	268.62
379.704	241.62
379.929	246.62
380.155	247.62
380.38	243.62
380.606	269.62
380.831	261.62
381.057	277.62
381.282	243.62
381.507	260.62
381.733	264.62
381.958	283.62
382.184	259.62
382.409	261.62
382.634	257.62
382.86	275.62
383.085	266.62
383.31	269.62
383.535	283.62
383.761	265.62
383.986	268.62
384.211	260.62
384.436	249.62
384.662	269.62
384.887	289.62
385.112	273.62
385.337	274.62
385.562	277.62
385.787	284.62
386.013	285.62
386.238	285.62
386.463	265.62
386.688	272.62
386.913	275.62
387.138	273.62
387.363	273.62
387.588	270.62
387.813	277.62
388.038	281.62
388.263	274.62
388.488	260.62
388.713	280.62
388.938	276.62
389.163	270.62
389.387	276.62
389.612	275.62
389.837	283.62
390.062	266.62
390.287	268.62
390.512	270.62
390.736	274.62
390.961	284.62
391.186	273.62
391.411	285.62
391.636	272.62
391.86	283.62
392.085	273.62
392.31	270.62
392.534	298.62
392.759	288.62
392.984	283.62
393.208	281.62
393.433	278.62
393.658	274.62
393.882	271.62
394.107	276.62
394.331	289.62
394.556	277.62
394.78	257.62
395.005	270.62
395.229	280.62
395.454	281.62
395.678	288.62
395.903	295.62
396.127	296.62
396.352	291.62
396.576	285.62
396.801	276.62
397.025	267.62
397.249	286.62
397.474	276.62
397.698	261.62
397.922	316.62
398.147	310.62
398.371	304.62
398.595	290.62
398.82	310.62
399.044	307.62
399.268	314.62
399.492	317.62
399.717	333.62
399.941	332.62
400.165	353.62
400.389	349.62
400.613	332.62
400.837	302.62
401.062	324.62
401.286	309.62
401.51	295.62
401.734	309.62
401.958	304.62
402.182	309.62
402.406	324.62
402.63	320.62
402.854	322.62
403.078	298.62
403.302	312.62
403.526	316.62
403.75	333.62
403.974	313.62
404.198	304.62
404.422	295.62
404.645	307.62
404.869	331.62
405.093	333.62
405.317	361.62
405.541	377.62
405.765	328.62
405.988	324.62
406.212	343.62
406.436	338.62
406.66	356.62
406.883	344.62
407.107	357.62
407.331	372.62
407.555	392.62
407.778	423.62
408.002	381.62
408.226	348.62
408.449	347.62
408.673	356.62
408.896	374.62
409.12	374.62
409.344	345.62
409.567	337.62
409.791	314.62
410.014	306.62
410.238	322.62
410.461	330.62
410.685	313.62
410.908	340.62
411.132	344.62
411.355	350.62
411.578	343.62
411.802	341.62
412.025	316.62
412.249	337.62
412.472	321.62
412.695	353.62
412.919	340.62
413.142	318.62
413.365	304.62
413.589	303.62
413.812	324.62
414.035	292.62
414.258	292.62
414.482	306.62
414.705	280.62
414.928	298.62
415.151	293.62
415.374	309.62
415.597	316.62
415.821	291.62
416.044	296.62
416.267	317.62
416.49	312.62
416.713	291.62
416.936	284.62
417.159	288.62
417.382	285.62
417.605	306.62
417.828	302.62
418.051	309.62
418.274	314.62
418.497	309.62
418.72	278.62
418.943	287.62
419.166	291.62
419.389	307.62
419.611	307.62
419.834	306.62
420.057	293.62
420.28	320.62
420.503	292.62
420.726	311.62
420.948	309.62
421.171	356.62
421.394	372.62
421.617	341.62
421.839	302.62
422.062	313.62
422.285	305.62
422.507	359.62
422.73	403.62
422.953	377.62
423.175	323.62
423.398	338.62
423.621	313.62
423.843	345.62
424.066	340.62
424.288	349.62
424.511	357.62
424.733	387.62
424.956	432.62
425.178	431.62
425.401	397.62
425.623	425.62
425.846	350.62
426.068	365.62
426.291	325.62
426.513	331.62
426.735	365.62
426.958	371.62
427.18	426.62
427.402	510.62
427.625	536.62
427.847	495.62
428.069	432.62
428.292	384.62
428.514	348.62
428.736	324.62
428.958	310.62
429.181	305.62
429.403	305.62
429.625	331.62
429.847	341.62
430.069	405.62
430.292	381.62
430.514	336.62
430.736	332.62
430.958	304.62
431.18	297.62
431.402	283.62
431.624	301.62
431.846	281.62
432.068	295.62
432.29	298.62
432.512	288.62
432.734	294.62
432.956	304.62
433.178	301.62
433.4	305.62
433.622	300.62
433.844	304.62
434.066	295.62
434.287	321.62
434.509	294.62
434.731	286.62
434.953	324.62
435.175	300.62
435.397	316.62
435.618	351.62
435.84	362.62
436.062	424.62
436.284	474.62
436.505	400.62
436.727	351.62
436.949	339.62
437.17	329.62
437.392	313.62
437.614	349.62
437.835	361.62
438.057	413.62
438.278	470.62
438.5	475.62
438.721	517.62
438.943	464.62
439.165	388.62
439.386	349.62
439.608	339.62
439.829	350.62
440.05	377.62
440.272	396.62
440.493	370.62
440.715	341.62
440.936	304.62
441.158	318.62
441.379	319.62
441.6	346.62
441.822	333.62
442.043	368.62
442.264	418.62
442.486	435.62
442.707	370.62
442.928	360.62
443.149	349.62
443.371	374.62
443.592	410.62
443.813	430.62
444.034	463.62
444.255	392.62
444.476	356.62
444.698	320.62
444.919	324.62
445.14	417.62
445.361	376.62
445.582	352.62
445.803	412.62
446.024	466.62
446.245	486.62
446.466	441.62
446.687	381.62
446.908	354.62
447.129	342.62
447.35	314.62
447.571	323.62
447.792	329.62
448.013	337.62
448.234	339.62
448.455	375.62
448.675	429.62
448.896	491.62
449.117	411.62
449.338	402.62
449.559	489.62
449.779	511.62
450	418.62
450.221	344.62
450.442	315.62
450.662	301.62
450.883	324.62
451.104	337.62
451.324	330.62
451.545	292.62
451.766	289.62
451.986	304.62
452.207	272.62
452.428	287.62
452.648	277.62
452.869	270.62
453.089	306.62
453.31	290.62
453.53	316.62
453.751	289.62
453.971	301.62
454.192	301.62
454.412	295.62
454.633	315.62
454.853	286.62
455.073	283.62
455.294	317.62
455.514	356.62
455.734	331.62
455.955	297.62
456.175	282.62
456.395	279.62
456.616	270.62
456.836	280.62
457.056	283.62
457.276	248.62
457.497	274.62
457.717	261.62
457.937	280.62
458.157	273.62
458.377	285.62
458.598	307.62
458.818	356.62
459.038	382.62
459.258	377.62
459.478	328.62
459.698	287.62
459.918	292.62
460.138	294.62
460.358	294.62
460.578	269.62
460.798	286.62
461.018	288.62
461.238	288.62
461.458	283.62
461.678	285.62
461.898	278.62
462.118	284.62
462.338	297.62
462.558	300.62
462.777	308.62
462.997	286.62
463.217	308.62
463.437	306.62
463.657	295.62
463.876	301.62
464.096	310.62
464.316	267.62
464.536	310.62
464.755	313.62
464.975	312.62
465.195	348.62
465.414	409.62
465.634	342.62
465.854	314.62
466.073	298.62
466.293	301.62
466.512	308.62
466.732	293.62
466.951	287.62
467.171	295.62
467.391	298.62
467.61	288.62
467.829	295.62
468.049	299.62
468.268	287.62
468.488	294.62
468.707	278.62
468.927	290.62
469.146	290.62
469.365	271.62
469.585	272.62
469.804	293.62
470.023	294.62
470.243	314.62
470.462	317.62
470.681	320.62
470.901	306.62
471.12	281.62
471.339	293.62
471.558	294.62
471.777	286.62
471.997	279.62
472.216	291.62
472.435	318.62
472.654	311.62
472.873	314.62
473.092	291.62
473.311	290.62
473.53	292.62
473.749	301.62
473.968	327.62
474.187	384.62
474.406	394.62
474.625	336.62
474.844	312.62
475.063	315.62
475.282	306.62
475.501	295.62
475.72	310.62
475.939	304.62
476.158	308.62
476.377	304.62
476.596	292.62
476.814	292.62
477.033	298.62
477.252	287.62
477.471	322.62
477.69	301.62
477.908	318.62
478.127	313.62
478.346	306.62
478.564	327.62
478.783	336.62
479.002	328.62
479.22	321.62
479.439	323.62
479.658	352.62
479.876	350.62
480.095	344.62
480.313	367.62
480.532	353.62
480.751	360.62
480.969	344.62
481.188	405.62
481.406	436.62
481.624	390.62
481.843	369.62
482.061	349.62
482.28	334.62
482.498	343.62
482.717	321.62
482.935	325.62
483.153	342.62
483.372	336.62
483.59	332.62
483.808	328.62
484.027	332.62
484.245	359.62
484.463	347.62
484.681	347.62
484.9	341.62
485.118	329.62
485.336	340.62
485.554	339.62
485.772	350.62
485.99	350.62
486.209	323.62
486.427	362.62
486.645	355.62
486.863	363.62
487.081	370.62
487.299	380.62
487.517	378.62
487.735	344.62
487.953	358.62
488.171	363.62
488.389	352.62
488.607	373.62
488.825	362.62
489.043	376.62
489.261	373.62
489.479	359.62
489.696	367.62
489.914	338.62
490.132	377.62
490.35	394.62
490.568	395.62
490.786	385.62
491.003	399.62
491.221	396.62
491.439	412.62
491.657	408.62
491.874	405.62
492.092	378.62
492.31	413.62
492.527	433.62
492.745	419.62
492.963	404.62
493.18	409.62
493.398	438.62
493.615	419.62
493.833	414.62
494.05	422.62
494.268	428.62
494.485	430.62
494.703	424.62
494.92	459.62
495.138	428.62
495.355	427.62
495.573	442.62
495.79	448.62
496.008	456.62
496.225	432.62
496.442	418.62
496.66	419.62
496.877	429.62
497.094	432.62
497.312	436.62
497.529	442.62
497.746	443.62
497.963	416.62
498.181	459.62
498.398	472.62
498.615	461.62
498.832	460.62
499.049	451.62
499.267	453.62
499.484	477.62
499.701	480.62
499.918	469.62
500.135	498.62
500.352	523.62
500.569	503.62
500.786	532.62
501.003	520.62
501.22	516.62
501.437	508.62
501.654	511.62
501.871	485.62
502.088	488.62
