Data from 1982.PennyLincolnUp.Lamp.En5.5.200Scan.071819.P1_HRD10591_16-46-32-962.txt Node
Date: Thu Jul 18 16:46:32 EDT 2019
User: cochatt
Spectrometer: HR+D1059
Trigger mode: 1
Integration Time (sec): 1.000000E-1
Scans to average: 1
Electric dark correction enabled: true
Nonlinearity correction enabled: false
Boxcar width: 0
XAxis mode: Wavelengths
Number of Pixels in Spectrum: 2048
>>>>>Begin Spectral Data<<<<<
223.165	-22.12
223.4	-22.12
223.635	-22.12
223.869	-24.12
224.104	-13.12
224.338	-10.12
224.573	-6.12
224.808	-17.12
225.042	-9.12
225.277	-8.12
225.511	-13.12
225.746	5.88
225.98	11.88
226.215	3.88
226.449	20.88
226.683	25.88
226.918	35.88
227.152	18.88
227.387	35.88
227.621	23.88
227.856	36.88
228.09	42.88
228.324	42.88
228.559	50.88
228.793	64.88
229.027	74.88
229.262	96.88
229.496	111.88
229.73	108.88
229.964	125.88
230.199	118.88
230.433	112.88
230.667	90.88
230.901	85.88
231.136	92.88
231.37	99.88
231.604	98.88
231.838	96.88
232.072	90.88
232.306	90.88
232.541	103.88
232.775	102.88
233.009	105.88
233.243	115.88
233.477	109.88
233.711	97.88
233.945	105.88
234.179	94.88
234.413	97.88
234.647	113.88
234.881	113.88
235.115	96.88
235.349	114.88
235.583	102.88
235.817	92.88
236.051	118.88
236.285	96.88
236.519	114.88
236.753	120.88
236.987	133.88
237.221	168.88
237.455	184.88
237.689	159.88
237.922	122.88
238.156	110.88
238.39	103.88
238.624	105.88
238.858	109.88
239.091	105.88
239.325	114.88
239.559	121.88
239.793	109.88
240.027	118.88
240.26	138.88
240.494	151.88
240.728	124.88
240.961	142.88
241.195	119.88
241.429	127.88
241.662	109.88
241.896	112.88
242.13	120.88
242.363	112.88
242.597	117.88
242.83	120.88
243.064	107.88
243.298	112.88
243.531	120.88
243.765	122.88
243.998	128.88
244.232	122.88
244.465	121.88
244.699	120.88
244.932	119.88
245.166	132.88
245.399	114.88
245.633	122.88
245.866	142.88
246.099	115.88
246.333	118.88
246.566	138.88
246.8	132.88
247.033	125.88
247.266	133.88
247.5	147.88
247.733	132.88
247.966	143.88
248.2	154.88
248.433	148.88
248.666	134.88
248.899	150.88
249.133	145.88
249.366	168.88
249.599	171.88
249.832	157.88
250.066	147.88
250.299	141.88
250.532	142.88
250.765	165.88
250.998	174.88
251.231	185.88
251.465	170.88
251.698	163.88
251.931	167.88
252.164	170.88
252.397	173.88
252.63	143.88
252.863	172.88
253.096	169.88
253.329	178.88
253.562	177.88
253.795	189.88
254.028	181.88
254.261	188.88
254.494	176.88
254.727	209.88
254.96	222.88
255.193	228.88
255.426	207.88
255.659	186.88
255.892	195.88
256.124	198.88
256.357	186.88
256.59	184.88
256.823	156.88
257.056	180.88
257.289	166.88
257.521	182.88
257.754	178.88
257.987	184.88
258.22	158.88
258.452	170.88
258.685	186.88
258.918	158.88
259.151	157.88
259.383	188.88
259.616	182.88
259.849	174.88
260.081	192.88
260.314	197.88
260.547	189.88
260.779	194.88
261.012	182.88
261.244	180.88
261.477	188.88
261.71	182.88
261.942	181.88
262.175	181.88
262.407	183.88
262.64	188.88
262.872	185.88
263.105	164.88
263.337	185.88
263.57	170.88
263.802	166.88
264.035	172.88
264.267	167.88
264.499	164.88
264.732	168.88
264.964	169.88
265.197	171.88
265.429	182.88
265.661	164.88
265.894	162.88
266.126	157.88
266.358	169.88
266.591	179.88
266.823	172.88
267.055	184.88
267.287	189.88
267.52	168.88
267.752	189.88
267.984	192.88
268.216	181.88
268.448	190.88
268.681	181.88
268.913	206.88
269.145	195.88
269.377	210.88
269.609	199.88
269.841	222.88
270.073	201.88
270.306	234.88
270.538	235.88
270.77	231.88
271.002	234.88
271.234	221.88
271.466	221.88
271.698	244.88
271.93	249.88
272.162	241.88
272.394	256.88
272.626	238.88
272.858	242.88
273.09	219.88
273.322	205.88
273.553	208.88
273.785	192.88
274.017	217.88
274.249	208.88
274.481	225.88
274.713	214.88
274.945	214.88
275.176	209.88
275.408	221.88
275.64	217.88
275.872	199.88
276.104	215.88
276.335	206.88
276.567	210.88
276.799	225.88
277.031	229.88
277.262	248.88
277.494	240.88
277.726	208.88
277.957	245.88
278.189	217.88
278.421	204.88
278.652	217.88
278.884	222.88
279.115	217.88
279.347	218.88
279.579	214.88
279.81	206.88
280.042	210.88
280.273	202.88
280.505	203.88
280.736	189.88
280.968	222.88
281.199	228.88
281.431	206.88
281.662	200.88
281.894	219.88
282.125	217.88
282.356	220.88
282.588	231.88
282.819	250.88
283.051	223.88
283.282	204.88
283.513	225.88
283.745	221.88
283.976	205.88
284.207	211.88
284.439	222.88
284.67	257.88
284.901	235.88
285.132	222.88
285.364	219.88
285.595	208.88
285.826	210.88
286.057	230.88
286.288	215.88
286.52	214.88
286.751	226.88
286.982	200.88
287.213	200.88
287.444	227.88
287.675	220.88
287.906	216.88
288.138	242.88
288.369	226.88
288.6	223.88
288.831	220.88
289.062	223.88
289.293	234.88
289.524	221.88
289.755	210.88
289.986	210.88
290.217	216.88
290.448	203.88
290.679	229.88
290.91	221.88
291.141	206.88
291.371	208.88
291.602	216.88
291.833	220.88
292.064	217.88
292.295	217.88
292.526	219.88
292.757	216.88
292.987	229.88
293.218	221.88
293.449	219.88
293.68	217.88
293.91	212.88
294.141	204.88
294.372	220.88
294.603	213.88
294.833	207.88
295.064	212.88
295.295	228.88
295.525	232.88
295.756	235.88
295.987	224.88
296.217	235.88
296.448	241.88
296.679	241.88
296.909	234.88
297.14	220.88
297.37	243.88
297.601	222.88
297.831	212.88
298.062	218.88
298.292	233.88
298.523	235.88
298.753	241.88
298.984	228.88
299.214	221.88
299.445	236.88
299.675	236.88
299.905	235.88
300.136	214.88
300.366	229.88
300.597	232.88
300.827	236.88
301.057	252.88
301.288	255.88
301.518	241.88
301.748	252.88
301.979	250.88
302.209	249.88
302.439	247.88
302.669	252.88
302.9	243.88
303.13	264.88
303.36	256.88
303.59	256.88
303.82	271.88
304.051	245.88
304.281	260.88
304.511	256.88
304.741	249.88
304.971	263.88
305.201	240.88
305.431	261.88
305.661	243.88
305.891	248.88
306.121	261.88
306.352	264.88
306.582	235.88
306.812	240.88
307.042	245.88
307.272	237.88
307.502	251.88
307.731	253.88
307.961	249.88
308.191	238.88
308.421	267.88
308.651	254.88
308.881	249.88
309.111	258.88
309.341	257.88
309.571	274.88
309.8	292.88
310.03	266.88
310.26	270.88
310.49	289.88
310.72	282.88
310.949	303.88
311.179	294.88
311.409	282.88
311.639	292.88
311.868	294.88
312.098	288.88
312.328	287.88
312.557	289.88
312.787	314.88
313.017	316.88
313.246	298.88
313.476	282.88
313.706	279.88
313.935	290.88
314.165	296.88
314.394	314.88
314.624	299.88
314.853	290.88
315.083	296.88
315.312	293.88
315.542	297.88
315.771	284.88
316.001	286.88
316.23	276.88
316.46	267.88
316.689	299.88
316.919	305.88
317.148	297.88
317.377	291.88
317.607	284.88
317.836	289.88
318.065	309.88
318.295	305.88
318.524	287.88
318.753	300.88
318.983	298.88
319.212	297.88
319.441	300.88
319.67	298.88
319.9	282.88
320.129	280.88
320.358	308.88
320.587	298.88
320.816	289.88
321.046	313.88
321.275	304.88
321.504	320.88
321.733	316.88
321.962	323.88
322.191	321.88
322.42	350.88
322.649	357.88
322.878	346.88
323.108	346.88
323.337	395.88
323.566	395.88
323.795	421.88
324.024	477.88
324.253	595.88
324.482	874.88
324.71	1296.88
324.939	1700.88
325.168	1377.88
325.397	750.88
325.626	499.88
325.855	446.88
326.084	408.88
326.313	418.88
326.542	402.88
326.77	436.88
326.999	537.88
327.228	765.88
327.457	1108.88
327.686	1229.88
327.914	803.88
328.143	583.88
328.372	489.88
328.6	475.88
328.829	446.88
329.058	475.88
329.287	469.88
329.515	425.88
329.744	390.88
329.972	393.88
330.201	410.88
330.43	425.88
330.658	479.88
330.887	482.88
331.115	437.88
331.344	398.88
331.572	377.88
331.801	384.88
332.03	361.88
332.258	353.88
332.486	321.88
332.715	325.88
332.943	340.88
333.172	340.88
333.4	344.88
333.629	345.88
333.857	353.88
334.085	346.88
334.314	374.88
334.542	395.88
334.771	412.88
334.999	363.88
335.227	361.88
335.455	340.88
335.684	325.88
335.912	323.88
336.14	320.88
336.369	318.88
336.597	325.88
336.825	349.88
337.053	317.88
337.281	319.88
337.51	340.88
337.738	329.88
337.966	327.88
338.194	341.88
338.422	335.88
338.65	321.88
338.878	320.88
339.106	308.88
339.334	311.88
339.562	317.88
339.79	317.88
340.018	341.88
340.246	301.88
340.474	332.88
340.702	311.88
340.93	314.88
341.158	307.88
341.386	316.88
341.614	311.88
341.842	297.88
342.07	310.88
342.298	306.88
342.526	312.88
342.754	316.88
342.981	308.88
343.209	312.88
343.437	325.88
343.665	319.88
343.893	316.88
344.12	297.88
344.348	310.88
344.576	310.88
344.804	315.88
345.031	334.88
345.259	344.88
345.487	337.88
345.714	325.88
345.942	309.88
346.17	309.88
346.397	308.88
346.625	309.88
346.853	314.88
347.08	296.88
347.308	313.88
347.535	324.88
347.763	325.88
347.99	308.88
348.218	308.88
348.445	310.88
348.673	314.88
348.9	321.88
349.128	316.88
349.355	299.88
349.583	309.88
349.81	302.88
350.037	296.88
350.265	299.88
350.492	281.88
350.72	297.88
350.947	312.88
351.174	302.88
351.402	304.88
351.629	296.88
351.856	310.88
352.083	309.88
352.311	306.88
352.538	325.88
352.765	309.88
352.992	313.88
353.22	296.88
353.447	305.88
353.674	304.88
353.901	279.88
354.128	288.88
354.355	300.88
354.583	287.88
354.81	292.88
355.037	294.88
355.264	269.88
355.491	269.88
355.718	269.88
355.945	291.88
356.172	269.88
356.399	290.88
356.626	277.88
356.853	293.88
357.08	263.88
357.307	281.88
357.534	287.88
357.761	290.88
357.988	291.88
358.215	280.88
358.441	282.88
358.668	277.88
358.895	289.88
359.122	292.88
359.349	306.88
359.576	298.88
359.802	313.88
360.029	348.88
360.256	332.88
360.483	320.88
360.709	304.88
360.936	310.88
361.163	286.88
361.39	294.88
361.616	298.88
361.843	296.88
362.07	281.88
362.296	294.88
362.523	300.88
362.749	299.88
362.976	292.88
363.203	289.88
363.429	293.88
363.656	283.88
363.882	287.88
364.109	288.88
364.335	292.88
364.562	280.88
364.788	257.88
365.015	286.88
365.241	296.88
365.468	293.88
365.694	288.88
365.92	293.88
366.147	278.88
366.373	281.88
366.599	267.88
366.826	267.88
367.052	284.88
367.278	280.88
367.505	283.88
367.731	300.88
367.957	271.88
368.184	268.88
368.41	280.88
368.636	279.88
368.862	281.88
369.089	285.88
369.315	287.88
369.541	290.88
369.767	278.88
369.993	276.88
370.219	276.88
370.445	271.88
370.672	264.88
370.898	282.88
371.124	275.88
371.35	276.88
371.576	264.88
371.802	288.88
372.028	255.88
372.254	276.88
372.48	274.88
372.706	282.88
372.932	254.88
373.158	291.88
373.384	281.88
373.61	266.88
373.835	282.88
374.061	268.88
374.287	282.88
374.513	273.88
374.739	289.88
374.965	266.88
375.191	282.88
375.416	250.88
375.642	276.88
375.868	264.88
376.094	249.88
376.319	277.88
376.545	259.88
376.771	254.88
376.997	270.88
377.222	264.88
377.448	260.88
377.674	259.88
377.899	247.88
378.125	270.88
378.35	267.88
378.576	264.88
378.802	253.88
379.027	281.88
379.253	266.88
379.478	265.88
379.704	245.88
379.929	255.88
380.155	278.88
380.38	270.88
380.606	272.88
380.831	277.88
381.057	277.88
381.282	269.88
381.507	279.88
381.733	275.88
381.958	261.88
382.184	262.88
382.409	271.88
382.634	283.88
382.86	274.88
383.085	275.88
383.31	260.88
383.535	285.88
383.761	278.88
383.986	280.88
384.211	278.88
384.436	285.88
384.662	275.88
384.887	284.88
385.112	279.88
385.337	282.88
385.562	275.88
385.787	276.88
386.013	293.88
386.238	283.88
386.463	277.88
386.688	289.88
386.913	281.88
387.138	278.88
387.363	288.88
387.588	297.88
387.813	273.88
388.038	278.88
388.263	267.88
388.488	286.88
388.713	275.88
388.938	269.88
389.163	286.88
389.387	286.88
389.612	288.88
389.837	274.88
390.062	283.88
390.287	270.88
390.512	296.88
390.736	275.88
390.961	275.88
391.186	260.88
391.411	269.88
391.636	278.88
391.86	284.88
392.085	292.88
392.31	276.88
392.534	301.88
392.759	293.88
392.984	276.88
393.208	271.88
393.433	272.88
393.658	269.88
393.882	274.88
394.107	279.88
394.331	273.88
394.556	278.88
394.78	263.88
395.005	288.88
395.229	278.88
395.454	286.88
395.678	286.88
395.903	283.88
396.127	306.88
396.352	316.88
396.576	312.88
396.801	286.88
397.025	284.88
397.249	292.88
397.474	305.88
397.698	308.88
397.922	314.88
398.147	298.88
398.371	299.88
398.595	307.88
398.82	310.88
399.044	321.88
399.268	310.88
399.492	315.88
399.717	342.88
399.941	357.88
400.165	362.88
400.389	378.88
400.613	346.88
400.837	322.88
401.062	307.88
401.286	316.88
401.51	316.88
401.734	313.88
401.958	323.88
402.182	314.88
402.406	344.88
402.63	313.88
402.854	324.88
403.078	322.88
403.302	317.88
403.526	337.88
403.75	338.88
403.974	312.88
404.198	330.88
404.422	299.88
404.645	313.88
404.869	331.88
405.093	345.88
405.317	373.88
405.541	390.88
405.765	352.88
405.988	354.88
406.212	346.88
406.436	365.88
406.66	378.88
406.883	354.88
407.107	338.88
407.331	408.88
407.555	414.88
407.778	413.88
408.002	399.88
408.226	358.88
408.449	365.88
408.673	348.88
408.896	371.88
409.12	390.88
409.344	370.88
409.567	332.88
409.791	335.88
410.014	312.88
410.238	317.88
410.461	331.88
410.685	328.88
410.908	309.88
411.132	353.88
411.355	370.88
411.578	358.88
411.802	310.88
412.025	335.88
412.249	321.88
412.472	337.88
412.695	353.88
412.919	345.88
413.142	321.88
413.365	322.88
413.589	318.88
413.812	320.88
414.035	320.88
414.258	308.88
414.482	310.88
414.705	310.88
414.928	298.88
415.151	308.88
415.374	309.88
415.597	309.88
415.821	313.88
416.044	317.88
416.267	298.88
416.49	306.88
416.713	310.88
416.936	286.88
417.159	312.88
417.382	310.88
417.605	309.88
417.828	301.88
418.051	310.88
418.274	301.88
418.497	307.88
418.72	308.88
418.943	300.88
419.166	308.88
419.389	329.88
419.611	319.88
419.834	301.88
420.057	308.88
420.28	319.88
420.503	322.88
420.726	313.88
420.948	352.88
421.171	328.88
421.394	365.88
421.617	318.88
421.839	323.88
422.062	322.88
422.285	331.88
422.507	360.88
422.73	421.88
422.953	402.88
423.175	345.88
423.398	342.88
423.621	309.88
423.843	354.88
424.066	355.88
424.288	342.88
424.511	379.88
424.733	397.88
424.956	435.88
425.178	412.88
425.401	397.88
425.623	436.88
425.846	388.88
426.068	352.88
426.291	335.88
426.513	346.88
426.735	353.88
426.958	348.88
427.18	436.88
427.402	503.88
427.625	533.88
427.847	490.88
428.069	417.88
428.292	376.88
428.514	349.88
428.736	340.88
428.958	331.88
429.181	312.88
429.403	316.88
429.625	337.88
429.847	340.88
430.069	379.88
430.292	384.88
430.514	329.88
430.736	303.88
430.958	316.88
431.18	321.88
431.402	292.88
431.624	306.88
431.846	317.88
432.068	291.88
432.29	309.88
432.512	298.88
432.734	300.88
432.956	292.88
433.178	303.88
433.4	330.88
433.622	297.88
433.844	310.88
434.066	289.88
434.287	296.88
434.509	312.88
434.731	298.88
434.953	305.88
435.175	314.88
435.397	338.88
435.618	356.88
435.84	385.88
436.062	440.88
436.284	463.88
436.505	392.88
436.727	348.88
436.949	325.88
437.17	314.88
437.392	318.88
437.614	316.88
437.835	350.88
438.057	426.88
438.278	476.88
438.5	470.88
438.721	516.88
438.943	475.88
439.165	415.88
439.386	363.88
439.608	340.88
439.829	373.88
440.05	380.88
440.272	421.88
440.493	390.88
440.715	343.88
440.936	340.88
441.158	332.88
441.379	343.88
441.6	344.88
441.822	350.88
442.043	373.88
442.264	415.88
442.486	453.88
442.707	403.88
442.928	364.88
443.149	372.88
443.371	379.88
443.592	404.88
443.813	430.88
444.034	470.88
444.255	397.88
444.476	375.88
444.698	334.88
444.919	352.88
445.14	425.88
445.361	395.88
445.582	387.88
445.803	442.88
446.024	496.88
446.245	488.88
446.466	454.88
446.687	390.88
446.908	366.88
447.129	339.88
447.35	339.88
447.571	336.88
447.792	324.88
448.013	329.88
448.234	338.88
448.455	379.88
448.675	459.88
448.896	489.88
449.117	429.88
449.338	407.88
449.559	473.88
449.779	527.88
450	438.88
450.221	333.88
450.442	331.88
450.662	327.88
450.883	324.88
451.104	333.88
451.324	330.88
451.545	308.88
451.766	288.88
451.986	307.88
452.207	285.88
452.428	294.88
452.648	308.88
452.869	297.88
453.089	308.88
453.31	314.88
453.53	294.88
453.751	299.88
453.971	293.88
454.192	304.88
454.412	293.88
454.633	282.88
454.853	292.88
455.073	296.88
455.294	307.88
455.514	336.88
455.734	326.88
455.955	292.88
456.175	282.88
456.395	289.88
456.616	278.88
456.836	273.88
457.056	285.88
457.276	268.88
457.497	271.88
457.717	276.88
457.937	276.88
458.157	289.88
458.377	292.88
458.598	324.88
458.818	366.88
459.038	389.88
459.258	407.88
459.478	336.88
459.698	312.88
459.918	301.88
460.138	299.88
460.358	312.88
460.578	306.88
460.798	300.88
461.018	293.88
461.238	278.88
461.458	292.88
461.678	278.88
461.898	300.88
462.118	304.88
462.338	303.88
462.558	301.88
462.777	297.88
462.997	324.88
463.217	310.88
463.437	315.88
463.657	318.88
463.876	296.88
464.096	306.88
464.316	308.88
464.536	314.88
464.755	316.88
464.975	317.88
465.195	363.88
465.414	398.88
465.634	344.88
465.854	318.88
466.073	318.88
466.293	304.88
466.512	298.88
466.732	294.88
466.951	306.88
467.171	293.88
467.391	302.88
467.61	299.88
467.829	311.88
468.049	301.88
468.268	300.88
468.488	309.88
468.707	289.88
468.927	282.88
469.146	284.88
469.365	287.88
469.585	273.88
469.804	270.88
470.023	284.88
470.243	293.88
470.462	315.88
470.681	314.88
470.901	307.88
471.12	306.88
471.339	298.88
471.558	304.88
471.777	322.88
471.997	297.88
472.216	306.88
472.435	318.88
472.654	321.88
472.873	300.88
473.092	308.88
473.311	304.88
473.53	308.88
473.749	299.88
473.968	351.88
474.187	380.88
474.406	392.88
474.625	344.88
474.844	316.88
475.063	302.88
475.282	308.88
475.501	293.88
475.72	301.88
475.939	310.88
476.158	284.88
476.377	292.88
476.596	301.88
476.814	326.88
477.033	314.88
477.252	293.88
477.471	311.88
477.69	315.88
477.908	327.88
478.127	308.88
478.346	323.88
478.564	345.88
478.783	322.88
479.002	338.88
479.22	314.88
479.439	339.88
479.658	349.88
479.876	353.88
480.095	347.88
480.313	381.88
480.532	358.88
480.751	333.88
480.969	364.88
481.188	390.88
481.406	438.88
481.624	387.88
481.843	370.88
482.061	361.88
482.28	348.88
482.498	351.88
482.717	349.88
482.935	352.88
483.153	329.88
483.372	350.88
483.59	348.88
483.808	354.88
484.027	345.88
484.245	339.88
484.463	341.88
484.681	347.88
484.9	344.88
485.118	346.88
485.336	358.88
485.554	360.88
485.772	365.88
485.99	342.88
486.209	351.88
486.427	366.88
486.645	380.88
486.863	369.88
487.081	387.88
487.299	402.88
487.517	388.88
487.735	362.88
487.953	375.88
488.171	377.88
488.389	361.88
488.607	388.88
488.825	352.88
489.043	368.88
489.261	362.88
489.479	358.88
489.696	367.88
489.914	364.88
490.132	375.88
490.35	388.88
490.568	362.88
490.786	374.88
491.003	403.88
491.221	412.88
491.439	416.88
491.657	406.88
491.874	420.88
492.092	418.88
492.31	409.88
492.527	406.88
492.745	448.88
492.963	439.88
493.18	432.88
493.398	448.88
493.615	428.88
493.833	427.88
494.05	437.88
494.268	411.88
494.485	427.88
494.703	435.88
494.92	418.88
495.138	437.88
495.355	453.88
495.573	450.88
495.79	420.88
496.008	420.88
496.225	429.88
496.442	432.88
496.66	459.88
496.877	426.88
497.094	420.88
497.312	419.88
497.529	445.88
497.746	439.88
497.963	459.88
498.181	453.88
498.398	469.88
498.615	468.88
498.832	508.88
499.049	465.88
499.267	465.88
499.484	499.88
499.701	490.88
499.918	499.88
500.135	522.88
500.352	537.88
500.569	540.88
500.786	545.88
501.003	546.88
501.22	552.88
501.437	524.88
501.654	516.88
501.871	519.88
502.088	502.88
