Data from 1982.PennyLincolnUp.Lamp.En5.5.200Scan.071819.P1_HRD10591_16-47-28-962.txt Node
Date: Thu Jul 18 16:47:28 EDT 2019
User: cochatt
Spectrometer: HR+D1059
Trigger mode: 1
Integration Time (sec): 1.000000E-1
Scans to average: 1
Electric dark correction enabled: true
Nonlinearity correction enabled: false
Boxcar width: 0
XAxis mode: Wavelengths
Number of Pixels in Spectrum: 2048
>>>>>Begin Spectral Data<<<<<
223.165	-12.75
223.4	-12.75
223.635	-12.75
223.869	-16.75
224.104	-21.75
224.338	-22.75
224.573	-20.75
224.808	-17.75
225.042	-1.75
225.277	0.25
225.511	-3.75
225.746	15.25
225.98	16.25
226.215	11.25
226.449	14.25
226.683	17.25
226.918	23.25
227.152	20.25
227.387	35.25
227.621	45.25
227.856	50.25
228.09	45.25
228.324	62.25
228.559	64.25
228.793	39.25
229.027	78.25
229.262	95.25
229.496	100.25
229.73	109.25
229.964	141.25
230.199	108.25
230.433	106.25
230.667	94.25
230.901	98.25
231.136	100.25
231.37	102.25
231.604	96.25
231.838	119.25
232.072	102.25
232.306	100.25
232.541	107.25
232.775	98.25
233.009	104.25
233.243	105.25
233.477	110.25
233.711	114.25
233.945	113.25
234.179	102.25
234.413	121.25
234.647	101.25
234.881	95.25
235.115	113.25
235.349	117.25
235.583	111.25
235.817	113.25
236.051	117.25
236.285	111.25
236.519	97.25
236.753	116.25
236.987	143.25
237.221	170.25
237.455	186.25
237.689	157.25
237.922	109.25
238.156	115.25
238.39	123.25
238.624	121.25
238.858	106.25
239.091	119.25
239.325	121.25
239.559	114.25
239.793	115.25
240.027	125.25
240.26	119.25
240.494	130.25
240.728	135.25
240.961	112.25
241.195	123.25
241.429	109.25
241.662	117.25
241.896	123.25
242.13	111.25
242.363	120.25
242.597	119.25
242.83	117.25
243.064	128.25
243.298	109.25
243.531	114.25
243.765	119.25
243.998	107.25
244.232	126.25
244.465	128.25
244.699	130.25
244.932	118.25
245.166	132.25
245.399	130.25
245.633	127.25
245.866	135.25
246.099	127.25
246.333	144.25
246.566	135.25
246.8	137.25
247.033	125.25
247.266	137.25
247.5	143.25
247.733	144.25
247.966	134.25
248.2	151.25
248.433	145.25
248.666	161.25
248.899	177.25
249.133	166.25
249.366	177.25
249.599	185.25
249.832	147.25
250.066	157.25
250.299	163.25
250.532	163.25
250.765	160.25
250.998	174.25
251.231	181.25
251.465	172.25
251.698	169.25
251.931	177.25
252.164	171.25
252.397	173.25
252.63	165.25
252.863	153.25
253.096	175.25
253.329	184.25
253.562	190.25
253.795	177.25
254.028	186.25
254.261	185.25
254.494	188.25
254.727	218.25
254.96	240.25
255.193	233.25
255.426	195.25
255.659	182.25
255.892	198.25
256.124	187.25
256.357	209.25
256.59	189.25
256.823	178.25
257.056	188.25
257.289	185.25
257.521	161.25
257.754	179.25
257.987	171.25
258.22	173.25
258.452	172.25
258.685	162.25
258.918	167.25
259.151	181.25
259.383	188.25
259.616	187.25
259.849	199.25
260.081	197.25
260.314	221.25
260.547	231.25
260.779	220.25
261.012	195.25
261.244	185.25
261.477	185.25
261.71	189.25
261.942	175.25
262.175	191.25
262.407	187.25
262.64	183.25
262.872	161.25
263.105	177.25
263.337	172.25
263.57	163.25
263.802	177.25
264.035	193.25
264.267	177.25
264.499	164.25
264.732	181.25
264.964	172.25
265.197	197.25
265.429	177.25
265.661	167.25
265.894	180.25
266.126	181.25
266.358	185.25
266.591	166.25
266.823	185.25
267.055	197.25
267.287	206.25
267.52	183.25
267.752	183.25
267.984	178.25
268.216	178.25
268.448	182.25
268.681	182.25
268.913	206.25
269.145	209.25
269.377	221.25
269.609	212.25
269.841	216.25
270.073	225.25
270.306	244.25
270.538	259.25
270.77	262.25
271.002	243.25
271.234	261.25
271.466	251.25
271.698	250.25
271.93	251.25
272.162	251.25
272.394	266.25
272.626	253.25
272.858	222.25
273.09	236.25
273.322	214.25
273.553	219.25
273.785	205.25
274.017	211.25
274.249	215.25
274.481	211.25
274.713	199.25
274.945	210.25
275.176	214.25
275.408	210.25
275.64	228.25
275.872	230.25
276.104	214.25
276.335	216.25
276.567	232.25
276.799	220.25
277.031	268.25
277.262	243.25
277.494	262.25
277.726	248.25
277.957	222.25
278.189	234.25
278.421	213.25
278.652	226.25
278.884	219.25
279.115	220.25
279.347	228.25
279.579	223.25
279.81	207.25
280.042	210.25
280.273	208.25
280.505	215.25
280.736	225.25
280.968	233.25
281.199	226.25
281.431	207.25
281.662	215.25
281.894	197.25
282.125	214.25
282.356	239.25
282.588	242.25
282.819	250.25
283.051	226.25
283.282	218.25
283.513	229.25
283.745	210.25
283.976	234.25
284.207	226.25
284.439	223.25
284.67	218.25
284.901	213.25
285.132	228.25
285.364	223.25
285.595	207.25
285.826	221.25
286.057	230.25
286.288	227.25
286.52	237.25
286.751	229.25
286.982	234.25
287.213	218.25
287.444	239.25
287.675	240.25
287.906	224.25
288.138	229.25
288.369	241.25
288.6	235.25
288.831	228.25
289.062	241.25
289.293	217.25
289.524	221.25
289.755	234.25
289.986	228.25
290.217	245.25
290.448	218.25
290.679	230.25
290.91	231.25
291.141	227.25
291.371	225.25
291.602	247.25
291.833	233.25
292.064	209.25
292.295	219.25
292.526	254.25
292.757	247.25
292.987	225.25
293.218	229.25
293.449	236.25
293.68	243.25
293.91	224.25
294.141	223.25
294.372	226.25
294.603	237.25
294.833	225.25
295.064	241.25
295.295	228.25
295.525	227.25
295.756	252.25
295.987	246.25
296.217	255.25
296.448	241.25
296.679	253.25
296.909	243.25
297.14	244.25
297.37	241.25
297.601	231.25
297.831	240.25
298.062	234.25
298.292	246.25
298.523	253.25
298.753	232.25
298.984	244.25
299.214	239.25
299.445	234.25
299.675	264.25
299.905	253.25
300.136	237.25
300.366	242.25
300.597	233.25
300.827	252.25
301.057	251.25
301.288	265.25
301.518	241.25
301.748	261.25
301.979	260.25
302.209	265.25
302.439	253.25
302.669	257.25
302.9	242.25
303.13	260.25
303.36	266.25
303.59	268.25
303.82	260.25
304.051	266.25
304.281	260.25
304.511	264.25
304.741	245.25
304.971	258.25
305.201	261.25
305.431	268.25
305.661	257.25
305.891	242.25
306.121	255.25
306.352	298.25
306.582	261.25
306.812	243.25
307.042	253.25
307.272	237.25
307.502	273.25
307.731	259.25
307.961	263.25
308.191	264.25
308.421	264.25
308.651	282.25
308.881	285.25
309.111	287.25
309.341	270.25
309.571	291.25
309.8	271.25
310.03	290.25
310.26	306.25
310.49	313.25
310.72	301.25
310.949	316.25
311.179	315.25
311.409	320.25
311.639	303.25
311.868	308.25
312.098	302.25
312.328	302.25
312.557	306.25
312.787	329.25
313.017	330.25
313.246	313.25
313.476	301.25
313.706	304.25
313.935	315.25
314.165	314.25
314.394	342.25
314.624	312.25
314.853	312.25
315.083	290.25
315.312	303.25
315.542	305.25
315.771	293.25
316.001	293.25
316.23	295.25
316.46	307.25
316.689	295.25
316.919	306.25
317.148	324.25
317.377	309.25
317.607	317.25
317.836	307.25
318.065	315.25
318.295	317.25
318.524	270.25
318.753	313.25
318.983	299.25
319.212	294.25
319.441	317.25
319.67	315.25
319.9	296.25
320.129	308.25
320.358	305.25
320.587	277.25
320.816	299.25
321.046	319.25
321.275	319.25
321.504	320.25
321.733	312.25
321.962	343.25
322.191	341.25
322.42	365.25
322.649	364.25
322.878	373.25
323.108	382.25
323.337	423.25
323.566	428.25
323.795	454.25
324.024	518.25
324.253	643.25
324.482	952.25
324.71	1433.25
324.939	1851.25
325.168	1520.25
325.397	815.25
325.626	547.25
325.855	454.25
326.084	421.25
326.313	408.25
326.542	430.25
326.77	451.25
326.999	567.25
327.228	829.25
327.457	1213.25
327.686	1315.25
327.914	899.25
328.143	601.25
328.372	506.25
328.6	486.25
328.829	482.25
329.058	484.25
329.287	478.25
329.515	463.25
329.744	419.25
329.972	419.25
330.201	451.25
330.43	476.25
330.658	497.25
330.887	485.25
331.115	477.25
331.344	434.25
331.572	405.25
331.801	398.25
332.03	369.25
332.258	371.25
332.486	356.25
332.715	344.25
332.943	375.25
333.172	347.25
333.4	358.25
333.629	370.25
333.857	396.25
334.085	395.25
334.314	398.25
334.542	436.25
334.771	436.25
334.999	386.25
335.227	349.25
335.455	345.25
335.684	329.25
335.912	344.25
336.14	336.25
336.369	351.25
336.597	342.25
336.825	335.25
337.053	338.25
337.281	326.25
337.51	340.25
337.738	339.25
337.966	350.25
338.194	344.25
338.422	335.25
338.65	351.25
338.878	343.25
339.106	321.25
339.334	332.25
339.562	327.25
339.79	333.25
340.018	326.25
340.246	330.25
340.474	357.25
340.702	327.25
340.93	329.25
341.158	327.25
341.386	324.25
341.614	326.25
341.842	325.25
342.07	324.25
342.298	338.25
342.526	325.25
342.754	319.25
342.981	311.25
343.209	317.25
343.437	314.25
343.665	328.25
343.893	341.25
344.12	339.25
344.348	330.25
344.576	333.25
344.804	326.25
345.031	364.25
345.259	344.25
345.487	342.25
345.714	344.25
345.942	331.25
346.17	327.25
346.397	320.25
346.625	310.25
346.853	322.25
347.08	329.25
347.308	326.25
347.535	330.25
347.763	333.25
347.99	315.25
348.218	314.25
348.445	313.25
348.673	342.25
348.9	321.25
349.128	297.25
349.355	299.25
349.583	299.25
349.81	301.25
350.037	299.25
350.265	289.25
350.492	299.25
350.72	312.25
350.947	323.25
351.174	323.25
351.402	333.25
351.629	326.25
351.856	327.25
352.083	322.25
352.311	364.25
352.538	318.25
352.765	324.25
352.992	329.25
353.22	334.25
353.447	319.25
353.674	317.25
353.901	293.25
354.128	304.25
354.355	294.25
354.583	284.25
354.81	292.25
355.037	290.25
355.264	292.25
355.491	294.25
355.718	295.25
355.945	294.25
356.172	295.25
356.399	286.25
356.626	281.25
356.853	286.25
357.08	281.25
357.307	285.25
357.534	279.25
357.761	281.25
357.988	294.25
358.215	283.25
358.441	291.25
358.668	288.25
358.895	264.25
359.122	285.25
359.349	298.25
359.576	296.25
359.802	333.25
360.029	346.25
360.256	374.25
360.483	322.25
360.709	307.25
360.936	308.25
361.163	315.25
361.39	313.25
361.616	313.25
361.843	309.25
362.07	309.25
362.296	325.25
362.523	318.25
362.749	324.25
362.976	316.25
363.203	306.25
363.429	296.25
363.656	300.25
363.882	283.25
364.109	296.25
364.335	293.25
364.562	302.25
364.788	280.25
365.015	290.25
365.241	264.25
365.468	328.25
365.694	303.25
365.92	289.25
366.147	295.25
366.373	287.25
366.599	298.25
366.826	297.25
367.052	279.25
367.278	287.25
367.505	296.25
367.731	298.25
367.957	288.25
368.184	298.25
368.41	285.25
368.636	307.25
368.862	294.25
369.089	318.25
369.315	291.25
369.541	306.25
369.767	290.25
369.993	274.25
370.219	291.25
370.445	289.25
370.672	295.25
370.898	286.25
371.124	299.25
371.35	295.25
371.576	268.25
371.802	268.25
372.028	277.25
372.254	295.25
372.48	296.25
372.706	279.25
372.932	284.25
373.158	281.25
373.384	291.25
373.61	278.25
373.835	270.25
374.061	285.25
374.287	281.25
374.513	277.25
374.739	283.25
374.965	279.25
375.191	285.25
375.416	281.25
375.642	302.25
375.868	289.25
376.094	284.25
376.319	277.25
376.545	279.25
376.771	284.25
376.997	284.25
377.222	267.25
377.448	277.25
377.674	279.25
377.899	282.25
378.125	283.25
378.35	270.25
378.576	267.25
378.802	269.25
379.027	271.25
379.253	280.25
379.478	276.25
379.704	266.25
379.929	274.25
380.155	294.25
380.38	289.25
380.606	281.25
380.831	280.25
381.057	286.25
381.282	273.25
381.507	278.25
381.733	289.25
381.958	279.25
382.184	285.25
382.409	298.25
382.634	296.25
382.86	298.25
383.085	270.25
383.31	277.25
383.535	281.25
383.761	285.25
383.986	284.25
384.211	281.25
384.436	295.25
384.662	298.25
384.887	275.25
385.112	292.25
385.337	292.25
385.562	282.25
385.787	289.25
386.013	299.25
386.238	309.25
386.463	301.25
386.688	290.25
386.913	289.25
387.138	286.25
387.363	298.25
387.588	301.25
387.813	281.25
388.038	302.25
388.263	289.25
388.488	274.25
388.713	298.25
388.938	299.25
389.163	308.25
389.387	295.25
389.612	287.25
389.837	295.25
390.062	283.25
390.287	281.25
390.512	278.25
390.736	293.25
390.961	297.25
391.186	297.25
391.411	292.25
391.636	294.25
391.86	299.25
392.085	302.25
392.31	303.25
392.534	319.25
392.759	310.25
392.984	287.25
393.208	299.25
393.433	297.25
393.658	295.25
393.882	279.25
394.107	297.25
394.331	296.25
394.556	288.25
394.78	310.25
395.005	296.25
395.229	301.25
395.454	299.25
395.678	302.25
395.903	317.25
396.127	322.25
396.352	313.25
396.576	298.25
396.801	327.25
397.025	305.25
397.249	314.25
397.474	309.25
397.698	301.25
397.922	330.25
398.147	329.25
398.371	341.25
398.595	294.25
398.82	321.25
399.044	316.25
399.268	336.25
399.492	345.25
399.717	342.25
399.941	375.25
400.165	355.25
400.389	387.25
400.613	372.25
400.837	330.25
401.062	339.25
401.286	330.25
401.51	330.25
401.734	311.25
401.958	334.25
402.182	306.25
402.406	330.25
402.63	323.25
402.854	330.25
403.078	331.25
403.302	330.25
403.526	350.25
403.75	332.25
403.974	347.25
404.198	335.25
404.422	342.25
404.645	344.25
404.869	353.25
405.093	362.25
405.317	378.25
405.541	389.25
405.765	359.25
405.988	350.25
406.212	374.25
406.436	370.25
406.66	375.25
406.883	352.25
407.107	385.25
407.331	418.25
407.555	430.25
407.778	439.25
408.002	399.25
408.226	365.25
408.449	355.25
408.673	399.25
408.896	381.25
409.12	401.25
409.344	388.25
409.567	341.25
409.791	331.25
410.014	335.25
410.238	330.25
410.461	342.25
410.685	338.25
410.908	364.25
411.132	383.25
411.355	391.25
411.578	405.25
411.802	344.25
412.025	324.25
412.249	346.25
412.472	362.25
412.695	378.25
412.919	356.25
413.142	341.25
413.365	333.25
413.589	320.25
413.812	331.25
414.035	314.25
414.258	303.25
414.482	325.25
414.705	301.25
414.928	314.25
415.151	316.25
415.374	307.25
415.597	292.25
415.821	314.25
416.044	308.25
416.267	313.25
416.49	321.25
416.713	323.25
416.936	317.25
417.159	297.25
417.382	307.25
417.605	323.25
417.828	343.25
418.051	342.25
418.274	318.25
418.497	317.25
418.72	310.25
418.943	303.25
419.166	327.25
419.389	332.25
419.611	317.25
419.834	324.25
420.057	325.25
420.28	349.25
420.503	357.25
420.726	339.25
420.948	353.25
421.171	379.25
421.394	381.25
421.617	341.25
421.839	340.25
422.062	350.25
422.285	340.25
422.507	375.25
422.73	425.25
422.953	423.25
423.175	361.25
423.398	355.25
423.621	339.25
423.843	366.25
424.066	350.25
424.288	387.25
424.511	381.25
424.733	414.25
424.956	455.25
425.178	443.25
425.401	446.25
425.623	436.25
425.846	382.25
426.068	382.25
426.291	356.25
426.513	383.25
426.735	373.25
426.958	397.25
427.18	462.25
427.402	531.25
427.625	598.25
427.847	522.25
428.069	461.25
428.292	393.25
428.514	391.25
428.736	363.25
428.958	360.25
429.181	332.25
429.403	340.25
429.625	347.25
429.847	385.25
430.069	405.25
430.292	406.25
430.514	358.25
430.736	332.25
430.958	336.25
431.18	307.25
431.402	318.25
431.624	327.25
431.846	311.25
432.068	302.25
432.29	321.25
432.512	330.25
432.734	316.25
432.956	338.25
433.178	329.25
433.4	327.25
433.622	307.25
433.844	299.25
434.066	302.25
434.287	318.25
434.509	332.25
434.731	319.25
434.953	320.25
435.175	322.25
435.397	363.25
435.618	379.25
435.84	399.25
436.062	461.25
436.284	485.25
436.505	405.25
436.727	365.25
436.949	330.25
437.17	340.25
437.392	335.25
437.614	361.25
437.835	396.25
438.057	435.25
438.278	492.25
438.5	513.25
438.721	524.25
438.943	497.25
439.165	415.25
439.386	382.25
439.608	377.25
439.829	379.25
440.05	391.25
440.272	425.25
440.493	416.25
440.715	354.25
440.936	351.25
441.158	341.25
441.379	328.25
441.6	334.25
441.822	382.25
442.043	408.25
442.264	468.25
442.486	475.25
442.707	398.25
442.928	405.25
443.149	414.25
443.371	397.25
443.592	429.25
443.813	476.25
444.034	519.25
444.255	423.25
444.476	370.25
444.698	349.25
444.919	340.25
445.14	441.25
445.361	421.25
445.582	395.25
445.803	465.25
446.024	531.25
446.245	527.25
446.466	496.25
446.687	405.25
446.908	383.25
447.129	343.25
447.35	326.25
447.571	345.25
447.792	323.25
448.013	355.25
448.234	354.25
448.455	412.25
448.675	457.25
448.896	564.25
449.117	446.25
449.338	435.25
449.559	516.25
449.779	552.25
450	437.25
450.221	377.25
450.442	350.25
450.662	340.25
450.883	343.25
451.104	362.25
451.324	346.25
451.545	335.25
451.766	324.25
451.986	307.25
452.207	307.25
452.428	289.25
452.648	319.25
452.869	285.25
453.089	323.25
453.31	325.25
453.53	314.25
453.751	319.25
453.971	310.25
454.192	334.25
454.412	317.25
454.633	309.25
454.853	297.25
455.073	305.25
455.294	306.25
455.514	375.25
455.734	359.25
455.955	309.25
456.175	293.25
456.395	307.25
456.616	291.25
456.836	277.25
457.056	282.25
457.276	255.25
457.497	281.25
457.717	287.25
457.937	283.25
458.157	301.25
458.377	291.25
458.598	306.25
458.818	372.25
459.038	424.25
459.258	411.25
459.478	350.25
459.698	315.25
459.918	315.25
460.138	297.25
460.358	309.25
460.578	320.25
460.798	305.25
461.018	334.25
461.238	325.25
461.458	317.25
461.678	308.25
461.898	318.25
462.118	301.25
462.338	307.25
462.558	308.25
462.777	330.25
462.997	330.25
463.217	322.25
463.437	342.25
463.657	333.25
463.876	317.25
464.096	338.25
464.316	332.25
464.536	323.25
464.755	326.25
464.975	336.25
465.195	385.25
465.414	421.25
465.634	381.25
465.854	329.25
466.073	313.25
466.293	320.25
466.512	315.25
466.732	302.25
466.951	308.25
467.171	319.25
467.391	305.25
467.61	322.25
467.829	323.25
468.049	314.25
468.268	307.25
468.488	309.25
468.707	296.25
468.927	299.25
469.146	278.25
469.365	305.25
469.585	309.25
469.804	310.25
470.023	317.25
470.243	301.25
470.462	312.25
470.681	345.25
470.901	342.25
471.12	314.25
471.339	306.25
471.558	321.25
471.777	317.25
471.997	317.25
472.216	310.25
472.435	342.25
472.654	330.25
472.873	308.25
473.092	315.25
473.311	301.25
473.53	324.25
473.749	318.25
473.968	346.25
474.187	450.25
474.406	449.25
474.625	343.25
474.844	326.25
475.063	312.25
475.282	326.25
475.501	321.25
475.72	328.25
475.939	321.25
476.158	314.25
476.377	318.25
476.596	310.25
476.814	334.25
477.033	325.25
477.252	324.25
477.471	326.25
477.69	329.25
477.908	318.25
478.127	337.25
478.346	343.25
478.564	348.25
478.783	340.25
479.002	342.25
479.22	363.25
479.439	353.25
479.658	367.25
479.876	377.25
480.095	381.25
480.313	376.25
480.532	388.25
480.751	371.25
480.969	392.25
481.188	440.25
481.406	445.25
481.624	405.25
481.843	390.25
482.061	365.25
482.28	375.25
482.498	368.25
482.717	347.25
482.935	343.25
483.153	362.25
483.372	355.25
483.59	382.25
483.808	364.25
484.027	371.25
484.245	373.25
484.463	360.25
484.681	371.25
484.9	371.25
485.118	348.25
485.336	363.25
485.554	381.25
485.772	350.25
485.99	381.25
486.209	383.25
486.427	388.25
486.645	361.25
486.863	387.25
487.081	393.25
487.299	390.25
487.517	390.25
487.735	377.25
487.953	357.25
488.171	398.25
488.389	395.25
488.607	408.25
488.825	380.25
489.043	396.25
489.261	395.25
489.479	422.25
489.696	394.25
489.914	385.25
490.132	400.25
490.35	404.25
490.568	404.25
490.786	419.25
491.003	408.25
491.221	421.25
491.439	454.25
491.657	442.25
491.874	438.25
492.092	449.25
492.31	447.25
492.527	433.25
492.745	456.25
492.963	454.25
493.18	447.25
493.398	447.25
493.615	454.25
493.833	446.25
494.05	446.25
494.268	456.25
494.485	450.25
494.703	454.25
494.92	443.25
495.138	445.25
495.355	444.25
495.573	460.25
495.79	458.25
496.008	478.25
496.225	466.25
496.442	455.25
496.66	436.25
496.877	459.25
497.094	467.25
497.312	461.25
497.529	464.25
497.746	476.25
497.963	479.25
498.181	490.25
498.398	473.25
498.615	469.25
498.832	488.25
499.049	486.25
499.267	507.25
499.484	507.25
499.701	489.25
499.918	510.25
500.135	549.25
500.352	557.25
500.569	584.25
500.786	569.25
501.003	548.25
501.22	559.25
501.437	546.25
501.654	549.25
501.871	541.25
502.088	550.25
