Data from 1982.PennyLincolnUp.Lamp.En5.5.200Scan.071819.P1_HRD10591_16-45-20-961.txt Node
Date: Thu Jul 18 16:45:20 EDT 2019
User: cochatt
Spectrometer: HR+D1059
Trigger mode: 1
Integration Time (sec): 1.000000E-1
Scans to average: 1
Electric dark correction enabled: true
Nonlinearity correction enabled: false
Boxcar width: 0
XAxis mode: Wavelengths
Number of Pixels in Spectrum: 2048
>>>>>Begin Spectral Data<<<<<
223.165	-22.06
223.4	-22.06
223.635	-22.06
223.869	-21.06
224.104	-12.06
224.338	-14.06
224.573	-12.06
224.808	-17.06
225.042	-3.06
225.277	-12.06
225.511	-12.06
225.746	2.94
225.98	3.94
226.215	20.94
226.449	16.94
226.683	11.94
226.918	31.94
227.152	36.94
227.387	32.94
227.621	31.94
227.856	31.94
228.09	43.94
228.324	42.94
228.559	49.94
228.793	63.94
229.027	93.94
229.262	67.94
229.496	94.94
229.73	105.94
229.964	114.94
230.199	100.94
230.433	94.94
230.667	114.94
230.901	98.94
231.136	110.94
231.37	92.94
231.604	80.94
231.838	98.94
232.072	106.94
232.306	88.94
232.541	100.94
232.775	110.94
233.009	110.94
233.243	93.94
233.477	104.94
233.711	102.94
233.945	107.94
234.179	108.94
234.413	107.94
234.647	106.94
234.881	116.94
235.115	98.94
235.349	90.94
235.583	103.94
235.817	100.94
236.051	101.94
236.285	104.94
236.519	104.94
236.753	119.94
236.987	124.94
237.221	148.94
237.455	158.94
237.689	124.94
237.922	118.94
238.156	107.94
238.39	99.94
238.624	119.94
238.858	105.94
239.091	103.94
239.325	120.94
239.559	98.94
239.793	111.94
240.027	96.94
240.26	113.94
240.494	122.94
240.728	111.94
240.961	109.94
241.195	112.94
241.429	120.94
241.662	115.94
241.896	107.94
242.13	91.94
242.363	103.94
242.597	111.94
242.83	115.94
243.064	110.94
243.298	98.94
243.531	116.94
243.765	103.94
243.998	114.94
244.232	107.94
244.465	114.94
244.699	96.94
244.932	130.94
245.166	120.94
245.399	116.94
245.633	114.94
245.866	115.94
246.099	112.94
246.333	118.94
246.566	117.94
246.8	133.94
247.033	126.94
247.266	124.94
247.5	128.94
247.733	131.94
247.966	138.94
248.2	138.94
248.433	128.94
248.666	132.94
248.899	142.94
249.133	154.94
249.366	161.94
249.599	160.94
249.832	153.94
250.066	132.94
250.299	140.94
250.532	153.94
250.765	153.94
250.998	156.94
251.231	163.94
251.465	152.94
251.698	138.94
251.931	160.94
252.164	146.94
252.397	152.94
252.63	152.94
252.863	159.94
253.096	155.94
253.329	182.94
253.562	176.94
253.795	166.94
254.028	160.94
254.261	151.94
254.494	156.94
254.727	191.94
254.96	217.94
255.193	208.94
255.426	191.94
255.659	178.94
255.892	165.94
256.124	170.94
256.357	160.94
256.59	177.94
256.823	154.94
257.056	160.94
257.289	161.94
257.521	159.94
257.754	175.94
257.987	162.94
258.22	160.94
258.452	152.94
258.685	148.94
258.918	158.94
259.151	152.94
259.383	162.94
259.616	163.94
259.849	170.94
260.081	182.94
260.314	184.94
260.547	190.94
260.779	182.94
261.012	171.94
261.244	168.94
261.477	182.94
261.71	170.94
261.942	154.94
262.175	156.94
262.407	155.94
262.64	165.94
262.872	170.94
263.105	158.94
263.337	158.94
263.57	162.94
263.802	174.94
264.035	171.94
264.267	150.94
264.499	172.94
264.732	154.94
264.964	166.94
265.197	161.94
265.429	166.94
265.661	161.94
265.894	152.94
266.126	170.94
266.358	161.94
266.591	168.94
266.823	162.94
267.055	177.94
267.287	171.94
267.52	167.94
267.752	175.94
267.984	165.94
268.216	182.94
268.448	168.94
268.681	175.94
268.913	186.94
269.145	184.94
269.377	182.94
269.609	184.94
269.841	208.94
270.073	202.94
270.306	213.94
270.538	255.94
270.77	247.94
271.002	223.94
271.234	209.94
271.466	243.94
271.698	225.94
271.93	226.94
272.162	228.94
272.394	213.94
272.626	222.94
272.858	202.94
273.09	209.94
273.322	194.94
273.553	187.94
273.785	194.94
274.017	194.94
274.249	212.94
274.481	207.94
274.713	192.94
274.945	206.94
275.176	191.94
275.408	209.94
275.64	215.94
275.872	181.94
276.104	187.94
276.335	187.94
276.567	217.94
276.799	215.94
277.031	217.94
277.262	246.94
277.494	232.94
277.726	213.94
277.957	219.94
278.189	190.94
278.421	208.94
278.652	200.94
278.884	191.94
279.115	209.94
279.347	201.94
279.579	211.94
279.81	211.94
280.042	208.94
280.273	186.94
280.505	201.94
280.736	209.94
280.968	208.94
281.199	189.94
281.431	192.94
281.662	203.94
281.894	186.94
282.125	202.94
282.356	202.94
282.588	204.94
282.819	218.94
283.051	203.94
283.282	190.94
283.513	200.94
283.745	201.94
283.976	202.94
284.207	218.94
284.439	210.94
284.67	193.94
284.901	191.94
285.132	197.94
285.364	192.94
285.595	192.94
285.826	193.94
286.057	196.94
286.288	212.94
286.52	211.94
286.751	209.94
286.982	227.94
287.213	191.94
287.444	218.94
287.675	212.94
287.906	207.94
288.138	208.94
288.369	224.94
288.6	226.94
288.831	203.94
289.062	216.94
289.293	190.94
289.524	211.94
289.755	195.94
289.986	203.94
290.217	217.94
290.448	212.94
290.679	212.94
290.91	213.94
291.141	212.94
291.371	193.94
291.602	212.94
291.833	200.94
292.064	209.94
292.295	207.94
292.526	218.94
292.757	215.94
292.987	208.94
293.218	227.94
293.449	216.94
293.68	225.94
293.91	209.94
294.141	194.94
294.372	204.94
294.603	202.94
294.833	215.94
295.064	212.94
295.295	209.94
295.525	210.94
295.756	226.94
295.987	209.94
296.217	231.94
296.448	246.94
296.679	234.94
296.909	224.94
297.14	208.94
297.37	221.94
297.601	198.94
297.831	224.94
298.062	208.94
298.292	203.94
298.523	225.94
298.753	218.94
298.984	219.94
299.214	214.94
299.445	210.94
299.675	219.94
299.905	229.94
300.136	216.94
300.366	219.94
300.597	215.94
300.827	231.94
301.057	229.94
301.288	238.94
301.518	226.94
301.748	228.94
301.979	242.94
302.209	218.94
302.439	224.94
302.669	218.94
302.9	250.94
303.13	230.94
303.36	234.94
303.59	226.94
303.82	232.94
304.051	243.94
304.281	228.94
304.511	214.94
304.741	217.94
304.971	225.94
305.201	236.94
305.431	226.94
305.661	238.94
305.891	231.94
306.121	215.94
306.352	225.94
306.582	233.94
306.812	234.94
307.042	228.94
307.272	229.94
307.502	232.94
307.731	235.94
307.961	226.94
308.191	235.94
308.421	236.94
308.651	242.94
308.881	260.94
309.111	244.94
309.341	254.94
309.571	262.94
309.8	251.94
310.03	263.94
310.26	261.94
310.49	264.94
310.72	289.94
310.949	286.94
311.179	283.94
311.409	265.94
311.639	259.94
311.868	284.94
312.098	262.94
312.328	268.94
312.557	311.94
312.787	264.94
313.017	283.94
313.246	267.94
313.476	259.94
313.706	276.94
313.935	287.94
314.165	288.94
314.394	293.94
314.624	280.94
314.853	283.94
315.083	293.94
315.312	259.94
315.542	285.94
315.771	273.94
316.001	284.94
316.23	265.94
316.46	278.94
316.689	263.94
316.919	273.94
317.148	276.94
317.377	304.94
317.607	279.94
317.836	280.94
318.065	270.94
318.295	281.94
318.524	288.94
318.753	262.94
318.983	263.94
319.212	278.94
319.441	284.94
319.67	283.94
319.9	270.94
320.129	260.94
320.358	268.94
320.587	289.94
320.816	284.94
321.046	307.94
321.275	296.94
321.504	292.94
321.733	267.94
321.962	297.94
322.191	293.94
322.42	307.94
322.649	326.94
322.878	322.94
323.108	316.94
323.337	343.94
323.566	360.94
323.795	400.94
324.024	458.94
324.253	542.94
324.482	770.94
324.71	1152.94
324.939	1476.94
325.168	1198.94
325.397	654.94
325.626	467.94
325.855	388.94
326.084	375.94
326.313	352.94
326.542	355.94
326.77	418.94
326.999	483.94
327.228	688.94
327.457	967.94
327.686	1070.94
327.914	712.94
328.143	480.94
328.372	446.94
328.6	410.94
328.829	393.94
329.058	397.94
329.287	391.94
329.515	372.94
329.744	362.94
329.972	358.94
330.201	379.94
330.43	394.94
330.658	388.94
330.887	416.94
331.115	390.94
331.344	370.94
331.572	345.94
331.801	340.94
332.03	338.94
332.258	336.94
332.486	327.94
332.715	298.94
332.943	297.94
333.172	315.94
333.4	326.94
333.629	338.94
333.857	328.94
334.085	328.94
334.314	360.94
334.542	357.94
334.771	352.94
334.999	335.94
335.227	323.94
335.455	320.94
335.684	314.94
335.912	305.94
336.14	307.94
336.369	312.94
336.597	314.94
336.825	310.94
337.053	287.94
337.281	295.94
337.51	287.94
337.738	302.94
337.966	284.94
338.194	310.94
338.422	312.94
338.65	294.94
338.878	296.94
339.106	292.94
339.334	303.94
339.562	295.94
339.79	293.94
340.018	298.94
340.246	288.94
340.474	291.94
340.702	294.94
340.93	294.94
341.158	294.94
341.386	288.94
341.614	302.94
341.842	312.94
342.07	319.94
342.298	272.94
342.526	294.94
342.754	269.94
342.981	281.94
343.209	306.94
343.437	304.94
343.665	295.94
343.893	297.94
344.12	292.94
344.348	294.94
344.576	295.94
344.804	298.94
345.031	298.94
345.259	296.94
345.487	294.94
345.714	296.94
345.942	294.94
346.17	298.94
346.397	292.94
346.625	272.94
346.853	296.94
347.08	302.94
347.308	303.94
347.535	298.94
347.763	319.94
347.99	291.94
348.218	312.94
348.445	287.94
348.673	297.94
348.9	290.94
349.128	288.94
349.355	279.94
349.583	259.94
349.81	275.94
350.037	279.94
350.265	285.94
350.492	285.94
350.72	284.94
350.947	279.94
351.174	274.94
351.402	282.94
351.629	290.94
351.856	302.94
352.083	294.94
352.311	297.94
352.538	313.94
352.765	316.94
352.992	292.94
353.22	286.94
353.447	294.94
353.674	281.94
353.901	294.94
354.128	270.94
354.355	258.94
354.583	280.94
354.81	276.94
355.037	270.94
355.264	263.94
355.491	271.94
355.718	240.94
355.945	272.94
356.172	263.94
356.399	282.94
356.626	258.94
356.853	254.94
357.08	246.94
357.307	252.94
357.534	255.94
357.761	265.94
357.988	264.94
358.215	236.94
358.441	266.94
358.668	262.94
358.895	260.94
359.122	282.94
359.349	264.94
359.576	268.94
359.802	302.94
360.029	339.94
360.256	315.94
360.483	286.94
360.709	275.94
360.936	302.94
361.163	281.94
361.39	285.94
361.616	288.94
361.843	273.94
362.07	264.94
362.296	290.94
362.523	274.94
362.749	283.94
362.976	285.94
363.203	281.94
363.429	273.94
363.656	265.94
363.882	266.94
364.109	259.94
364.335	280.94
364.562	258.94
364.788	288.94
365.015	261.94
365.241	278.94
365.468	270.94
365.694	289.94
365.92	267.94
366.147	268.94
366.373	264.94
366.599	249.94
366.826	264.94
367.052	277.94
367.278	274.94
367.505	269.94
367.731	258.94
367.957	266.94
368.184	269.94
368.41	272.94
368.636	264.94
368.862	275.94
369.089	270.94
369.315	278.94
369.541	263.94
369.767	279.94
369.993	281.94
370.219	259.94
370.445	269.94
370.672	262.94
370.898	267.94
371.124	262.94
371.35	259.94
371.576	259.94
371.802	257.94
372.028	254.94
372.254	264.94
372.48	266.94
372.706	261.94
372.932	252.94
373.158	262.94
373.384	296.94
373.61	270.94
373.835	267.94
374.061	258.94
374.287	274.94
374.513	274.94
374.739	254.94
374.965	266.94
375.191	250.94
375.416	296.94
375.642	268.94
375.868	253.94
376.094	276.94
376.319	264.94
376.545	244.94
376.771	259.94
376.997	260.94
377.222	247.94
377.448	246.94
377.674	268.94
377.899	267.94
378.125	259.94
378.35	265.94
378.576	243.94
378.802	266.94
379.027	260.94
379.253	269.94
379.478	260.94
379.704	274.94
379.929	268.94
380.155	261.94
380.38	274.94
380.606	262.94
380.831	254.94
381.057	268.94
381.282	262.94
381.507	269.94
381.733	272.94
381.958	239.94
382.184	246.94
382.409	259.94
382.634	279.94
382.86	252.94
383.085	255.94
383.31	262.94
383.535	267.94
383.761	262.94
383.986	252.94
384.211	266.94
384.436	278.94
384.662	276.94
384.887	273.94
385.112	269.94
385.337	277.94
385.562	259.94
385.787	285.94
386.013	297.94
386.238	274.94
386.463	280.94
386.688	256.94
386.913	275.94
387.138	280.94
387.363	259.94
387.588	267.94
387.813	251.94
388.038	281.94
388.263	268.94
388.488	264.94
388.713	275.94
388.938	268.94
389.163	266.94
389.387	265.94
389.612	281.94
389.837	274.94
390.062	273.94
390.287	283.94
390.512	259.94
390.736	266.94
390.961	271.94
391.186	254.94
391.411	290.94
391.636	275.94
391.86	266.94
392.085	274.94
392.31	272.94
392.534	286.94
392.759	278.94
392.984	260.94
393.208	284.94
393.433	280.94
393.658	273.94
393.882	264.94
394.107	248.94
394.331	264.94
394.556	270.94
394.78	289.94
395.005	267.94
395.229	276.94
395.454	290.94
395.678	282.94
395.903	286.94
396.127	289.94
396.352	299.94
396.576	270.94
396.801	281.94
397.025	277.94
397.249	271.94
397.474	277.94
397.698	276.94
397.922	280.94
398.147	287.94
398.371	297.94
398.595	298.94
398.82	318.94
399.044	314.94
399.268	309.94
399.492	318.94
399.717	325.94
399.941	345.94
400.165	355.94
400.389	350.94
400.613	314.94
400.837	300.94
401.062	304.94
401.286	306.94
401.51	292.94
401.734	299.94
401.958	304.94
402.182	311.94
402.406	329.94
402.63	289.94
402.854	281.94
403.078	297.94
403.302	296.94
403.526	292.94
403.75	306.94
403.974	304.94
404.198	306.94
404.422	306.94
404.645	299.94
404.869	324.94
405.093	328.94
405.317	367.94
405.541	370.94
405.765	338.94
405.988	307.94
406.212	336.94
406.436	336.94
406.66	336.94
406.883	326.94
407.107	352.94
407.331	374.94
407.555	396.94
407.778	411.94
408.002	357.94
408.226	336.94
408.449	337.94
408.673	320.94
408.896	355.94
409.12	389.94
409.344	355.94
409.567	328.94
409.791	310.94
410.014	311.94
410.238	318.94
410.461	330.94
410.685	316.94
410.908	329.94
411.132	313.94
411.355	350.94
411.578	341.94
411.802	310.94
412.025	328.94
412.249	285.94
412.472	331.94
412.695	342.94
412.919	359.94
413.142	321.94
413.365	306.94
413.589	286.94
413.812	289.94
414.035	296.94
414.258	293.94
414.482	293.94
414.705	273.94
414.928	285.94
415.151	288.94
415.374	302.94
415.597	287.94
415.821	294.94
416.044	283.94
416.267	286.94
416.49	290.94
416.713	292.94
416.936	302.94
417.159	303.94
417.382	295.94
417.605	295.94
417.828	304.94
418.051	296.94
418.274	310.94
418.497	306.94
418.72	310.94
418.943	302.94
419.166	298.94
419.389	308.94
419.611	307.94
419.834	311.94
420.057	304.94
420.28	299.94
420.503	302.94
420.726	299.94
420.948	298.94
421.171	329.94
421.394	323.94
421.617	311.94
421.839	306.94
422.062	299.94
422.285	320.94
422.507	366.94
422.73	376.94
422.953	359.94
423.175	328.94
423.398	325.94
423.621	320.94
423.843	323.94
424.066	318.94
424.288	306.94
424.511	343.94
424.733	378.94
424.956	412.94
425.178	412.94
425.401	405.94
425.623	402.94
425.846	339.94
426.068	329.94
426.291	320.94
426.513	334.94
426.735	345.94
426.958	367.94
427.18	407.94
427.402	483.94
427.625	518.94
427.847	456.94
428.069	387.94
428.292	371.94
428.514	347.94
428.736	336.94
428.958	313.94
429.181	307.94
429.403	306.94
429.625	328.94
429.847	347.94
430.069	372.94
430.292	357.94
430.514	325.94
430.736	300.94
430.958	318.94
431.18	311.94
431.402	298.94
431.624	294.94
431.846	297.94
432.068	288.94
432.29	296.94
432.512	293.94
432.734	295.94
432.956	291.94
433.178	279.94
433.4	315.94
433.622	292.94
433.844	286.94
434.066	287.94
434.287	272.94
434.509	277.94
434.731	306.94
434.953	321.94
435.175	312.94
435.397	326.94
435.618	325.94
435.84	350.94
436.062	407.94
436.284	454.94
436.505	373.94
436.727	326.94
436.949	311.94
437.17	327.94
437.392	313.94
437.614	322.94
437.835	339.94
438.057	406.94
438.278	449.94
438.5	457.94
438.721	471.94
438.943	458.94
439.165	394.94
439.386	344.94
439.608	339.94
439.829	333.94
440.05	347.94
440.272	387.94
440.493	350.94
440.715	318.94
440.936	310.94
441.158	310.94
441.379	320.94
441.6	319.94
441.822	322.94
442.043	347.94
442.264	404.94
442.486	432.94
442.707	372.94
442.928	339.94
443.149	349.94
443.371	369.94
443.592	378.94
443.813	424.94
444.034	454.94
444.255	395.94
444.476	341.94
444.698	330.94
444.919	328.94
445.14	420.94
445.361	375.94
445.582	358.94
445.803	402.94
446.024	452.94
446.245	455.94
446.466	452.94
446.687	346.94
446.908	306.94
447.129	328.94
447.35	326.94
447.571	303.94
447.792	329.94
448.013	320.94
448.234	338.94
448.455	354.94
448.675	408.94
448.896	459.94
449.117	409.94
449.338	393.94
449.559	453.94
449.779	507.94
450	400.94
450.221	349.94
450.442	330.94
450.662	300.94
450.883	330.94
451.104	313.94
451.324	311.94
451.545	299.94
451.766	287.94
451.986	282.94
452.207	289.94
452.428	284.94
452.648	272.94
452.869	279.94
453.089	272.94
453.31	292.94
453.53	279.94
453.751	281.94
453.971	292.94
454.192	294.94
454.412	276.94
454.633	296.94
454.853	281.94
455.073	280.94
455.294	302.94
455.514	330.94
455.734	320.94
455.955	283.94
456.175	259.94
456.395	268.94
456.616	273.94
456.836	252.94
457.056	263.94
457.276	247.94
457.497	252.94
457.717	275.94
457.937	279.94
458.157	267.94
458.377	263.94
458.598	286.94
458.818	338.94
459.038	362.94
459.258	368.94
459.478	314.94
459.698	295.94
459.918	303.94
460.138	291.94
460.358	278.94
460.578	288.94
460.798	286.94
461.018	299.94
461.238	306.94
461.458	291.94
461.678	291.94
461.898	291.94
462.118	289.94
462.338	292.94
462.558	316.94
462.777	293.94
462.997	304.94
463.217	306.94
463.437	319.94
463.657	319.94
463.876	308.94
464.096	308.94
464.316	302.94
464.536	309.94
464.755	306.94
464.975	314.94
465.195	346.94
465.414	370.94
465.634	349.94
465.854	314.94
466.073	297.94
466.293	295.94
466.512	275.94
466.732	281.94
466.951	282.94
467.171	272.94
467.391	271.94
467.61	288.94
467.829	289.94
468.049	288.94
468.268	261.94
468.488	282.94
468.707	285.94
468.927	277.94
469.146	268.94
469.365	278.94
469.585	274.94
469.804	280.94
470.023	288.94
470.243	300.94
470.462	293.94
470.681	310.94
470.901	284.94
471.12	297.94
471.339	291.94
471.558	279.94
471.777	296.94
471.997	282.94
472.216	292.94
472.435	306.94
472.654	304.94
472.873	289.94
473.092	284.94
473.311	272.94
473.53	290.94
473.749	302.94
473.968	346.94
474.187	394.94
474.406	395.94
474.625	316.94
474.844	307.94
475.063	265.94
475.282	290.94
475.501	283.94
475.72	291.94
475.939	308.94
476.158	302.94
476.377	313.94
476.596	274.94
476.814	304.94
477.033	304.94
477.252	306.94
477.471	307.94
477.69	286.94
477.908	302.94
478.127	314.94
478.346	311.94
478.564	312.94
478.783	296.94
479.002	315.94
479.22	318.94
479.439	328.94
479.658	322.94
479.876	351.94
480.095	316.94
480.313	364.94
480.532	352.94
480.751	350.94
480.969	352.94
481.188	373.94
481.406	390.94
481.624	348.94
481.843	328.94
482.061	327.94
482.28	343.94
482.498	344.94
482.717	312.94
482.935	328.94
483.153	317.94
483.372	336.94
483.59	349.94
483.808	315.94
484.027	307.94
484.245	327.94
484.463	320.94
484.681	326.94
484.9	319.94
485.118	357.94
485.336	347.94
485.554	349.94
485.772	331.94
485.99	335.94
486.209	341.94
486.427	344.94
486.645	355.94
486.863	366.94
487.081	366.94
487.299	362.94
487.517	356.94
487.735	356.94
487.953	367.94
488.171	345.94
488.389	328.94
488.607	361.94
488.825	341.94
489.043	339.94
489.261	356.94
489.479	374.94
489.696	359.94
489.914	352.94
490.132	357.94
490.35	377.94
490.568	382.94
490.786	366.94
491.003	382.94
491.221	414.94
491.439	396.94
491.657	403.94
491.874	400.94
492.092	413.94
492.31	401.94
492.527	396.94
492.745	390.94
492.963	387.94
493.18	409.94
493.398	412.94
493.615	420.94
493.833	413.94
494.05	379.94
494.268	407.94
494.485	392.94
494.703	410.94
494.92	419.94
495.138	414.94
495.355	414.94
495.573	423.94
495.79	410.94
496.008	420.94
496.225	411.94
496.442	392.94
496.66	421.94
496.877	403.94
497.094	407.94
497.312	407.94
497.529	420.94
497.746	440.94
497.963	424.94
498.181	444.94
498.398	433.94
498.615	447.94
498.832	454.94
499.049	453.94
499.267	456.94
499.484	461.94
499.701	487.94
499.918	507.94
500.135	495.94
500.352	503.94
500.569	507.94
500.786	512.94
501.003	514.94
501.22	498.94
501.437	514.94
501.654	495.94
501.871	478.94
502.088	512.94
