Data from 1982.PennyLincolnUp.Lamp.En5.5.200Scan.071819.P1_HRD10591_16-47-10-963.txt Node
Date: Thu Jul 18 16:47:10 EDT 2019
User: cochatt
Spectrometer: HR+D1059
Trigger mode: 1
Integration Time (sec): 1.000000E-1
Scans to average: 1
Electric dark correction enabled: true
Nonlinearity correction enabled: false
Boxcar width: 0
XAxis mode: Wavelengths
Number of Pixels in Spectrum: 2048
>>>>>Begin Spectral Data<<<<<
223.165	-17.12
223.4	-17.12
223.635	-17.12
223.869	-24.12
224.104	-18.12
224.338	-14.12
224.573	-0.12
224.808	-10.12
225.042	2.88
225.277	-13.12
225.511	-14.12
225.746	12.88
225.98	6.88
226.215	15.88
226.449	13.88
226.683	22.88
226.918	11.88
227.152	23.88
227.387	39.88
227.621	45.88
227.856	59.88
228.09	41.88
228.324	44.88
228.559	70.88
228.793	63.88
229.027	90.88
229.262	91.88
229.496	114.88
229.73	117.88
229.964	117.88
230.199	103.88
230.433	98.88
230.667	111.88
230.901	95.88
231.136	99.88
231.37	87.88
231.604	97.88
231.838	93.88
232.072	96.88
232.306	95.88
232.541	99.88
232.775	118.88
233.009	99.88
233.243	97.88
233.477	97.88
233.711	98.88
233.945	107.88
234.179	105.88
234.413	117.88
234.647	95.88
234.881	100.88
235.115	105.88
235.349	103.88
235.583	104.88
235.817	121.88
236.051	119.88
236.285	120.88
236.519	110.88
236.753	115.88
236.987	131.88
237.221	157.88
237.455	171.88
237.689	152.88
237.922	121.88
238.156	99.88
238.39	122.88
238.624	108.88
238.858	101.88
239.091	122.88
239.325	106.88
239.559	114.88
239.793	115.88
240.027	126.88
240.26	125.88
240.494	137.88
240.728	97.88
240.961	125.88
241.195	118.88
241.429	120.88
241.662	118.88
241.896	129.88
242.13	121.88
242.363	112.88
242.597	107.88
242.83	116.88
243.064	126.88
243.298	94.88
243.531	106.88
243.765	133.88
243.998	119.88
244.232	121.88
244.465	111.88
244.699	129.88
244.932	127.88
245.166	106.88
245.399	115.88
245.633	131.88
245.866	120.88
246.099	137.88
246.333	125.88
246.566	128.88
246.8	120.88
247.033	140.88
247.266	142.88
247.5	150.88
247.733	146.88
247.966	143.88
248.2	142.88
248.433	144.88
248.666	135.88
248.899	164.88
249.133	149.88
249.366	167.88
249.599	155.88
249.832	167.88
250.066	155.88
250.299	158.88
250.532	163.88
250.765	171.88
250.998	177.88
251.231	189.88
251.465	183.88
251.698	171.88
251.931	170.88
252.164	169.88
252.397	155.88
252.63	166.88
252.863	181.88
253.096	173.88
253.329	177.88
253.562	180.88
253.795	181.88
254.028	178.88
254.261	179.88
254.494	186.88
254.727	185.88
254.96	217.88
255.193	216.88
255.426	212.88
255.659	190.88
255.892	190.88
256.124	171.88
256.357	179.88
256.59	190.88
256.823	169.88
257.056	161.88
257.289	173.88
257.521	173.88
257.754	182.88
257.987	163.88
258.22	174.88
258.452	177.88
258.685	177.88
258.918	159.88
259.151	172.88
259.383	173.88
259.616	184.88
259.849	173.88
260.081	205.88
260.314	210.88
260.547	217.88
260.779	187.88
261.012	186.88
261.244	191.88
261.477	181.88
261.71	196.88
261.942	195.88
262.175	194.88
262.407	190.88
262.64	197.88
262.872	160.88
263.105	167.88
263.337	181.88
263.57	178.88
263.802	181.88
264.035	165.88
264.267	166.88
264.499	175.88
264.732	198.88
264.964	172.88
265.197	179.88
265.429	175.88
265.661	185.88
265.894	163.88
266.126	194.88
266.358	181.88
266.591	185.88
266.823	179.88
267.055	176.88
267.287	184.88
267.52	182.88
267.752	166.88
267.984	177.88
268.216	185.88
268.448	198.88
268.681	194.88
268.913	194.88
269.145	215.88
269.377	211.88
269.609	227.88
269.841	212.88
270.073	200.88
270.306	248.88
270.538	242.88
270.77	249.88
271.002	230.88
271.234	236.88
271.466	233.88
271.698	253.88
271.93	243.88
272.162	242.88
272.394	259.88
272.626	238.88
272.858	237.88
273.09	224.88
273.322	197.88
273.553	224.88
273.785	212.88
274.017	202.88
274.249	196.88
274.481	218.88
274.713	190.88
274.945	195.88
275.176	228.88
275.408	214.88
275.64	216.88
275.872	222.88
276.104	215.88
276.335	224.88
276.567	216.88
276.799	230.88
277.031	251.88
277.262	263.88
277.494	248.88
277.726	236.88
277.957	230.88
278.189	223.88
278.421	229.88
278.652	209.88
278.884	200.88
279.115	219.88
279.347	204.88
279.579	223.88
279.81	225.88
280.042	227.88
280.273	201.88
280.505	219.88
280.736	217.88
280.968	204.88
281.199	214.88
281.431	201.88
281.662	201.88
281.894	207.88
282.125	205.88
282.356	217.88
282.588	241.88
282.819	222.88
283.051	235.88
283.282	220.88
283.513	221.88
283.745	213.88
283.976	213.88
284.207	230.88
284.439	221.88
284.67	223.88
284.901	232.88
285.132	226.88
285.364	229.88
285.595	218.88
285.826	222.88
286.057	203.88
286.288	219.88
286.52	240.88
286.751	214.88
286.982	218.88
287.213	220.88
287.444	226.88
287.675	235.88
287.906	241.88
288.138	234.88
288.369	220.88
288.6	229.88
288.831	219.88
289.062	231.88
289.293	221.88
289.524	228.88
289.755	227.88
289.986	220.88
290.217	234.88
290.448	242.88
290.679	199.88
290.91	214.88
291.141	215.88
291.371	224.88
291.602	237.88
291.833	235.88
292.064	217.88
292.295	226.88
292.526	224.88
292.757	232.88
292.987	229.88
293.218	227.88
293.449	214.88
293.68	227.88
293.91	225.88
294.141	219.88
294.372	231.88
294.603	222.88
294.833	235.88
295.064	222.88
295.295	238.88
295.525	224.88
295.756	242.88
295.987	228.88
296.217	243.88
296.448	260.88
296.679	239.88
296.909	227.88
297.14	232.88
297.37	235.88
297.601	223.88
297.831	233.88
298.062	220.88
298.292	217.88
298.523	246.88
298.753	246.88
298.984	239.88
299.214	243.88
299.445	235.88
299.675	234.88
299.905	238.88
300.136	242.88
300.366	231.88
300.597	241.88
300.827	254.88
301.057	243.88
301.288	262.88
301.518	247.88
301.748	247.88
301.979	235.88
302.209	256.88
302.439	264.88
302.669	238.88
302.9	244.88
303.13	237.88
303.36	281.88
303.59	272.88
303.82	252.88
304.051	273.88
304.281	261.88
304.511	246.88
304.741	247.88
304.971	251.88
305.201	275.88
305.431	249.88
305.661	243.88
305.891	238.88
306.121	256.88
306.352	259.88
306.582	250.88
306.812	250.88
307.042	253.88
307.272	250.88
307.502	255.88
307.731	244.88
307.961	233.88
308.191	238.88
308.421	250.88
308.651	236.88
308.881	260.88
309.111	265.88
309.341	271.88
309.571	282.88
309.8	295.88
310.03	282.88
310.26	298.88
310.49	295.88
310.72	292.88
310.949	324.88
311.179	301.88
311.409	310.88
311.639	293.88
311.868	298.88
312.098	307.88
312.328	296.88
312.557	320.88
312.787	313.88
313.017	323.88
313.246	300.88
313.476	300.88
313.706	296.88
313.935	313.88
314.165	306.88
314.394	309.88
314.624	314.88
314.853	304.88
315.083	306.88
315.312	291.88
315.542	272.88
315.771	276.88
316.001	292.88
316.23	297.88
316.46	295.88
316.689	297.88
316.919	297.88
317.148	305.88
317.377	292.88
317.607	285.88
317.836	307.88
318.065	299.88
318.295	297.88
318.524	290.88
318.753	292.88
318.983	288.88
319.212	277.88
319.441	294.88
319.67	298.88
319.9	296.88
320.129	271.88
320.358	309.88
320.587	303.88
320.816	309.88
321.046	328.88
321.275	321.88
321.504	327.88
321.733	315.88
321.962	330.88
322.191	335.88
322.42	353.88
322.649	343.88
322.878	356.88
323.108	359.88
323.337	388.88
323.566	423.88
323.795	422.88
324.024	518.88
324.253	638.88
324.482	932.88
324.71	1357.88
324.939	1756.88
325.168	1447.88
325.397	766.88
325.626	526.88
325.855	439.88
326.084	431.88
326.313	397.88
326.542	412.88
326.77	469.88
326.999	557.88
327.228	789.88
327.457	1168.88
327.686	1308.88
327.914	869.88
328.143	587.88
328.372	513.88
328.6	484.88
328.829	441.88
329.058	465.88
329.287	461.88
329.515	430.88
329.744	404.88
329.972	423.88
330.201	428.88
330.43	459.88
330.658	493.88
330.887	537.88
331.115	475.88
331.344	427.88
331.572	382.88
331.801	374.88
332.03	361.88
332.258	360.88
332.486	355.88
332.715	344.88
332.943	343.88
333.172	348.88
333.4	342.88
333.629	334.88
333.857	356.88
334.085	374.88
334.314	385.88
334.542	399.88
334.771	400.88
334.999	378.88
335.227	345.88
335.455	333.88
335.684	346.88
335.912	353.88
336.14	339.88
336.369	342.88
336.597	349.88
336.825	338.88
337.053	343.88
337.281	346.88
337.51	337.88
337.738	356.88
337.966	362.88
338.194	339.88
338.422	333.88
338.65	326.88
338.878	321.88
339.106	315.88
339.334	326.88
339.562	318.88
339.79	329.88
340.018	316.88
340.246	335.88
340.474	326.88
340.702	307.88
340.93	339.88
341.158	327.88
341.386	322.88
341.614	317.88
341.842	324.88
342.07	325.88
342.298	324.88
342.526	324.88
342.754	305.88
342.981	332.88
343.209	314.88
343.437	314.88
343.665	321.88
343.893	302.88
344.12	316.88
344.348	325.88
344.576	323.88
344.804	307.88
345.031	321.88
345.259	350.88
345.487	330.88
345.714	340.88
345.942	316.88
346.17	315.88
346.397	305.88
346.625	300.88
346.853	302.88
347.08	313.88
347.308	300.88
347.535	312.88
347.763	325.88
347.99	313.88
348.218	314.88
348.445	328.88
348.673	317.88
348.9	319.88
349.128	306.88
349.355	311.88
349.583	318.88
349.81	307.88
350.037	324.88
350.265	306.88
350.492	306.88
350.72	295.88
350.947	309.88
351.174	312.88
351.402	325.88
351.629	313.88
351.856	316.88
352.083	329.88
352.311	321.88
352.538	332.88
352.765	325.88
352.992	323.88
353.22	298.88
353.447	312.88
353.674	284.88
353.901	290.88
354.128	289.88
354.355	282.88
354.583	302.88
354.81	284.88
355.037	275.88
355.264	293.88
355.491	270.88
355.718	279.88
355.945	285.88
356.172	288.88
356.399	270.88
356.626	275.88
356.853	283.88
357.08	296.88
357.307	279.88
357.534	269.88
357.761	278.88
357.988	298.88
358.215	303.88
358.441	276.88
358.668	278.88
358.895	281.88
359.122	290.88
359.349	305.88
359.576	326.88
359.802	338.88
360.029	360.88
360.256	371.88
360.483	330.88
360.709	313.88
360.936	303.88
361.163	310.88
361.39	311.88
361.616	281.88
361.843	308.88
362.07	302.88
362.296	301.88
362.523	315.88
362.749	275.88
362.976	306.88
363.203	307.88
363.429	294.88
363.656	302.88
363.882	286.88
364.109	289.88
364.335	270.88
364.562	298.88
364.788	285.88
365.015	261.88
365.241	289.88
365.468	282.88
365.694	282.88
365.92	299.88
366.147	301.88
366.373	277.88
366.599	294.88
366.826	275.88
367.052	281.88
367.278	281.88
367.505	285.88
367.731	272.88
367.957	274.88
368.184	293.88
368.41	307.88
368.636	303.88
368.862	309.88
369.089	293.88
369.315	276.88
369.541	283.88
369.767	277.88
369.993	286.88
370.219	276.88
370.445	278.88
370.672	284.88
370.898	272.88
371.124	291.88
371.35	277.88
371.576	300.88
371.802	266.88
372.028	269.88
372.254	274.88
372.48	267.88
372.706	272.88
372.932	284.88
373.158	287.88
373.384	275.88
373.61	282.88
373.835	273.88
374.061	274.88
374.287	286.88
374.513	260.88
374.739	275.88
374.965	281.88
375.191	285.88
375.416	269.88
375.642	279.88
375.868	287.88
376.094	286.88
376.319	263.88
376.545	274.88
376.771	278.88
376.997	273.88
377.222	291.88
377.448	297.88
377.674	277.88
377.899	270.88
378.125	268.88
378.35	281.88
378.576	262.88
378.802	272.88
379.027	281.88
379.253	277.88
379.478	270.88
379.704	280.88
379.929	274.88
380.155	276.88
380.38	279.88
380.606	269.88
380.831	273.88
381.057	282.88
381.282	278.88
381.507	271.88
381.733	275.88
381.958	286.88
382.184	279.88
382.409	259.88
382.634	274.88
382.86	249.88
383.085	273.88
383.31	271.88
383.535	285.88
383.761	286.88
383.986	292.88
384.211	286.88
384.436	275.88
384.662	287.88
384.887	283.88
385.112	261.88
385.337	271.88
385.562	293.88
385.787	293.88
386.013	308.88
386.238	295.88
386.463	294.88
386.688	286.88
386.913	279.88
387.138	309.88
387.363	285.88
387.588	277.88
387.813	293.88
388.038	285.88
388.263	285.88
388.488	295.88
388.713	266.88
388.938	291.88
389.163	281.88
389.387	287.88
389.612	267.88
389.837	290.88
390.062	282.88
390.287	286.88
390.512	286.88
390.736	273.88
390.961	272.88
391.186	279.88
391.411	263.88
391.636	281.88
391.86	294.88
392.085	284.88
392.31	289.88
392.534	297.88
392.759	294.88
392.984	282.88
393.208	293.88
393.433	283.88
393.658	293.88
393.882	281.88
394.107	284.88
394.331	290.88
394.556	296.88
394.78	307.88
395.005	284.88
395.229	270.88
395.454	285.88
395.678	298.88
395.903	325.88
396.127	307.88
396.352	320.88
396.576	302.88
396.801	291.88
397.025	294.88
397.249	297.88
397.474	304.88
397.698	296.88
397.922	314.88
398.147	346.88
398.371	332.88
398.595	321.88
398.82	308.88
399.044	301.88
399.268	322.88
399.492	323.88
399.717	322.88
399.941	363.88
400.165	366.88
400.389	366.88
400.613	348.88
400.837	327.88
401.062	335.88
401.286	314.88
401.51	319.88
401.734	309.88
401.958	341.88
402.182	333.88
402.406	316.88
402.63	323.88
402.854	313.88
403.078	327.88
403.302	335.88
403.526	333.88
403.75	335.88
403.974	331.88
404.198	326.88
404.422	334.88
404.645	333.88
404.869	342.88
405.093	344.88
405.317	377.88
405.541	383.88
405.765	372.88
405.988	333.88
406.212	365.88
406.436	367.88
406.66	364.88
406.883	348.88
407.107	370.88
407.331	391.88
407.555	443.88
407.778	413.88
408.002	394.88
408.226	360.88
408.449	366.88
408.673	358.88
408.896	376.88
409.12	401.88
409.344	372.88
409.567	346.88
409.791	333.88
410.014	329.88
410.238	302.88
410.461	325.88
410.685	311.88
410.908	325.88
411.132	336.88
411.355	381.88
411.578	360.88
411.802	327.88
412.025	320.88
412.249	319.88
412.472	328.88
412.695	374.88
412.919	358.88
413.142	317.88
413.365	309.88
413.589	315.88
413.812	313.88
414.035	307.88
414.258	288.88
414.482	291.88
414.705	293.88
414.928	311.88
415.151	289.88
415.374	309.88
415.597	305.88
415.821	293.88
416.044	327.88
416.267	308.88
416.49	308.88
416.713	297.88
416.936	315.88
417.159	303.88
417.382	317.88
417.605	314.88
417.828	307.88
418.051	338.88
418.274	319.88
418.497	309.88
418.72	306.88
418.943	301.88
419.166	300.88
419.389	311.88
419.611	322.88
419.834	323.88
420.057	326.88
420.28	323.88
420.503	334.88
420.726	331.88
420.948	332.88
421.171	361.88
421.394	366.88
421.617	327.88
421.839	329.88
422.062	327.88
422.285	331.88
422.507	365.88
422.73	433.88
422.953	379.88
423.175	372.88
423.398	356.88
423.621	333.88
423.843	334.88
424.066	341.88
424.288	349.88
424.511	349.88
424.733	411.88
424.956	451.88
425.178	410.88
425.401	415.88
425.623	429.88
425.846	385.88
426.068	341.88
426.291	355.88
426.513	339.88
426.735	370.88
426.958	390.88
427.18	426.88
427.402	546.88
427.625	553.88
427.847	505.88
428.069	453.88
428.292	380.88
428.514	339.88
428.736	334.88
428.958	345.88
429.181	313.88
429.403	317.88
429.625	330.88
429.847	349.88
430.069	394.88
430.292	388.88
430.514	339.88
430.736	328.88
430.958	321.88
431.18	317.88
431.402	302.88
431.624	315.88
431.846	298.88
432.068	316.88
432.29	313.88
432.512	290.88
432.734	300.88
432.956	328.88
433.178	332.88
433.4	323.88
433.622	316.88
433.844	324.88
434.066	321.88
434.287	298.88
434.509	317.88
434.731	323.88
434.953	317.88
435.175	343.88
435.397	353.88
435.618	361.88
435.84	398.88
436.062	463.88
436.284	472.88
436.505	408.88
436.727	373.88
436.949	329.88
437.17	322.88
437.392	329.88
437.614	351.88
437.835	359.88
438.057	433.88
438.278	468.88
438.5	484.88
438.721	520.88
438.943	492.88
439.165	400.88
439.386	364.88
439.608	361.88
439.829	366.88
440.05	381.88
440.272	401.88
440.493	389.88
440.715	346.88
440.936	339.88
441.158	323.88
441.379	348.88
441.6	336.88
441.822	344.88
442.043	389.88
442.264	449.88
442.486	442.88
442.707	381.88
442.928	359.88
443.149	368.88
443.371	394.88
443.592	421.88
443.813	466.88
444.034	485.88
444.255	409.88
444.476	371.88
444.698	356.88
444.919	350.88
445.14	435.88
445.361	413.88
445.582	399.88
445.803	440.88
446.024	492.88
446.245	493.88
446.466	466.88
446.687	391.88
446.908	365.88
447.129	332.88
447.35	335.88
447.571	329.88
447.792	328.88
448.013	318.88
448.234	357.88
448.455	383.88
448.675	455.88
448.896	519.88
449.117	429.88
449.338	414.88
449.559	493.88
449.779	539.88
450	438.88
450.221	359.88
450.442	344.88
450.662	337.88
450.883	339.88
451.104	341.88
451.324	333.88
451.545	325.88
451.766	308.88
451.986	281.88
452.207	300.88
452.428	294.88
452.648	300.88
452.869	329.88
453.089	329.88
453.31	324.88
453.53	315.88
453.751	323.88
453.971	307.88
454.192	314.88
454.412	315.88
454.633	307.88
454.853	307.88
455.073	314.88
455.294	312.88
455.514	371.88
455.734	364.88
455.955	303.88
456.175	295.88
456.395	271.88
456.616	273.88
456.836	277.88
457.056	274.88
457.276	267.88
457.497	296.88
457.717	275.88
457.937	298.88
458.157	280.88
458.377	292.88
458.598	312.88
458.818	353.88
459.038	406.88
459.258	422.88
459.478	346.88
459.698	332.88
459.918	324.88
460.138	301.88
460.358	316.88
460.578	301.88
460.798	311.88
461.018	297.88
461.238	309.88
461.458	307.88
461.678	289.88
461.898	311.88
462.118	326.88
462.338	323.88
462.558	300.88
462.777	314.88
462.997	297.88
463.217	317.88
463.437	318.88
463.657	318.88
463.876	321.88
464.096	329.88
464.316	328.88
464.536	310.88
464.755	328.88
464.975	338.88
465.195	366.88
465.414	397.88
465.634	354.88
465.854	329.88
466.073	323.88
466.293	308.88
466.512	308.88
466.732	290.88
466.951	311.88
467.171	306.88
467.391	298.88
467.61	310.88
467.829	305.88
468.049	325.88
468.268	315.88
468.488	324.88
468.707	298.88
468.927	306.88
469.146	299.88
469.365	282.88
469.585	283.88
469.804	298.88
470.023	309.88
470.243	311.88
470.462	317.88
470.681	327.88
470.901	321.88
471.12	315.88
471.339	315.88
471.558	301.88
471.777	298.88
471.997	306.88
472.216	320.88
472.435	330.88
472.654	321.88
472.873	302.88
473.092	295.88
473.311	283.88
473.53	305.88
473.749	312.88
473.968	358.88
474.187	401.88
474.406	420.88
474.625	349.88
474.844	326.88
475.063	309.88
475.282	310.88
475.501	325.88
475.72	307.88
475.939	303.88
476.158	315.88
476.377	313.88
476.596	297.88
476.814	320.88
477.033	335.88
477.252	330.88
477.471	318.88
477.69	315.88
477.908	324.88
478.127	310.88
478.346	321.88
478.564	311.88
478.783	321.88
479.002	320.88
479.22	345.88
479.439	361.88
479.658	362.88
479.876	350.88
480.095	365.88
480.313	382.88
480.532	366.88
480.751	370.88
480.969	358.88
481.188	415.88
481.406	443.88
481.624	400.88
481.843	369.88
482.061	364.88
482.28	367.88
482.498	354.88
482.717	342.88
482.935	362.88
483.153	350.88
483.372	361.88
483.59	355.88
483.808	364.88
484.027	361.88
484.245	368.88
484.463	363.88
484.681	356.88
484.9	360.88
485.118	350.88
485.336	346.88
485.554	361.88
485.772	363.88
485.99	356.88
486.209	361.88
486.427	365.88
486.645	358.88
486.863	393.88
487.081	356.88
487.299	380.88
487.517	393.88
487.735	364.88
487.953	355.88
488.171	379.88
488.389	375.88
488.607	364.88
488.825	375.88
489.043	383.88
489.261	377.88
489.479	383.88
489.696	397.88
489.914	382.88
490.132	392.88
490.35	381.88
490.568	395.88
490.786	412.88
491.003	417.88
491.221	407.88
491.439	399.88
491.657	442.88
491.874	414.88
492.092	425.88
492.31	439.88
492.527	433.88
492.745	443.88
492.963	443.88
493.18	404.88
493.398	424.88
493.615	433.88
493.833	446.88
494.05	451.88
494.268	427.88
494.485	435.88
494.703	440.88
494.92	446.88
495.138	444.88
495.355	441.88
495.573	453.88
495.79	436.88
496.008	450.88
496.225	451.88
496.442	451.88
496.66	428.88
496.877	449.88
497.094	438.88
497.312	466.88
497.529	434.88
497.746	482.88
497.963	459.88
498.181	467.88
498.398	474.88
498.615	479.88
498.832	476.88
499.049	483.88
499.267	481.88
499.484	479.88
499.701	495.88
499.918	513.88
500.135	526.88
500.352	540.88
500.569	541.88
500.786	561.88
501.003	545.88
501.22	533.88
501.437	528.88
501.654	515.88
501.871	522.88
502.088	508.88
