Data from 1982.PennyLincolnUp.Lamp.En5.5.200Scan.071819.P1_HRD10591_16-45-08-962.txt Node
Date: Thu Jul 18 16:45:08 EDT 2019
User: cochatt
Spectrometer: HR+D1059
Trigger mode: 1
Integration Time (sec): 1.000000E-1
Scans to average: 1
Electric dark correction enabled: true
Nonlinearity correction enabled: false
Boxcar width: 0
XAxis mode: Wavelengths
Number of Pixels in Spectrum: 2048
>>>>>Begin Spectral Data<<<<<
223.165	-11.06
223.4	-11.06
223.635	-11.06
223.869	-14.06
224.104	-4.06
224.338	-27.06
224.573	-22.06
224.808	-15.06
225.042	-12.06
225.277	1.94
225.511	-2.06
225.746	-0.06
225.98	4.94
226.215	3.94
226.449	24.94
226.683	26.94
226.918	14.94
227.152	29.94
227.387	31.94
227.621	22.94
227.856	35.94
228.09	51.94
228.324	41.94
228.559	52.94
228.793	62.94
229.027	89.94
229.262	91.94
229.496	95.94
229.73	101.94
229.964	125.94
230.199	98.94
230.433	94.94
230.667	87.94
230.901	100.94
231.136	93.94
231.37	89.94
231.604	91.94
231.838	92.94
232.072	99.94
232.306	102.94
232.541	91.94
232.775	107.94
233.009	107.94
233.243	109.94
233.477	103.94
233.711	94.94
233.945	104.94
234.179	101.94
234.413	104.94
234.647	95.94
234.881	106.94
235.115	97.94
235.349	94.94
235.583	93.94
235.817	103.94
236.051	111.94
236.285	93.94
236.519	108.94
236.753	102.94
236.987	108.94
237.221	135.94
237.455	167.94
237.689	143.94
237.922	108.94
238.156	106.94
238.39	94.94
238.624	100.94
238.858	122.94
239.091	107.94
239.325	101.94
239.559	93.94
239.793	95.94
240.027	126.94
240.26	103.94
240.494	121.94
240.728	123.94
240.961	116.94
241.195	110.94
241.429	109.94
241.662	108.94
241.896	106.94
242.13	123.94
242.363	110.94
242.597	114.94
242.83	107.94
243.064	124.94
243.298	118.94
243.531	120.94
243.765	105.94
243.998	111.94
244.232	113.94
244.465	107.94
244.699	108.94
244.932	125.94
245.166	118.94
245.399	109.94
245.633	99.94
245.866	110.94
246.099	108.94
246.333	123.94
246.566	103.94
246.8	103.94
247.033	117.94
247.266	131.94
247.5	122.94
247.733	114.94
247.966	139.94
248.2	141.94
248.433	141.94
248.666	136.94
248.899	141.94
249.133	145.94
249.366	155.94
249.599	143.94
249.832	138.94
250.066	144.94
250.299	147.94
250.532	153.94
250.765	161.94
250.998	161.94
251.231	173.94
251.465	142.94
251.698	147.94
251.931	129.94
252.164	147.94
252.397	135.94
252.63	159.94
252.863	158.94
253.096	171.94
253.329	169.94
253.562	158.94
253.795	162.94
254.028	171.94
254.261	155.94
254.494	182.94
254.727	180.94
254.96	183.94
255.193	190.94
255.426	189.94
255.659	143.94
255.892	172.94
256.124	174.94
256.357	158.94
256.59	155.94
256.823	149.94
257.056	144.94
257.289	158.94
257.521	152.94
257.754	161.94
257.987	134.94
258.22	147.94
258.452	156.94
258.685	148.94
258.918	129.94
259.151	162.94
259.383	179.94
259.616	156.94
259.849	156.94
260.081	188.94
260.314	182.94
260.547	178.94
260.779	168.94
261.012	164.94
261.244	173.94
261.477	163.94
261.71	165.94
261.942	155.94
262.175	176.94
262.407	169.94
262.64	152.94
262.872	150.94
263.105	158.94
263.337	165.94
263.57	157.94
263.802	147.94
264.035	153.94
264.267	155.94
264.499	162.94
264.732	156.94
264.964	155.94
265.197	157.94
265.429	161.94
265.661	160.94
265.894	174.94
266.126	164.94
266.358	153.94
266.591	149.94
266.823	153.94
267.055	170.94
267.287	173.94
267.52	172.94
267.752	179.94
267.984	165.94
268.216	165.94
268.448	167.94
268.681	196.94
268.913	172.94
269.145	188.94
269.377	210.94
269.609	207.94
269.841	189.94
270.073	204.94
270.306	211.94
270.538	211.94
270.77	214.94
271.002	213.94
271.234	204.94
271.466	203.94
271.698	208.94
271.93	207.94
272.162	202.94
272.394	222.94
272.626	219.94
272.858	206.94
273.09	185.94
273.322	197.94
273.553	201.94
273.785	179.94
274.017	177.94
274.249	184.94
274.481	193.94
274.713	206.94
274.945	193.94
275.176	185.94
275.408	185.94
275.64	202.94
275.872	184.94
276.104	191.94
276.335	193.94
276.567	193.94
276.799	198.94
277.031	211.94
277.262	211.94
277.494	214.94
277.726	211.94
277.957	206.94
278.189	201.94
278.421	186.94
278.652	180.94
278.884	183.94
279.115	197.94
279.347	177.94
279.579	181.94
279.81	178.94
280.042	197.94
280.273	193.94
280.505	182.94
280.736	186.94
280.968	182.94
281.199	189.94
281.431	196.94
281.662	185.94
281.894	185.94
282.125	204.94
282.356	181.94
282.588	214.94
282.819	204.94
283.051	187.94
283.282	183.94
283.513	205.94
283.745	193.94
283.976	197.94
284.207	206.94
284.439	214.94
284.67	207.94
284.901	181.94
285.132	180.94
285.364	184.94
285.595	188.94
285.826	191.94
286.057	202.94
286.288	183.94
286.52	199.94
286.751	193.94
286.982	201.94
287.213	198.94
287.444	185.94
287.675	197.94
287.906	210.94
288.138	221.94
288.369	206.94
288.6	218.94
288.831	204.94
289.062	212.94
289.293	206.94
289.524	188.94
289.755	201.94
289.986	180.94
290.217	198.94
290.448	187.94
290.679	201.94
290.91	206.94
291.141	197.94
291.371	218.94
291.602	205.94
291.833	197.94
292.064	203.94
292.295	203.94
292.526	206.94
292.757	211.94
292.987	214.94
293.218	190.94
293.449	202.94
293.68	206.94
293.91	201.94
294.141	211.94
294.372	199.94
294.603	200.94
294.833	201.94
295.064	202.94
295.295	207.94
295.525	217.94
295.756	211.94
295.987	204.94
296.217	229.94
296.448	222.94
296.679	219.94
296.909	198.94
297.14	200.94
297.37	212.94
297.601	227.94
297.831	217.94
298.062	204.94
298.292	205.94
298.523	212.94
298.753	216.94
298.984	221.94
299.214	202.94
299.445	223.94
299.675	210.94
299.905	225.94
300.136	211.94
300.366	198.94
300.597	224.94
300.827	213.94
301.057	217.94
301.288	213.94
301.518	222.94
301.748	220.94
301.979	235.94
302.209	223.94
302.439	222.94
302.669	217.94
302.9	228.94
303.13	227.94
303.36	223.94
303.59	214.94
303.82	240.94
304.051	230.94
304.281	220.94
304.511	234.94
304.741	229.94
304.971	209.94
305.201	229.94
305.431	226.94
305.661	230.94
305.891	237.94
306.121	220.94
306.352	218.94
306.582	225.94
306.812	225.94
307.042	225.94
307.272	231.94
307.502	236.94
307.731	239.94
307.961	230.94
308.191	223.94
308.421	238.94
308.651	235.94
308.881	244.94
309.111	244.94
309.341	239.94
309.571	248.94
309.8	245.94
310.03	234.94
310.26	272.94
310.49	269.94
310.72	257.94
310.949	254.94
311.179	277.94
311.409	254.94
311.639	255.94
311.868	263.94
312.098	263.94
312.328	259.94
312.557	264.94
312.787	251.94
313.017	273.94
313.246	281.94
313.476	269.94
313.706	255.94
313.935	277.94
314.165	254.94
314.394	257.94
314.624	259.94
314.853	270.94
315.083	254.94
315.312	248.94
315.542	255.94
315.771	242.94
316.001	253.94
316.23	259.94
316.46	266.94
316.689	250.94
316.919	273.94
317.148	273.94
317.377	263.94
317.607	271.94
317.836	261.94
318.065	254.94
318.295	241.94
318.524	257.94
318.753	250.94
318.983	257.94
319.212	247.94
319.441	268.94
319.67	277.94
319.9	271.94
320.129	258.94
320.358	269.94
320.587	265.94
320.816	261.94
321.046	279.94
321.275	266.94
321.504	279.94
321.733	291.94
321.962	282.94
322.191	285.94
322.42	285.94
322.649	295.94
322.878	290.94
323.108	313.94
323.337	321.94
323.566	351.94
323.795	351.94
324.024	386.94
324.253	476.94
324.482	665.94
324.71	1013.94
324.939	1283.94
325.168	1061.94
325.397	589.94
325.626	422.94
325.855	376.94
326.084	346.94
326.313	333.94
326.542	358.94
326.77	381.94
326.999	447.94
327.228	634.94
327.457	865.94
327.686	941.94
327.914	649.94
328.143	462.94
328.372	401.94
328.6	389.94
328.829	373.94
329.058	363.94
329.287	379.94
329.515	355.94
329.744	351.94
329.972	340.94
330.201	358.94
330.43	357.94
330.658	363.94
330.887	388.94
331.115	376.94
331.344	330.94
331.572	327.94
331.801	314.94
332.03	298.94
332.258	308.94
332.486	279.94
332.715	314.94
332.943	300.94
333.172	299.94
333.4	322.94
333.629	301.94
333.857	325.94
334.085	306.94
334.314	313.94
334.542	342.94
334.771	344.94
334.999	319.94
335.227	305.94
335.455	316.94
335.684	311.94
335.912	299.94
336.14	281.94
336.369	286.94
336.597	288.94
336.825	301.94
337.053	290.94
337.281	279.94
337.51	274.94
337.738	278.94
337.966	287.94
338.194	313.94
338.422	293.94
338.65	293.94
338.878	285.94
339.106	281.94
339.334	286.94
339.562	289.94
339.79	272.94
340.018	289.94
340.246	282.94
340.474	290.94
340.702	285.94
340.93	283.94
341.158	281.94
341.386	284.94
341.614	294.94
341.842	291.94
342.07	283.94
342.298	282.94
342.526	296.94
342.754	287.94
342.981	285.94
343.209	263.94
343.437	287.94
343.665	271.94
343.893	314.94
344.12	300.94
344.348	270.94
344.576	287.94
344.804	296.94
345.031	304.94
345.259	298.94
345.487	263.94
345.714	296.94
345.942	294.94
346.17	280.94
346.397	283.94
346.625	277.94
346.853	268.94
347.08	281.94
347.308	279.94
347.535	286.94
347.763	285.94
347.99	293.94
348.218	278.94
348.445	299.94
348.673	279.94
348.9	277.94
349.128	274.94
349.355	260.94
349.583	291.94
349.81	269.94
350.037	286.94
350.265	279.94
350.492	274.94
350.72	279.94
350.947	270.94
351.174	285.94
351.402	270.94
351.629	278.94
351.856	272.94
352.083	277.94
352.311	289.94
352.538	266.94
352.765	303.94
352.992	273.94
353.22	289.94
353.447	283.94
353.674	273.94
353.901	285.94
354.128	261.94
354.355	246.94
354.583	256.94
354.81	254.94
355.037	270.94
355.264	249.94
355.491	243.94
355.718	253.94
355.945	253.94
356.172	251.94
356.399	266.94
356.626	257.94
356.853	271.94
357.08	266.94
357.307	244.94
357.534	258.94
357.761	231.94
357.988	253.94
358.215	237.94
358.441	257.94
358.668	234.94
358.895	251.94
359.122	266.94
359.349	260.94
359.576	282.94
359.802	275.94
360.029	292.94
360.256	297.94
360.483	291.94
360.709	271.94
360.936	290.94
361.163	263.94
361.39	252.94
361.616	269.94
361.843	274.94
362.07	275.94
362.296	267.94
362.523	261.94
362.749	268.94
362.976	254.94
363.203	268.94
363.429	261.94
363.656	245.94
363.882	251.94
364.109	252.94
364.335	265.94
364.562	259.94
364.788	261.94
365.015	261.94
365.241	249.94
365.468	258.94
365.694	271.94
365.92	258.94
366.147	275.94
366.373	248.94
366.599	250.94
366.826	274.94
367.052	271.94
367.278	263.94
367.505	246.94
367.731	270.94
367.957	266.94
368.184	254.94
368.41	257.94
368.636	263.94
368.862	271.94
369.089	258.94
369.315	244.94
369.541	255.94
369.767	261.94
369.993	261.94
370.219	264.94
370.445	251.94
370.672	248.94
370.898	259.94
371.124	261.94
371.35	253.94
371.576	235.94
371.802	243.94
372.028	254.94
372.254	260.94
372.48	258.94
372.706	259.94
372.932	254.94
373.158	236.94
373.384	225.94
373.61	255.94
373.835	265.94
374.061	239.94
374.287	257.94
374.513	263.94
374.739	278.94
374.965	253.94
375.191	262.94
375.416	254.94
375.642	263.94
375.868	260.94
376.094	246.94
376.319	257.94
376.545	266.94
376.771	243.94
376.997	270.94
377.222	253.94
377.448	242.94
377.674	259.94
377.899	247.94
378.125	247.94
378.35	244.94
378.576	238.94
378.802	265.94
379.027	265.94
379.253	251.94
379.478	246.94
379.704	251.94
379.929	249.94
380.155	250.94
380.38	261.94
380.606	241.94
380.831	247.94
381.057	263.94
381.282	249.94
381.507	247.94
381.733	247.94
381.958	238.94
382.184	245.94
382.409	251.94
382.634	253.94
382.86	224.94
383.085	244.94
383.31	241.94
383.535	244.94
383.761	265.94
383.986	267.94
384.211	254.94
384.436	272.94
384.662	268.94
384.887	279.94
385.112	259.94
385.337	258.94
385.562	263.94
385.787	250.94
386.013	273.94
386.238	267.94
386.463	282.94
386.688	261.94
386.913	262.94
387.138	266.94
387.363	265.94
387.588	273.94
387.813	246.94
388.038	284.94
388.263	253.94
388.488	277.94
388.713	268.94
388.938	254.94
389.163	261.94
389.387	253.94
389.612	250.94
389.837	270.94
390.062	248.94
390.287	273.94
390.512	263.94
390.736	245.94
390.961	236.94
391.186	283.94
391.411	279.94
391.636	262.94
391.86	283.94
392.085	254.94
392.31	266.94
392.534	265.94
392.759	272.94
392.984	243.94
393.208	260.94
393.433	257.94
393.658	283.94
393.882	259.94
394.107	259.94
394.331	260.94
394.556	251.94
394.78	254.94
395.005	260.94
395.229	276.94
395.454	281.94
395.678	284.94
395.903	286.94
396.127	284.94
396.352	295.94
396.576	289.94
396.801	278.94
397.025	280.94
397.249	265.94
397.474	274.94
397.698	277.94
397.922	279.94
398.147	297.94
398.371	293.94
398.595	302.94
398.82	290.94
399.044	264.94
399.268	293.94
399.492	288.94
399.717	323.94
399.941	318.94
400.165	355.94
400.389	355.94
400.613	321.94
400.837	305.94
401.062	296.94
401.286	302.94
401.51	282.94
401.734	277.94
401.958	283.94
402.182	298.94
402.406	277.94
402.63	299.94
402.854	298.94
403.078	290.94
403.302	311.94
403.526	313.94
403.75	293.94
403.974	286.94
404.198	290.94
404.422	305.94
404.645	311.94
404.869	295.94
405.093	334.94
405.317	335.94
405.541	334.94
405.765	294.94
405.988	310.94
406.212	314.94
406.436	325.94
406.66	330.94
406.883	326.94
407.107	318.94
407.331	353.94
407.555	378.94
407.778	387.94
408.002	345.94
408.226	337.94
408.449	327.94
408.673	338.94
408.896	345.94
409.12	353.94
409.344	330.94
409.567	301.94
409.791	294.94
410.014	283.94
410.238	294.94
410.461	275.94
410.685	288.94
410.908	299.94
411.132	335.94
411.355	340.94
411.578	319.94
411.802	299.94
412.025	297.94
412.249	328.94
412.472	301.94
412.695	321.94
412.919	317.94
413.142	308.94
413.365	296.94
413.589	269.94
413.812	283.94
414.035	278.94
414.258	272.94
414.482	280.94
414.705	280.94
414.928	288.94
415.151	293.94
415.374	265.94
415.597	259.94
415.821	278.94
416.044	281.94
416.267	291.94
416.49	286.94
416.713	264.94
416.936	278.94
417.159	264.94
417.382	278.94
417.605	279.94
417.828	295.94
418.051	298.94
418.274	286.94
418.497	274.94
418.72	290.94
418.943	273.94
419.166	286.94
419.389	301.94
419.611	309.94
419.834	311.94
420.057	310.94
420.28	295.94
420.503	277.94
420.726	292.94
420.948	300.94
421.171	331.94
421.394	350.94
421.617	298.94
421.839	284.94
422.062	285.94
422.285	302.94
422.507	325.94
422.73	361.94
422.953	360.94
423.175	321.94
423.398	313.94
423.621	295.94
423.843	324.94
424.066	303.94
424.288	295.94
424.511	324.94
424.733	349.94
424.956	389.94
425.178	381.94
425.401	380.94
425.623	374.94
425.846	338.94
426.068	321.94
426.291	323.94
426.513	305.94
426.735	320.94
426.958	332.94
427.18	397.94
427.402	461.94
427.625	498.94
427.847	456.94
428.069	366.94
428.292	340.94
428.514	335.94
428.736	305.94
428.958	301.94
429.181	289.94
429.403	296.94
429.625	299.94
429.847	327.94
430.069	342.94
430.292	347.94
430.514	291.94
430.736	305.94
430.958	292.94
431.18	290.94
431.402	275.94
431.624	276.94
431.846	279.94
432.068	277.94
432.29	276.94
432.512	286.94
432.734	284.94
432.956	287.94
433.178	295.94
433.4	278.94
433.622	284.94
433.844	283.94
434.066	284.94
434.287	280.94
434.509	274.94
434.731	293.94
434.953	266.94
435.175	298.94
435.397	312.94
435.618	319.94
435.84	331.94
436.062	388.94
436.284	416.94
436.505	356.94
436.727	335.94
436.949	291.94
437.17	289.94
437.392	291.94
437.614	301.94
437.835	329.94
438.057	383.94
438.278	422.94
438.5	433.94
438.721	481.94
438.943	435.94
439.165	349.94
439.386	337.94
439.608	305.94
439.829	315.94
440.05	347.94
440.272	359.94
440.493	342.94
440.715	323.94
440.936	291.94
441.158	304.94
441.379	302.94
441.6	300.94
441.822	324.94
442.043	363.94
442.264	398.94
442.486	399.94
442.707	350.94
442.928	310.94
443.149	326.94
443.371	345.94
443.592	361.94
443.813	387.94
444.034	407.94
444.255	382.94
444.476	325.94
444.698	302.94
444.919	305.94
445.14	399.94
445.361	350.94
445.582	343.94
445.803	383.94
446.024	411.94
446.245	412.94
446.466	383.94
446.687	340.94
446.908	307.94
447.129	302.94
447.35	279.94
447.571	289.94
447.792	274.94
448.013	294.94
448.234	311.94
448.455	344.94
448.675	407.94
448.896	446.94
449.117	397.94
449.338	386.94
449.559	431.94
449.779	474.94
450	393.94
450.221	346.94
450.442	297.94
450.662	295.94
450.883	294.94
451.104	286.94
451.324	289.94
451.545	274.94
451.766	270.94
451.986	272.94
452.207	264.94
452.428	273.94
452.648	267.94
452.869	273.94
453.089	277.94
453.31	281.94
453.53	287.94
453.751	276.94
453.971	266.94
454.192	281.94
454.412	280.94
454.633	275.94
454.853	270.94
455.073	281.94
455.294	300.94
455.514	311.94
455.734	293.94
455.955	265.94
456.175	266.94
456.395	263.94
456.616	243.94
456.836	242.94
457.056	261.94
457.276	256.94
457.497	249.94
457.717	246.94
457.937	258.94
458.157	273.94
458.377	263.94
458.598	282.94
458.818	328.94
459.038	331.94
459.258	352.94
459.478	311.94
459.698	284.94
459.918	289.94
460.138	284.94
460.358	280.94
460.578	270.94
460.798	271.94
461.018	274.94
461.238	287.94
461.458	288.94
461.678	265.94
461.898	288.94
462.118	276.94
462.338	273.94
462.558	274.94
462.777	276.94
462.997	296.94
463.217	293.94
463.437	305.94
463.657	275.94
463.876	287.94
464.096	293.94
464.316	294.94
464.536	319.94
464.755	307.94
464.975	305.94
465.195	324.94
465.414	342.94
465.634	307.94
465.854	285.94
466.073	273.94
466.293	262.94
466.512	273.94
466.732	254.94
466.951	250.94
467.171	268.94
467.391	275.94
467.61	298.94
467.829	278.94
468.049	272.94
468.268	284.94
468.488	271.94
468.707	274.94
468.927	263.94
469.146	259.94
469.365	266.94
469.585	265.94
469.804	270.94
470.023	282.94
470.243	286.94
470.462	278.94
470.681	293.94
470.901	278.94
471.12	292.94
471.339	274.94
471.558	283.94
471.777	281.94
471.997	277.94
472.216	291.94
472.435	279.94
472.654	285.94
472.873	264.94
473.092	277.94
473.311	278.94
473.53	282.94
473.749	293.94
473.968	331.94
474.187	362.94
474.406	358.94
474.625	315.94
474.844	289.94
475.063	270.94
475.282	295.94
475.501	283.94
475.72	269.94
475.939	285.94
476.158	269.94
476.377	281.94
476.596	275.94
476.814	291.94
477.033	292.94
477.252	297.94
477.471	294.94
477.69	294.94
477.908	293.94
478.127	294.94
478.346	292.94
478.564	299.94
478.783	301.94
479.002	322.94
479.22	318.94
479.439	326.94
479.658	314.94
479.876	327.94
480.095	305.94
480.313	328.94
480.532	334.94
480.751	341.94
480.969	350.94
481.188	355.94
481.406	359.94
481.624	316.94
481.843	314.94
482.061	343.94
482.28	330.94
482.498	312.94
482.717	311.94
482.935	306.94
483.153	322.94
483.372	311.94
483.59	305.94
483.808	305.94
484.027	331.94
484.245	318.94
484.463	327.94
484.681	329.94
484.9	325.94
485.118	339.94
485.336	338.94
485.554	321.94
485.772	334.94
485.99	328.94
486.209	315.94
486.427	319.94
486.645	332.94
486.863	336.94
487.081	347.94
487.299	358.94
487.517	344.94
487.735	339.94
487.953	332.94
488.171	350.94
488.389	338.94
488.607	337.94
488.825	339.94
489.043	353.94
489.261	346.94
489.479	336.94
489.696	349.94
489.914	355.94
490.132	354.94
490.35	351.94
490.568	352.94
490.786	377.94
491.003	361.94
491.221	357.94
491.439	361.94
491.657	355.94
491.874	358.94
492.092	387.94
492.31	374.94
492.527	405.94
492.745	384.94
492.963	380.94
493.18	389.94
493.398	382.94
493.615	384.94
493.833	389.94
494.05	382.94
494.268	373.94
494.485	398.94
494.703	371.94
494.92	393.94
495.138	395.94
495.355	395.94
495.573	389.94
495.79	392.94
496.008	395.94
496.225	379.94
496.442	369.94
496.66	398.94
496.877	389.94
497.094	401.94
497.312	407.94
497.529	419.94
497.746	410.94
497.963	426.94
498.181	424.94
498.398	438.94
498.615	433.94
498.832	440.94
499.049	449.94
499.267	451.94
499.484	458.94
499.701	458.94
499.918	466.94
500.135	490.94
500.352	488.94
500.569	499.94
500.786	481.94
501.003	479.94
501.22	460.94
501.437	483.94
501.654	483.94
501.871	456.94
502.088	465.94
502.305	450.94
