Data from 1982.PennyLincolnUp.Lamp.En5.5.200Scan.071819.P1_HRD10591_16-46-05-961.txt Node
Date: Thu Jul 18 16:46:05 EDT 2019
User: cochatt
Spectrometer: HR+D1059
Trigger mode: 1
Integration Time (sec): 1.000000E-1
Scans to average: 1
Electric dark correction enabled: true
Nonlinearity correction enabled: false
Boxcar width: 0
XAxis mode: Wavelengths
Number of Pixels in Spectrum: 2048
>>>>>Begin Spectral Data<<<<<
223.165	-25.25
223.4	-25.25
223.635	-25.25
223.869	-9.25
224.104	-21.25
224.338	-14.25
224.573	-17.25
224.808	-8.25
225.042	-10.25
225.277	-2.25
225.511	1.75
225.746	-3.25
225.98	3.75
226.215	2.75
226.449	21.75
226.683	19.75
226.918	37.75
227.152	23.75
227.387	15.75
227.621	14.75
227.856	32.75
228.09	55.75
228.324	49.75
228.559	53.75
228.793	51.75
229.027	76.75
229.262	93.75
229.496	93.75
229.73	109.75
229.964	97.75
230.199	121.75
230.433	106.75
230.667	93.75
230.901	95.75
231.136	102.75
231.37	94.75
231.604	102.75
231.838	93.75
232.072	94.75
232.306	98.75
232.541	88.75
232.775	79.75
233.009	118.75
233.243	105.75
233.477	76.75
233.711	97.75
233.945	81.75
234.179	93.75
234.413	101.75
234.647	103.75
234.881	96.75
235.115	103.75
235.349	98.75
235.583	114.75
235.817	96.75
236.051	90.75
236.285	102.75
236.519	106.75
236.753	106.75
236.987	128.75
237.221	157.75
237.455	177.75
237.689	136.75
237.922	105.75
238.156	110.75
238.39	102.75
238.624	102.75
238.858	106.75
239.091	108.75
239.325	109.75
239.559	117.75
239.793	102.75
240.027	121.75
240.26	125.75
240.494	109.75
240.728	116.75
240.961	122.75
241.195	132.75
241.429	126.75
241.662	100.75
241.896	111.75
242.13	113.75
242.363	124.75
242.597	109.75
242.83	117.75
243.064	125.75
243.298	83.75
243.531	108.75
243.765	107.75
243.998	106.75
244.232	111.75
244.465	105.75
244.699	109.75
244.932	115.75
245.166	121.75
245.399	128.75
245.633	113.75
245.866	124.75
246.099	119.75
246.333	129.75
246.566	115.75
246.8	128.75
247.033	131.75
247.266	122.75
247.5	125.75
247.733	121.75
247.966	149.75
248.2	134.75
248.433	142.75
248.666	139.75
248.899	149.75
249.133	151.75
249.366	159.75
249.599	168.75
249.832	145.75
250.066	136.75
250.299	145.75
250.532	145.75
250.765	158.75
250.998	163.75
251.231	159.75
251.465	150.75
251.698	147.75
251.931	159.75
252.164	154.75
252.397	154.75
252.63	155.75
252.863	154.75
253.096	162.75
253.329	176.75
253.562	179.75
253.795	170.75
254.028	167.75
254.261	182.75
254.494	164.75
254.727	192.75
254.96	220.75
255.193	213.75
255.426	196.75
255.659	173.75
255.892	183.75
256.124	169.75
256.357	190.75
256.59	169.75
256.823	169.75
257.056	163.75
257.289	178.75
257.521	175.75
257.754	181.75
257.987	163.75
258.22	156.75
258.452	175.75
258.685	166.75
258.918	150.75
259.151	159.75
259.383	189.75
259.616	175.75
259.849	173.75
260.081	175.75
260.314	192.75
260.547	177.75
260.779	181.75
261.012	187.75
261.244	184.75
261.477	153.75
261.71	159.75
261.942	178.75
262.175	175.75
262.407	188.75
262.64	173.75
262.872	173.75
263.105	169.75
263.337	159.75
263.57	158.75
263.802	163.75
264.035	181.75
264.267	175.75
264.499	168.75
264.732	173.75
264.964	159.75
265.197	158.75
265.429	162.75
265.661	175.75
265.894	169.75
266.126	159.75
266.358	162.75
266.591	154.75
266.823	163.75
267.055	157.75
267.287	188.75
267.52	188.75
267.752	170.75
267.984	164.75
268.216	173.75
268.448	166.75
268.681	181.75
268.913	173.75
269.145	197.75
269.377	212.75
269.609	205.75
269.841	201.75
270.073	211.75
270.306	226.75
270.538	253.75
270.77	221.75
271.002	232.75
271.234	217.75
271.466	233.75
271.698	229.75
271.93	233.75
272.162	251.75
272.394	247.75
272.626	225.75
272.858	220.75
273.09	200.75
273.322	206.75
273.553	199.75
273.785	196.75
274.017	190.75
274.249	211.75
274.481	201.75
274.713	195.75
274.945	198.75
275.176	196.75
275.408	213.75
275.64	212.75
275.872	203.75
276.104	212.75
276.335	209.75
276.567	190.75
276.799	209.75
277.031	222.75
277.262	238.75
277.494	240.75
277.726	219.75
277.957	226.75
278.189	199.75
278.421	185.75
278.652	218.75
278.884	201.75
279.115	209.75
279.347	202.75
279.579	205.75
279.81	183.75
280.042	201.75
280.273	206.75
280.505	208.75
280.736	210.75
280.968	216.75
281.199	214.75
281.431	202.75
281.662	199.75
281.894	201.75
282.125	215.75
282.356	217.75
282.588	229.75
282.819	228.75
283.051	193.75
283.282	197.75
283.513	213.75
283.745	202.75
283.976	193.75
284.207	207.75
284.439	194.75
284.67	199.75
284.901	201.75
285.132	218.75
285.364	208.75
285.595	194.75
285.826	204.75
286.057	204.75
286.288	211.75
286.52	202.75
286.751	200.75
286.982	194.75
287.213	205.75
287.444	216.75
287.675	214.75
287.906	213.75
288.138	227.75
288.369	235.75
288.6	235.75
288.831	234.75
289.062	213.75
289.293	214.75
289.524	201.75
289.755	214.75
289.986	217.75
290.217	208.75
290.448	213.75
290.679	214.75
290.91	216.75
291.141	219.75
291.371	204.75
291.602	227.75
291.833	197.75
292.064	200.75
292.295	203.75
292.526	223.75
292.757	219.75
292.987	227.75
293.218	192.75
293.449	229.75
293.68	220.75
293.91	218.75
294.141	220.75
294.372	212.75
294.603	201.75
294.833	212.75
295.064	209.75
295.295	213.75
295.525	221.75
295.756	233.75
295.987	226.75
296.217	261.75
296.448	229.75
296.679	221.75
296.909	213.75
297.14	212.75
297.37	225.75
297.601	213.75
297.831	202.75
298.062	214.75
298.292	230.75
298.523	218.75
298.753	226.75
298.984	218.75
299.214	226.75
299.445	213.75
299.675	233.75
299.905	223.75
300.136	217.75
300.366	224.75
300.597	222.75
300.827	228.75
301.057	231.75
301.288	246.75
301.518	230.75
301.748	223.75
301.979	226.75
302.209	239.75
302.439	233.75
302.669	239.75
302.9	244.75
303.13	215.75
303.36	223.75
303.59	231.75
303.82	272.75
304.051	253.75
304.281	225.75
304.511	245.75
304.741	246.75
304.971	239.75
305.201	246.75
305.431	239.75
305.661	243.75
305.891	229.75
306.121	241.75
306.352	231.75
306.582	259.75
306.812	246.75
307.042	251.75
307.272	255.75
307.502	247.75
307.731	237.75
307.961	243.75
308.191	234.75
308.421	247.75
308.651	247.75
308.881	249.75
309.111	254.75
309.341	275.75
309.571	265.75
309.8	243.75
310.03	269.75
310.26	265.75
310.49	276.75
310.72	298.75
310.949	292.75
311.179	306.75
311.409	297.75
311.639	285.75
311.868	277.75
312.098	290.75
312.328	287.75
312.557	306.75
312.787	314.75
313.017	309.75
313.246	287.75
313.476	293.75
313.706	269.75
313.935	306.75
314.165	278.75
314.394	282.75
314.624	282.75
314.853	273.75
315.083	292.75
315.312	289.75
315.542	283.75
315.771	249.75
316.001	277.75
316.23	274.75
316.46	280.75
316.689	277.75
316.919	285.75
317.148	296.75
317.377	297.75
317.607	283.75
317.836	285.75
318.065	289.75
318.295	285.75
318.524	271.75
318.753	271.75
318.983	278.75
319.212	265.75
319.441	271.75
319.67	294.75
319.9	292.75
320.129	276.75
320.358	296.75
320.587	301.75
320.816	290.75
321.046	305.75
321.275	329.75
321.504	309.75
321.733	311.75
321.962	303.75
322.191	327.75
322.42	330.75
322.649	326.75
322.878	350.75
323.108	343.75
323.337	368.75
323.566	383.75
323.795	425.75
324.024	473.75
324.253	576.75
324.482	853.75
324.71	1245.75
324.939	1643.75
325.168	1382.75
325.397	726.75
325.626	499.75
325.855	424.75
326.084	388.75
326.313	399.75
326.542	377.75
326.77	437.75
326.999	533.75
327.228	747.75
327.457	1092.75
327.686	1235.75
327.914	817.75
328.143	553.75
328.372	475.75
328.6	449.75
328.829	426.75
329.058	434.75
329.287	445.75
329.515	406.75
329.744	391.75
329.972	376.75
330.201	386.75
330.43	435.75
330.658	450.75
330.887	466.75
331.115	447.75
331.344	390.75
331.572	370.75
331.801	362.75
332.03	360.75
332.258	352.75
332.486	337.75
332.715	321.75
332.943	311.75
333.172	352.75
333.4	324.75
333.629	338.75
333.857	336.75
334.085	348.75
334.314	344.75
334.542	381.75
334.771	377.75
334.999	381.75
335.227	334.75
335.455	329.75
335.684	328.75
335.912	326.75
336.14	326.75
336.369	338.75
336.597	316.75
336.825	319.75
337.053	318.75
337.281	308.75
337.51	312.75
337.738	314.75
337.966	329.75
338.194	317.75
338.422	315.75
338.65	303.75
338.878	316.75
339.106	307.75
339.334	307.75
339.562	311.75
339.79	314.75
340.018	295.75
340.246	305.75
340.474	317.75
340.702	304.75
340.93	283.75
341.158	301.75
341.386	300.75
341.614	297.75
341.842	311.75
342.07	303.75
342.298	280.75
342.526	291.75
342.754	307.75
342.981	312.75
343.209	286.75
343.437	311.75
343.665	297.75
343.893	290.75
344.12	303.75
344.348	294.75
344.576	309.75
344.804	321.75
345.031	306.75
345.259	318.75
345.487	308.75
345.714	293.75
345.942	303.75
346.17	298.75
346.397	294.75
346.625	297.75
346.853	296.75
347.08	279.75
347.308	279.75
347.535	306.75
347.763	310.75
347.99	306.75
348.218	303.75
348.445	315.75
348.673	302.75
348.9	305.75
349.128	315.75
349.355	292.75
349.583	278.75
349.81	292.75
350.037	296.75
350.265	288.75
350.492	285.75
350.72	287.75
350.947	290.75
351.174	287.75
351.402	306.75
351.629	291.75
351.856	310.75
352.083	319.75
352.311	307.75
352.538	297.75
352.765	319.75
352.992	301.75
353.22	285.75
353.447	301.75
353.674	286.75
353.901	271.75
354.128	286.75
354.355	278.75
354.583	274.75
354.81	272.75
355.037	277.75
355.264	270.75
355.491	277.75
355.718	271.75
355.945	277.75
356.172	284.75
356.399	263.75
356.626	264.75
356.853	268.75
357.08	272.75
357.307	279.75
357.534	254.75
357.761	264.75
357.988	258.75
358.215	282.75
358.441	280.75
358.668	292.75
358.895	272.75
359.122	280.75
359.349	277.75
359.576	294.75
359.802	313.75
360.029	321.75
360.256	323.75
360.483	318.75
360.709	301.75
360.936	296.75
361.163	305.75
361.39	300.75
361.616	300.75
361.843	298.75
362.07	277.75
362.296	303.75
362.523	293.75
362.749	271.75
362.976	283.75
363.203	283.75
363.429	264.75
363.656	272.75
363.882	263.75
364.109	273.75
364.335	282.75
364.562	269.75
364.788	267.75
365.015	273.75
365.241	296.75
365.468	285.75
365.694	286.75
365.92	278.75
366.147	288.75
366.373	266.75
366.599	286.75
366.826	267.75
367.052	273.75
367.278	285.75
367.505	273.75
367.731	274.75
367.957	266.75
368.184	253.75
368.41	265.75
368.636	266.75
368.862	305.75
369.089	289.75
369.315	283.75
369.541	272.75
369.767	258.75
369.993	269.75
370.219	290.75
370.445	267.75
370.672	287.75
370.898	270.75
371.124	254.75
371.35	273.75
371.576	259.75
371.802	273.75
372.028	276.75
372.254	249.75
372.48	260.75
372.706	266.75
372.932	249.75
373.158	264.75
373.384	267.75
373.61	268.75
373.835	273.75
374.061	259.75
374.287	265.75
374.513	280.75
374.739	275.75
374.965	246.75
375.191	275.75
375.416	278.75
375.642	277.75
375.868	266.75
376.094	282.75
376.319	255.75
376.545	263.75
376.771	256.75
376.997	264.75
377.222	261.75
377.448	251.75
377.674	249.75
377.899	246.75
378.125	250.75
378.35	271.75
378.576	264.75
378.802	262.75
379.027	255.75
379.253	274.75
379.478	254.75
379.704	276.75
379.929	252.75
380.155	257.75
380.38	272.75
380.606	266.75
380.831	268.75
381.057	258.75
381.282	265.75
381.507	252.75
381.733	255.75
381.958	276.75
382.184	262.75
382.409	266.75
382.634	279.75
382.86	271.75
383.085	260.75
383.31	252.75
383.535	265.75
383.761	270.75
383.986	273.75
384.211	265.75
384.436	259.75
384.662	259.75
384.887	270.75
385.112	273.75
385.337	281.75
385.562	282.75
385.787	289.75
386.013	273.75
386.238	267.75
386.463	280.75
386.688	289.75
386.913	266.75
387.138	268.75
387.363	268.75
387.588	277.75
387.813	291.75
388.038	269.75
388.263	268.75
388.488	279.75
388.713	285.75
388.938	283.75
389.163	272.75
389.387	289.75
389.612	285.75
389.837	281.75
390.062	276.75
390.287	267.75
390.512	266.75
390.736	287.75
390.961	279.75
391.186	266.75
391.411	273.75
391.636	294.75
391.86	289.75
392.085	265.75
392.31	284.75
392.534	266.75
392.759	284.75
392.984	267.75
393.208	288.75
393.433	290.75
393.658	269.75
393.882	282.75
394.107	279.75
394.331	276.75
394.556	271.75
394.78	279.75
395.005	282.75
395.229	270.75
395.454	281.75
395.678	293.75
395.903	293.75
396.127	307.75
396.352	302.75
396.576	289.75
396.801	257.75
397.025	272.75
397.249	290.75
397.474	291.75
397.698	294.75
397.922	288.75
398.147	303.75
398.371	307.75
398.595	285.75
398.82	305.75
399.044	298.75
399.268	311.75
399.492	331.75
399.717	346.75
399.941	353.75
400.165	368.75
400.389	373.75
400.613	342.75
400.837	305.75
401.062	305.75
401.286	304.75
401.51	295.75
401.734	291.75
401.958	308.75
402.182	292.75
402.406	312.75
402.63	303.75
402.854	279.75
403.078	295.75
403.302	297.75
403.526	312.75
403.75	313.75
403.974	327.75
404.198	320.75
404.422	310.75
404.645	316.75
404.869	329.75
405.093	311.75
405.317	352.75
405.541	379.75
405.765	355.75
405.988	344.75
406.212	329.75
406.436	358.75
406.66	352.75
406.883	341.75
407.107	354.75
407.331	380.75
407.555	395.75
407.778	393.75
408.002	361.75
408.226	359.75
408.449	350.75
408.673	342.75
408.896	376.75
409.12	360.75
409.344	363.75
409.567	341.75
409.791	305.75
410.014	303.75
410.238	318.75
410.461	320.75
410.685	328.75
410.908	321.75
411.132	334.75
411.355	356.75
411.578	354.75
411.802	306.75
412.025	311.75
412.249	330.75
412.472	327.75
412.695	341.75
412.919	351.75
413.142	323.75
413.365	298.75
413.589	306.75
413.812	293.75
414.035	296.75
414.258	293.75
414.482	293.75
414.705	297.75
414.928	278.75
415.151	267.75
415.374	287.75
415.597	279.75
415.821	258.75
416.044	291.75
416.267	291.75
416.49	290.75
416.713	291.75
416.936	297.75
417.159	298.75
417.382	277.75
417.605	290.75
417.828	327.75
418.051	323.75
418.274	311.75
418.497	309.75
418.72	301.75
418.943	288.75
419.166	312.75
419.389	309.75
419.611	317.75
419.834	314.75
420.057	311.75
420.28	311.75
420.503	290.75
420.726	317.75
420.948	317.75
421.171	341.75
421.394	342.75
421.617	319.75
421.839	322.75
422.062	315.75
422.285	331.75
422.507	355.75
422.73	405.75
422.953	381.75
423.175	347.75
423.398	317.75
423.621	324.75
423.843	334.75
424.066	354.75
424.288	347.75
424.511	349.75
424.733	369.75
424.956	414.75
425.178	411.75
425.401	398.75
425.623	405.75
425.846	353.75
426.068	342.75
426.291	326.75
426.513	317.75
426.735	348.75
426.958	359.75
427.18	442.75
427.402	495.75
427.625	553.75
427.847	472.75
428.069	418.75
428.292	399.75
428.514	338.75
428.736	326.75
428.958	326.75
429.181	322.75
429.403	324.75
429.625	323.75
429.847	339.75
430.069	392.75
430.292	389.75
430.514	333.75
430.736	299.75
430.958	303.75
431.18	301.75
431.402	289.75
431.624	301.75
431.846	290.75
432.068	293.75
432.29	273.75
432.512	301.75
432.734	289.75
432.956	294.75
433.178	287.75
433.4	304.75
433.622	304.75
433.844	311.75
434.066	294.75
434.287	285.75
434.509	289.75
434.731	291.75
434.953	298.75
435.175	315.75
435.397	335.75
435.618	344.75
435.84	374.75
436.062	410.75
436.284	442.75
436.505	386.75
436.727	335.75
436.949	344.75
437.17	323.75
437.392	313.75
437.614	327.75
437.835	344.75
438.057	386.75
438.278	455.75
438.5	465.75
438.721	499.75
438.943	494.75
439.165	370.75
439.386	338.75
439.608	367.75
439.829	337.75
440.05	377.75
440.272	396.75
440.493	367.75
440.715	343.75
440.936	317.75
441.158	310.75
441.379	293.75
441.6	332.75
441.822	322.75
442.043	354.75
442.264	393.75
442.486	439.75
442.707	385.75
442.928	360.75
443.149	353.75
443.371	365.75
443.592	406.75
443.813	446.75
444.034	465.75
444.255	415.75
444.476	351.75
444.698	341.75
444.919	322.75
445.14	415.75
445.361	407.75
445.582	367.75
445.803	406.75
446.024	471.75
446.245	465.75
446.466	445.75
446.687	361.75
446.908	321.75
447.129	317.75
447.35	302.75
447.571	314.75
447.792	302.75
448.013	320.75
448.234	339.75
448.455	388.75
448.675	419.75
448.896	481.75
449.117	433.75
449.338	395.75
449.559	473.75
449.779	515.75
450	401.75
450.221	350.75
450.442	334.75
450.662	314.75
450.883	320.75
451.104	329.75
451.324	313.75
451.545	282.75
451.766	305.75
451.986	286.75
452.207	273.75
452.428	279.75
452.648	289.75
452.869	290.75
453.089	288.75
453.31	298.75
453.53	301.75
453.751	285.75
453.971	297.75
454.192	310.75
454.412	297.75
454.633	298.75
454.853	271.75
455.073	285.75
455.294	303.75
455.514	353.75
455.734	304.75
455.955	305.75
456.175	267.75
456.395	259.75
456.616	268.75
456.836	277.75
457.056	274.75
457.276	265.75
457.497	271.75
457.717	246.75
457.937	275.75
458.157	285.75
458.377	270.75
458.598	297.75
458.818	341.75
459.038	385.75
459.258	371.75
459.478	334.75
459.698	283.75
459.918	267.75
460.138	277.75
460.358	298.75
460.578	303.75
460.798	293.75
461.018	286.75
461.238	305.75
461.458	291.75
461.678	278.75
461.898	285.75
462.118	282.75
462.338	280.75
462.558	288.75
462.777	319.75
462.997	298.75
463.217	306.75
463.437	305.75
463.657	295.75
463.876	310.75
464.096	317.75
464.316	306.75
464.536	322.75
464.755	302.75
464.975	313.75
465.195	345.75
465.414	380.75
465.634	332.75
465.854	305.75
466.073	299.75
466.293	294.75
466.512	307.75
466.732	287.75
466.951	295.75
467.171	293.75
467.391	308.75
467.61	290.75
467.829	308.75
468.049	298.75
468.268	305.75
468.488	281.75
468.707	280.75
468.927	277.75
469.146	271.75
469.365	296.75
469.585	275.75
469.804	266.75
470.023	313.75
470.243	293.75
470.462	289.75
470.681	301.75
470.901	293.75
471.12	273.75
471.339	291.75
471.558	305.75
471.777	273.75
471.997	307.75
472.216	301.75
472.435	327.75
472.654	313.75
472.873	297.75
473.092	288.75
473.311	295.75
473.53	283.75
473.749	320.75
473.968	329.75
474.187	377.75
474.406	402.75
474.625	339.75
474.844	296.75
475.063	297.75
475.282	287.75
475.501	292.75
475.72	301.75
475.939	298.75
476.158	288.75
476.377	298.75
476.596	281.75
476.814	317.75
477.033	325.75
477.252	295.75
477.471	303.75
477.69	305.75
477.908	302.75
478.127	318.75
478.346	321.75
478.564	312.75
478.783	311.75
479.002	328.75
479.22	315.75
479.439	320.75
479.658	338.75
479.876	343.75
480.095	353.75
480.313	379.75
480.532	356.75
480.751	330.75
480.969	360.75
481.188	376.75
481.406	429.75
481.624	350.75
481.843	343.75
482.061	348.75
482.28	342.75
482.498	349.75
482.717	325.75
482.935	335.75
483.153	342.75
483.372	354.75
483.59	337.75
483.808	335.75
484.027	342.75
484.245	341.75
484.463	335.75
484.681	331.75
484.9	337.75
485.118	359.75
485.336	337.75
485.554	351.75
485.772	362.75
485.99	336.75
486.209	330.75
486.427	359.75
486.645	352.75
486.863	372.75
487.081	353.75
487.299	359.75
487.517	369.75
487.735	351.75
487.953	365.75
488.171	387.75
488.389	371.75
488.607	370.75
488.825	358.75
489.043	364.75
489.261	374.75
489.479	360.75
489.696	351.75
489.914	357.75
490.132	387.75
490.35	357.75
490.568	381.75
490.786	365.75
491.003	361.75
491.221	405.75
491.439	399.75
491.657	398.75
491.874	408.75
492.092	413.75
492.31	416.75
492.527	413.75
492.745	417.75
492.963	422.75
493.18	407.75
493.398	409.75
493.615	415.75
493.833	426.75
494.05	428.75
494.268	405.75
494.485	406.75
494.703	417.75
494.92	403.75
495.138	431.75
495.355	430.75
495.573	449.75
495.79	439.75
496.008	451.75
496.225	394.75
496.442	411.75
496.66	440.75
496.877	422.75
497.094	437.75
497.312	417.75
497.529	421.75
497.746	430.75
497.963	429.75
498.181	434.75
498.398	433.75
498.615	466.75
498.832	477.75
499.049	454.75
499.267	473.75
499.484	452.75
499.701	478.75
499.918	485.75
500.135	518.75
500.352	533.75
500.569	533.75
500.786	526.75
501.003	527.75
501.22	533.75
501.437	508.75
501.654	488.75
501.871	517.75
502.088	500.75
502.305	487.75
