Data from 1982.PennyLincolnUp.Lamp.En5.5.200Scan.071819.P1_HRD10591_16-45-11-961.txt Node
Date: Thu Jul 18 16:45:11 EDT 2019
User: cochatt
Spectrometer: HR+D1059
Trigger mode: 1
Integration Time (sec): 1.000000E-1
Scans to average: 1
Electric dark correction enabled: true
Nonlinearity correction enabled: false
Boxcar width: 0
XAxis mode: Wavelengths
Number of Pixels in Spectrum: 2048
>>>>>Begin Spectral Data<<<<<
223.165	-9.56
223.4	-9.56
223.635	-9.56
223.869	-9.56
224.104	-4.56
224.338	-16.56
224.573	-17.56
224.808	-15.56
225.042	-5.56
225.277	2.44
225.511	3.44
225.746	8.44
225.98	-2.56
226.215	15.44
226.449	7.44
226.683	19.44
226.918	2.44
227.152	22.44
227.387	27.44
227.621	39.44
227.856	39.44
228.09	41.44
228.324	48.44
228.559	66.44
228.793	71.44
229.027	80.44
229.262	88.44
229.496	96.44
229.73	119.44
229.964	124.44
230.199	119.44
230.433	103.44
230.667	96.44
230.901	92.44
231.136	102.44
231.37	95.44
231.604	111.44
231.838	93.44
232.072	111.44
232.306	105.44
232.541	114.44
232.775	102.44
233.009	103.44
233.243	95.44
233.477	106.44
233.711	100.44
233.945	105.44
234.179	110.44
234.413	123.44
234.647	111.44
234.881	100.44
235.115	118.44
235.349	95.44
235.583	105.44
235.817	115.44
236.051	108.44
236.285	106.44
236.519	101.44
236.753	97.44
236.987	109.44
237.221	136.44
237.455	162.44
237.689	144.44
237.922	127.44
238.156	120.44
238.39	114.44
238.624	117.44
238.858	100.44
239.091	116.44
239.325	99.44
239.559	113.44
239.793	109.44
240.027	116.44
240.26	121.44
240.494	146.44
240.728	122.44
240.961	115.44
241.195	141.44
241.429	123.44
241.662	128.44
241.896	117.44
242.13	108.44
242.363	119.44
242.597	114.44
242.83	118.44
243.064	119.44
243.298	115.44
243.531	115.44
243.765	127.44
243.998	134.44
244.232	120.44
244.465	117.44
244.699	114.44
244.932	125.44
245.166	105.44
245.399	121.44
245.633	124.44
245.866	125.44
246.099	117.44
246.333	115.44
246.566	109.44
246.8	122.44
247.033	120.44
247.266	119.44
247.5	111.44
247.733	130.44
247.966	132.44
248.2	148.44
248.433	145.44
248.666	143.44
248.899	146.44
249.133	168.44
249.366	156.44
249.599	166.44
249.832	142.44
250.066	154.44
250.299	143.44
250.532	130.44
250.765	151.44
250.998	162.44
251.231	150.44
251.465	163.44
251.698	137.44
251.931	140.44
252.164	154.44
252.397	161.44
252.63	140.44
252.863	151.44
253.096	158.44
253.329	176.44
253.562	166.44
253.795	166.44
254.028	152.44
254.261	167.44
254.494	183.44
254.727	188.44
254.96	202.44
255.193	188.44
255.426	180.44
255.659	182.44
255.892	166.44
256.124	168.44
256.357	184.44
256.59	186.44
256.823	166.44
257.056	154.44
257.289	149.44
257.521	151.44
257.754	146.44
257.987	174.44
258.22	155.44
258.452	162.44
258.685	171.44
258.918	156.44
259.151	152.44
259.383	144.44
259.616	168.44
259.849	172.44
260.081	172.44
260.314	183.44
260.547	196.44
260.779	178.44
261.012	167.44
261.244	170.44
261.477	165.44
261.71	167.44
261.942	169.44
262.175	171.44
262.407	180.44
262.64	157.44
262.872	166.44
263.105	166.44
263.337	164.44
263.57	159.44
263.802	158.44
264.035	170.44
264.267	156.44
264.499	164.44
264.732	172.44
264.964	151.44
265.197	163.44
265.429	163.44
265.661	163.44
265.894	169.44
266.126	156.44
266.358	157.44
266.591	154.44
266.823	176.44
267.055	185.44
267.287	173.44
267.52	163.44
267.752	174.44
267.984	156.44
268.216	167.44
268.448	172.44
268.681	163.44
268.913	172.44
269.145	189.44
269.377	197.44
269.609	203.44
269.841	195.44
270.073	198.44
270.306	207.44
270.538	234.44
270.77	231.44
271.002	208.44
271.234	205.44
271.466	213.44
271.698	229.44
271.93	225.44
272.162	220.44
272.394	230.44
272.626	205.44
272.858	216.44
273.09	205.44
273.322	198.44
273.553	198.44
273.785	195.44
274.017	188.44
274.249	190.44
274.481	182.44
274.713	208.44
274.945	196.44
275.176	199.44
275.408	186.44
275.64	200.44
275.872	197.44
276.104	200.44
276.335	211.44
276.567	200.44
276.799	208.44
277.031	218.44
277.262	213.44
277.494	209.44
277.726	216.44
277.957	214.44
278.189	195.44
278.421	193.44
278.652	190.44
278.884	179.44
279.115	202.44
279.347	194.44
279.579	200.44
279.81	198.44
280.042	199.44
280.273	207.44
280.505	197.44
280.736	192.44
280.968	202.44
281.199	192.44
281.431	190.44
281.662	173.44
281.894	195.44
282.125	202.44
282.356	213.44
282.588	206.44
282.819	209.44
283.051	202.44
283.282	203.44
283.513	202.44
283.745	199.44
283.976	202.44
284.207	219.44
284.439	204.44
284.67	182.44
284.901	199.44
285.132	189.44
285.364	196.44
285.595	202.44
285.826	200.44
286.057	186.44
286.288	214.44
286.52	199.44
286.751	188.44
286.982	180.44
287.213	188.44
287.444	215.44
287.675	198.44
287.906	218.44
288.138	216.44
288.369	236.44
288.6	226.44
288.831	202.44
289.062	211.44
289.293	200.44
289.524	211.44
289.755	211.44
289.986	203.44
290.217	215.44
290.448	220.44
290.679	206.44
290.91	203.44
291.141	195.44
291.371	206.44
291.602	214.44
291.833	203.44
292.064	218.44
292.295	208.44
292.526	202.44
292.757	199.44
292.987	195.44
293.218	205.44
293.449	222.44
293.68	200.44
293.91	198.44
294.141	209.44
294.372	212.44
294.603	220.44
294.833	196.44
295.064	207.44
295.295	186.44
295.525	199.44
295.756	211.44
295.987	204.44
296.217	217.44
296.448	243.44
296.679	206.44
296.909	204.44
297.14	212.44
297.37	214.44
297.601	208.44
297.831	201.44
298.062	207.44
298.292	191.44
298.523	228.44
298.753	215.44
298.984	219.44
299.214	232.44
299.445	207.44
299.675	218.44
299.905	223.44
300.136	212.44
300.366	206.44
300.597	230.44
300.827	231.44
301.057	214.44
301.288	226.44
301.518	240.44
301.748	226.44
301.979	212.44
302.209	223.44
302.439	243.44
302.669	237.44
302.9	221.44
303.13	210.44
303.36	218.44
303.59	236.44
303.82	244.44
304.051	239.44
304.281	228.44
304.511	233.44
304.741	219.44
304.971	227.44
305.201	239.44
305.431	233.44
305.661	247.44
305.891	226.44
306.121	254.44
306.352	236.44
306.582	231.44
306.812	233.44
307.042	252.44
307.272	228.44
307.502	224.44
307.731	227.44
307.961	242.44
308.191	235.44
308.421	236.44
308.651	224.44
308.881	231.44
309.111	249.44
309.341	236.44
309.571	247.44
309.8	243.44
310.03	263.44
310.26	249.44
310.49	268.44
310.72	260.44
310.949	264.44
311.179	278.44
311.409	263.44
311.639	269.44
311.868	252.44
312.098	259.44
312.328	277.44
312.557	271.44
312.787	271.44
313.017	286.44
313.246	267.44
313.476	276.44
313.706	253.44
313.935	276.44
314.165	294.44
314.394	274.44
314.624	271.44
314.853	268.44
315.083	278.44
315.312	260.44
315.542	254.44
315.771	253.44
316.001	267.44
316.23	251.44
316.46	259.44
316.689	261.44
316.919	270.44
317.148	292.44
317.377	284.44
317.607	250.44
317.836	259.44
318.065	245.44
318.295	284.44
318.524	283.44
318.753	258.44
318.983	253.44
319.212	258.44
319.441	291.44
319.67	274.44
319.9	259.44
320.129	249.44
320.358	276.44
320.587	272.44
320.816	279.44
321.046	277.44
321.275	282.44
321.504	274.44
321.733	267.44
321.962	315.44
322.191	294.44
322.42	295.44
322.649	308.44
322.878	322.44
323.108	324.44
323.337	329.44
323.566	346.44
323.795	379.44
324.024	407.44
324.253	535.44
324.482	724.44
324.71	1084.44
324.939	1374.44
325.168	1133.44
325.397	630.44
325.626	438.44
325.855	372.44
326.084	346.44
326.313	335.44
326.542	370.44
326.77	382.44
326.999	477.44
327.228	642.44
327.457	924.44
327.686	1029.44
327.914	678.44
328.143	464.44
328.372	423.44
328.6	410.44
328.829	395.44
329.058	388.44
329.287	378.44
329.515	379.44
329.744	372.44
329.972	346.44
330.201	324.44
330.43	378.44
330.658	394.44
330.887	412.44
331.115	398.44
331.344	340.44
331.572	340.44
331.801	335.44
332.03	343.44
332.258	312.44
332.486	286.44
332.715	310.44
332.943	294.44
333.172	296.44
333.4	310.44
333.629	316.44
333.857	330.44
334.085	319.44
334.314	318.44
334.542	342.44
334.771	338.44
334.999	315.44
335.227	323.44
335.455	301.44
335.684	306.44
335.912	295.44
336.14	299.44
336.369	319.44
336.597	293.44
336.825	290.44
337.053	283.44
337.281	277.44
337.51	280.44
337.738	309.44
337.966	308.44
338.194	295.44
338.422	287.44
338.65	276.44
338.878	271.44
339.106	303.44
339.334	288.44
339.562	291.44
339.79	298.44
340.018	302.44
340.246	280.44
340.474	295.44
340.702	303.44
340.93	276.44
341.158	278.44
341.386	290.44
341.614	294.44
341.842	295.44
342.07	288.44
342.298	277.44
342.526	269.44
342.754	269.44
342.981	286.44
343.209	292.44
343.437	291.44
343.665	295.44
343.893	307.44
344.12	294.44
344.348	279.44
344.576	300.44
344.804	296.44
345.031	300.44
345.259	294.44
345.487	295.44
345.714	289.44
345.942	266.44
346.17	293.44
346.397	261.44
346.625	299.44
346.853	295.44
347.08	284.44
347.308	288.44
347.535	296.44
347.763	288.44
347.99	293.44
348.218	282.44
348.445	274.44
348.673	287.44
348.9	286.44
349.128	289.44
349.355	266.44
349.583	283.44
349.81	269.44
350.037	271.44
350.265	287.44
350.492	259.44
350.72	274.44
350.947	256.44
351.174	299.44
351.402	285.44
351.629	271.44
351.856	280.44
352.083	285.44
352.311	288.44
352.538	269.44
352.765	291.44
352.992	284.44
353.22	289.44
353.447	270.44
353.674	283.44
353.901	264.44
354.128	270.44
354.355	273.44
354.583	276.44
354.81	261.44
355.037	262.44
355.264	263.44
355.491	274.44
355.718	264.44
355.945	253.44
356.172	267.44
356.399	243.44
356.626	254.44
356.853	254.44
357.08	264.44
357.307	258.44
357.534	259.44
357.761	264.44
357.988	263.44
358.215	273.44
358.441	252.44
358.668	268.44
358.895	253.44
359.122	276.44
359.349	249.44
359.576	263.44
359.802	283.44
360.029	285.44
360.256	309.44
360.483	295.44
360.709	269.44
360.936	257.44
361.163	283.44
361.39	262.44
361.616	274.44
361.843	273.44
362.07	287.44
362.296	292.44
362.523	282.44
362.749	259.44
362.976	266.44
363.203	273.44
363.429	263.44
363.656	261.44
363.882	262.44
364.109	242.44
364.335	246.44
364.562	272.44
364.788	256.44
365.015	253.44
365.241	267.44
365.468	278.44
365.694	275.44
365.92	271.44
366.147	264.44
366.373	275.44
366.599	266.44
366.826	278.44
367.052	250.44
367.278	249.44
367.505	256.44
367.731	282.44
367.957	268.44
368.184	270.44
368.41	258.44
368.636	271.44
368.862	250.44
369.089	267.44
369.315	260.44
369.541	276.44
369.767	272.44
369.993	254.44
370.219	257.44
370.445	246.44
370.672	266.44
370.898	258.44
371.124	245.44
371.35	254.44
371.576	262.44
371.802	264.44
372.028	258.44
372.254	269.44
372.48	250.44
372.706	263.44
372.932	256.44
373.158	262.44
373.384	268.44
373.61	258.44
373.835	263.44
374.061	265.44
374.287	268.44
374.513	249.44
374.739	264.44
374.965	254.44
375.191	243.44
375.416	251.44
375.642	258.44
375.868	256.44
376.094	276.44
376.319	268.44
376.545	264.44
376.771	247.44
376.997	243.44
377.222	243.44
377.448	262.44
377.674	235.44
377.899	262.44
378.125	258.44
378.35	258.44
378.576	276.44
378.802	246.44
379.027	253.44
379.253	264.44
379.478	246.44
379.704	262.44
379.929	233.44
380.155	250.44
380.38	266.44
380.606	247.44
380.831	268.44
381.057	256.44
381.282	251.44
381.507	262.44
381.733	242.44
381.958	261.44
382.184	258.44
382.409	266.44
382.634	268.44
382.86	251.44
383.085	246.44
383.31	256.44
383.535	270.44
383.761	272.44
383.986	260.44
384.211	246.44
384.436	260.44
384.662	250.44
384.887	244.44
385.112	259.44
385.337	281.44
385.562	258.44
385.787	265.44
386.013	274.44
386.238	274.44
386.463	269.44
386.688	270.44
386.913	262.44
387.138	272.44
387.363	261.44
387.588	275.44
387.813	263.44
388.038	263.44
388.263	276.44
388.488	253.44
388.713	269.44
388.938	260.44
389.163	278.44
389.387	259.44
389.612	260.44
389.837	259.44
390.062	262.44
390.287	255.44
390.512	264.44
390.736	268.44
390.961	272.44
391.186	270.44
391.411	264.44
391.636	261.44
391.86	266.44
392.085	272.44
392.31	260.44
392.534	255.44
392.759	265.44
392.984	270.44
393.208	260.44
393.433	279.44
393.658	261.44
393.882	262.44
394.107	263.44
394.331	271.44
394.556	260.44
394.78	247.44
395.005	271.44
395.229	257.44
395.454	270.44
395.678	272.44
395.903	262.44
396.127	292.44
396.352	306.44
396.576	269.44
396.801	277.44
397.025	261.44
397.249	270.44
397.474	257.44
397.698	263.44
397.922	283.44
398.147	294.44
398.371	324.44
398.595	292.44
398.82	286.44
399.044	298.44
399.268	304.44
399.492	308.44
399.717	320.44
399.941	319.44
400.165	356.44
400.389	356.44
400.613	313.44
400.837	324.44
401.062	296.44
401.286	291.44
401.51	279.44
401.734	273.44
401.958	295.44
402.182	294.44
402.406	300.44
402.63	294.44
402.854	317.44
403.078	274.44
403.302	299.44
403.526	317.44
403.75	303.44
403.974	299.44
404.198	296.44
404.422	321.44
404.645	306.44
404.869	299.44
405.093	322.44
405.317	332.44
405.541	342.44
405.765	312.44
405.988	316.44
406.212	326.44
406.436	335.44
406.66	324.44
406.883	326.44
407.107	345.44
407.331	351.44
407.555	392.44
407.778	400.44
408.002	343.44
408.226	355.44
408.449	309.44
408.673	312.44
408.896	332.44
409.12	365.44
409.344	368.44
409.567	298.44
409.791	310.44
410.014	287.44
410.238	302.44
410.461	310.44
410.685	302.44
410.908	317.44
411.132	316.44
411.355	342.44
411.578	343.44
411.802	314.44
412.025	304.44
412.249	338.44
412.472	308.44
412.695	328.44
412.919	317.44
413.142	296.44
413.365	298.44
413.589	288.44
413.812	286.44
414.035	279.44
414.258	283.44
414.482	297.44
414.705	281.44
414.928	273.44
415.151	272.44
415.374	278.44
415.597	270.44
415.821	283.44
416.044	282.44
416.267	286.44
416.49	273.44
416.713	282.44
416.936	272.44
417.159	298.44
417.382	280.44
417.605	263.44
417.828	286.44
418.051	308.44
418.274	292.44
418.497	287.44
418.72	284.44
418.943	278.44
419.166	280.44
419.389	285.44
419.611	295.44
419.834	294.44
420.057	283.44
420.28	293.44
420.503	292.44
420.726	302.44
420.948	300.44
421.171	309.44
421.394	331.44
421.617	314.44
421.839	322.44
422.062	301.44
422.285	306.44
422.507	344.44
422.73	374.44
422.953	368.44
423.175	317.44
423.398	295.44
423.621	292.44
423.843	322.44
424.066	326.44
424.288	324.44
424.511	326.44
424.733	372.44
424.956	411.44
425.178	371.44
425.401	386.44
425.623	395.44
425.846	357.44
426.068	311.44
426.291	330.44
426.513	326.44
426.735	304.44
426.958	360.44
427.18	399.44
427.402	471.44
427.625	486.44
427.847	448.44
428.069	399.44
428.292	343.44
428.514	318.44
428.736	306.44
428.958	320.44
429.181	300.44
429.403	306.44
429.625	301.44
429.847	317.44
430.069	360.44
430.292	338.44
430.514	313.44
430.736	292.44
430.958	308.44
431.18	282.44
431.402	295.44
431.624	290.44
431.846	278.44
432.068	282.44
432.29	293.44
432.512	285.44
432.734	284.44
432.956	278.44
433.178	306.44
433.4	303.44
433.622	280.44
433.844	296.44
434.066	272.44
434.287	295.44
434.509	284.44
434.731	290.44
434.953	280.44
435.175	313.44
435.397	315.44
435.618	307.44
435.84	349.44
436.062	423.44
436.284	404.44
436.505	365.44
436.727	344.44
436.949	298.44
437.17	299.44
437.392	326.44
437.614	327.44
437.835	335.44
438.057	390.44
438.278	428.44
438.5	450.44
438.721	484.44
438.943	440.44
439.165	362.44
439.386	343.44
439.608	314.44
439.829	329.44
440.05	342.44
440.272	383.44
440.493	355.44
440.715	334.44
440.936	311.44
441.158	312.44
441.379	308.44
441.6	316.44
441.822	318.44
442.043	340.44
442.264	380.44
442.486	392.44
442.707	358.44
442.928	334.44
443.149	348.44
443.371	349.44
443.592	375.44
443.813	414.44
444.034	430.44
444.255	376.44
444.476	314.44
444.698	314.44
444.919	307.44
445.14	392.44
445.361	359.44
445.582	338.44
445.803	390.44
446.024	422.44
446.245	441.44
446.466	414.44
446.687	349.44
446.908	315.44
447.129	296.44
447.35	320.44
447.571	299.44
447.792	298.44
448.013	320.44
448.234	324.44
448.455	346.44
448.675	412.44
448.896	459.44
449.117	400.44
449.338	374.44
449.559	440.44
449.779	481.44
450	390.44
450.221	324.44
450.442	298.44
450.662	284.44
450.883	278.44
451.104	311.44
451.324	299.44
451.545	305.44
451.766	275.44
451.986	273.44
452.207	268.44
452.428	276.44
452.648	278.44
452.869	264.44
453.089	278.44
453.31	272.44
453.53	262.44
453.751	283.44
453.971	282.44
454.192	291.44
454.412	282.44
454.633	264.44
454.853	268.44
455.073	291.44
455.294	307.44
455.514	326.44
455.734	322.44
455.955	269.44
456.175	276.44
456.395	256.44
456.616	271.44
456.836	252.44
457.056	254.44
457.276	251.44
457.497	263.44
457.717	255.44
457.937	271.44
458.157	271.44
458.377	248.44
458.598	272.44
458.818	302.44
459.038	343.44
459.258	362.44
459.478	307.44
459.698	272.44
459.918	285.44
460.138	284.44
460.358	276.44
460.578	291.44
460.798	287.44
461.018	290.44
461.238	290.44
461.458	290.44
461.678	270.44
461.898	286.44
462.118	282.44
462.338	294.44
462.558	286.44
462.777	283.44
462.997	302.44
463.217	286.44
463.437	300.44
463.657	304.44
463.876	293.44
464.096	292.44
464.316	277.44
464.536	301.44
464.755	297.44
464.975	308.44
465.195	327.44
465.414	360.44
465.634	335.44
465.854	286.44
466.073	308.44
466.293	260.44
466.512	262.44
466.732	268.44
466.951	274.44
467.171	259.44
467.391	263.44
467.61	271.44
467.829	286.44
468.049	274.44
468.268	277.44
468.488	263.44
468.707	281.44
468.927	272.44
469.146	282.44
469.365	286.44
469.585	272.44
469.804	307.44
470.023	272.44
470.243	291.44
470.462	299.44
470.681	283.44
470.901	295.44
471.12	295.44
471.339	288.44
471.558	279.44
471.777	294.44
471.997	284.44
472.216	276.44
472.435	297.44
472.654	272.44
472.873	273.44
473.092	293.44
473.311	290.44
473.53	283.44
473.749	296.44
473.968	310.44
474.187	380.44
474.406	368.44
474.625	320.44
474.844	301.44
475.063	285.44
475.282	286.44
475.501	282.44
475.72	296.44
475.939	285.44
476.158	286.44
476.377	286.44
476.596	298.44
476.814	307.44
477.033	293.44
477.252	308.44
477.471	306.44
477.69	295.44
477.908	306.44
478.127	301.44
478.346	280.44
478.564	289.44
478.783	317.44
479.002	308.44
479.22	353.44
479.439	316.44
479.658	344.44
479.876	319.44
480.095	343.44
480.313	343.44
480.532	341.44
480.751	342.44
480.969	349.44
481.188	359.44
481.406	372.44
481.624	352.44
481.843	357.44
482.061	320.44
482.28	318.44
482.498	324.44
482.717	339.44
482.935	319.44
483.153	324.44
483.372	323.44
483.59	297.44
483.808	329.44
484.027	324.44
484.245	326.44
484.463	341.44
484.681	328.44
484.9	330.44
485.118	321.44
485.336	336.44
485.554	314.44
485.772	321.44
485.99	321.44
486.209	341.44
486.427	330.44
486.645	342.44
486.863	346.44
487.081	348.44
487.299	350.44
487.517	345.44
487.735	345.44
487.953	367.44
488.171	329.44
488.389	307.44
488.607	348.44
488.825	348.44
489.043	347.44
489.261	347.44
489.479	341.44
489.696	343.44
489.914	350.44
490.132	361.44
490.35	354.44
490.568	338.44
490.786	360.44
491.003	369.44
491.221	367.44
491.439	374.44
491.657	400.44
491.874	394.44
492.092	387.44
492.31	390.44
492.527	383.44
492.745	399.44
492.963	388.44
493.18	412.44
493.398	406.44
493.615	384.44
493.833	409.44
494.05	389.44
494.268	405.44
494.485	407.44
494.703	407.44
494.92	387.44
495.138	403.44
495.355	411.44
495.573	390.44
495.79	413.44
496.008	405.44
496.225	409.44
496.442	399.44
496.66	404.44
496.877	386.44
497.094	413.44
497.312	415.44
497.529	420.44
497.746	404.44
497.963	423.44
498.181	421.44
498.398	431.44
498.615	439.44
498.832	425.44
499.049	444.44
499.267	442.44
499.484	461.44
499.701	451.44
499.918	453.44
500.135	491.44
500.352	521.44
500.569	481.44
500.786	512.44
501.003	498.44
501.22	502.44
501.437	506.44
501.654	472.44
501.871	478.44
502.088	464.44
502.305	455.44
