Data from 1982.PennyLincolnUp.Lamp.En5.5.200Scan.071819.P1_HRD10591_16-46-51-962.txt Node
Date: Thu Jul 18 16:46:51 EDT 2019
User: cochatt
Spectrometer: HR+D1059
Trigger mode: 1
Integration Time (sec): 1.000000E-1
Scans to average: 1
Electric dark correction enabled: true
Nonlinearity correction enabled: false
Boxcar width: 0
XAxis mode: Wavelengths
Number of Pixels in Spectrum: 2048
>>>>>Begin Spectral Data<<<<<
223.165	-14.69
223.4	-14.69
223.635	-14.69
223.869	-19.69
224.104	-28.69
224.338	-17.69
224.573	-11.69
224.808	-26.69
225.042	0.31
225.277	-5.69
225.511	4.31
225.746	13.31
225.98	9.31
226.215	11.31
226.449	6.31
226.683	21.31
226.918	25.31
227.152	33.31
227.387	36.31
227.621	50.31
227.856	42.31
228.09	36.31
228.324	63.31
228.559	56.31
228.793	70.31
229.027	85.31
229.262	85.31
229.496	93.31
229.73	124.31
229.964	128.31
230.199	124.31
230.433	95.31
230.667	109.31
230.901	105.31
231.136	105.31
231.37	101.31
231.604	95.31
231.838	105.31
232.072	103.31
232.306	105.31
232.541	100.31
232.775	94.31
233.009	88.31
233.243	103.31
233.477	109.31
233.711	103.31
233.945	100.31
234.179	97.31
234.413	117.31
234.647	94.31
234.881	92.31
235.115	88.31
235.349	113.31
235.583	112.31
235.817	106.31
236.051	107.31
236.285	102.31
236.519	105.31
236.753	114.31
236.987	114.31
237.221	160.31
237.455	183.31
237.689	151.31
237.922	125.31
238.156	107.31
238.39	122.31
238.624	109.31
238.858	104.31
239.091	101.31
239.325	113.31
239.559	109.31
239.793	95.31
240.027	116.31
240.26	143.31
240.494	121.31
240.728	123.31
240.961	118.31
241.195	113.31
241.429	126.31
241.662	120.31
241.896	109.31
242.13	118.31
242.363	113.31
242.597	109.31
242.83	107.31
243.064	114.31
243.298	116.31
243.531	128.31
243.765	118.31
243.998	121.31
244.232	116.31
244.465	130.31
244.699	122.31
244.932	125.31
245.166	109.31
245.399	128.31
245.633	130.31
245.866	120.31
246.099	113.31
246.333	123.31
246.566	119.31
246.8	128.31
247.033	120.31
247.266	139.31
247.5	134.31
247.733	145.31
247.966	139.31
248.2	139.31
248.433	138.31
248.666	140.31
248.899	140.31
249.133	159.31
249.366	169.31
249.599	161.31
249.832	134.31
250.066	146.31
250.299	143.31
250.532	156.31
250.765	158.31
250.998	174.31
251.231	177.31
251.465	186.31
251.698	158.31
251.931	166.31
252.164	170.31
252.397	158.31
252.63	164.31
252.863	160.31
253.096	157.31
253.329	186.31
253.562	191.31
253.795	164.31
254.028	171.31
254.261	174.31
254.494	186.31
254.727	211.31
254.96	205.31
255.193	211.31
255.426	194.31
255.659	201.31
255.892	184.31
256.124	188.31
256.357	184.31
256.59	188.31
256.823	170.31
257.056	148.31
257.289	163.31
257.521	166.31
257.754	160.31
257.987	164.31
258.22	183.31
258.452	158.31
258.685	178.31
258.918	163.31
259.151	168.31
259.383	173.31
259.616	180.31
259.849	171.31
260.081	183.31
260.314	212.31
260.547	197.31
260.779	193.31
261.012	191.31
261.244	181.31
261.477	173.31
261.71	187.31
261.942	176.31
262.175	208.31
262.407	169.31
262.64	180.31
262.872	165.31
263.105	178.31
263.337	181.31
263.57	186.31
263.802	181.31
264.035	164.31
264.267	158.31
264.499	171.31
264.732	175.31
264.964	185.31
265.197	158.31
265.429	180.31
265.661	168.31
265.894	185.31
266.126	170.31
266.358	155.31
266.591	176.31
266.823	186.31
267.055	180.31
267.287	171.31
267.52	170.31
267.752	182.31
267.984	186.31
268.216	159.31
268.448	190.31
268.681	185.31
268.913	204.31
269.145	200.31
269.377	224.31
269.609	189.31
269.841	212.31
270.073	230.31
270.306	212.31
270.538	234.31
270.77	243.31
271.002	243.31
271.234	214.31
271.466	240.31
271.698	231.31
271.93	244.31
272.162	258.31
272.394	242.31
272.626	233.31
272.858	229.31
273.09	220.31
273.322	223.31
273.553	210.31
273.785	219.31
274.017	195.31
274.249	203.31
274.481	209.31
274.713	217.31
274.945	219.31
275.176	207.31
275.408	213.31
275.64	210.31
275.872	212.31
276.104	203.31
276.335	223.31
276.567	205.31
276.799	218.31
277.031	243.31
277.262	248.31
277.494	249.31
277.726	240.31
277.957	224.31
278.189	215.31
278.421	230.31
278.652	224.31
278.884	216.31
279.115	212.31
279.347	203.31
279.579	206.31
279.81	205.31
280.042	221.31
280.273	188.31
280.505	211.31
280.736	200.31
280.968	195.31
281.199	207.31
281.431	217.31
281.662	224.31
281.894	213.31
282.125	201.31
282.356	203.31
282.588	227.31
282.819	233.31
283.051	226.31
283.282	216.31
283.513	212.31
283.745	197.31
283.976	204.31
284.207	206.31
284.439	219.31
284.67	221.31
284.901	220.31
285.132	213.31
285.364	209.31
285.595	207.31
285.826	213.31
286.057	212.31
286.288	212.31
286.52	202.31
286.751	221.31
286.982	207.31
287.213	204.31
287.444	209.31
287.675	218.31
287.906	217.31
288.138	222.31
288.369	222.31
288.6	226.31
288.831	232.31
289.062	218.31
289.293	230.31
289.524	222.31
289.755	206.31
289.986	216.31
290.217	206.31
290.448	222.31
290.679	214.31
290.91	224.31
291.141	231.31
291.371	224.31
291.602	212.31
291.833	217.31
292.064	209.31
292.295	206.31
292.526	218.31
292.757	214.31
292.987	209.31
293.218	219.31
293.449	202.31
293.68	218.31
293.91	202.31
294.141	218.31
294.372	212.31
294.603	228.31
294.833	228.31
295.064	219.31
295.295	235.31
295.525	214.31
295.756	238.31
295.987	236.31
296.217	247.31
296.448	254.31
296.679	213.31
296.909	220.31
297.14	220.31
297.37	218.31
297.601	210.31
297.831	234.31
298.062	224.31
298.292	228.31
298.523	216.31
298.753	227.31
298.984	217.31
299.214	227.31
299.445	239.31
299.675	237.31
299.905	227.31
300.136	237.31
300.366	233.31
300.597	232.31
300.827	244.31
301.057	231.31
301.288	242.31
301.518	249.31
301.748	226.31
301.979	252.31
302.209	233.31
302.439	241.31
302.669	258.31
302.9	225.31
303.13	242.31
303.36	240.31
303.59	252.31
303.82	248.31
304.051	266.31
304.281	238.31
304.511	248.31
304.741	232.31
304.971	222.31
305.201	240.31
305.431	236.31
305.661	256.31
305.891	259.31
306.121	252.31
306.352	244.31
306.582	239.31
306.812	247.31
307.042	253.31
307.272	255.31
307.502	246.31
307.731	242.31
307.961	258.31
308.191	248.31
308.421	240.31
308.651	254.31
308.881	235.31
309.111	243.31
309.341	256.31
309.571	264.31
309.8	287.31
310.03	279.31
310.26	288.31
310.49	284.31
310.72	296.31
310.949	324.31
311.179	307.31
311.409	280.31
311.639	287.31
311.868	266.31
312.098	297.31
312.328	288.31
312.557	296.31
312.787	296.31
313.017	323.31
313.246	293.31
313.476	280.31
313.706	271.31
313.935	304.31
314.165	286.31
314.394	304.31
314.624	289.31
314.853	304.31
315.083	287.31
315.312	281.31
315.542	284.31
315.771	277.31
316.001	284.31
316.23	253.31
316.46	283.31
316.689	278.31
316.919	293.31
317.148	282.31
317.377	299.31
317.607	319.31
317.836	290.31
318.065	296.31
318.295	284.31
318.524	280.31
318.753	302.31
318.983	291.31
319.212	273.31
319.441	297.31
319.67	291.31
319.9	295.31
320.129	288.31
320.358	291.31
320.587	291.31
320.816	297.31
321.046	305.31
321.275	300.31
321.504	297.31
321.733	305.31
321.962	314.31
322.191	311.31
322.42	329.31
322.649	341.31
322.878	352.31
323.108	347.31
323.337	395.31
323.566	404.31
323.795	426.31
324.024	473.31
324.253	614.31
324.482	875.31
324.71	1306.31
324.939	1779.31
325.168	1412.31
325.397	730.31
325.626	530.31
325.855	419.31
326.084	408.31
326.313	398.31
326.542	391.31
326.77	448.31
326.999	560.31
327.228	777.31
327.457	1129.31
327.686	1222.31
327.914	829.31
328.143	575.31
328.372	502.31
328.6	473.31
328.829	461.31
329.058	468.31
329.287	448.31
329.515	419.31
329.744	376.31
329.972	410.31
330.201	421.31
330.43	442.31
330.658	453.31
330.887	484.31
331.115	439.31
331.344	379.31
331.572	375.31
331.801	386.31
332.03	376.31
332.258	364.31
332.486	314.31
332.715	344.31
332.943	326.31
333.172	321.31
333.4	328.31
333.629	339.31
333.857	350.31
334.085	368.31
334.314	361.31
334.542	382.31
334.771	400.31
334.999	354.31
335.227	339.31
335.455	336.31
335.684	333.31
335.912	332.31
336.14	316.31
336.369	327.31
336.597	330.31
336.825	340.31
337.053	339.31
337.281	313.31
337.51	319.31
337.738	308.31
337.966	291.31
338.194	321.31
338.422	306.31
338.65	310.31
338.878	322.31
339.106	326.31
339.334	297.31
339.562	308.31
339.79	304.31
340.018	322.31
340.246	317.31
340.474	323.31
340.702	300.31
340.93	307.31
341.158	293.31
341.386	318.31
341.614	288.31
341.842	311.31
342.07	294.31
342.298	318.31
342.526	300.31
342.754	299.31
342.981	282.31
343.209	310.31
343.437	320.31
343.665	308.31
343.893	293.31
344.12	294.31
344.348	301.31
344.576	315.31
344.804	324.31
345.031	339.31
345.259	330.31
345.487	296.31
345.714	308.31
345.942	309.31
346.17	304.31
346.397	307.31
346.625	295.31
346.853	297.31
347.08	301.31
347.308	329.31
347.535	305.31
347.763	314.31
347.99	293.31
348.218	306.31
348.445	326.31
348.673	308.31
348.9	293.31
349.128	300.31
349.355	293.31
349.583	296.31
349.81	272.31
350.037	291.31
350.265	302.31
350.492	282.31
350.72	284.31
350.947	302.31
351.174	301.31
351.402	305.31
351.629	305.31
351.856	308.31
352.083	298.31
352.311	312.31
352.538	292.31
352.765	318.31
352.992	299.31
353.22	300.31
353.447	293.31
353.674	288.31
353.901	302.31
354.128	284.31
354.355	273.31
354.583	259.31
354.81	282.31
355.037	259.31
355.264	278.31
355.491	283.31
355.718	278.31
355.945	272.31
356.172	261.31
356.399	284.31
356.626	276.31
356.853	266.31
357.08	266.31
357.307	261.31
357.534	280.31
357.761	278.31
357.988	275.31
358.215	271.31
358.441	276.31
358.668	287.31
358.895	270.31
359.122	280.31
359.349	298.31
359.576	315.31
359.802	325.31
360.029	342.31
360.256	342.31
360.483	330.31
360.709	316.31
360.936	304.31
361.163	291.31
361.39	275.31
361.616	291.31
361.843	278.31
362.07	285.31
362.296	294.31
362.523	288.31
362.749	297.31
362.976	292.31
363.203	292.31
363.429	271.31
363.656	301.31
363.882	288.31
364.109	280.31
364.335	270.31
364.562	270.31
364.788	268.31
365.015	278.31
365.241	269.31
365.468	279.31
365.694	299.31
365.92	296.31
366.147	286.31
366.373	269.31
366.599	269.31
366.826	265.31
367.052	263.31
367.278	271.31
367.505	269.31
367.731	296.31
367.957	274.31
368.184	282.31
368.41	277.31
368.636	289.31
368.862	289.31
369.089	277.31
369.315	264.31
369.541	280.31
369.767	275.31
369.993	269.31
370.219	261.31
370.445	275.31
370.672	278.31
370.898	236.31
371.124	275.31
371.35	269.31
371.576	265.31
371.802	263.31
372.028	270.31
372.254	258.31
372.48	264.31
372.706	267.31
372.932	260.31
373.158	260.31
373.384	264.31
373.61	278.31
373.835	284.31
374.061	253.31
374.287	259.31
374.513	282.31
374.739	262.31
374.965	255.31
375.191	263.31
375.416	269.31
375.642	270.31
375.868	273.31
376.094	274.31
376.319	276.31
376.545	263.31
376.771	258.31
376.997	268.31
377.222	263.31
377.448	271.31
377.674	271.31
377.899	248.31
378.125	258.31
378.35	262.31
378.576	250.31
378.802	266.31
379.027	263.31
379.253	264.31
379.478	276.31
379.704	269.31
379.929	260.31
380.155	252.31
380.38	249.31
380.606	264.31
380.831	270.31
381.057	256.31
381.282	264.31
381.507	252.31
381.733	278.31
381.958	236.31
382.184	249.31
382.409	266.31
382.634	260.31
382.86	267.31
383.085	259.31
383.31	264.31
383.535	276.31
383.761	258.31
383.986	261.31
384.211	277.31
384.436	276.31
384.662	274.31
384.887	259.31
385.112	254.31
385.337	282.31
385.562	264.31
385.787	267.31
386.013	252.31
386.238	270.31
386.463	260.31
386.688	264.31
386.913	260.31
387.138	277.31
387.363	275.31
387.588	270.31
387.813	269.31
388.038	247.31
388.263	271.31
388.488	265.31
388.713	270.31
388.938	280.31
389.163	286.31
389.387	279.31
389.612	263.31
389.837	261.31
390.062	275.31
390.287	275.31
390.512	266.31
390.736	258.31
390.961	264.31
391.186	252.31
391.411	263.31
391.636	252.31
391.86	270.31
392.085	294.31
392.31	277.31
392.534	279.31
392.759	269.31
392.984	255.31
393.208	283.31
393.433	275.31
393.658	276.31
393.882	270.31
394.107	262.31
394.331	285.31
394.556	290.31
394.78	289.31
395.005	288.31
395.229	266.31
395.454	267.31
395.678	271.31
395.903	277.31
396.127	311.31
396.352	273.31
396.576	274.31
396.801	277.31
397.025	268.31
397.249	291.31
397.474	272.31
397.698	280.31
397.922	282.31
398.147	312.31
398.371	290.31
398.595	294.31
398.82	290.31
399.044	315.31
399.268	312.31
399.492	312.31
399.717	344.31
399.941	353.31
400.165	368.31
400.389	382.31
400.613	340.31
400.837	329.31
401.062	314.31
401.286	292.31
401.51	325.31
401.734	294.31
401.958	308.31
402.182	293.31
402.406	302.31
402.63	295.31
402.854	312.31
403.078	295.31
403.302	322.31
403.526	338.31
403.75	325.31
403.974	317.31
404.198	317.31
404.422	320.31
404.645	329.31
404.869	317.31
405.093	345.31
405.317	347.31
405.541	389.31
405.765	357.31
405.988	336.31
406.212	340.31
406.436	369.31
406.66	378.31
406.883	343.31
407.107	360.31
407.331	384.31
407.555	405.31
407.778	404.31
408.002	360.31
408.226	342.31
408.449	348.31
408.673	337.31
408.896	340.31
409.12	369.31
409.344	357.31
409.567	325.31
409.791	304.31
410.014	320.31
410.238	315.31
410.461	306.31
410.685	313.31
410.908	324.31
411.132	346.31
411.355	374.31
411.578	353.31
411.802	333.31
412.025	326.31
412.249	298.31
412.472	333.31
412.695	357.31
412.919	347.31
413.142	328.31
413.365	303.31
413.589	300.31
413.812	297.31
414.035	297.31
414.258	296.31
414.482	297.31
414.705	293.31
414.928	279.31
415.151	276.31
415.374	289.31
415.597	304.31
415.821	288.31
416.044	298.31
416.267	281.31
416.49	289.31
416.713	277.31
416.936	287.31
417.159	279.31
417.382	290.31
417.605	294.31
417.828	323.31
418.051	322.31
418.274	306.31
418.497	302.31
418.72	294.31
418.943	300.31
419.166	290.31
419.389	288.31
419.611	305.31
419.834	302.31
420.057	308.31
420.28	318.31
420.503	304.31
420.726	334.31
420.948	326.31
421.171	344.31
421.394	349.31
421.617	324.31
421.839	314.31
422.062	332.31
422.285	313.31
422.507	355.31
422.73	408.31
422.953	395.31
423.175	343.31
423.398	318.31
423.621	326.31
423.843	340.31
424.066	317.31
424.288	352.31
424.511	355.31
424.733	380.31
424.956	415.31
425.178	410.31
425.401	400.31
425.623	404.31
425.846	361.31
426.068	334.31
426.291	336.31
426.513	335.31
426.735	351.31
426.958	371.31
427.18	426.31
427.402	518.31
427.625	533.31
427.847	482.31
428.069	446.31
428.292	380.31
428.514	369.31
428.736	324.31
428.958	326.31
429.181	324.31
429.403	311.31
429.625	312.31
429.847	352.31
430.069	387.31
430.292	375.31
430.514	312.31
430.736	313.31
430.958	305.31
431.18	296.31
431.402	314.31
431.624	317.31
431.846	288.31
432.068	306.31
432.29	304.31
432.512	274.31
432.734	297.31
432.956	311.31
433.178	286.31
433.4	313.31
433.622	302.31
433.844	293.31
434.066	285.31
434.287	307.31
434.509	287.31
434.731	299.31
434.953	313.31
435.175	322.31
435.397	338.31
435.618	365.31
435.84	373.31
436.062	430.31
436.284	459.31
436.505	384.31
436.727	349.31
436.949	314.31
437.17	318.31
437.392	324.31
437.614	331.31
437.835	347.31
438.057	425.31
438.278	480.31
438.5	458.31
438.721	507.31
438.943	485.31
439.165	396.31
439.386	370.31
439.608	343.31
439.829	359.31
440.05	382.31
440.272	426.31
440.493	393.31
440.715	349.31
440.936	328.31
441.158	312.31
441.379	320.31
441.6	319.31
441.822	343.31
442.043	370.31
442.264	412.31
442.486	406.31
442.707	373.31
442.928	360.31
443.149	374.31
443.371	382.31
443.592	418.31
443.813	465.31
444.034	483.31
444.255	388.31
444.476	372.31
444.698	322.31
444.919	322.31
445.14	438.31
445.361	389.31
445.582	379.31
445.803	434.31
446.024	469.31
446.245	477.31
446.466	444.31
446.687	364.31
446.908	354.31
447.129	352.31
447.35	320.31
447.571	325.31
447.792	327.31
448.013	318.31
448.234	342.31
448.455	371.31
448.675	441.31
448.896	483.31
449.117	416.31
449.338	418.31
449.559	473.31
449.779	500.31
450	406.31
450.221	363.31
450.442	341.31
450.662	320.31
450.883	322.31
451.104	340.31
451.324	320.31
451.545	300.31
451.766	304.31
451.986	295.31
452.207	298.31
452.428	283.31
452.648	292.31
452.869	282.31
453.089	292.31
453.31	300.31
453.53	290.31
453.751	293.31
453.971	306.31
454.192	305.31
454.412	304.31
454.633	280.31
454.853	286.31
455.073	285.31
455.294	315.31
455.514	338.31
455.734	333.31
455.955	312.31
456.175	278.31
456.395	261.31
456.616	268.31
456.836	276.31
457.056	269.31
457.276	277.31
457.497	277.31
457.717	265.31
457.937	260.31
458.157	265.31
458.377	287.31
458.598	304.31
458.818	354.31
459.038	399.31
459.258	396.31
459.478	326.31
459.698	304.31
459.918	278.31
460.138	276.31
460.358	294.31
460.578	288.31
460.798	280.31
461.018	308.31
461.238	321.31
461.458	301.31
461.678	280.31
461.898	278.31
462.118	287.31
462.338	293.31
462.558	281.31
462.777	298.31
462.997	295.31
463.217	320.31
463.437	296.31
463.657	277.31
463.876	309.31
464.096	318.31
464.316	290.31
464.536	321.31
464.755	291.31
464.975	305.31
465.195	346.31
465.414	391.31
465.634	338.31
465.854	328.31
466.073	314.31
466.293	283.31
466.512	306.31
466.732	294.31
466.951	285.31
467.171	293.31
467.391	284.31
467.61	305.31
467.829	296.31
468.049	315.31
468.268	284.31
468.488	284.31
468.707	274.31
468.927	272.31
469.146	269.31
469.365	260.31
469.585	282.31
469.804	289.31
470.023	272.31
470.243	285.31
470.462	301.31
470.681	311.31
470.901	312.31
471.12	268.31
471.339	275.31
471.558	283.31
471.777	302.31
471.997	302.31
472.216	301.31
472.435	306.31
472.654	290.31
472.873	296.31
473.092	293.31
473.311	291.31
473.53	291.31
473.749	305.31
473.968	344.31
474.187	402.31
474.406	397.31
474.625	324.31
474.844	316.31
475.063	307.31
475.282	284.31
475.501	313.31
475.72	301.31
475.939	321.31
476.158	295.31
476.377	308.31
476.596	287.31
476.814	299.31
477.033	297.31
477.252	311.31
477.471	300.31
477.69	301.31
477.908	308.31
478.127	305.31
478.346	284.31
478.564	315.31
478.783	312.31
479.002	321.31
479.22	336.31
479.439	326.31
479.658	344.31
479.876	338.31
480.095	341.31
480.313	355.31
480.532	361.31
480.751	356.31
480.969	349.31
481.188	393.31
481.406	420.31
481.624	387.31
481.843	358.31
482.061	349.31
482.28	343.31
482.498	318.31
482.717	340.31
482.935	338.31
483.153	328.31
483.372	333.31
483.59	326.31
483.808	340.31
484.027	338.31
484.245	329.31
484.463	337.31
484.681	375.31
484.9	337.31
485.118	346.31
485.336	344.31
485.554	352.31
485.772	355.31
485.99	343.31
486.209	356.31
486.427	342.31
486.645	370.31
486.863	374.31
487.081	358.31
487.299	350.31
487.517	362.31
487.735	359.31
487.953	365.31
488.171	355.31
488.389	376.31
488.607	363.31
488.825	359.31
489.043	349.31
489.261	361.31
489.479	374.31
489.696	372.31
489.914	372.31
490.132	354.31
490.35	381.31
490.568	372.31
490.786	385.31
491.003	400.31
491.221	416.31
491.439	420.31
491.657	417.31
491.874	407.31
492.092	429.31
492.31	418.31
492.527	425.31
492.745	413.31
492.963	406.31
493.18	433.31
493.398	426.31
493.615	419.31
493.833	415.31
494.05	437.31
494.268	412.31
494.485	445.31
494.703	432.31
494.92	435.31
495.138	420.31
495.355	407.31
495.573	452.31
495.79	438.31
496.008	414.31
496.225	418.31
496.442	419.31
496.66	440.31
496.877	432.31
497.094	455.31
497.312	437.31
497.529	437.31
497.746	442.31
497.963	439.31
498.181	448.31
498.398	462.31
498.615	453.31
498.832	457.31
499.049	458.31
499.267	476.31
499.484	489.31
499.701	476.31
499.918	489.31
500.135	487.31
500.352	504.31
500.569	517.31
500.786	544.31
501.003	506.31
501.22	488.31
501.437	492.31
501.654	505.31
501.871	506.31
502.088	489.31
