Data from 1982.PennyLincolnUp.Lamp.En5.5.200Scan.071819.P1_HRD10591_16-45-38-962.txt Node
Date: Thu Jul 18 16:45:38 EDT 2019
User: cochatt
Spectrometer: HR+D1059
Trigger mode: 1
Integration Time (sec): 1.000000E-1
Scans to average: 1
Electric dark correction enabled: true
Nonlinearity correction enabled: false
Boxcar width: 0
XAxis mode: Wavelengths
Number of Pixels in Spectrum: 2048
>>>>>Begin Spectral Data<<<<<
223.165	-27.25
223.4	-27.25
223.635	-27.25
223.869	-21.25
224.104	-6.25
224.338	-14.25
224.573	-22.25
224.808	-14.25
225.042	-7.25
225.277	4.75
225.511	-8.25
225.746	7.75
225.98	8.75
226.215	24.75
226.449	10.75
226.683	2.75
226.918	25.75
227.152	35.75
227.387	44.75
227.621	36.75
227.856	39.75
228.09	46.75
228.324	53.75
228.559	59.75
228.793	65.75
229.027	76.75
229.262	102.75
229.496	110.75
229.73	102.75
229.964	126.75
230.199	115.75
230.433	92.75
230.667	88.75
230.901	94.75
231.136	104.75
231.37	88.75
231.604	90.75
231.838	107.75
232.072	107.75
232.306	102.75
232.541	88.75
232.775	109.75
233.009	112.75
233.243	90.75
233.477	108.75
233.711	95.75
233.945	97.75
234.179	81.75
234.413	93.75
234.647	109.75
234.881	102.75
235.115	100.75
235.349	108.75
235.583	108.75
235.817	104.75
236.051	98.75
236.285	104.75
236.519	122.75
236.753	101.75
236.987	108.75
237.221	134.75
237.455	178.75
237.689	146.75
237.922	118.75
238.156	117.75
238.39	118.75
238.624	109.75
238.858	112.75
239.091	99.75
239.325	103.75
239.559	101.75
239.793	103.75
240.027	103.75
240.26	113.75
240.494	134.75
240.728	113.75
240.961	120.75
241.195	136.75
241.429	105.75
241.662	112.75
241.896	103.75
242.13	105.75
242.363	126.75
242.597	115.75
242.83	122.75
243.064	120.75
243.298	112.75
243.531	101.75
243.765	117.75
243.998	122.75
244.232	108.75
244.465	118.75
244.699	128.75
244.932	111.75
245.166	111.75
245.399	117.75
245.633	114.75
245.866	120.75
246.099	127.75
246.333	112.75
246.566	118.75
246.8	128.75
247.033	118.75
247.266	112.75
247.5	119.75
247.733	146.75
247.966	142.75
248.2	136.75
248.433	146.75
248.666	150.75
248.899	157.75
249.133	161.75
249.366	158.75
249.599	152.75
249.832	144.75
250.066	146.75
250.299	152.75
250.532	141.75
250.765	168.75
250.998	159.75
251.231	169.75
251.465	165.75
251.698	155.75
251.931	164.75
252.164	150.75
252.397	157.75
252.63	171.75
252.863	176.75
253.096	173.75
253.329	180.75
253.562	181.75
253.795	185.75
254.028	161.75
254.261	171.75
254.494	172.75
254.727	200.75
254.96	211.75
255.193	204.75
255.426	188.75
255.659	185.75
255.892	193.75
256.124	174.75
256.357	172.75
256.59	168.75
256.823	148.75
257.056	153.75
257.289	145.75
257.521	165.75
257.754	173.75
257.987	149.75
258.22	167.75
258.452	141.75
258.685	164.75
258.918	157.75
259.151	164.75
259.383	169.75
259.616	163.75
259.849	180.75
260.081	195.75
260.314	198.75
260.547	193.75
260.779	200.75
261.012	182.75
261.244	166.75
261.477	176.75
261.71	182.75
261.942	166.75
262.175	174.75
262.407	184.75
262.64	166.75
262.872	172.75
263.105	166.75
263.337	163.75
263.57	165.75
263.802	156.75
264.035	171.75
264.267	177.75
264.499	166.75
264.732	160.75
264.964	168.75
265.197	148.75
265.429	177.75
265.661	173.75
265.894	172.75
266.126	152.75
266.358	174.75
266.591	178.75
266.823	173.75
267.055	184.75
267.287	186.75
267.52	156.75
267.752	179.75
267.984	174.75
268.216	171.75
268.448	186.75
268.681	167.75
268.913	198.75
269.145	208.75
269.377	201.75
269.609	213.75
269.841	203.75
270.073	206.75
270.306	212.75
270.538	235.75
270.77	244.75
271.002	225.75
271.234	227.75
271.466	225.75
271.698	232.75
271.93	241.75
272.162	222.75
272.394	240.75
272.626	227.75
272.858	207.75
273.09	209.75
273.322	220.75
273.553	200.75
273.785	200.75
274.017	210.75
274.249	206.75
274.481	210.75
274.713	203.75
274.945	212.75
275.176	204.75
275.408	188.75
275.64	206.75
275.872	188.75
276.104	214.75
276.335	198.75
276.567	201.75
276.799	216.75
277.031	222.75
277.262	222.75
277.494	240.75
277.726	209.75
277.957	216.75
278.189	214.75
278.421	208.75
278.652	218.75
278.884	188.75
279.115	200.75
279.347	203.75
279.579	213.75
279.81	212.75
280.042	194.75
280.273	201.75
280.505	201.75
280.736	208.75
280.968	209.75
281.199	210.75
281.431	200.75
281.662	189.75
281.894	200.75
282.125	195.75
282.356	210.75
282.588	226.75
282.819	225.75
283.051	224.75
283.282	200.75
283.513	210.75
283.745	200.75
283.976	208.75
284.207	198.75
284.439	214.75
284.67	194.75
284.901	206.75
285.132	200.75
285.364	202.75
285.595	206.75
285.826	219.75
286.057	207.75
286.288	221.75
286.52	209.75
286.751	200.75
286.982	214.75
287.213	197.75
287.444	202.75
287.675	212.75
287.906	229.75
288.138	207.75
288.369	226.75
288.6	226.75
288.831	221.75
289.062	200.75
289.293	206.75
289.524	214.75
289.755	217.75
289.986	223.75
290.217	210.75
290.448	229.75
290.679	209.75
290.91	212.75
291.141	228.75
291.371	214.75
291.602	219.75
291.833	211.75
292.064	221.75
292.295	216.75
292.526	212.75
292.757	206.75
292.987	208.75
293.218	216.75
293.449	209.75
293.68	214.75
293.91	213.75
294.141	215.75
294.372	221.75
294.603	227.75
294.833	219.75
295.064	207.75
295.295	216.75
295.525	210.75
295.756	231.75
295.987	219.75
296.217	235.75
296.448	238.75
296.679	226.75
296.909	224.75
297.14	206.75
297.37	206.75
297.601	227.75
297.831	225.75
298.062	230.75
298.292	230.75
298.523	231.75
298.753	234.75
298.984	219.75
299.214	229.75
299.445	214.75
299.675	215.75
299.905	228.75
300.136	212.75
300.366	227.75
300.597	228.75
300.827	243.75
301.057	227.75
301.288	236.75
301.518	237.75
301.748	223.75
301.979	227.75
302.209	244.75
302.439	230.75
302.669	229.75
302.9	244.75
303.13	240.75
303.36	227.75
303.59	240.75
303.82	264.75
304.051	229.75
304.281	240.75
304.511	237.75
304.741	221.75
304.971	238.75
305.201	221.75
305.431	233.75
305.661	226.75
305.891	237.75
306.121	237.75
306.352	260.75
306.582	244.75
306.812	218.75
307.042	237.75
307.272	235.75
307.502	234.75
307.731	239.75
307.961	245.75
308.191	241.75
308.421	252.75
308.651	251.75
308.881	251.75
309.111	242.75
309.341	244.75
309.571	260.75
309.8	266.75
310.03	275.75
310.26	260.75
310.49	276.75
310.72	267.75
310.949	313.75
311.179	285.75
311.409	274.75
311.639	266.75
311.868	272.75
312.098	274.75
312.328	284.75
312.557	285.75
312.787	284.75
313.017	290.75
313.246	283.75
313.476	269.75
313.706	286.75
313.935	292.75
314.165	280.75
314.394	301.75
314.624	293.75
314.853	300.75
315.083	289.75
315.312	268.75
315.542	273.75
315.771	262.75
316.001	265.75
316.23	269.75
316.46	267.75
316.689	277.75
316.919	285.75
317.148	281.75
317.377	282.75
317.607	289.75
317.836	277.75
318.065	268.75
318.295	262.75
318.524	269.75
318.753	264.75
318.983	270.75
319.212	280.75
319.441	280.75
319.67	278.75
319.9	276.75
320.129	269.75
320.358	276.75
320.587	278.75
320.816	283.75
321.046	305.75
321.275	310.75
321.504	292.75
321.733	289.75
321.962	308.75
322.191	320.75
322.42	316.75
322.649	324.75
322.878	347.75
323.108	356.75
323.337	357.75
323.566	379.75
323.795	404.75
324.024	437.75
324.253	572.75
324.482	823.75
324.71	1229.75
324.939	1586.75
325.168	1261.75
325.397	660.75
325.626	483.75
325.855	404.75
326.084	383.75
326.313	366.75
326.542	366.75
326.77	418.75
326.999	525.75
327.228	727.75
327.457	1061.75
327.686	1131.75
327.914	771.75
328.143	517.75
328.372	457.75
328.6	418.75
328.829	423.75
329.058	422.75
329.287	403.75
329.515	378.75
329.744	362.75
329.972	359.75
330.201	363.75
330.43	409.75
330.658	421.75
330.887	451.75
331.115	420.75
331.344	385.75
331.572	362.75
331.801	331.75
332.03	362.75
332.258	338.75
332.486	312.75
332.715	320.75
332.943	291.75
333.172	316.75
333.4	324.75
333.629	312.75
333.857	325.75
334.085	324.75
334.314	331.75
334.542	356.75
334.771	366.75
334.999	343.75
335.227	331.75
335.455	322.75
335.684	313.75
335.912	300.75
336.14	301.75
336.369	301.75
336.597	312.75
336.825	313.75
337.053	292.75
337.281	324.75
337.51	310.75
337.738	321.75
337.966	329.75
338.194	317.75
338.422	313.75
338.65	301.75
338.878	297.75
339.106	302.75
339.334	294.75
339.562	300.75
339.79	286.75
340.018	310.75
340.246	329.75
340.474	314.75
340.702	307.75
340.93	301.75
341.158	301.75
341.386	303.75
341.614	286.75
341.842	297.75
342.07	307.75
342.298	305.75
342.526	293.75
342.754	270.75
342.981	281.75
343.209	283.75
343.437	275.75
343.665	298.75
343.893	292.75
344.12	292.75
344.348	299.75
344.576	305.75
344.804	311.75
345.031	296.75
345.259	326.75
345.487	292.75
345.714	301.75
345.942	297.75
346.17	287.75
346.397	296.75
346.625	293.75
346.853	285.75
347.08	289.75
347.308	307.75
347.535	310.75
347.763	303.75
347.99	299.75
348.218	313.75
348.445	308.75
348.673	294.75
348.9	304.75
349.128	286.75
349.355	274.75
349.583	284.75
349.81	271.75
350.037	269.75
350.265	286.75
350.492	286.75
350.72	296.75
350.947	296.75
351.174	298.75
351.402	288.75
351.629	285.75
351.856	288.75
352.083	301.75
352.311	306.75
352.538	283.75
352.765	302.75
352.992	291.75
353.22	292.75
353.447	273.75
353.674	293.75
353.901	264.75
354.128	277.75
354.355	276.75
354.583	258.75
354.81	266.75
355.037	271.75
355.264	286.75
355.491	260.75
355.718	262.75
355.945	258.75
356.172	260.75
356.399	266.75
356.626	258.75
356.853	285.75
357.08	253.75
357.307	255.75
357.534	266.75
357.761	280.75
357.988	274.75
358.215	267.75
358.441	293.75
358.668	299.75
358.895	271.75
359.122	274.75
359.349	261.75
359.576	288.75
359.802	317.75
360.029	320.75
360.256	327.75
360.483	310.75
360.709	294.75
360.936	286.75
361.163	297.75
361.39	294.75
361.616	275.75
361.843	286.75
362.07	307.75
362.296	302.75
362.523	297.75
362.749	280.75
362.976	279.75
363.203	285.75
363.429	281.75
363.656	285.75
363.882	277.75
364.109	275.75
364.335	259.75
364.562	280.75
364.788	283.75
365.015	281.75
365.241	277.75
365.468	273.75
365.694	282.75
365.92	283.75
366.147	275.75
366.373	279.75
366.599	274.75
366.826	260.75
367.052	267.75
367.278	267.75
367.505	265.75
367.731	274.75
367.957	268.75
368.184	266.75
368.41	271.75
368.636	275.75
368.862	283.75
369.089	268.75
369.315	285.75
369.541	286.75
369.767	258.75
369.993	274.75
370.219	276.75
370.445	260.75
370.672	267.75
370.898	264.75
371.124	266.75
371.35	270.75
371.576	268.75
371.802	266.75
372.028	234.75
372.254	268.75
372.48	283.75
372.706	266.75
372.932	275.75
373.158	280.75
373.384	268.75
373.61	274.75
373.835	265.75
374.061	276.75
374.287	280.75
374.513	275.75
374.739	262.75
374.965	258.75
375.191	280.75
375.416	282.75
375.642	266.75
375.868	249.75
376.094	252.75
376.319	261.75
376.545	247.75
376.771	258.75
376.997	253.75
377.222	260.75
377.448	246.75
377.674	248.75
377.899	258.75
378.125	270.75
378.35	262.75
378.576	251.75
378.802	269.75
379.027	271.75
379.253	263.75
379.478	268.75
379.704	268.75
379.929	243.75
380.155	269.75
380.38	277.75
380.606	246.75
380.831	278.75
381.057	258.75
381.282	260.75
381.507	266.75
381.733	254.75
381.958	245.75
382.184	270.75
382.409	257.75
382.634	268.75
382.86	257.75
383.085	256.75
383.31	270.75
383.535	270.75
383.761	259.75
383.986	275.75
384.211	289.75
384.436	276.75
384.662	264.75
384.887	263.75
385.112	264.75
385.337	263.75
385.562	260.75
385.787	256.75
386.013	272.75
386.238	267.75
386.463	265.75
386.688	260.75
386.913	260.75
387.138	272.75
387.363	277.75
387.588	260.75
387.813	281.75
388.038	284.75
388.263	270.75
388.488	272.75
388.713	272.75
388.938	295.75
389.163	277.75
389.387	276.75
389.612	285.75
389.837	270.75
390.062	258.75
390.287	278.75
390.512	279.75
390.736	272.75
390.961	285.75
391.186	279.75
391.411	275.75
391.636	262.75
391.86	276.75
392.085	269.75
392.31	245.75
392.534	263.75
392.759	253.75
392.984	280.75
393.208	285.75
393.433	281.75
393.658	276.75
393.882	260.75
394.107	267.75
394.331	250.75
394.556	258.75
394.78	265.75
395.005	258.75
395.229	267.75
395.454	272.75
395.678	276.75
395.903	277.75
396.127	308.75
396.352	289.75
396.576	290.75
396.801	288.75
397.025	292.75
397.249	265.75
397.474	281.75
397.698	269.75
397.922	311.75
398.147	307.75
398.371	319.75
398.595	296.75
398.82	292.75
399.044	297.75
399.268	300.75
399.492	326.75
399.717	329.75
399.941	345.75
400.165	351.75
400.389	356.75
400.613	323.75
400.837	310.75
401.062	312.75
401.286	312.75
401.51	294.75
401.734	295.75
401.958	296.75
402.182	302.75
402.406	321.75
402.63	304.75
402.854	294.75
403.078	301.75
403.302	286.75
403.526	328.75
403.75	312.75
403.974	301.75
404.198	306.75
404.422	317.75
404.645	314.75
404.869	317.75
405.093	331.75
405.317	342.75
405.541	357.75
405.765	325.75
405.988	318.75
406.212	337.75
406.436	344.75
406.66	355.75
406.883	343.75
407.107	354.75
407.331	369.75
407.555	403.75
407.778	398.75
408.002	359.75
408.226	350.75
408.449	343.75
408.673	338.75
408.896	362.75
409.12	388.75
409.344	365.75
409.567	338.75
409.791	311.75
410.014	309.75
410.238	316.75
410.461	301.75
410.685	306.75
410.908	318.75
411.132	338.75
411.355	349.75
411.578	314.75
411.802	321.75
412.025	314.75
412.249	310.75
412.472	351.75
412.695	352.75
412.919	357.75
413.142	316.75
413.365	306.75
413.589	320.75
413.812	305.75
414.035	267.75
414.258	309.75
414.482	282.75
414.705	290.75
414.928	272.75
415.151	291.75
415.374	297.75
415.597	291.75
415.821	284.75
416.044	294.75
416.267	314.75
416.49	295.75
416.713	268.75
416.936	289.75
417.159	268.75
417.382	289.75
417.605	292.75
417.828	300.75
418.051	322.75
418.274	299.75
418.497	301.75
418.72	288.75
418.943	286.75
419.166	293.75
419.389	296.75
419.611	309.75
419.834	308.75
420.057	320.75
420.28	310.75
420.503	296.75
420.726	302.75
420.948	314.75
421.171	323.75
421.394	375.75
421.617	320.75
421.839	298.75
422.062	302.75
422.285	314.75
422.507	360.75
422.73	398.75
422.953	364.75
423.175	332.75
423.398	333.75
423.621	317.75
423.843	336.75
424.066	328.75
424.288	339.75
424.511	353.75
424.733	373.75
424.956	406.75
425.178	410.75
425.401	397.75
425.623	396.75
425.846	359.75
426.068	330.75
426.291	323.75
426.513	330.75
426.735	317.75
426.958	351.75
427.18	420.75
427.402	483.75
427.625	499.75
427.847	469.75
428.069	418.75
428.292	374.75
428.514	316.75
428.736	323.75
428.958	319.75
429.181	322.75
429.403	310.75
429.625	301.75
429.847	342.75
430.069	368.75
430.292	370.75
430.514	352.75
430.736	298.75
430.958	320.75
431.18	294.75
431.402	292.75
431.624	294.75
431.846	286.75
432.068	284.75
432.29	283.75
432.512	291.75
432.734	297.75
432.956	321.75
433.178	282.75
433.4	311.75
433.622	296.75
433.844	279.75
434.066	306.75
434.287	288.75
434.509	299.75
434.731	286.75
434.953	296.75
435.175	320.75
435.397	291.75
435.618	344.75
435.84	369.75
436.062	428.75
436.284	442.75
436.505	379.75
436.727	330.75
436.949	311.75
437.17	308.75
437.392	320.75
437.614	334.75
437.835	360.75
438.057	403.75
438.278	468.75
438.5	453.75
438.721	507.75
438.943	442.75
439.165	359.75
439.386	350.75
439.608	339.75
439.829	346.75
440.05	358.75
440.272	394.75
440.493	349.75
440.715	328.75
440.936	331.75
441.158	334.75
441.379	319.75
441.6	326.75
441.822	345.75
442.043	367.75
442.264	418.75
442.486	444.75
442.707	386.75
442.928	359.75
443.149	328.75
443.371	351.75
443.592	394.75
443.813	422.75
444.034	462.75
444.255	379.75
444.476	342.75
444.698	332.75
444.919	332.75
445.14	409.75
445.361	396.75
445.582	382.75
445.803	408.75
446.024	486.75
446.245	469.75
446.466	417.75
446.687	366.75
446.908	334.75
447.129	327.75
447.35	302.75
447.571	305.75
447.792	328.75
448.013	313.75
448.234	325.75
448.455	374.75
448.675	422.75
448.896	477.75
449.117	414.75
449.338	411.75
449.559	461.75
449.779	518.75
450	415.75
450.221	342.75
450.442	326.75
450.662	314.75
450.883	314.75
451.104	322.75
451.324	308.75
451.545	315.75
451.766	285.75
451.986	271.75
452.207	286.75
452.428	278.75
452.648	261.75
452.869	290.75
453.089	289.75
453.31	304.75
453.53	281.75
453.751	270.75
453.971	282.75
454.192	298.75
454.412	300.75
454.633	276.75
454.853	279.75
455.073	295.75
455.294	293.75
455.514	331.75
455.734	339.75
455.955	272.75
456.175	270.75
456.395	269.75
456.616	264.75
456.836	266.75
457.056	244.75
457.276	264.75
457.497	256.75
457.717	263.75
457.937	279.75
458.157	278.75
458.377	285.75
458.598	296.75
458.818	320.75
459.038	377.75
459.258	377.75
459.478	328.75
459.698	290.75
459.918	286.75
460.138	280.75
460.358	304.75
460.578	275.75
460.798	286.75
461.018	290.75
461.238	278.75
461.458	263.75
461.678	294.75
461.898	284.75
462.118	297.75
462.338	278.75
462.558	293.75
462.777	305.75
462.997	309.75
463.217	287.75
463.437	317.75
463.657	293.75
463.876	309.75
464.096	300.75
464.316	319.75
464.536	308.75
464.755	300.75
464.975	313.75
465.195	349.75
465.414	362.75
465.634	356.75
465.854	344.75
466.073	299.75
466.293	294.75
466.512	296.75
466.732	294.75
466.951	285.75
467.171	273.75
467.391	291.75
467.61	290.75
467.829	284.75
468.049	299.75
468.268	308.75
468.488	301.75
468.707	285.75
468.927	276.75
469.146	256.75
469.365	274.75
469.585	277.75
469.804	277.75
470.023	291.75
470.243	287.75
470.462	282.75
470.681	304.75
470.901	281.75
471.12	276.75
471.339	300.75
471.558	306.75
471.777	278.75
471.997	293.75
472.216	312.75
472.435	290.75
472.654	302.75
472.873	284.75
473.092	293.75
473.311	294.75
473.53	293.75
473.749	294.75
473.968	322.75
474.187	399.75
474.406	390.75
474.625	307.75
474.844	282.75
475.063	278.75
475.282	289.75
475.501	289.75
475.72	310.75
475.939	292.75
476.158	277.75
476.377	309.75
476.596	305.75
476.814	312.75
477.033	310.75
477.252	313.75
477.471	304.75
477.69	309.75
477.908	305.75
478.127	298.75
478.346	326.75
478.564	292.75
478.783	333.75
479.002	322.75
479.22	338.75
479.439	323.75
479.658	308.75
479.876	331.75
480.095	332.75
480.313	352.75
480.532	354.75
480.751	371.75
480.969	358.75
481.188	376.75
481.406	399.75
481.624	373.75
481.843	369.75
482.061	312.75
482.28	333.75
482.498	322.75
482.717	331.75
482.935	330.75
483.153	327.75
483.372	330.75
483.59	320.75
483.808	333.75
484.027	346.75
484.245	345.75
484.463	335.75
484.681	350.75
484.9	323.75
485.118	332.75
485.336	337.75
485.554	340.75
485.772	347.75
485.99	339.75
486.209	326.75
486.427	348.75
486.645	328.75
486.863	374.75
487.081	348.75
487.299	370.75
487.517	353.75
487.735	349.75
487.953	353.75
488.171	376.75
488.389	354.75
488.607	361.75
488.825	355.75
489.043	369.75
489.261	362.75
489.479	371.75
489.696	370.75
489.914	352.75
490.132	368.75
490.35	382.75
490.568	349.75
490.786	390.75
491.003	376.75
491.221	384.75
491.439	386.75
491.657	388.75
491.874	418.75
492.092	404.75
492.31	398.75
492.527	402.75
492.745	402.75
492.963	391.75
493.18	436.75
493.398	402.75
493.615	410.75
493.833	396.75
494.05	413.75
494.268	419.75
494.485	412.75
494.703	406.75
494.92	415.75
495.138	421.75
495.355	412.75
495.573	436.75
495.79	430.75
496.008	420.75
496.225	410.75
496.442	418.75
496.66	440.75
496.877	430.75
497.094	434.75
497.312	409.75
497.529	406.75
497.746	433.75
497.963	428.75
498.181	434.75
498.398	439.75
498.615	460.75
498.832	428.75
499.049	438.75
499.267	452.75
499.484	483.75
499.701	486.75
499.918	476.75
500.135	457.75
500.352	512.75
500.569	527.75
500.786	530.75
501.003	516.75
501.22	497.75
501.437	497.75
501.654	496.75
501.871	474.75
502.088	479.75
