Data from 1982.PennyLincolnUp.Lamp.En5.5.200Scan.071819.P1_HRD10591_16-47-36-962.txt Node
Date: Thu Jul 18 16:47:36 EDT 2019
User: cochatt
Spectrometer: HR+D1059
Trigger mode: 1
Integration Time (sec): 1.000000E-1
Scans to average: 1
Electric dark correction enabled: true
Nonlinearity correction enabled: false
Boxcar width: 0
XAxis mode: Wavelengths
Number of Pixels in Spectrum: 2048
>>>>>Begin Spectral Data<<<<<
223.165	-16.94
223.4	-16.94
223.635	-16.94
223.869	-10.94
224.104	-16.94
224.338	-7.94
224.573	-18.94
224.808	-12.94
225.042	2.06
225.277	-17.94
225.511	0.06
225.746	-10.94
225.98	13.06
226.215	8.06
226.449	6.06
226.683	13.06
226.918	36.06
227.152	35.06
227.387	44.06
227.621	39.06
227.856	33.06
228.09	54.06
228.324	43.06
228.559	45.06
228.793	67.06
229.027	108.06
229.262	91.06
229.496	95.06
229.73	117.06
229.964	117.06
230.199	109.06
230.433	109.06
230.667	115.06
230.901	109.06
231.136	105.06
231.37	111.06
231.604	99.06
231.838	93.06
232.072	97.06
232.306	97.06
232.541	97.06
232.775	102.06
233.009	119.06
233.243	107.06
233.477	85.06
233.711	107.06
233.945	101.06
234.179	118.06
234.413	106.06
234.647	106.06
234.881	92.06
235.115	120.06
235.349	105.06
235.583	117.06
235.817	100.06
236.051	107.06
236.285	120.06
236.519	109.06
236.753	113.06
236.987	132.06
237.221	146.06
237.455	185.06
237.689	143.06
237.922	122.06
238.156	112.06
238.39	110.06
238.624	108.06
238.858	108.06
239.091	98.06
239.325	100.06
239.559	98.06
239.793	128.06
240.027	116.06
240.26	122.06
240.494	126.06
240.728	132.06
240.961	124.06
241.195	121.06
241.429	119.06
241.662	117.06
241.896	124.06
242.13	128.06
242.363	112.06
242.597	104.06
242.83	126.06
243.064	120.06
243.298	120.06
243.531	105.06
243.765	105.06
243.998	113.06
244.232	120.06
244.465	121.06
244.699	119.06
244.932	112.06
245.166	123.06
245.399	123.06
245.633	130.06
245.866	121.06
246.099	120.06
246.333	121.06
246.566	114.06
246.8	124.06
247.033	118.06
247.266	131.06
247.5	132.06
247.733	148.06
247.966	142.06
248.2	149.06
248.433	137.06
248.666	154.06
248.899	148.06
249.133	152.06
249.366	176.06
249.599	162.06
249.832	154.06
250.066	163.06
250.299	155.06
250.532	164.06
250.765	165.06
250.998	180.06
251.231	185.06
251.465	157.06
251.698	145.06
251.931	164.06
252.164	152.06
252.397	162.06
252.63	164.06
252.863	156.06
253.096	178.06
253.329	193.06
253.562	209.06
253.795	170.06
254.028	189.06
254.261	176.06
254.494	196.06
254.727	214.06
254.96	222.06
255.193	231.06
255.426	201.06
255.659	186.06
255.892	196.06
256.124	184.06
256.357	180.06
256.59	180.06
256.823	184.06
257.056	178.06
257.289	160.06
257.521	161.06
257.754	183.06
257.987	180.06
258.22	162.06
258.452	169.06
258.685	169.06
258.918	157.06
259.151	186.06
259.383	180.06
259.616	189.06
259.849	197.06
260.081	183.06
260.314	197.06
260.547	195.06
260.779	196.06
261.012	186.06
261.244	190.06
261.477	175.06
261.71	188.06
261.942	189.06
262.175	186.06
262.407	191.06
262.64	153.06
262.872	166.06
263.105	163.06
263.337	179.06
263.57	174.06
263.802	188.06
264.035	178.06
264.267	164.06
264.499	167.06
264.732	164.06
264.964	171.06
265.197	167.06
265.429	169.06
265.661	171.06
265.894	172.06
266.126	174.06
266.358	163.06
266.591	174.06
266.823	182.06
267.055	178.06
267.287	178.06
267.52	188.06
267.752	174.06
267.984	171.06
268.216	183.06
268.448	180.06
268.681	189.06
268.913	201.06
269.145	194.06
269.377	224.06
269.609	221.06
269.841	228.06
270.073	221.06
270.306	232.06
270.538	245.06
270.77	251.06
271.002	232.06
271.234	236.06
271.466	234.06
271.698	252.06
271.93	237.06
272.162	246.06
272.394	246.06
272.626	240.06
272.858	231.06
273.09	217.06
273.322	215.06
273.553	202.06
273.785	216.06
274.017	211.06
274.249	235.06
274.481	208.06
274.713	206.06
274.945	224.06
275.176	199.06
275.408	212.06
275.64	194.06
275.872	187.06
276.104	218.06
276.335	186.06
276.567	198.06
276.799	222.06
277.031	251.06
277.262	240.06
277.494	231.06
277.726	233.06
277.957	224.06
278.189	227.06
278.421	215.06
278.652	198.06
278.884	210.06
279.115	197.06
279.347	195.06
279.579	227.06
279.81	203.06
280.042	222.06
280.273	205.06
280.505	218.06
280.736	218.06
280.968	211.06
281.199	212.06
281.431	198.06
281.662	214.06
281.894	204.06
282.125	202.06
282.356	219.06
282.588	236.06
282.819	229.06
283.051	200.06
283.282	194.06
283.513	206.06
283.745	218.06
283.976	214.06
284.207	219.06
284.439	230.06
284.67	206.06
284.901	222.06
285.132	209.06
285.364	201.06
285.595	205.06
285.826	206.06
286.057	207.06
286.288	221.06
286.52	220.06
286.751	218.06
286.982	216.06
287.213	219.06
287.444	208.06
287.675	222.06
287.906	221.06
288.138	219.06
288.369	232.06
288.6	218.06
288.831	221.06
289.062	221.06
289.293	219.06
289.524	214.06
289.755	238.06
289.986	203.06
290.217	214.06
290.448	214.06
290.679	196.06
290.91	230.06
291.141	206.06
291.371	216.06
291.602	218.06
291.833	211.06
292.064	212.06
292.295	229.06
292.526	216.06
292.757	230.06
292.987	214.06
293.218	221.06
293.449	214.06
293.68	205.06
293.91	221.06
294.141	225.06
294.372	213.06
294.603	219.06
294.833	216.06
295.064	225.06
295.295	218.06
295.525	228.06
295.756	223.06
295.987	214.06
296.217	256.06
296.448	241.06
296.679	235.06
296.909	215.06
297.14	220.06
297.37	223.06
297.601	222.06
297.831	234.06
298.062	234.06
298.292	220.06
298.523	226.06
298.753	244.06
298.984	233.06
299.214	236.06
299.445	237.06
299.675	214.06
299.905	240.06
300.136	226.06
300.366	231.06
300.597	240.06
300.827	266.06
301.057	231.06
301.288	252.06
301.518	243.06
301.748	232.06
301.979	261.06
302.209	254.06
302.439	248.06
302.669	248.06
302.9	232.06
303.13	245.06
303.36	244.06
303.59	242.06
303.82	245.06
304.051	262.06
304.281	240.06
304.511	245.06
304.741	243.06
304.971	254.06
305.201	256.06
305.431	258.06
305.661	233.06
305.891	241.06
306.121	237.06
306.352	247.06
306.582	251.06
306.812	244.06
307.042	256.06
307.272	257.06
307.502	244.06
307.731	255.06
307.961	239.06
308.191	240.06
308.421	261.06
308.651	242.06
308.881	262.06
309.111	251.06
309.341	276.06
309.571	253.06
309.8	278.06
310.03	272.06
310.26	289.06
310.49	283.06
310.72	301.06
310.949	294.06
311.179	288.06
311.409	301.06
311.639	279.06
311.868	285.06
312.098	310.06
312.328	298.06
312.557	286.06
312.787	345.06
313.017	310.06
313.246	299.06
313.476	283.06
313.706	285.06
313.935	305.06
314.165	299.06
314.394	299.06
314.624	300.06
314.853	314.06
315.083	272.06
315.312	285.06
315.542	284.06
315.771	292.06
316.001	296.06
316.23	296.06
316.46	270.06
316.689	284.06
316.919	280.06
317.148	313.06
317.377	290.06
317.607	299.06
317.836	287.06
318.065	297.06
318.295	290.06
318.524	282.06
318.753	276.06
318.983	280.06
319.212	280.06
319.441	307.06
319.67	290.06
319.9	286.06
320.129	276.06
320.358	276.06
320.587	283.06
320.816	301.06
321.046	306.06
321.275	306.06
321.504	312.06
321.733	316.06
321.962	301.06
322.191	324.06
322.42	340.06
322.649	356.06
322.878	357.06
323.108	360.06
323.337	384.06
323.566	404.06
323.795	438.06
324.024	504.06
324.253	633.06
324.482	917.06
324.71	1346.06
324.939	1770.06
325.168	1444.06
325.397	739.06
325.626	526.06
325.855	437.06
326.084	420.06
326.313	425.06
326.542	418.06
326.77	474.06
326.999	573.06
327.228	802.06
327.457	1190.06
327.686	1300.06
327.914	867.06
328.143	587.06
328.372	503.06
328.6	462.06
328.829	450.06
329.058	466.06
329.287	461.06
329.515	437.06
329.744	422.06
329.972	405.06
330.201	429.06
330.43	444.06
330.658	474.06
330.887	492.06
331.115	472.06
331.344	396.06
331.572	388.06
331.801	369.06
332.03	378.06
332.258	341.06
332.486	358.06
332.715	343.06
332.943	340.06
333.172	355.06
333.4	340.06
333.629	355.06
333.857	355.06
334.085	377.06
334.314	364.06
334.542	390.06
334.771	399.06
334.999	352.06
335.227	342.06
335.455	308.06
335.684	327.06
335.912	337.06
336.14	314.06
336.369	315.06
336.597	330.06
336.825	334.06
337.053	343.06
337.281	321.06
337.51	333.06
337.738	328.06
337.966	314.06
338.194	317.06
338.422	326.06
338.65	316.06
338.878	324.06
339.106	311.06
339.334	334.06
339.562	341.06
339.79	306.06
340.018	316.06
340.246	327.06
340.474	318.06
340.702	340.06
340.93	298.06
341.158	312.06
341.386	293.06
341.614	328.06
341.842	320.06
342.07	301.06
342.298	298.06
342.526	306.06
342.754	299.06
342.981	300.06
343.209	296.06
343.437	301.06
343.665	304.06
343.893	313.06
344.12	326.06
344.348	297.06
344.576	315.06
344.804	316.06
345.031	327.06
345.259	338.06
345.487	308.06
345.714	300.06
345.942	311.06
346.17	315.06
346.397	317.06
346.625	312.06
346.853	292.06
347.08	310.06
347.308	291.06
347.535	311.06
347.763	303.06
347.99	306.06
348.218	309.06
348.445	315.06
348.673	325.06
348.9	300.06
349.128	300.06
349.355	284.06
349.583	291.06
349.81	281.06
350.037	280.06
350.265	302.06
350.492	286.06
350.72	304.06
350.947	307.06
351.174	308.06
351.402	315.06
351.629	294.06
351.856	314.06
352.083	312.06
352.311	318.06
352.538	306.06
352.765	313.06
352.992	296.06
353.22	306.06
353.447	312.06
353.674	291.06
353.901	292.06
354.128	290.06
354.355	280.06
354.583	276.06
354.81	278.06
355.037	275.06
355.264	281.06
355.491	274.06
355.718	266.06
355.945	297.06
356.172	283.06
356.399	278.06
356.626	283.06
356.853	276.06
357.08	264.06
357.307	282.06
357.534	280.06
357.761	290.06
357.988	286.06
358.215	279.06
358.441	270.06
358.668	279.06
358.895	274.06
359.122	287.06
359.349	291.06
359.576	321.06
359.802	318.06
360.029	340.06
360.256	351.06
360.483	339.06
360.709	296.06
360.936	295.06
361.163	294.06
361.39	293.06
361.616	285.06
361.843	323.06
362.07	295.06
362.296	297.06
362.523	288.06
362.749	294.06
362.976	307.06
363.203	283.06
363.429	296.06
363.656	292.06
363.882	269.06
364.109	274.06
364.335	283.06
364.562	282.06
364.788	277.06
365.015	290.06
365.241	261.06
365.468	289.06
365.694	292.06
365.92	285.06
366.147	273.06
366.373	279.06
366.599	269.06
366.826	282.06
367.052	280.06
367.278	275.06
367.505	284.06
367.731	305.06
367.957	288.06
368.184	266.06
368.41	279.06
368.636	283.06
368.862	296.06
369.089	286.06
369.315	293.06
369.541	274.06
369.767	274.06
369.993	284.06
370.219	287.06
370.445	280.06
370.672	284.06
370.898	265.06
371.124	280.06
371.35	256.06
371.576	267.06
371.802	261.06
372.028	268.06
372.254	264.06
372.48	281.06
372.706	278.06
372.932	263.06
373.158	244.06
373.384	267.06
373.61	270.06
373.835	268.06
374.061	283.06
374.287	270.06
374.513	258.06
374.739	265.06
374.965	282.06
375.191	286.06
375.416	270.06
375.642	281.06
375.868	286.06
376.094	290.06
376.319	270.06
376.545	269.06
376.771	261.06
376.997	258.06
377.222	270.06
377.448	258.06
377.674	262.06
377.899	261.06
378.125	250.06
378.35	236.06
378.576	255.06
378.802	250.06
379.027	285.06
379.253	268.06
379.478	249.06
379.704	256.06
379.929	257.06
380.155	262.06
380.38	273.06
380.606	265.06
380.831	266.06
381.057	274.06
381.282	274.06
381.507	264.06
381.733	270.06
381.958	269.06
382.184	266.06
382.409	268.06
382.634	256.06
382.86	282.06
383.085	272.06
383.31	269.06
383.535	257.06
383.761	273.06
383.986	274.06
384.211	270.06
384.436	249.06
384.662	266.06
384.887	259.06
385.112	259.06
385.337	297.06
385.562	271.06
385.787	276.06
386.013	268.06
386.238	303.06
386.463	284.06
386.688	278.06
386.913	285.06
387.138	273.06
387.363	275.06
387.588	272.06
387.813	258.06
388.038	282.06
388.263	272.06
388.488	261.06
388.713	288.06
388.938	293.06
389.163	283.06
389.387	273.06
389.612	279.06
389.837	290.06
390.062	294.06
390.287	256.06
390.512	267.06
390.736	283.06
390.961	276.06
391.186	270.06
391.411	273.06
391.636	260.06
391.86	274.06
392.085	302.06
392.31	286.06
392.534	270.06
392.759	282.06
392.984	280.06
393.208	270.06
393.433	280.06
393.658	269.06
393.882	267.06
394.107	267.06
394.331	271.06
394.556	261.06
394.78	266.06
395.005	294.06
395.229	275.06
395.454	276.06
395.678	270.06
395.903	306.06
396.127	311.06
396.352	305.06
396.576	283.06
396.801	286.06
397.025	273.06
397.249	277.06
397.474	295.06
397.698	294.06
397.922	296.06
398.147	315.06
398.371	316.06
398.595	300.06
398.82	288.06
399.044	302.06
399.268	300.06
399.492	322.06
399.717	337.06
399.941	354.06
400.165	354.06
400.389	357.06
400.613	338.06
400.837	319.06
401.062	328.06
401.286	329.06
401.51	288.06
401.734	297.06
401.958	316.06
402.182	315.06
402.406	330.06
402.63	314.06
402.854	338.06
403.078	333.06
403.302	329.06
403.526	336.06
403.75	318.06
403.974	325.06
404.198	316.06
404.422	318.06
404.645	322.06
404.869	324.06
405.093	359.06
405.317	386.06
405.541	394.06
405.765	365.06
405.988	315.06
406.212	362.06
406.436	363.06
406.66	342.06
406.883	335.06
407.107	365.06
407.331	375.06
407.555	413.06
407.778	407.06
408.002	388.06
408.226	349.06
408.449	334.06
408.673	346.06
408.896	372.06
409.12	390.06
409.344	380.06
409.567	348.06
409.791	352.06
410.014	344.06
410.238	326.06
410.461	299.06
410.685	324.06
410.908	341.06
411.132	359.06
411.355	365.06
411.578	338.06
411.802	313.06
412.025	327.06
412.249	320.06
412.472	324.06
412.695	353.06
412.919	349.06
413.142	317.06
413.365	318.06
413.589	297.06
413.812	300.06
414.035	308.06
414.258	301.06
414.482	313.06
414.705	309.06
414.928	290.06
415.151	306.06
415.374	300.06
415.597	296.06
415.821	299.06
416.044	318.06
416.267	291.06
416.49	283.06
416.713	300.06
416.936	282.06
417.159	302.06
417.382	308.06
417.605	308.06
417.828	314.06
418.051	313.06
418.274	308.06
418.497	308.06
418.72	302.06
418.943	304.06
419.166	307.06
419.389	331.06
419.611	313.06
419.834	306.06
420.057	298.06
420.28	320.06
420.503	310.06
420.726	317.06
420.948	330.06
421.171	354.06
421.394	373.06
421.617	321.06
421.839	309.06
422.062	334.06
422.285	327.06
422.507	352.06
422.73	396.06
422.953	392.06
423.175	356.06
423.398	326.06
423.621	322.06
423.843	352.06
424.066	332.06
424.288	344.06
424.511	363.06
424.733	379.06
424.956	448.06
425.178	416.06
425.401	442.06
425.623	439.06
425.846	360.06
426.068	354.06
426.291	329.06
426.513	340.06
426.735	359.06
426.958	374.06
427.18	419.06
427.402	511.06
427.625	568.06
427.847	470.06
428.069	448.06
428.292	391.06
428.514	338.06
428.736	320.06
428.958	321.06
429.181	334.06
429.403	333.06
429.625	337.06
429.847	358.06
430.069	386.06
430.292	394.06
430.514	335.06
430.736	322.06
430.958	301.06
431.18	295.06
431.402	295.06
431.624	303.06
431.846	289.06
432.068	304.06
432.29	306.06
432.512	291.06
432.734	301.06
432.956	305.06
433.178	314.06
433.4	315.06
433.622	316.06
433.844	301.06
434.066	306.06
434.287	280.06
434.509	305.06
434.731	298.06
434.953	314.06
435.175	330.06
435.397	345.06
435.618	355.06
435.84	374.06
436.062	422.06
436.284	478.06
436.505	402.06
436.727	375.06
436.949	360.06
437.17	326.06
437.392	328.06
437.614	348.06
437.835	363.06
438.057	434.06
438.278	512.06
438.5	483.06
438.721	520.06
438.943	503.06
439.165	417.06
439.386	370.06
439.608	372.06
439.829	368.06
440.05	388.06
440.272	429.06
440.493	386.06
440.715	351.06
440.936	338.06
441.158	328.06
441.379	322.06
441.6	332.06
441.822	354.06
442.043	362.06
442.264	432.06
442.486	422.06
442.707	368.06
442.928	353.06
443.149	367.06
443.371	390.06
443.592	428.06
443.813	458.06
444.034	476.06
444.255	414.06
444.476	354.06
444.698	348.06
444.919	330.06
445.14	436.06
445.361	390.06
445.582	371.06
445.803	452.06
446.024	502.06
446.245	491.06
446.466	447.06
446.687	411.06
446.908	349.06
447.129	339.06
447.35	317.06
447.571	325.06
447.792	329.06
448.013	316.06
448.234	341.06
448.455	360.06
448.675	440.06
448.896	487.06
449.117	448.06
449.338	413.06
449.559	474.06
449.779	518.06
450	414.06
450.221	361.06
450.442	350.06
450.662	328.06
450.883	323.06
451.104	348.06
451.324	305.06
451.545	304.06
451.766	299.06
451.986	295.06
452.207	289.06
452.428	269.06
452.648	292.06
452.869	281.06
453.089	301.06
453.31	297.06
453.53	307.06
453.751	301.06
453.971	297.06
454.192	300.06
454.412	299.06
454.633	288.06
454.853	282.06
455.073	298.06
455.294	291.06
455.514	336.06
455.734	348.06
455.955	293.06
456.175	274.06
456.395	271.06
456.616	277.06
456.836	263.06
457.056	264.06
457.276	261.06
457.497	275.06
457.717	274.06
457.937	282.06
458.157	270.06
458.377	293.06
458.598	312.06
458.818	331.06
459.038	402.06
459.258	390.06
459.478	337.06
459.698	301.06
459.918	294.06
460.138	291.06
460.358	291.06
460.578	301.06
460.798	290.06
461.018	317.06
461.238	301.06
461.458	304.06
461.678	284.06
461.898	290.06
462.118	305.06
462.338	294.06
462.558	300.06
462.777	287.06
462.997	304.06
463.217	328.06
463.437	306.06
463.657	308.06
463.876	306.06
464.096	314.06
464.316	310.06
464.536	301.06
464.755	290.06
464.975	320.06
465.195	349.06
465.414	390.06
465.634	353.06
465.854	330.06
466.073	326.06
466.293	313.06
466.512	306.06
466.732	293.06
466.951	301.06
467.171	268.06
467.391	286.06
467.61	287.06
467.829	304.06
468.049	320.06
468.268	309.06
468.488	277.06
468.707	301.06
468.927	289.06
469.146	296.06
469.365	294.06
469.585	302.06
469.804	297.06
470.023	295.06
470.243	308.06
470.462	298.06
470.681	316.06
470.901	313.06
471.12	305.06
471.339	291.06
471.558	307.06
471.777	304.06
471.997	304.06
472.216	313.06
472.435	324.06
472.654	304.06
472.873	306.06
473.092	301.06
473.311	308.06
473.53	299.06
473.749	312.06
473.968	341.06
474.187	406.06
474.406	419.06
474.625	350.06
474.844	302.06
475.063	288.06
475.282	291.06
475.501	306.06
475.72	312.06
475.939	291.06
476.158	285.06
476.377	302.06
476.596	293.06
476.814	324.06
477.033	319.06
477.252	298.06
477.471	306.06
477.69	308.06
477.908	323.06
478.127	306.06
478.346	325.06
478.564	323.06
478.783	331.06
479.002	320.06
479.22	306.06
479.439	342.06
479.658	339.06
479.876	359.06
480.095	360.06
480.313	361.06
480.532	348.06
480.751	333.06
480.969	353.06
481.188	407.06
481.406	430.06
481.624	380.06
481.843	370.06
482.061	338.06
482.28	343.06
482.498	338.06
482.717	333.06
482.935	337.06
483.153	348.06
483.372	336.06
483.59	328.06
483.808	326.06
484.027	338.06
484.245	341.06
484.463	343.06
484.681	359.06
484.9	367.06
485.118	332.06
485.336	332.06
485.554	371.06
485.772	351.06
485.99	361.06
486.209	349.06
486.427	357.06
486.645	357.06
486.863	391.06
487.081	390.06
487.299	378.06
487.517	365.06
487.735	359.06
487.953	362.06
488.171	357.06
488.389	360.06
488.607	382.06
488.825	359.06
489.043	376.06
489.261	363.06
489.479	368.06
489.696	366.06
489.914	370.06
490.132	376.06
490.35	393.06
490.568	376.06
490.786	404.06
491.003	386.06
491.221	397.06
491.439	415.06
491.657	391.06
491.874	410.06
492.092	411.06
492.31	416.06
492.527	422.06
492.745	424.06
492.963	414.06
493.18	420.06
493.398	435.06
493.615	444.06
493.833	424.06
494.05	444.06
494.268	444.06
494.485	423.06
494.703	436.06
494.92	416.06
495.138	436.06
495.355	445.06
495.573	432.06
495.79	452.06
496.008	442.06
496.225	430.06
496.442	451.06
496.66	435.06
496.877	434.06
497.094	441.06
497.312	454.06
497.529	428.06
497.746	468.06
497.963	430.06
498.181	458.06
498.398	454.06
498.615	454.06
498.832	465.06
499.049	470.06
499.267	458.06
499.484	484.06
499.701	488.06
499.918	500.06
500.135	510.06
500.352	530.06
500.569	534.06
500.786	560.06
501.003	517.06
501.22	541.06
501.437	516.06
501.654	499.06
501.871	498.06
502.088	487.06
