Data from 1982.PennyLincolnUp.Lamp.En5.5.200Scan.071819.P1_HRD10591_16-45-28-961.txt Node
Date: Thu Jul 18 16:45:28 EDT 2019
User: cochatt
Spectrometer: HR+D1059
Trigger mode: 1
Integration Time (sec): 1.000000E-1
Scans to average: 1
Electric dark correction enabled: true
Nonlinearity correction enabled: false
Boxcar width: 0
XAxis mode: Wavelengths
Number of Pixels in Spectrum: 2048
>>>>>Begin Spectral Data<<<<<
223.165	-9.38
223.4	-9.38
223.635	-9.38
223.869	-13.38
224.104	-10.38
224.338	-26.38
224.573	-19.38
224.808	-13.38
225.042	3.62
225.277	-2.38
225.511	1.62
225.746	9.62
225.98	15.62
226.215	-11.38
226.449	3.62
226.683	21.62
226.918	37.62
227.152	12.62
227.387	39.62
227.621	35.62
227.856	47.62
228.09	37.62
228.324	48.62
228.559	41.62
228.793	61.62
229.027	76.62
229.262	91.62
229.496	94.62
229.73	111.62
229.964	119.62
230.199	102.62
230.433	94.62
230.667	96.62
230.901	97.62
231.136	90.62
231.37	98.62
231.604	101.62
231.838	104.62
232.072	102.62
232.306	99.62
232.541	92.62
232.775	98.62
233.009	96.62
233.243	93.62
233.477	113.62
233.711	94.62
233.945	98.62
234.179	103.62
234.413	107.62
234.647	106.62
234.881	86.62
235.115	91.62
235.349	112.62
235.583	111.62
235.817	106.62
236.051	101.62
236.285	99.62
236.519	117.62
236.753	108.62
236.987	118.62
237.221	151.62
237.455	164.62
237.689	125.62
237.922	113.62
238.156	105.62
238.39	100.62
238.624	98.62
238.858	105.62
239.091	98.62
239.325	116.62
239.559	113.62
239.793	105.62
240.027	105.62
240.26	115.62
240.494	131.62
240.728	118.62
240.961	131.62
241.195	113.62
241.429	112.62
241.662	120.62
241.896	104.62
242.13	102.62
242.363	124.62
242.597	112.62
242.83	116.62
243.064	120.62
243.298	111.62
243.531	115.62
243.765	108.62
243.998	118.62
244.232	125.62
244.465	115.62
244.699	120.62
244.932	113.62
245.166	122.62
245.399	119.62
245.633	103.62
245.866	112.62
246.099	106.62
246.333	113.62
246.566	127.62
246.8	120.62
247.033	123.62
247.266	118.62
247.5	133.62
247.733	127.62
247.966	136.62
248.2	135.62
248.433	129.62
248.666	120.62
248.899	149.62
249.133	147.62
249.366	157.62
249.599	147.62
249.832	127.62
250.066	135.62
250.299	148.62
250.532	145.62
250.765	146.62
250.998	162.62
251.231	155.62
251.465	185.62
251.698	140.62
251.931	164.62
252.164	148.62
252.397	159.62
252.63	161.62
252.863	162.62
253.096	163.62
253.329	173.62
253.562	172.62
253.795	176.62
254.028	152.62
254.261	153.62
254.494	177.62
254.727	189.62
254.96	203.62
255.193	201.62
255.426	193.62
255.659	164.62
255.892	167.62
256.124	169.62
256.357	144.62
256.59	172.62
256.823	168.62
257.056	164.62
257.289	186.62
257.521	187.62
257.754	156.62
257.987	161.62
258.22	159.62
258.452	157.62
258.685	161.62
258.918	148.62
259.151	163.62
259.383	168.62
259.616	171.62
259.849	171.62
260.081	170.62
260.314	189.62
260.547	177.62
260.779	177.62
261.012	172.62
261.244	167.62
261.477	185.62
261.71	180.62
261.942	149.62
262.175	187.62
262.407	176.62
262.64	170.62
262.872	178.62
263.105	140.62
263.337	157.62
263.57	147.62
263.802	162.62
264.035	163.62
264.267	163.62
264.499	155.62
264.732	163.62
264.964	159.62
265.197	167.62
265.429	163.62
265.661	168.62
265.894	146.62
266.126	168.62
266.358	161.62
266.591	178.62
266.823	177.62
267.055	182.62
267.287	170.62
267.52	173.62
267.752	171.62
267.984	173.62
268.216	170.62
268.448	170.62
268.681	185.62
268.913	191.62
269.145	199.62
269.377	205.62
269.609	202.62
269.841	191.62
270.073	188.62
270.306	228.62
270.538	223.62
270.77	205.62
271.002	215.62
271.234	217.62
271.466	221.62
271.698	219.62
271.93	231.62
272.162	240.62
272.394	228.62
272.626	216.62
272.858	215.62
273.09	211.62
273.322	192.62
273.553	189.62
273.785	205.62
274.017	203.62
274.249	199.62
274.481	200.62
274.713	197.62
274.945	201.62
275.176	184.62
275.408	173.62
275.64	200.62
275.872	202.62
276.104	195.62
276.335	203.62
276.567	203.62
276.799	214.62
277.031	225.62
277.262	219.62
277.494	234.62
277.726	223.62
277.957	204.62
278.189	197.62
278.421	206.62
278.652	211.62
278.884	190.62
279.115	205.62
279.347	187.62
279.579	200.62
279.81	197.62
280.042	203.62
280.273	212.62
280.505	192.62
280.736	194.62
280.968	197.62
281.199	213.62
281.431	195.62
281.662	181.62
281.894	203.62
282.125	211.62
282.356	201.62
282.588	223.62
282.819	202.62
283.051	187.62
283.282	194.62
283.513	205.62
283.745	191.62
283.976	212.62
284.207	213.62
284.439	209.62
284.67	200.62
284.901	210.62
285.132	199.62
285.364	185.62
285.595	198.62
285.826	205.62
286.057	190.62
286.288	204.62
286.52	196.62
286.751	211.62
286.982	187.62
287.213	212.62
287.444	198.62
287.675	208.62
287.906	219.62
288.138	205.62
288.369	226.62
288.6	229.62
288.831	204.62
289.062	217.62
289.293	209.62
289.524	211.62
289.755	195.62
289.986	204.62
290.217	207.62
290.448	217.62
290.679	211.62
290.91	211.62
291.141	206.62
291.371	186.62
291.602	214.62
291.833	207.62
292.064	209.62
292.295	217.62
292.526	204.62
292.757	211.62
292.987	206.62
293.218	213.62
293.449	205.62
293.68	204.62
293.91	222.62
294.141	206.62
294.372	187.62
294.603	220.62
294.833	202.62
295.064	210.62
295.295	218.62
295.525	199.62
295.756	229.62
295.987	222.62
296.217	242.62
296.448	225.62
296.679	227.62
296.909	204.62
297.14	214.62
297.37	231.62
297.601	212.62
297.831	219.62
298.062	227.62
298.292	215.62
298.523	215.62
298.753	206.62
298.984	222.62
299.214	224.62
299.445	213.62
299.675	207.62
299.905	229.62
300.136	240.62
300.366	212.62
300.597	220.62
300.827	223.62
301.057	232.62
301.288	225.62
301.518	245.62
301.748	238.62
301.979	226.62
302.209	239.62
302.439	221.62
302.669	243.62
302.9	228.62
303.13	230.62
303.36	231.62
303.59	251.62
303.82	232.62
304.051	232.62
304.281	223.62
304.511	241.62
304.741	240.62
304.971	230.62
305.201	230.62
305.431	228.62
305.661	242.62
305.891	243.62
306.121	227.62
306.352	246.62
306.582	235.62
306.812	229.62
307.042	251.62
307.272	257.62
307.502	227.62
307.731	228.62
307.961	232.62
308.191	234.62
308.421	247.62
308.651	235.62
308.881	233.62
309.111	265.62
309.341	260.62
309.571	245.62
309.8	262.62
310.03	269.62
310.26	267.62
310.49	268.62
310.72	277.62
310.949	281.62
311.179	301.62
311.409	276.62
311.639	253.62
311.868	275.62
312.098	272.62
312.328	287.62
312.557	284.62
312.787	305.62
313.017	278.62
313.246	287.62
313.476	269.62
313.706	260.62
313.935	273.62
314.165	294.62
314.394	277.62
314.624	289.62
314.853	272.62
315.083	269.62
315.312	273.62
315.542	253.62
315.771	265.62
316.001	258.62
316.23	261.62
316.46	269.62
316.689	283.62
316.919	286.62
317.148	282.62
317.377	296.62
317.607	272.62
317.836	287.62
318.065	270.62
318.295	276.62
318.524	275.62
318.753	275.62
318.983	259.62
319.212	285.62
319.441	265.62
319.67	247.62
319.9	278.62
320.129	268.62
320.358	268.62
320.587	277.62
320.816	280.62
321.046	282.62
321.275	279.62
321.504	277.62
321.733	280.62
321.962	313.62
322.191	305.62
322.42	298.62
322.649	323.62
322.878	337.62
323.108	332.62
323.337	350.62
323.566	370.62
323.795	395.62
324.024	423.62
324.253	518.62
324.482	754.62
324.71	1127.62
324.939	1473.62
325.168	1191.62
325.397	673.62
325.626	443.62
325.855	367.62
326.084	349.62
326.313	385.62
326.542	373.62
326.77	372.62
326.999	499.62
327.228	703.62
327.457	973.62
327.686	1081.62
327.914	723.62
328.143	507.62
328.372	441.62
328.6	404.62
328.829	407.62
329.058	407.62
329.287	400.62
329.515	375.62
329.744	354.62
329.972	378.62
330.201	364.62
330.43	383.62
330.658	405.62
330.887	433.62
331.115	404.62
331.344	352.62
331.572	332.62
331.801	364.62
332.03	340.62
332.258	336.62
332.486	313.62
332.715	285.62
332.943	316.62
333.172	309.62
333.4	326.62
333.629	320.62
333.857	323.62
334.085	332.62
334.314	360.62
334.542	343.62
334.771	359.62
334.999	324.62
335.227	325.62
335.455	310.62
335.684	296.62
335.912	298.62
336.14	321.62
336.369	302.62
336.597	330.62
336.825	314.62
337.053	285.62
337.281	287.62
337.51	294.62
337.738	307.62
337.966	302.62
338.194	301.62
338.422	298.62
338.65	295.62
338.878	307.62
339.106	310.62
339.334	315.62
339.562	303.62
339.79	283.62
340.018	295.62
340.246	299.62
340.474	290.62
340.702	285.62
340.93	273.62
341.158	297.62
341.386	292.62
341.614	287.62
341.842	305.62
342.07	280.62
342.298	277.62
342.526	287.62
342.754	302.62
342.981	276.62
343.209	279.62
343.437	267.62
343.665	263.62
343.893	310.62
344.12	307.62
344.348	296.62
344.576	289.62
344.804	306.62
345.031	315.62
345.259	295.62
345.487	297.62
345.714	303.62
345.942	309.62
346.17	283.62
346.397	279.62
346.625	278.62
346.853	293.62
347.08	279.62
347.308	283.62
347.535	292.62
347.763	310.62
347.99	298.62
348.218	304.62
348.445	299.62
348.673	300.62
348.9	277.62
349.128	275.62
349.355	275.62
349.583	292.62
349.81	290.62
350.037	292.62
350.265	272.62
350.492	286.62
350.72	285.62
350.947	299.62
351.174	286.62
351.402	296.62
351.629	277.62
351.856	285.62
352.083	303.62
352.311	287.62
352.538	282.62
352.765	293.62
352.992	281.62
353.22	266.62
353.447	285.62
353.674	287.62
353.901	283.62
354.128	273.62
354.355	261.62
354.583	292.62
354.81	266.62
355.037	272.62
355.264	245.62
355.491	236.62
355.718	263.62
355.945	283.62
356.172	266.62
356.399	247.62
356.626	250.62
356.853	249.62
357.08	273.62
357.307	268.62
357.534	276.62
357.761	262.62
357.988	258.62
358.215	246.62
358.441	257.62
358.668	269.62
358.895	278.62
359.122	279.62
359.349	279.62
359.576	287.62
359.802	293.62
360.029	308.62
360.256	317.62
360.483	291.62
360.709	271.62
360.936	292.62
361.163	275.62
361.39	268.62
361.616	277.62
361.843	285.62
362.07	287.62
362.296	296.62
362.523	262.62
362.749	282.62
362.976	269.62
363.203	274.62
363.429	260.62
363.656	262.62
363.882	258.62
364.109	243.62
364.335	259.62
364.562	270.62
364.788	276.62
365.015	261.62
365.241	264.62
365.468	261.62
365.694	277.62
365.92	259.62
366.147	272.62
366.373	281.62
366.599	263.62
366.826	260.62
367.052	272.62
367.278	260.62
367.505	272.62
367.731	257.62
367.957	249.62
368.184	287.62
368.41	260.62
368.636	279.62
368.862	269.62
369.089	272.62
369.315	267.62
369.541	274.62
369.767	268.62
369.993	264.62
370.219	254.62
370.445	260.62
370.672	255.62
370.898	267.62
371.124	268.62
371.35	266.62
371.576	261.62
371.802	246.62
372.028	259.62
372.254	258.62
372.48	255.62
372.706	247.62
372.932	244.62
373.158	267.62
373.384	260.62
373.61	261.62
373.835	268.62
374.061	259.62
374.287	269.62
374.513	275.62
374.739	252.62
374.965	254.62
375.191	267.62
375.416	274.62
375.642	268.62
375.868	264.62
376.094	262.62
376.319	262.62
376.545	252.62
376.771	253.62
376.997	266.62
377.222	245.62
377.448	238.62
377.674	268.62
377.899	249.62
378.125	264.62
378.35	261.62
378.576	245.62
378.802	221.62
379.027	245.62
379.253	259.62
379.478	258.62
379.704	261.62
379.929	263.62
380.155	242.62
380.38	254.62
380.606	259.62
380.831	245.62
381.057	244.62
381.282	252.62
381.507	268.62
381.733	261.62
381.958	255.62
382.184	247.62
382.409	246.62
382.634	267.62
382.86	245.62
383.085	261.62
383.31	260.62
383.535	259.62
383.761	247.62
383.986	256.62
384.211	256.62
384.436	264.62
384.662	257.62
384.887	277.62
385.112	268.62
385.337	253.62
385.562	261.62
385.787	273.62
386.013	275.62
386.238	264.62
386.463	272.62
386.688	276.62
386.913	261.62
387.138	268.62
387.363	268.62
387.588	271.62
387.813	253.62
388.038	270.62
388.263	269.62
388.488	266.62
388.713	269.62
388.938	266.62
389.163	264.62
389.387	279.62
389.612	263.62
389.837	266.62
390.062	259.62
390.287	270.62
390.512	266.62
390.736	273.62
390.961	269.62
391.186	272.62
391.411	263.62
391.636	264.62
391.86	273.62
392.085	289.62
392.31	258.62
392.534	264.62
392.759	259.62
392.984	247.62
393.208	269.62
393.433	266.62
393.658	265.62
393.882	265.62
394.107	268.62
394.331	284.62
394.556	244.62
394.78	263.62
395.005	264.62
395.229	269.62
395.454	259.62
395.678	273.62
395.903	266.62
396.127	296.62
396.352	292.62
396.576	269.62
396.801	282.62
397.025	287.62
397.249	277.62
397.474	284.62
397.698	275.62
397.922	286.62
398.147	295.62
398.371	275.62
398.595	279.62
398.82	283.62
399.044	297.62
399.268	289.62
399.492	298.62
399.717	325.62
399.941	343.62
400.165	353.62
400.389	362.62
400.613	341.62
400.837	295.62
401.062	288.62
401.286	279.62
401.51	275.62
401.734	282.62
401.958	298.62
402.182	301.62
402.406	320.62
402.63	304.62
402.854	293.62
403.078	298.62
403.302	292.62
403.526	316.62
403.75	319.62
403.974	303.62
404.198	303.62
404.422	283.62
404.645	319.62
404.869	307.62
405.093	318.62
405.317	352.62
405.541	341.62
405.765	342.62
405.988	329.62
406.212	323.62
406.436	324.62
406.66	330.62
406.883	335.62
407.107	337.62
407.331	354.62
407.555	394.62
407.778	373.62
408.002	350.62
408.226	355.62
408.449	347.62
408.673	321.62
408.896	359.62
409.12	352.62
409.344	344.62
409.567	325.62
409.791	313.62
410.014	307.62
410.238	297.62
410.461	332.62
410.685	297.62
410.908	311.62
411.132	343.62
411.355	354.62
411.578	338.62
411.802	313.62
412.025	298.62
412.249	312.62
412.472	331.62
412.695	346.62
412.919	321.62
413.142	297.62
413.365	295.62
413.589	300.62
413.812	297.62
414.035	298.62
414.258	292.62
414.482	287.62
414.705	284.62
414.928	280.62
415.151	301.62
415.374	292.62
415.597	280.62
415.821	291.62
416.044	279.62
416.267	289.62
416.49	297.62
416.713	278.62
416.936	304.62
417.159	274.62
417.382	291.62
417.605	287.62
417.828	294.62
418.051	288.62
418.274	303.62
418.497	271.62
418.72	283.62
418.943	283.62
419.166	307.62
419.389	313.62
419.611	295.62
419.834	313.62
420.057	307.62
420.28	315.62
420.503	299.62
420.726	300.62
420.948	325.62
421.171	303.62
421.394	350.62
421.617	321.62
421.839	291.62
422.062	299.62
422.285	336.62
422.507	356.62
422.73	379.62
422.953	389.62
423.175	334.62
423.398	314.62
423.621	326.62
423.843	336.62
424.066	309.62
424.288	327.62
424.511	332.62
424.733	362.62
424.956	391.62
425.178	405.62
425.401	407.62
425.623	397.62
425.846	356.62
426.068	349.62
426.291	321.62
426.513	333.62
426.735	326.62
426.958	353.62
427.18	390.62
427.402	471.62
427.625	499.62
427.847	454.62
428.069	385.62
428.292	345.62
428.514	321.62
428.736	351.62
428.958	325.62
429.181	309.62
429.403	309.62
429.625	315.62
429.847	325.62
430.069	379.62
430.292	366.62
430.514	313.62
430.736	308.62
430.958	312.62
431.18	277.62
431.402	292.62
431.624	279.62
431.846	275.62
432.068	278.62
432.29	279.62
432.512	280.62
432.734	291.62
432.956	273.62
433.178	308.62
433.4	309.62
433.622	273.62
433.844	289.62
434.066	266.62
434.287	277.62
434.509	280.62
434.731	283.62
434.953	303.62
435.175	311.62
435.397	319.62
435.618	332.62
435.84	348.62
436.062	426.62
436.284	452.62
436.505	377.62
436.727	339.62
436.949	320.62
437.17	317.62
437.392	304.62
437.614	313.62
437.835	349.62
438.057	394.62
438.278	457.62
438.5	444.62
438.721	513.62
438.943	451.62
439.165	361.62
439.386	345.62
439.608	340.62
439.829	327.62
440.05	353.62
440.272	370.62
440.493	360.62
440.715	340.62
440.936	333.62
441.158	301.62
441.379	323.62
441.6	311.62
441.822	331.62
442.043	338.62
442.264	397.62
442.486	417.62
442.707	353.62
442.928	306.62
443.149	346.62
443.371	362.62
443.592	371.62
443.813	415.62
444.034	444.62
444.255	371.62
444.476	323.62
444.698	335.62
444.919	330.62
445.14	426.62
445.361	387.62
445.582	371.62
445.803	406.62
446.024	436.62
446.245	454.62
446.466	404.62
446.687	344.62
446.908	333.62
447.129	310.62
447.35	310.62
447.571	314.62
447.792	300.62
448.013	307.62
448.234	321.62
448.455	361.62
448.675	418.62
448.896	453.62
449.117	411.62
449.338	403.62
449.559	454.62
449.779	480.62
450	401.62
450.221	354.62
450.442	319.62
450.662	312.62
450.883	313.62
451.104	325.62
451.324	313.62
451.545	286.62
451.766	293.62
451.986	277.62
452.207	286.62
452.428	272.62
452.648	264.62
452.869	274.62
453.089	292.62
453.31	294.62
453.53	276.62
453.751	278.62
453.971	270.62
454.192	312.62
454.412	276.62
454.633	263.62
454.853	269.62
455.073	270.62
455.294	320.62
455.514	328.62
455.734	298.62
455.955	268.62
456.175	274.62
456.395	272.62
456.616	261.62
456.836	270.62
457.056	255.62
457.276	250.62
457.497	263.62
457.717	278.62
457.937	242.62
458.157	263.62
458.377	259.62
458.598	277.62
458.818	322.62
459.038	360.62
459.258	374.62
459.478	303.62
459.698	287.62
459.918	275.62
460.138	281.62
460.358	279.62
460.578	283.62
460.798	290.62
461.018	275.62
461.238	294.62
461.458	289.62
461.678	283.62
461.898	282.62
462.118	279.62
462.338	276.62
462.558	271.62
462.777	293.62
462.997	314.62
463.217	309.62
463.437	305.62
463.657	293.62
463.876	294.62
464.096	281.62
464.316	298.62
464.536	313.62
464.755	297.62
464.975	297.62
465.195	350.62
465.414	375.62
465.634	323.62
465.854	292.62
466.073	296.62
466.293	281.62
466.512	291.62
466.732	276.62
466.951	291.62
467.171	290.62
467.391	274.62
467.61	282.62
467.829	287.62
468.049	274.62
468.268	287.62
468.488	306.62
468.707	289.62
468.927	274.62
469.146	261.62
469.365	271.62
469.585	249.62
469.804	279.62
470.023	283.62
470.243	272.62
470.462	282.62
470.681	277.62
470.901	271.62
471.12	283.62
471.339	268.62
471.558	273.62
471.777	291.62
471.997	305.62
472.216	290.62
472.435	298.62
472.654	299.62
472.873	280.62
473.092	273.62
473.311	267.62
473.53	284.62
473.749	304.62
473.968	332.62
474.187	376.62
474.406	381.62
474.625	309.62
474.844	293.62
475.063	263.62
475.282	288.62
475.501	285.62
475.72	299.62
475.939	295.62
476.158	248.62
476.377	296.62
476.596	309.62
476.814	296.62
477.033	303.62
477.252	292.62
477.471	283.62
477.69	304.62
477.908	319.62
478.127	291.62
478.346	294.62
478.564	301.62
478.783	326.62
479.002	307.62
479.22	318.62
479.439	335.62
479.658	315.62
479.876	341.62
480.095	333.62
480.313	363.62
480.532	345.62
480.751	331.62
480.969	353.62
481.188	383.62
481.406	387.62
481.624	352.62
481.843	329.62
482.061	320.62
482.28	331.62
482.498	329.62
482.717	349.62
482.935	346.62
483.153	308.62
483.372	328.62
483.59	327.62
483.808	315.62
484.027	343.62
484.245	327.62
484.463	328.62
484.681	338.62
484.9	319.62
485.118	347.62
485.336	337.62
485.554	338.62
485.772	342.62
485.99	334.62
486.209	335.62
486.427	327.62
486.645	327.62
486.863	356.62
487.081	337.62
487.299	349.62
487.517	359.62
487.735	349.62
487.953	352.62
488.171	341.62
488.389	343.62
488.607	351.62
488.825	336.62
489.043	354.62
489.261	352.62
489.479	373.62
489.696	350.62
489.914	363.62
490.132	362.62
490.35	372.62
490.568	368.62
490.786	370.62
491.003	355.62
491.221	393.62
491.439	381.62
491.657	381.62
491.874	388.62
492.092	396.62
492.31	397.62
492.527	391.62
492.745	396.62
492.963	385.62
493.18	393.62
493.398	409.62
493.615	388.62
493.833	397.62
494.05	416.62
494.268	394.62
494.485	409.62
494.703	386.62
494.92	377.62
495.138	413.62
495.355	396.62
495.573	435.62
495.79	401.62
496.008	413.62
496.225	410.62
496.442	423.62
496.66	433.62
496.877	417.62
497.094	385.62
497.312	412.62
497.529	419.62
497.746	427.62
497.963	425.62
498.181	451.62
498.398	436.62
498.615	453.62
498.832	453.62
499.049	423.62
499.267	451.62
499.484	459.62
499.701	484.62
499.918	508.62
500.135	501.62
500.352	509.62
500.569	519.62
500.786	512.62
501.003	499.62
501.22	514.62
501.437	495.62
501.654	496.62
501.871	481.62
502.088	482.62
502.305	457.62
