Data from 1982.PennyLincolnUp.Lamp.En5.5.200Scan.071819.P1_HRD10591_16-45-58-961.txt Node
Date: Thu Jul 18 16:45:58 EDT 2019
User: cochatt
Spectrometer: HR+D1059
Trigger mode: 1
Integration Time (sec): 1.000000E-1
Scans to average: 1
Electric dark correction enabled: true
Nonlinearity correction enabled: false
Boxcar width: 0
XAxis mode: Wavelengths
Number of Pixels in Spectrum: 2048
>>>>>Begin Spectral Data<<<<<
223.165	-27.06
223.4	-27.06
223.635	-27.06
223.869	-26.06
224.104	-4.06
224.338	-17.06
224.573	-15.06
224.808	-17.06
225.042	-11.06
225.277	-1.06
225.511	-0.06
225.746	15.94
225.98	-4.06
226.215	10.94
226.449	15.94
226.683	22.94
226.918	29.94
227.152	26.94
227.387	36.94
227.621	27.94
227.856	32.94
228.09	40.94
228.324	55.94
228.559	49.94
228.793	66.94
229.027	78.94
229.262	87.94
229.496	94.94
229.73	87.94
229.964	117.94
230.199	104.94
230.433	100.94
230.667	94.94
230.901	113.94
231.136	112.94
231.37	98.94
231.604	100.94
231.838	88.94
232.072	103.94
232.306	115.94
232.541	98.94
232.775	88.94
233.009	110.94
233.243	96.94
233.477	97.94
233.711	111.94
233.945	88.94
234.179	90.94
234.413	115.94
234.647	99.94
234.881	95.94
235.115	83.94
235.349	89.94
235.583	103.94
235.817	96.94
236.051	117.94
236.285	110.94
236.519	111.94
236.753	114.94
236.987	130.94
237.221	146.94
237.455	177.94
237.689	128.94
237.922	115.94
238.156	111.94
238.39	103.94
238.624	95.94
238.858	95.94
239.091	99.94
239.325	87.94
239.559	114.94
239.793	119.94
240.027	118.94
240.26	105.94
240.494	127.94
240.728	111.94
240.961	114.94
241.195	120.94
241.429	118.94
241.662	109.94
241.896	94.94
242.13	106.94
242.363	105.94
242.597	113.94
242.83	103.94
243.064	111.94
243.298	130.94
243.531	104.94
243.765	123.94
243.998	119.94
244.232	116.94
244.465	121.94
244.699	104.94
244.932	122.94
245.166	122.94
245.399	124.94
245.633	121.94
245.866	122.94
246.099	120.94
246.333	131.94
246.566	109.94
246.8	131.94
247.033	129.94
247.266	125.94
247.5	125.94
247.733	137.94
247.966	125.94
248.2	144.94
248.433	128.94
248.666	135.94
248.899	146.94
249.133	145.94
249.366	180.94
249.599	151.94
249.832	151.94
250.066	140.94
250.299	144.94
250.532	150.94
250.765	143.94
250.998	181.94
251.231	173.94
251.465	158.94
251.698	163.94
251.931	143.94
252.164	168.94
252.397	163.94
252.63	173.94
252.863	161.94
253.096	176.94
253.329	185.94
253.562	176.94
253.795	169.94
254.028	175.94
254.261	164.94
254.494	180.94
254.727	200.94
254.96	215.94
255.193	195.94
255.426	198.94
255.659	186.94
255.892	166.94
256.124	161.94
256.357	175.94
256.59	172.94
256.823	171.94
257.056	166.94
257.289	160.94
257.521	173.94
257.754	175.94
257.987	175.94
258.22	162.94
258.452	163.94
258.685	163.94
258.918	162.94
259.151	152.94
259.383	168.94
259.616	175.94
259.849	179.94
260.081	192.94
260.314	197.94
260.547	198.94
260.779	200.94
261.012	193.94
261.244	163.94
261.477	163.94
261.71	166.94
261.942	178.94
262.175	194.94
262.407	180.94
262.64	165.94
262.872	175.94
263.105	158.94
263.337	177.94
263.57	166.94
263.802	143.94
264.035	154.94
264.267	165.94
264.499	153.94
264.732	158.94
264.964	169.94
265.197	162.94
265.429	163.94
265.661	170.94
265.894	147.94
266.126	174.94
266.358	165.94
266.591	153.94
266.823	167.94
267.055	167.94
267.287	176.94
267.52	172.94
267.752	167.94
267.984	179.94
268.216	172.94
268.448	177.94
268.681	179.94
268.913	179.94
269.145	191.94
269.377	214.94
269.609	210.94
269.841	202.94
270.073	203.94
270.306	232.94
270.538	225.94
270.77	255.94
271.002	234.94
271.234	220.94
271.466	222.94
271.698	248.94
271.93	252.94
272.162	240.94
272.394	224.94
272.626	209.94
272.858	214.94
273.09	215.94
273.322	208.94
273.553	210.94
273.785	212.94
274.017	204.94
274.249	202.94
274.481	212.94
274.713	204.94
274.945	203.94
275.176	194.94
275.408	204.94
275.64	197.94
275.872	209.94
276.104	198.94
276.335	197.94
276.567	208.94
276.799	217.94
277.031	229.94
277.262	235.94
277.494	240.94
277.726	243.94
277.957	221.94
278.189	224.94
278.421	218.94
278.652	202.94
278.884	203.94
279.115	190.94
279.347	193.94
279.579	195.94
279.81	194.94
280.042	195.94
280.273	209.94
280.505	199.94
280.736	191.94
280.968	197.94
281.199	204.94
281.431	206.94
281.662	188.94
281.894	205.94
282.125	194.94
282.356	225.94
282.588	229.94
282.819	230.94
283.051	226.94
283.282	219.94
283.513	198.94
283.745	205.94
283.976	204.94
284.207	212.94
284.439	221.94
284.67	202.94
284.901	205.94
285.132	220.94
285.364	199.94
285.595	208.94
285.826	188.94
286.057	196.94
286.288	220.94
286.52	190.94
286.751	199.94
286.982	203.94
287.213	214.94
287.444	211.94
287.675	197.94
287.906	217.94
288.138	239.94
288.369	244.94
288.6	221.94
288.831	214.94
289.062	218.94
289.293	213.94
289.524	209.94
289.755	213.94
289.986	210.94
290.217	211.94
290.448	188.94
290.679	217.94
290.91	228.94
291.141	212.94
291.371	207.94
291.602	215.94
291.833	193.94
292.064	217.94
292.295	230.94
292.526	215.94
292.757	223.94
292.987	216.94
293.218	197.94
293.449	217.94
293.68	207.94
293.91	211.94
294.141	216.94
294.372	219.94
294.603	235.94
294.833	202.94
295.064	218.94
295.295	211.94
295.525	212.94
295.756	224.94
295.987	245.94
296.217	238.94
296.448	243.94
296.679	227.94
296.909	219.94
297.14	209.94
297.37	206.94
297.601	215.94
297.831	206.94
298.062	218.94
298.292	230.94
298.523	225.94
298.753	225.94
298.984	223.94
299.214	209.94
299.445	234.94
299.675	222.94
299.905	225.94
300.136	237.94
300.366	214.94
300.597	227.94
300.827	240.94
301.057	231.94
301.288	253.94
301.518	244.94
301.748	238.94
301.979	238.94
302.209	230.94
302.439	229.94
302.669	217.94
302.9	242.94
303.13	236.94
303.36	230.94
303.59	233.94
303.82	237.94
304.051	243.94
304.281	245.94
304.511	243.94
304.741	233.94
304.971	246.94
305.201	226.94
305.431	242.94
305.661	244.94
305.891	232.94
306.121	251.94
306.352	237.94
306.582	253.94
306.812	243.94
307.042	245.94
307.272	231.94
307.502	213.94
307.731	243.94
307.961	235.94
308.191	223.94
308.421	255.94
308.651	263.94
308.881	247.94
309.111	281.94
309.341	257.94
309.571	238.94
309.8	271.94
310.03	278.94
310.26	264.94
310.49	283.94
310.72	285.94
310.949	291.94
311.179	285.94
311.409	287.94
311.639	287.94
311.868	290.94
312.098	288.94
312.328	283.94
312.557	291.94
312.787	272.94
313.017	291.94
313.246	277.94
313.476	279.94
313.706	286.94
313.935	290.94
314.165	294.94
314.394	285.94
314.624	286.94
314.853	290.94
315.083	291.94
315.312	280.94
315.542	253.94
315.771	274.94
316.001	272.94
316.23	266.94
316.46	263.94
316.689	289.94
316.919	295.94
317.148	296.94
317.377	297.94
317.607	287.94
317.836	275.94
318.065	292.94
318.295	293.94
318.524	281.94
318.753	281.94
318.983	277.94
319.212	273.94
319.441	273.94
319.67	286.94
319.9	272.94
320.129	287.94
320.358	287.94
320.587	281.94
320.816	285.94
321.046	298.94
321.275	305.94
321.504	288.94
321.733	289.94
321.962	307.94
322.191	315.94
322.42	318.94
322.649	331.94
322.878	353.94
323.108	348.94
323.337	357.94
323.566	389.94
323.795	394.94
324.024	459.94
324.253	578.94
324.482	823.94
324.71	1226.94
324.939	1616.94
325.168	1327.94
325.397	689.94
325.626	463.94
325.855	425.94
326.084	389.94
326.313	382.94
326.542	401.94
326.77	431.94
326.999	553.94
327.228	763.94
327.457	1056.94
327.686	1169.94
327.914	792.94
328.143	531.94
328.372	464.94
328.6	443.94
328.829	413.94
329.058	449.94
329.287	437.94
329.515	407.94
329.744	386.94
329.972	371.94
330.201	395.94
330.43	408.94
330.658	435.94
330.887	453.94
331.115	409.94
331.344	388.94
331.572	349.94
331.801	344.94
332.03	349.94
332.258	330.94
332.486	319.94
332.715	313.94
332.943	338.94
333.172	323.94
333.4	329.94
333.629	329.94
333.857	319.94
334.085	332.94
334.314	352.94
334.542	364.94
334.771	379.94
334.999	365.94
335.227	326.94
335.455	297.94
335.684	305.94
335.912	327.94
336.14	312.94
336.369	319.94
336.597	303.94
336.825	308.94
337.053	302.94
337.281	312.94
337.51	313.94
337.738	307.94
337.966	302.94
338.194	319.94
338.422	325.94
338.65	321.94
338.878	311.94
339.106	292.94
339.334	297.94
339.562	308.94
339.79	309.94
340.018	309.94
340.246	301.94
340.474	314.94
340.702	306.94
340.93	291.94
341.158	296.94
341.386	321.94
341.614	299.94
341.842	309.94
342.07	311.94
342.298	309.94
342.526	296.94
342.754	289.94
342.981	279.94
343.209	297.94
343.437	289.94
343.665	299.94
343.893	286.94
344.12	300.94
344.348	296.94
344.576	285.94
344.804	324.94
345.031	309.94
345.259	304.94
345.487	313.94
345.714	303.94
345.942	291.94
346.17	289.94
346.397	288.94
346.625	283.94
346.853	266.94
347.08	273.94
347.308	293.94
347.535	308.94
347.763	319.94
347.99	312.94
348.218	302.94
348.445	298.94
348.673	290.94
348.9	311.94
349.128	285.94
349.355	279.94
349.583	278.94
349.81	289.94
350.037	292.94
350.265	291.94
350.492	289.94
350.72	278.94
350.947	300.94
351.174	305.94
351.402	290.94
351.629	295.94
351.856	320.94
352.083	289.94
352.311	310.94
352.538	291.94
352.765	303.94
352.992	296.94
353.22	293.94
353.447	278.94
353.674	286.94
353.901	287.94
354.128	261.94
354.355	286.94
354.583	280.94
354.81	276.94
355.037	292.94
355.264	277.94
355.491	249.94
355.718	276.94
355.945	271.94
356.172	277.94
356.399	287.94
356.626	257.94
356.853	267.94
357.08	259.94
357.307	284.94
357.534	266.94
357.761	261.94
357.988	287.94
358.215	268.94
358.441	274.94
358.668	283.94
358.895	283.94
359.122	284.94
359.349	299.94
359.576	298.94
359.802	326.94
360.029	322.94
360.256	324.94
360.483	316.94
360.709	314.94
360.936	295.94
361.163	305.94
361.39	315.94
361.616	287.94
361.843	292.94
362.07	300.94
362.296	288.94
362.523	278.94
362.749	289.94
362.976	281.94
363.203	276.94
363.429	265.94
363.656	273.94
363.882	281.94
364.109	285.94
364.335	280.94
364.562	287.94
364.788	290.94
365.015	261.94
365.241	266.94
365.468	277.94
365.694	275.94
365.92	286.94
366.147	277.94
366.373	287.94
366.599	264.94
366.826	263.94
367.052	285.94
367.278	269.94
367.505	282.94
367.731	273.94
367.957	268.94
368.184	266.94
368.41	264.94
368.636	284.94
368.862	298.94
369.089	270.94
369.315	281.94
369.541	268.94
369.767	281.94
369.993	260.94
370.219	278.94
370.445	267.94
370.672	260.94
370.898	255.94
371.124	266.94
371.35	261.94
371.576	250.94
371.802	250.94
372.028	272.94
372.254	264.94
372.48	252.94
372.706	272.94
372.932	271.94
373.158	262.94
373.384	268.94
373.61	262.94
373.835	253.94
374.061	275.94
374.287	268.94
374.513	265.94
374.739	271.94
374.965	283.94
375.191	276.94
375.416	264.94
375.642	278.94
375.868	267.94
376.094	265.94
376.319	261.94
376.545	265.94
376.771	259.94
376.997	281.94
377.222	253.94
377.448	271.94
377.674	265.94
377.899	268.94
378.125	254.94
378.35	265.94
378.576	255.94
378.802	244.94
379.027	272.94
379.253	270.94
379.478	265.94
379.704	265.94
379.929	263.94
380.155	271.94
380.38	239.94
380.606	261.94
380.831	250.94
381.057	267.94
381.282	234.94
381.507	267.94
381.733	267.94
381.958	264.94
382.184	256.94
382.409	257.94
382.634	266.94
382.86	259.94
383.085	270.94
383.31	242.94
383.535	266.94
383.761	271.94
383.986	275.94
384.211	259.94
384.436	267.94
384.662	265.94
384.887	262.94
385.112	267.94
385.337	261.94
385.562	277.94
385.787	261.94
386.013	266.94
386.238	282.94
386.463	278.94
386.688	281.94
386.913	271.94
387.138	279.94
387.363	294.94
387.588	269.94
387.813	259.94
388.038	283.94
388.263	280.94
388.488	259.94
388.713	278.94
388.938	277.94
389.163	261.94
389.387	291.94
389.612	275.94
389.837	269.94
390.062	271.94
390.287	260.94
390.512	276.94
390.736	262.94
390.961	269.94
391.186	272.94
391.411	279.94
391.636	283.94
391.86	282.94
392.085	262.94
392.31	266.94
392.534	274.94
392.759	281.94
392.984	278.94
393.208	266.94
393.433	273.94
393.658	283.94
393.882	274.94
394.107	280.94
394.331	254.94
394.556	281.94
394.78	253.94
395.005	278.94
395.229	273.94
395.454	284.94
395.678	286.94
395.903	292.94
396.127	304.94
396.352	292.94
396.576	295.94
396.801	291.94
397.025	277.94
397.249	269.94
397.474	281.94
397.698	281.94
397.922	302.94
398.147	292.94
398.371	309.94
398.595	314.94
398.82	284.94
399.044	286.94
399.268	322.94
399.492	320.94
399.717	342.94
399.941	342.94
400.165	350.94
400.389	374.94
400.613	341.94
400.837	317.94
401.062	315.94
401.286	308.94
401.51	291.94
401.734	289.94
401.958	303.94
402.182	308.94
402.406	311.94
402.63	301.94
402.854	309.94
403.078	307.94
403.302	315.94
403.526	330.94
403.75	333.94
403.974	297.94
404.198	313.94
404.422	336.94
404.645	328.94
404.869	319.94
405.093	319.94
405.317	360.94
405.541	366.94
405.765	327.94
405.988	325.94
406.212	350.94
406.436	328.94
406.66	345.94
406.883	334.94
407.107	327.94
407.331	372.94
407.555	374.94
407.778	395.94
408.002	360.94
408.226	346.94
408.449	327.94
408.673	339.94
408.896	342.94
409.12	374.94
409.344	370.94
409.567	322.94
409.791	324.94
410.014	308.94
410.238	309.94
410.461	308.94
410.685	307.94
410.908	323.94
411.132	343.94
411.355	352.94
411.578	354.94
411.802	319.94
412.025	298.94
412.249	307.94
412.472	337.94
412.695	368.94
412.919	326.94
413.142	321.94
413.365	317.94
413.589	306.94
413.812	301.94
414.035	291.94
414.258	290.94
414.482	291.94
414.705	287.94
414.928	284.94
415.151	290.94
415.374	281.94
415.597	285.94
415.821	282.94
416.044	295.94
416.267	297.94
416.49	277.94
416.713	286.94
416.936	286.94
417.159	285.94
417.382	289.94
417.605	300.94
417.828	291.94
418.051	305.94
418.274	295.94
418.497	298.94
418.72	282.94
418.943	292.94
419.166	296.94
419.389	308.94
419.611	298.94
419.834	322.94
420.057	339.94
420.28	308.94
420.503	289.94
420.726	312.94
420.948	323.94
421.171	321.94
421.394	350.94
421.617	317.94
421.839	315.94
422.062	329.94
422.285	320.94
422.507	346.94
422.73	393.94
422.953	373.94
423.175	334.94
423.398	314.94
423.621	331.94
423.843	330.94
424.066	336.94
424.288	334.94
424.511	343.94
424.733	373.94
424.956	422.94
425.178	414.94
425.401	385.94
425.623	409.94
425.846	363.94
426.068	350.94
426.291	330.94
426.513	346.94
426.735	346.94
426.958	382.94
427.18	423.94
427.402	478.94
427.625	527.94
427.847	474.94
428.069	416.94
428.292	354.94
428.514	339.94
428.736	318.94
428.958	336.94
429.181	316.94
429.403	309.94
429.625	309.94
429.847	353.94
430.069	371.94
430.292	369.94
430.514	322.94
430.736	319.94
430.958	305.94
431.18	304.94
431.402	314.94
431.624	289.94
431.846	301.94
432.068	286.94
432.29	297.94
432.512	295.94
432.734	293.94
432.956	303.94
433.178	295.94
433.4	303.94
433.622	299.94
433.844	297.94
434.066	304.94
434.287	300.94
434.509	272.94
434.731	281.94
434.953	305.94
435.175	312.94
435.397	342.94
435.618	340.94
435.84	366.94
436.062	417.94
436.284	447.94
436.505	387.94
436.727	353.94
436.949	312.94
437.17	309.94
437.392	315.94
437.614	315.94
437.835	355.94
438.057	397.94
438.278	453.94
438.5	443.94
438.721	496.94
438.943	466.94
439.165	389.94
439.386	367.94
439.608	359.94
439.829	354.94
440.05	372.94
440.272	386.94
440.493	366.94
440.715	343.94
440.936	327.94
441.158	310.94
441.379	323.94
441.6	342.94
441.822	327.94
442.043	385.94
442.264	415.94
442.486	419.94
442.707	360.94
442.928	374.94
443.149	346.94
443.371	365.94
443.592	377.94
443.813	445.94
444.034	481.94
444.255	399.94
444.476	353.94
444.698	326.94
444.919	307.94
445.14	378.94
445.361	376.94
445.582	370.94
445.803	408.94
446.024	469.94
446.245	455.94
446.466	434.94
446.687	367.94
446.908	346.94
447.129	325.94
447.35	321.94
447.571	306.94
447.792	311.94
448.013	327.94
448.234	352.94
448.455	383.94
448.675	421.94
448.896	493.94
449.117	421.94
449.338	412.94
449.559	470.94
449.779	498.94
450	407.94
450.221	346.94
450.442	331.94
450.662	319.94
450.883	307.94
451.104	325.94
451.324	311.94
451.545	298.94
451.766	282.94
451.986	286.94
452.207	292.94
452.428	290.94
452.648	294.94
452.869	298.94
453.089	284.94
453.31	294.94
453.53	301.94
453.751	288.94
453.971	296.94
454.192	297.94
454.412	293.94
454.633	285.94
454.853	277.94
455.073	285.94
455.294	293.94
455.514	357.94
455.734	325.94
455.955	286.94
456.175	258.94
456.395	269.94
456.616	255.94
456.836	267.94
457.056	263.94
457.276	258.94
457.497	271.94
457.717	273.94
457.937	277.94
458.157	268.94
458.377	282.94
458.598	298.94
458.818	334.94
459.038	379.94
459.258	409.94
459.478	326.94
459.698	286.94
459.918	309.94
460.138	287.94
460.358	296.94
460.578	291.94
460.798	305.94
461.018	297.94
461.238	293.94
461.458	295.94
461.678	297.94
461.898	294.94
462.118	286.94
462.338	285.94
462.558	293.94
462.777	282.94
462.997	287.94
463.217	291.94
463.437	302.94
463.657	304.94
463.876	305.94
464.096	330.94
464.316	303.94
464.536	279.94
464.755	329.94
464.975	308.94
465.195	345.94
465.414	402.94
465.634	340.94
465.854	323.94
466.073	305.94
466.293	312.94
466.512	289.94
466.732	278.94
466.951	278.94
467.171	308.94
467.391	287.94
467.61	298.94
467.829	305.94
468.049	289.94
468.268	292.94
468.488	296.94
468.707	294.94
468.927	273.94
469.146	283.94
469.365	290.94
469.585	294.94
469.804	277.94
470.023	288.94
470.243	290.94
470.462	315.94
470.681	304.94
470.901	299.94
471.12	287.94
471.339	296.94
471.558	287.94
471.777	310.94
471.997	302.94
472.216	292.94
472.435	310.94
472.654	300.94
472.873	288.94
473.092	276.94
473.311	258.94
473.53	293.94
473.749	314.94
473.968	328.94
474.187	395.94
474.406	377.94
474.625	326.94
474.844	303.94
475.063	297.94
475.282	299.94
475.501	306.94
475.72	306.94
475.939	311.94
476.158	303.94
476.377	286.94
476.596	291.94
476.814	309.94
477.033	294.94
477.252	310.94
477.471	296.94
477.69	313.94
477.908	315.94
478.127	293.94
478.346	294.94
478.564	322.94
478.783	325.94
479.002	326.94
479.22	330.94
479.439	332.94
479.658	323.94
479.876	349.94
480.095	370.94
480.313	350.94
480.532	344.94
480.751	340.94
480.969	362.94
481.188	391.94
481.406	391.94
481.624	381.94
481.843	359.94
482.061	342.94
482.28	331.94
482.498	346.94
482.717	324.94
482.935	338.94
483.153	332.94
483.372	329.94
483.59	333.94
483.808	339.94
484.027	334.94
484.245	321.94
484.463	346.94
484.681	343.94
484.9	348.94
485.118	326.94
485.336	348.94
485.554	355.94
485.772	337.94
485.99	346.94
486.209	360.94
486.427	351.94
486.645	355.94
486.863	366.94
487.081	362.94
487.299	359.94
487.517	368.94
487.735	358.94
487.953	373.94
488.171	359.94
488.389	345.94
488.607	374.94
488.825	341.94
489.043	369.94
489.261	379.94
489.479	365.94
489.696	375.94
489.914	372.94
490.132	360.94
490.35	385.94
490.568	352.94
490.786	376.94
491.003	395.94
491.221	386.94
491.439	395.94
491.657	389.94
491.874	404.94
492.092	410.94
492.31	409.94
492.527	417.94
492.745	411.94
492.963	391.94
493.18	414.94
493.398	403.94
493.615	419.94
493.833	433.94
494.05	404.94
494.268	420.94
494.485	419.94
494.703	414.94
494.92	430.94
495.138	419.94
495.355	422.94
495.573	440.94
495.79	430.94
496.008	426.94
496.225	415.94
496.442	413.94
496.66	425.94
496.877	421.94
497.094	411.94
497.312	413.94
497.529	434.94
497.746	437.94
497.963	439.94
498.181	453.94
498.398	457.94
498.615	446.94
498.832	475.94
499.049	460.94
499.267	449.94
499.484	481.94
499.701	495.94
499.918	475.94
500.135	493.94
500.352	524.94
500.569	519.94
500.786	533.94
501.003	526.94
501.22	514.94
501.437	503.94
501.654	505.94
501.871	510.94
502.088	490.94
502.305	493.94
