Data from 1982.PennyLincolnUp.Lamp.En5.5.200Scan.071819.P1_HRD10591_16-45-41-961.txt Node
Date: Thu Jul 18 16:45:41 EDT 2019
User: cochatt
Spectrometer: HR+D1059
Trigger mode: 1
Integration Time (sec): 1.000000E-1
Scans to average: 1
Electric dark correction enabled: true
Nonlinearity correction enabled: false
Boxcar width: 0
XAxis mode: Wavelengths
Number of Pixels in Spectrum: 2048
>>>>>Begin Spectral Data<<<<<
223.165	-21.38
223.4	-21.38
223.635	-21.38
223.869	-1.38
224.104	-14.38
224.338	-13.38
224.573	-16.38
224.808	-27.38
225.042	-8.38
225.277	3.62
225.511	3.62
225.746	8.62
225.98	10.62
226.215	20.62
226.449	6.62
226.683	12.62
226.918	6.62
227.152	29.62
227.387	31.62
227.621	39.62
227.856	50.62
228.09	45.62
228.324	63.62
228.559	34.62
228.793	59.62
229.027	93.62
229.262	102.62
229.496	89.62
229.73	91.62
229.964	109.62
230.199	109.62
230.433	107.62
230.667	124.62
230.901	81.62
231.136	103.62
231.37	105.62
231.604	108.62
231.838	100.62
232.072	102.62
232.306	108.62
232.541	89.62
232.775	97.62
233.009	116.62
233.243	97.62
233.477	103.62
233.711	113.62
233.945	108.62
234.179	101.62
234.413	105.62
234.647	102.62
234.881	104.62
235.115	85.62
235.349	119.62
235.583	110.62
235.817	98.62
236.051	97.62
236.285	98.62
236.519	100.62
236.753	113.62
236.987	133.62
237.221	125.62
237.455	177.62
237.689	151.62
237.922	114.62
238.156	101.62
238.39	94.62
238.624	100.62
238.858	95.62
239.091	108.62
239.325	100.62
239.559	97.62
239.793	113.62
240.027	110.62
240.26	119.62
240.494	123.62
240.728	116.62
240.961	125.62
241.195	126.62
241.429	108.62
241.662	127.62
241.896	129.62
242.13	107.62
242.363	121.62
242.597	113.62
242.83	110.62
243.064	111.62
243.298	118.62
243.531	94.62
243.765	123.62
243.998	124.62
244.232	116.62
244.465	120.62
244.699	113.62
244.932	108.62
245.166	119.62
245.399	113.62
245.633	111.62
245.866	117.62
246.099	100.62
246.333	127.62
246.566	121.62
246.8	107.62
247.033	125.62
247.266	126.62
247.5	134.62
247.733	133.62
247.966	143.62
248.2	129.62
248.433	137.62
248.666	143.62
248.899	156.62
249.133	163.62
249.366	152.62
249.599	155.62
249.832	133.62
250.066	123.62
250.299	124.62
250.532	149.62
250.765	154.62
250.998	162.62
251.231	149.62
251.465	150.62
251.698	147.62
251.931	155.62
252.164	152.62
252.397	152.62
252.63	148.62
252.863	152.62
253.096	157.62
253.329	185.62
253.562	174.62
253.795	164.62
254.028	181.62
254.261	162.62
254.494	181.62
254.727	181.62
254.96	189.62
255.193	207.62
255.426	179.62
255.659	179.62
255.892	185.62
256.124	184.62
256.357	187.62
256.59	181.62
256.823	177.62
257.056	171.62
257.289	175.62
257.521	157.62
257.754	166.62
257.987	164.62
258.22	165.62
258.452	176.62
258.685	178.62
258.918	166.62
259.151	172.62
259.383	154.62
259.616	183.62
259.849	177.62
260.081	171.62
260.314	197.62
260.547	203.62
260.779	197.62
261.012	155.62
261.244	171.62
261.477	170.62
261.71	178.62
261.942	185.62
262.175	161.62
262.407	166.62
262.64	148.62
262.872	174.62
263.105	174.62
263.337	163.62
263.57	170.62
263.802	175.62
264.035	159.62
264.267	155.62
264.499	165.62
264.732	161.62
264.964	165.62
265.197	169.62
265.429	169.62
265.661	143.62
265.894	163.62
266.126	165.62
266.358	169.62
266.591	178.62
266.823	170.62
267.055	188.62
267.287	174.62
267.52	186.62
267.752	168.62
267.984	157.62
268.216	164.62
268.448	175.62
268.681	168.62
268.913	189.62
269.145	193.62
269.377	205.62
269.609	194.62
269.841	207.62
270.073	199.62
270.306	218.62
270.538	213.62
270.77	247.62
271.002	229.62
271.234	210.62
271.466	216.62
271.698	209.62
271.93	218.62
272.162	232.62
272.394	236.62
272.626	236.62
272.858	226.62
273.09	203.62
273.322	197.62
273.553	206.62
273.785	210.62
274.017	212.62
274.249	200.62
274.481	199.62
274.713	200.62
274.945	204.62
275.176	199.62
275.408	209.62
275.64	182.62
275.872	189.62
276.104	198.62
276.335	191.62
276.567	215.62
276.799	205.62
277.031	237.62
277.262	228.62
277.494	225.62
277.726	221.62
277.957	209.62
278.189	194.62
278.421	193.62
278.652	219.62
278.884	196.62
279.115	207.62
279.347	199.62
279.579	201.62
279.81	212.62
280.042	204.62
280.273	206.62
280.505	212.62
280.736	193.62
280.968	192.62
281.199	189.62
281.431	189.62
281.662	199.62
281.894	199.62
282.125	189.62
282.356	218.62
282.588	214.62
282.819	227.62
283.051	207.62
283.282	199.62
283.513	204.62
283.745	193.62
283.976	206.62
284.207	206.62
284.439	194.62
284.67	196.62
284.901	202.62
285.132	173.62
285.364	209.62
285.595	187.62
285.826	193.62
286.057	195.62
286.288	197.62
286.52	205.62
286.751	217.62
286.982	193.62
287.213	205.62
287.444	197.62
287.675	213.62
287.906	215.62
288.138	211.62
288.369	217.62
288.6	213.62
288.831	221.62
289.062	211.62
289.293	210.62
289.524	222.62
289.755	207.62
289.986	217.62
290.217	200.62
290.448	217.62
290.679	217.62
290.91	195.62
291.141	209.62
291.371	201.62
291.602	210.62
291.833	204.62
292.064	196.62
292.295	219.62
292.526	206.62
292.757	214.62
292.987	213.62
293.218	199.62
293.449	201.62
293.68	208.62
293.91	200.62
294.141	211.62
294.372	209.62
294.603	197.62
294.833	212.62
295.064	209.62
295.295	211.62
295.525	211.62
295.756	225.62
295.987	219.62
296.217	225.62
296.448	230.62
296.679	229.62
296.909	209.62
297.14	220.62
297.37	220.62
297.601	215.62
297.831	226.62
298.062	209.62
298.292	199.62
298.523	214.62
298.753	228.62
298.984	202.62
299.214	210.62
299.445	216.62
299.675	227.62
299.905	243.62
300.136	226.62
300.366	219.62
300.597	234.62
300.827	233.62
301.057	237.62
301.288	244.62
301.518	226.62
301.748	230.62
301.979	222.62
302.209	226.62
302.439	238.62
302.669	237.62
302.9	244.62
303.13	219.62
303.36	224.62
303.59	234.62
303.82	236.62
304.051	238.62
304.281	239.62
304.511	235.62
304.741	222.62
304.971	231.62
305.201	234.62
305.431	230.62
305.661	227.62
305.891	222.62
306.121	250.62
306.352	241.62
306.582	247.62
306.812	225.62
307.042	235.62
307.272	248.62
307.502	234.62
307.731	230.62
307.961	250.62
308.191	233.62
308.421	251.62
308.651	245.62
308.881	230.62
309.111	236.62
309.341	241.62
309.571	251.62
309.8	252.62
310.03	273.62
310.26	269.62
310.49	271.62
310.72	284.62
310.949	274.62
311.179	280.62
311.409	277.62
311.639	284.62
311.868	267.62
312.098	285.62
312.328	269.62
312.557	279.62
312.787	276.62
313.017	297.62
313.246	283.62
313.476	260.62
313.706	283.62
313.935	275.62
314.165	283.62
314.394	274.62
314.624	260.62
314.853	286.62
315.083	278.62
315.312	266.62
315.542	267.62
315.771	253.62
316.001	248.62
316.23	253.62
316.46	275.62
316.689	254.62
316.919	262.62
317.148	277.62
317.377	286.62
317.607	273.62
317.836	281.62
318.065	284.62
318.295	268.62
318.524	270.62
318.753	284.62
318.983	265.62
319.212	275.62
319.441	275.62
319.67	269.62
319.9	278.62
320.129	280.62
320.358	285.62
320.587	275.62
320.816	280.62
321.046	273.62
321.275	298.62
321.504	294.62
321.733	295.62
321.962	312.62
322.191	303.62
322.42	326.62
322.649	332.62
322.878	307.62
323.108	329.62
323.337	341.62
323.566	358.62
323.795	389.62
324.024	417.62
324.253	534.62
324.482	745.62
324.71	1117.62
324.939	1469.62
325.168	1185.62
325.397	655.62
325.626	472.62
325.855	389.62
326.084	388.62
326.313	363.62
326.542	377.62
326.77	407.62
326.999	495.62
327.228	694.62
327.457	1002.62
327.686	1064.62
327.914	735.62
328.143	500.62
328.372	449.62
328.6	416.62
328.829	405.62
329.058	395.62
329.287	403.62
329.515	391.62
329.744	365.62
329.972	335.62
330.201	377.62
330.43	381.62
330.658	421.62
330.887	451.62
331.115	396.62
331.344	369.62
331.572	341.62
331.801	353.62
332.03	338.62
332.258	311.62
332.486	322.62
332.715	322.62
332.943	312.62
333.172	315.62
333.4	296.62
333.629	317.62
333.857	323.62
334.085	345.62
334.314	345.62
334.542	343.62
334.771	345.62
334.999	341.62
335.227	325.62
335.455	318.62
335.684	300.62
335.912	313.62
336.14	280.62
336.369	289.62
336.597	307.62
336.825	294.62
337.053	312.62
337.281	308.62
337.51	283.62
337.738	319.62
337.966	310.62
338.194	304.62
338.422	305.62
338.65	302.62
338.878	309.62
339.106	314.62
339.334	296.62
339.562	301.62
339.79	302.62
340.018	282.62
340.246	293.62
340.474	305.62
340.702	286.62
340.93	305.62
341.158	293.62
341.386	291.62
341.614	314.62
341.842	299.62
342.07	282.62
342.298	291.62
342.526	294.62
342.754	274.62
342.981	285.62
343.209	289.62
343.437	298.62
343.665	294.62
343.893	301.62
344.12	280.62
344.348	301.62
344.576	294.62
344.804	306.62
345.031	307.62
345.259	302.62
345.487	302.62
345.714	292.62
345.942	282.62
346.17	277.62
346.397	279.62
346.625	278.62
346.853	277.62
347.08	321.62
347.308	286.62
347.535	301.62
347.763	295.62
347.99	294.62
348.218	287.62
348.445	311.62
348.673	297.62
348.9	293.62
349.128	287.62
349.355	277.62
349.583	293.62
349.81	274.62
350.037	295.62
350.265	286.62
350.492	267.62
350.72	277.62
350.947	291.62
351.174	284.62
351.402	314.62
351.629	301.62
351.856	293.62
352.083	300.62
352.311	292.62
352.538	294.62
352.765	287.62
352.992	289.62
353.22	289.62
353.447	302.62
353.674	307.62
353.901	300.62
354.128	274.62
354.355	259.62
354.583	263.62
354.81	272.62
355.037	260.62
355.264	265.62
355.491	287.62
355.718	269.62
355.945	265.62
356.172	261.62
356.399	262.62
356.626	268.62
356.853	246.62
357.08	261.62
357.307	256.62
357.534	279.62
357.761	258.62
357.988	257.62
358.215	270.62
358.441	272.62
358.668	277.62
358.895	261.62
359.122	271.62
359.349	268.62
359.576	291.62
359.802	289.62
360.029	313.62
360.256	319.62
360.483	307.62
360.709	306.62
360.936	293.62
361.163	291.62
361.39	276.62
361.616	285.62
361.843	297.62
362.07	281.62
362.296	269.62
362.523	277.62
362.749	281.62
362.976	265.62
363.203	272.62
363.429	254.62
363.656	256.62
363.882	271.62
364.109	271.62
364.335	274.62
364.562	268.62
364.788	253.62
365.015	271.62
365.241	270.62
365.468	278.62
365.694	261.62
365.92	281.62
366.147	261.62
366.373	244.62
366.599	271.62
366.826	268.62
367.052	274.62
367.278	257.62
367.505	266.62
367.731	252.62
367.957	262.62
368.184	279.62
368.41	263.62
368.636	264.62
368.862	275.62
369.089	265.62
369.315	261.62
369.541	250.62
369.767	270.62
369.993	271.62
370.219	274.62
370.445	261.62
370.672	263.62
370.898	268.62
371.124	268.62
371.35	249.62
371.576	265.62
371.802	255.62
372.028	274.62
372.254	271.62
372.48	257.62
372.706	248.62
372.932	283.62
373.158	265.62
373.384	252.62
373.61	252.62
373.835	274.62
374.061	260.62
374.287	266.62
374.513	273.62
374.739	265.62
374.965	265.62
375.191	276.62
375.416	261.62
375.642	260.62
375.868	270.62
376.094	254.62
376.319	251.62
376.545	262.62
376.771	251.62
376.997	252.62
377.222	259.62
377.448	275.62
377.674	267.62
377.899	250.62
378.125	232.62
378.35	271.62
378.576	265.62
378.802	243.62
379.027	262.62
379.253	271.62
379.478	258.62
379.704	252.62
379.929	238.62
380.155	262.62
380.38	249.62
380.606	260.62
380.831	272.62
381.057	255.62
381.282	254.62
381.507	268.62
381.733	260.62
381.958	271.62
382.184	259.62
382.409	266.62
382.634	257.62
382.86	257.62
383.085	246.62
383.31	257.62
383.535	278.62
383.761	271.62
383.986	278.62
384.211	262.62
384.436	279.62
384.662	257.62
384.887	266.62
385.112	270.62
385.337	278.62
385.562	276.62
385.787	273.62
386.013	284.62
386.238	277.62
386.463	258.62
386.688	251.62
386.913	253.62
387.138	241.62
387.363	254.62
387.588	273.62
387.813	271.62
388.038	253.62
388.263	265.62
388.488	250.62
388.713	256.62
388.938	247.62
389.163	265.62
389.387	263.62
389.612	262.62
389.837	275.62
390.062	279.62
390.287	265.62
390.512	265.62
390.736	268.62
390.961	277.62
391.186	258.62
391.411	275.62
391.636	268.62
391.86	269.62
392.085	270.62
392.31	262.62
392.534	272.62
392.759	269.62
392.984	267.62
393.208	270.62
393.433	270.62
393.658	267.62
393.882	271.62
394.107	270.62
394.331	278.62
394.556	288.62
394.78	257.62
395.005	274.62
395.229	267.62
395.454	266.62
395.678	275.62
395.903	278.62
396.127	269.62
396.352	294.62
396.576	271.62
396.801	293.62
397.025	285.62
397.249	271.62
397.474	273.62
397.698	271.62
397.922	288.62
398.147	295.62
398.371	300.62
398.595	285.62
398.82	310.62
399.044	289.62
399.268	300.62
399.492	304.62
399.717	324.62
399.941	326.62
400.165	341.62
400.389	367.62
400.613	335.62
400.837	319.62
401.062	311.62
401.286	282.62
401.51	297.62
401.734	276.62
401.958	302.62
402.182	295.62
402.406	306.62
402.63	312.62
402.854	288.62
403.078	311.62
403.302	277.62
403.526	292.62
403.75	299.62
403.974	301.62
404.198	309.62
404.422	321.62
404.645	319.62
404.869	312.62
405.093	333.62
405.317	356.62
405.541	361.62
405.765	341.62
405.988	314.62
406.212	333.62
406.436	356.62
406.66	322.62
406.883	321.62
407.107	345.62
407.331	375.62
407.555	393.62
407.778	380.62
408.002	364.62
408.226	334.62
408.449	327.62
408.673	322.62
408.896	342.62
409.12	366.62
409.344	359.62
409.567	327.62
409.791	310.62
410.014	296.62
410.238	304.62
410.461	295.62
410.685	317.62
410.908	311.62
411.132	330.62
411.355	347.62
411.578	333.62
411.802	297.62
412.025	287.62
412.249	309.62
412.472	299.62
412.695	334.62
412.919	328.62
413.142	317.62
413.365	290.62
413.589	295.62
413.812	300.62
414.035	312.62
414.258	285.62
414.482	288.62
414.705	273.62
414.928	285.62
415.151	287.62
415.374	282.62
415.597	294.62
415.821	269.62
416.044	278.62
416.267	285.62
416.49	294.62
416.713	281.62
416.936	279.62
417.159	294.62
417.382	271.62
417.605	292.62
417.828	278.62
418.051	308.62
418.274	305.62
418.497	302.62
418.72	294.62
418.943	271.62
419.166	291.62
419.389	312.62
419.611	314.62
419.834	322.62
420.057	322.62
420.28	286.62
420.503	315.62
420.726	291.62
420.948	316.62
421.171	343.62
421.394	354.62
421.617	309.62
421.839	294.62
422.062	293.62
422.285	306.62
422.507	350.62
422.73	382.62
422.953	360.62
423.175	324.62
423.398	313.62
423.621	315.62
423.843	327.62
424.066	317.62
424.288	329.62
424.511	333.62
424.733	351.62
424.956	376.62
425.178	389.62
425.401	389.62
425.623	407.62
425.846	372.62
426.068	321.62
426.291	343.62
426.513	325.62
426.735	324.62
426.958	371.62
427.18	405.62
427.402	470.62
427.625	519.62
427.847	459.62
428.069	405.62
428.292	358.62
428.514	333.62
428.736	331.62
428.958	323.62
429.181	321.62
429.403	310.62
429.625	317.62
429.847	316.62
430.069	372.62
430.292	361.62
430.514	309.62
430.736	301.62
430.958	309.62
431.18	296.62
431.402	306.62
431.624	307.62
431.846	279.62
432.068	277.62
432.29	285.62
432.512	290.62
432.734	313.62
432.956	300.62
433.178	294.62
433.4	301.62
433.622	294.62
433.844	293.62
434.066	285.62
434.287	293.62
434.509	282.62
434.731	303.62
434.953	304.62
435.175	311.62
435.397	319.62
435.618	326.62
435.84	359.62
436.062	416.62
436.284	441.62
436.505	367.62
436.727	339.62
436.949	326.62
437.17	317.62
437.392	317.62
437.614	307.62
437.835	345.62
438.057	380.62
438.278	404.62
438.5	453.62
438.721	464.62
438.943	456.62
439.165	388.62
439.386	347.62
439.608	340.62
439.829	340.62
440.05	344.62
440.272	372.62
440.493	369.62
440.715	317.62
440.936	315.62
441.158	315.62
441.379	291.62
441.6	327.62
441.822	337.62
442.043	353.62
442.264	407.62
442.486	418.62
442.707	331.62
442.928	345.62
443.149	347.62
443.371	351.62
443.592	378.62
443.813	449.62
444.034	455.62
444.255	381.62
444.476	321.62
444.698	332.62
444.919	309.62
445.14	405.62
445.361	378.62
445.582	361.62
445.803	405.62
446.024	470.62
446.245	463.62
446.466	408.62
446.687	350.62
446.908	341.62
447.129	332.62
447.35	312.62
447.571	294.62
447.792	283.62
448.013	313.62
448.234	338.62
448.455	358.62
448.675	418.62
448.896	461.62
449.117	416.62
449.338	408.62
449.559	444.62
449.779	492.62
450	401.62
450.221	329.62
450.442	319.62
450.662	294.62
450.883	295.62
451.104	325.62
451.324	327.62
451.545	288.62
451.766	298.62
451.986	274.62
452.207	287.62
452.428	280.62
452.648	283.62
452.869	287.62
453.089	279.62
453.31	297.62
453.53	303.62
453.751	297.62
453.971	286.62
454.192	312.62
454.412	303.62
454.633	265.62
454.853	274.62
455.073	269.62
455.294	300.62
455.514	330.62
455.734	329.62
455.955	271.62
456.175	263.62
456.395	271.62
456.616	272.62
456.836	269.62
457.056	257.62
457.276	271.62
457.497	254.62
457.717	250.62
457.937	252.62
458.157	276.62
458.377	258.62
458.598	295.62
458.818	317.62
459.038	370.62
459.258	369.62
459.478	314.62
459.698	292.62
459.918	283.62
460.138	265.62
460.358	265.62
460.578	277.62
460.798	290.62
461.018	286.62
461.238	277.62
461.458	291.62
461.678	281.62
461.898	294.62
462.118	284.62
462.338	279.62
462.558	295.62
462.777	309.62
462.997	302.62
463.217	303.62
463.437	313.62
463.657	296.62
463.876	312.62
464.096	296.62
464.316	291.62
464.536	313.62
464.755	295.62
464.975	309.62
465.195	340.62
465.414	365.62
465.634	329.62
465.854	305.62
466.073	267.62
466.293	281.62
466.512	273.62
466.732	281.62
466.951	302.62
467.171	272.62
467.391	265.62
467.61	300.62
467.829	265.62
468.049	277.62
468.268	277.62
468.488	274.62
468.707	280.62
468.927	286.62
469.146	279.62
469.365	277.62
469.585	270.62
469.804	282.62
470.023	285.62
470.243	294.62
470.462	287.62
470.681	299.62
470.901	285.62
471.12	293.62
471.339	268.62
471.558	275.62
471.777	274.62
471.997	286.62
472.216	282.62
472.435	307.62
472.654	302.62
472.873	285.62
473.092	260.62
473.311	285.62
473.53	275.62
473.749	301.62
473.968	337.62
474.187	387.62
474.406	372.62
474.625	332.62
474.844	297.62
475.063	287.62
475.282	288.62
475.501	282.62
475.72	291.62
475.939	284.62
476.158	306.62
476.377	296.62
476.596	293.62
476.814	293.62
477.033	277.62
477.252	309.62
477.471	297.62
477.69	321.62
477.908	307.62
478.127	295.62
478.346	324.62
478.564	307.62
478.783	290.62
479.002	327.62
479.22	302.62
479.439	325.62
479.658	321.62
479.876	335.62
480.095	334.62
480.313	363.62
480.532	334.62
480.751	347.62
480.969	340.62
481.188	356.62
481.406	383.62
481.624	339.62
481.843	343.62
482.061	341.62
482.28	338.62
482.498	337.62
482.717	335.62
482.935	323.62
483.153	346.62
483.372	347.62
483.59	326.62
483.808	335.62
484.027	312.62
484.245	317.62
484.463	338.62
484.681	326.62
484.9	320.62
485.118	343.62
485.336	345.62
485.554	341.62
485.772	357.62
485.99	321.62
486.209	340.62
486.427	353.62
486.645	336.62
486.863	364.62
487.081	344.62
487.299	343.62
487.517	335.62
487.735	364.62
487.953	346.62
488.171	340.62
488.389	349.62
488.607	352.62
488.825	339.62
489.043	362.62
489.261	363.62
489.479	360.62
489.696	351.62
489.914	343.62
490.132	354.62
490.35	362.62
490.568	362.62
490.786	371.62
491.003	372.62
491.221	378.62
491.439	379.62
491.657	385.62
491.874	417.62
492.092	391.62
492.31	377.62
492.527	377.62
492.745	386.62
492.963	403.62
493.18	395.62
493.398	398.62
493.615	392.62
493.833	399.62
494.05	400.62
494.268	388.62
494.485	396.62
494.703	413.62
494.92	421.62
495.138	417.62
495.355	418.62
495.573	396.62
495.79	406.62
496.008	403.62
496.225	410.62
496.442	433.62
496.66	425.62
496.877	387.62
497.094	426.62
497.312	407.62
497.529	410.62
497.746	430.62
497.963	433.62
498.181	426.62
498.398	433.62
498.615	435.62
498.832	449.62
499.049	451.62
499.267	465.62
499.484	446.62
499.701	462.62
499.918	492.62
500.135	487.62
500.352	528.62
500.569	498.62
500.786	504.62
501.003	531.62
501.22	490.62
501.437	495.62
501.654	482.62
501.871	502.62
502.088	469.62
