Data from 1982.PennyLincolnUp.Lamp.En5.5.200Scan.071819.P1_HRD10591_16-46-14-962.txt Node
Date: Thu Jul 18 16:46:14 EDT 2019
User: cochatt
Spectrometer: HR+D1059
Trigger mode: 1
Integration Time (sec): 1.000000E-1
Scans to average: 1
Electric dark correction enabled: true
Nonlinearity correction enabled: false
Boxcar width: 0
XAxis mode: Wavelengths
Number of Pixels in Spectrum: 2048
>>>>>Begin Spectral Data<<<<<
223.165	-13.38
223.4	-13.38
223.635	-13.38
223.869	-23.38
224.104	-23.38
224.338	-18.38
224.573	-19.38
224.808	-0.38
225.042	-11.38
225.277	-8.38
225.511	-6.38
225.746	9.62
225.98	2.62
226.215	16.62
226.449	17.62
226.683	16.62
226.918	31.62
227.152	29.62
227.387	26.62
227.621	44.62
227.856	40.62
228.09	50.62
228.324	56.62
228.559	50.62
228.793	53.62
229.027	84.62
229.262	101.62
229.496	106.62
229.73	113.62
229.964	127.62
230.199	120.62
230.433	105.62
230.667	97.62
230.901	103.62
231.136	111.62
231.37	113.62
231.604	98.62
231.838	111.62
232.072	90.62
232.306	102.62
232.541	97.62
232.775	100.62
233.009	95.62
233.243	106.62
233.477	112.62
233.711	106.62
233.945	111.62
234.179	100.62
234.413	100.62
234.647	92.62
234.881	104.62
235.115	106.62
235.349	100.62
235.583	118.62
235.817	115.62
236.051	97.62
236.285	100.62
236.519	104.62
236.753	124.62
236.987	124.62
237.221	139.62
237.455	169.62
237.689	156.62
237.922	125.62
238.156	118.62
238.39	104.62
238.624	91.62
238.858	88.62
239.091	121.62
239.325	113.62
239.559	109.62
239.793	115.62
240.027	115.62
240.26	120.62
240.494	119.62
240.728	134.62
240.961	123.62
241.195	115.62
241.429	106.62
241.662	123.62
241.896	128.62
242.13	100.62
242.363	104.62
242.597	95.62
242.83	117.62
243.064	97.62
243.298	127.62
243.531	127.62
243.765	113.62
243.998	110.62
244.232	122.62
244.465	120.62
244.699	127.62
244.932	106.62
245.166	121.62
245.399	115.62
245.633	128.62
245.866	121.62
246.099	131.62
246.333	119.62
246.566	131.62
246.8	129.62
247.033	126.62
247.266	130.62
247.5	131.62
247.733	139.62
247.966	125.62
248.2	132.62
248.433	128.62
248.666	144.62
248.899	148.62
249.133	157.62
249.366	152.62
249.599	168.62
249.832	149.62
250.066	153.62
250.299	162.62
250.532	154.62
250.765	149.62
250.998	168.62
251.231	169.62
251.465	170.62
251.698	164.62
251.931	171.62
252.164	165.62
252.397	156.62
252.63	170.62
252.863	159.62
253.096	162.62
253.329	176.62
253.562	158.62
253.795	183.62
254.028	171.62
254.261	173.62
254.494	193.62
254.727	201.62
254.96	207.62
255.193	216.62
255.426	197.62
255.659	175.62
255.892	193.62
256.124	195.62
256.357	182.62
256.59	167.62
256.823	177.62
257.056	171.62
257.289	182.62
257.521	177.62
257.754	172.62
257.987	147.62
258.22	169.62
258.452	166.62
258.685	157.62
258.918	163.62
259.151	175.62
259.383	183.62
259.616	168.62
259.849	189.62
260.081	176.62
260.314	191.62
260.547	208.62
260.779	192.62
261.012	173.62
261.244	167.62
261.477	191.62
261.71	180.62
261.942	184.62
262.175	183.62
262.407	184.62
262.64	156.62
262.872	174.62
263.105	172.62
263.337	166.62
263.57	179.62
263.802	167.62
264.035	179.62
264.267	164.62
264.499	163.62
264.732	177.62
264.964	167.62
265.197	158.62
265.429	163.62
265.661	161.62
265.894	171.62
266.126	175.62
266.358	149.62
266.591	168.62
266.823	161.62
267.055	186.62
267.287	185.62
267.52	177.62
267.752	175.62
267.984	171.62
268.216	167.62
268.448	175.62
268.681	181.62
268.913	179.62
269.145	210.62
269.377	218.62
269.609	215.62
269.841	207.62
270.073	203.62
270.306	225.62
270.538	239.62
270.77	251.62
271.002	252.62
271.234	231.62
271.466	221.62
271.698	242.62
271.93	249.62
272.162	246.62
272.394	241.62
272.626	240.62
272.858	212.62
273.09	225.62
273.322	216.62
273.553	201.62
273.785	216.62
274.017	213.62
274.249	212.62
274.481	212.62
274.713	212.62
274.945	198.62
275.176	217.62
275.408	217.62
275.64	214.62
275.872	217.62
276.104	190.62
276.335	207.62
276.567	209.62
276.799	210.62
277.031	234.62
277.262	235.62
277.494	240.62
277.726	219.62
277.957	232.62
278.189	211.62
278.421	213.62
278.652	216.62
278.884	221.62
279.115	226.62
279.347	204.62
279.579	204.62
279.81	197.62
280.042	203.62
280.273	217.62
280.505	191.62
280.736	198.62
280.968	195.62
281.199	197.62
281.431	203.62
281.662	210.62
281.894	213.62
282.125	228.62
282.356	229.62
282.588	208.62
282.819	241.62
283.051	192.62
283.282	209.62
283.513	216.62
283.745	201.62
283.976	209.62
284.207	204.62
284.439	216.62
284.67	232.62
284.901	209.62
285.132	217.62
285.364	196.62
285.595	207.62
285.826	203.62
286.057	217.62
286.288	218.62
286.52	227.62
286.751	201.62
286.982	220.62
287.213	204.62
287.444	216.62
287.675	227.62
287.906	226.62
288.138	220.62
288.369	217.62
288.6	222.62
288.831	221.62
289.062	228.62
289.293	204.62
289.524	219.62
289.755	223.62
289.986	219.62
290.217	200.62
290.448	234.62
290.679	217.62
290.91	217.62
291.141	211.62
291.371	220.62
291.602	232.62
291.833	225.62
292.064	201.62
292.295	223.62
292.526	218.62
292.757	216.62
292.987	215.62
293.218	217.62
293.449	228.62
293.68	218.62
293.91	231.62
294.141	222.62
294.372	218.62
294.603	224.62
294.833	212.62
295.064	232.62
295.295	230.62
295.525	223.62
295.756	216.62
295.987	227.62
296.217	254.62
296.448	243.62
296.679	215.62
296.909	217.62
297.14	214.62
297.37	237.62
297.601	220.62
297.831	225.62
298.062	228.62
298.292	230.62
298.523	227.62
298.753	247.62
298.984	227.62
299.214	223.62
299.445	226.62
299.675	248.62
299.905	223.62
300.136	239.62
300.366	232.62
300.597	224.62
300.827	242.62
301.057	243.62
301.288	257.62
301.518	241.62
301.748	259.62
301.979	249.62
302.209	250.62
302.439	228.62
302.669	240.62
302.9	239.62
303.13	247.62
303.36	248.62
303.59	236.62
303.82	259.62
304.051	249.62
304.281	245.62
304.511	246.62
304.741	241.62
304.971	231.62
305.201	241.62
305.431	257.62
305.661	268.62
305.891	244.62
306.121	261.62
306.352	256.62
306.582	239.62
306.812	251.62
307.042	251.62
307.272	278.62
307.502	236.62
307.731	250.62
307.961	269.62
308.191	251.62
308.421	236.62
308.651	255.62
308.881	267.62
309.111	247.62
309.341	251.62
309.571	270.62
309.8	268.62
310.03	281.62
310.26	286.62
310.49	273.62
310.72	284.62
310.949	294.62
311.179	290.62
311.409	301.62
311.639	281.62
311.868	274.62
312.098	301.62
312.328	305.62
312.557	315.62
312.787	323.62
313.017	312.62
313.246	303.62
313.476	284.62
313.706	277.62
313.935	282.62
314.165	307.62
314.394	307.62
314.624	307.62
314.853	288.62
315.083	286.62
315.312	280.62
315.542	266.62
315.771	275.62
316.001	290.62
316.23	289.62
316.46	287.62
316.689	287.62
316.919	285.62
317.148	312.62
317.377	300.62
317.607	291.62
317.836	287.62
318.065	293.62
318.295	269.62
318.524	275.62
318.753	299.62
318.983	269.62
319.212	278.62
319.441	295.62
319.67	306.62
319.9	263.62
320.129	265.62
320.358	305.62
320.587	283.62
320.816	289.62
321.046	320.62
321.275	295.62
321.504	305.62
321.733	307.62
321.962	328.62
322.191	312.62
322.42	341.62
322.649	339.62
322.878	343.62
323.108	340.62
323.337	378.62
323.566	405.62
323.795	419.62
324.024	469.62
324.253	588.62
324.482	871.62
324.71	1283.62
324.939	1727.62
325.168	1411.62
325.397	753.62
325.626	527.62
325.855	428.62
326.084	381.62
326.313	401.62
326.542	413.62
326.77	436.62
326.999	551.62
327.228	793.62
327.457	1087.62
327.686	1224.62
327.914	812.62
328.143	545.62
328.372	482.62
328.6	453.62
328.829	444.62
329.058	464.62
329.287	451.62
329.515	418.62
329.744	399.62
329.972	407.62
330.201	387.62
330.43	428.62
330.658	428.62
330.887	480.62
331.115	428.62
331.344	403.62
331.572	379.62
331.801	369.62
332.03	370.62
332.258	353.62
332.486	325.62
332.715	324.62
332.943	326.62
333.172	327.62
333.4	331.62
333.629	343.62
333.857	353.62
334.085	363.62
334.314	357.62
334.542	384.62
334.771	401.62
334.999	359.62
335.227	337.62
335.455	341.62
335.684	326.62
335.912	326.62
336.14	321.62
336.369	329.62
336.597	346.62
336.825	327.62
337.053	330.62
337.281	312.62
337.51	311.62
337.738	312.62
337.966	296.62
338.194	316.62
338.422	327.62
338.65	341.62
338.878	319.62
339.106	304.62
339.334	312.62
339.562	286.62
339.79	316.62
340.018	315.62
340.246	329.62
340.474	306.62
340.702	315.62
340.93	300.62
341.158	313.62
341.386	305.62
341.614	310.62
341.842	311.62
342.07	306.62
342.298	315.62
342.526	319.62
342.754	298.62
342.981	275.62
343.209	303.62
343.437	303.62
343.665	294.62
343.893	298.62
344.12	311.62
344.348	316.62
344.576	324.62
344.804	314.62
345.031	318.62
345.259	326.62
345.487	333.62
345.714	300.62
345.942	301.62
346.17	306.62
346.397	311.62
346.625	309.62
346.853	319.62
347.08	296.62
347.308	307.62
347.535	309.62
347.763	331.62
347.99	312.62
348.218	306.62
348.445	304.62
348.673	293.62
348.9	315.62
349.128	299.62
349.355	276.62
349.583	296.62
349.81	303.62
350.037	280.62
350.265	283.62
350.492	285.62
350.72	305.62
350.947	301.62
351.174	293.62
351.402	323.62
351.629	300.62
351.856	309.62
352.083	310.62
352.311	313.62
352.538	315.62
352.765	309.62
352.992	297.62
353.22	329.62
353.447	295.62
353.674	295.62
353.901	283.62
354.128	279.62
354.355	286.62
354.583	265.62
354.81	283.62
355.037	258.62
355.264	270.62
355.491	259.62
355.718	249.62
355.945	270.62
356.172	276.62
356.399	273.62
356.626	269.62
356.853	260.62
357.08	272.62
357.307	282.62
357.534	266.62
357.761	259.62
357.988	268.62
358.215	289.62
358.441	280.62
358.668	272.62
358.895	274.62
359.122	306.62
359.349	273.62
359.576	294.62
359.802	323.62
360.029	335.62
360.256	331.62
360.483	309.62
360.709	290.62
360.936	309.62
361.163	298.62
361.39	290.62
361.616	298.62
361.843	300.62
362.07	315.62
362.296	293.62
362.523	292.62
362.749	289.62
362.976	302.62
363.203	289.62
363.429	277.62
363.656	282.62
363.882	275.62
364.109	280.62
364.335	280.62
364.562	278.62
364.788	267.62
365.015	274.62
365.241	300.62
365.468	274.62
365.694	279.62
365.92	287.62
366.147	279.62
366.373	280.62
366.599	282.62
366.826	261.62
367.052	263.62
367.278	259.62
367.505	267.62
367.731	293.62
367.957	280.62
368.184	270.62
368.41	274.62
368.636	279.62
368.862	293.62
369.089	271.62
369.315	257.62
369.541	277.62
369.767	277.62
369.993	274.62
370.219	271.62
370.445	278.62
370.672	283.62
370.898	279.62
371.124	275.62
371.35	251.62
371.576	278.62
371.802	280.62
372.028	257.62
372.254	264.62
372.48	278.62
372.706	267.62
372.932	285.62
373.158	261.62
373.384	262.62
373.61	291.62
373.835	284.62
374.061	259.62
374.287	271.62
374.513	267.62
374.739	263.62
374.965	284.62
375.191	283.62
375.416	276.62
375.642	274.62
375.868	260.62
376.094	276.62
376.319	267.62
376.545	268.62
376.771	260.62
376.997	269.62
377.222	280.62
377.448	255.62
377.674	279.62
377.899	265.62
378.125	257.62
378.35	269.62
378.576	259.62
378.802	269.62
379.027	256.62
379.253	276.62
379.478	252.62
379.704	263.62
379.929	258.62
380.155	280.62
380.38	250.62
380.606	265.62
380.831	266.62
381.057	283.62
381.282	248.62
381.507	264.62
381.733	275.62
381.958	273.62
382.184	261.62
382.409	277.62
382.634	261.62
382.86	271.62
383.085	273.62
383.31	271.62
383.535	292.62
383.761	288.62
383.986	265.62
384.211	271.62
384.436	278.62
384.662	277.62
384.887	269.62
385.112	277.62
385.337	285.62
385.562	275.62
385.787	276.62
386.013	300.62
386.238	287.62
386.463	283.62
386.688	293.62
386.913	271.62
387.138	281.62
387.363	274.62
387.588	280.62
387.813	292.62
388.038	264.62
388.263	278.62
388.488	299.62
388.713	283.62
388.938	277.62
389.163	263.62
389.387	292.62
389.612	268.62
389.837	284.62
390.062	283.62
390.287	271.62
390.512	261.62
390.736	246.62
390.961	279.62
391.186	270.62
391.411	283.62
391.636	283.62
391.86	260.62
392.085	265.62
392.31	285.62
392.534	298.62
392.759	283.62
392.984	283.62
393.208	284.62
393.433	289.62
393.658	279.62
393.882	277.62
394.107	279.62
394.331	307.62
394.556	278.62
394.78	273.62
395.005	281.62
395.229	270.62
395.454	289.62
395.678	281.62
395.903	287.62
396.127	304.62
396.352	295.62
396.576	277.62
396.801	285.62
397.025	295.62
397.249	272.62
397.474	309.62
397.698	305.62
397.922	303.62
398.147	308.62
398.371	300.62
398.595	303.62
398.82	288.62
399.044	307.62
399.268	305.62
399.492	317.62
399.717	329.62
399.941	363.62
400.165	348.62
400.389	359.62
400.613	356.62
400.837	317.62
401.062	323.62
401.286	310.62
401.51	311.62
401.734	310.62
401.958	287.62
402.182	303.62
402.406	312.62
402.63	307.62
402.854	325.62
403.078	299.62
403.302	292.62
403.526	323.62
403.75	320.62
403.974	304.62
404.198	279.62
404.422	308.62
404.645	332.62
404.869	306.62
405.093	360.62
405.317	368.62
405.541	377.62
405.765	349.62
405.988	337.62
406.212	340.62
406.436	336.62
406.66	358.62
406.883	346.62
407.107	344.62
407.331	372.62
407.555	433.62
407.778	402.62
408.002	383.62
408.226	360.62
408.449	344.62
408.673	368.62
408.896	359.62
409.12	391.62
409.344	363.62
409.567	332.62
409.791	334.62
410.014	327.62
410.238	320.62
410.461	332.62
410.685	338.62
410.908	323.62
411.132	345.62
411.355	352.62
411.578	321.62
411.802	309.62
412.025	313.62
412.249	325.62
412.472	344.62
412.695	342.62
412.919	336.62
413.142	313.62
413.365	299.62
413.589	301.62
413.812	307.62
414.035	296.62
414.258	303.62
414.482	311.62
414.705	283.62
414.928	291.62
415.151	305.62
415.374	307.62
415.597	291.62
415.821	272.62
416.044	275.62
416.267	299.62
416.49	299.62
416.713	309.62
416.936	290.62
417.159	296.62
417.382	282.62
417.605	301.62
417.828	317.62
418.051	320.62
418.274	313.62
418.497	284.62
418.72	293.62
418.943	288.62
419.166	308.62
419.389	313.62
419.611	307.62
419.834	290.62
420.057	317.62
420.28	308.62
420.503	321.62
420.726	287.62
420.948	311.62
421.171	346.62
421.394	363.62
421.617	313.62
421.839	329.62
422.062	319.62
422.285	300.62
422.507	366.62
422.73	389.62
422.953	385.62
423.175	351.62
423.398	320.62
423.621	325.62
423.843	344.62
424.066	349.62
424.288	324.62
424.511	336.62
424.733	381.62
424.956	427.62
425.178	444.62
425.401	415.62
425.623	431.62
425.846	358.62
426.068	342.62
426.291	349.62
426.513	327.62
426.735	339.62
426.958	363.62
427.18	432.62
427.402	507.62
427.625	548.62
427.847	499.62
428.069	433.62
428.292	386.62
428.514	355.62
428.736	325.62
428.958	333.62
429.181	307.62
429.403	317.62
429.625	315.62
429.847	317.62
430.069	386.62
430.292	375.62
430.514	315.62
430.736	309.62
430.958	308.62
431.18	320.62
431.402	299.62
431.624	303.62
431.846	293.62
432.068	292.62
432.29	295.62
432.512	307.62
432.734	292.62
432.956	311.62
433.178	307.62
433.4	304.62
433.622	311.62
433.844	312.62
434.066	313.62
434.287	300.62
434.509	306.62
434.731	305.62
434.953	307.62
435.175	319.62
435.397	328.62
435.618	361.62
435.84	375.62
436.062	403.62
436.284	454.62
436.505	403.62
436.727	362.62
436.949	335.62
437.17	312.62
437.392	325.62
437.614	339.62
437.835	357.62
438.057	405.62
438.278	471.62
438.5	464.62
438.721	495.62
438.943	473.62
439.165	377.62
439.386	365.62
439.608	357.62
439.829	348.62
440.05	353.62
440.272	387.62
440.493	393.62
440.715	339.62
440.936	339.62
441.158	329.62
441.379	289.62
441.6	333.62
441.822	343.62
442.043	370.62
442.264	437.62
442.486	455.62
442.707	383.62
442.928	346.62
443.149	330.62
443.371	364.62
443.592	390.62
443.813	447.62
444.034	479.62
444.255	409.62
444.476	352.62
444.698	339.62
444.919	337.62
445.14	435.62
445.361	389.62
445.582	378.62
445.803	420.62
446.024	487.62
446.245	511.62
446.466	432.62
446.687	375.62
446.908	338.62
447.129	327.62
447.35	329.62
447.571	303.62
447.792	304.62
448.013	303.62
448.234	338.62
448.455	370.62
448.675	435.62
448.896	487.62
449.117	431.62
449.338	418.62
449.559	468.62
449.779	530.62
450	430.62
450.221	352.62
450.442	321.62
450.662	323.62
450.883	309.62
451.104	328.62
451.324	323.62
451.545	331.62
451.766	325.62
451.986	292.62
452.207	277.62
452.428	305.62
452.648	288.62
452.869	275.62
453.089	300.62
453.31	292.62
453.53	290.62
453.751	290.62
453.971	272.62
454.192	301.62
454.412	310.62
454.633	278.62
454.853	291.62
455.073	306.62
455.294	317.62
455.514	329.62
455.734	343.62
455.955	316.62
456.175	269.62
456.395	277.62
456.616	283.62
456.836	287.62
457.056	254.62
457.276	258.62
457.497	268.62
457.717	263.62
457.937	290.62
458.157	277.62
458.377	287.62
458.598	314.62
458.818	365.62
459.038	387.62
459.258	377.62
459.478	329.62
459.698	299.62
459.918	289.62
460.138	287.62
460.358	292.62
460.578	305.62
460.798	300.62
461.018	297.62
461.238	299.62
461.458	299.62
461.678	276.62
461.898	289.62
462.118	306.62
462.338	321.62
462.558	290.62
462.777	303.62
462.997	304.62
463.217	308.62
463.437	304.62
463.657	293.62
463.876	300.62
464.096	300.62
464.316	314.62
464.536	299.62
464.755	316.62
464.975	316.62
465.195	346.62
465.414	383.62
465.634	339.62
465.854	329.62
466.073	325.62
466.293	308.62
466.512	293.62
466.732	277.62
466.951	297.62
467.171	269.62
467.391	291.62
467.61	309.62
467.829	308.62
468.049	298.62
468.268	305.62
468.488	290.62
468.707	271.62
468.927	276.62
469.146	263.62
469.365	279.62
469.585	303.62
469.804	295.62
470.023	318.62
470.243	294.62
470.462	300.62
470.681	297.62
470.901	279.62
471.12	293.62
471.339	305.62
471.558	289.62
471.777	303.62
471.997	272.62
472.216	309.62
472.435	319.62
472.654	316.62
472.873	292.62
473.092	304.62
473.311	280.62
473.53	283.62
473.749	327.62
473.968	342.62
474.187	404.62
474.406	419.62
474.625	342.62
474.844	306.62
475.063	304.62
475.282	292.62
475.501	292.62
475.72	291.62
475.939	306.62
476.158	289.62
476.377	320.62
476.596	303.62
476.814	319.62
477.033	313.62
477.252	298.62
477.471	323.62
477.69	299.62
477.908	308.62
478.127	314.62
478.346	304.62
478.564	331.62
478.783	318.62
479.002	346.62
479.22	335.62
479.439	322.62
479.658	342.62
479.876	343.62
480.095	356.62
480.313	369.62
480.532	357.62
480.751	344.62
480.969	356.62
481.188	408.62
481.406	437.62
481.624	363.62
481.843	355.62
482.061	348.62
482.28	358.62
482.498	348.62
482.717	348.62
482.935	340.62
483.153	340.62
483.372	344.62
483.59	339.62
483.808	348.62
484.027	348.62
484.245	335.62
484.463	332.62
484.681	351.62
484.9	348.62
485.118	346.62
485.336	338.62
485.554	350.62
485.772	349.62
485.99	340.62
486.209	355.62
486.427	343.62
486.645	368.62
486.863	356.62
487.081	367.62
487.299	369.62
487.517	367.62
487.735	354.62
487.953	337.62
488.171	340.62
488.389	356.62
488.607	382.62
488.825	370.62
489.043	354.62
489.261	377.62
489.479	381.62
489.696	376.62
489.914	347.62
490.132	375.62
490.35	381.62
490.568	379.62
490.786	393.62
491.003	395.62
491.221	400.62
491.439	401.62
491.657	385.62
491.874	413.62
492.092	420.62
492.31	421.62
492.527	420.62
492.745	406.62
492.963	401.62
493.18	420.62
493.398	425.62
493.615	420.62
493.833	424.62
494.05	420.62
494.268	431.62
494.485	435.62
494.703	395.62
494.92	413.62
495.138	400.62
495.355	429.62
495.573	418.62
495.79	447.62
496.008	423.62
496.225	430.62
496.442	429.62
496.66	437.62
496.877	422.62
497.094	415.62
497.312	425.62
497.529	436.62
497.746	447.62
497.963	449.62
498.181	457.62
498.398	479.62
498.615	464.62
498.832	467.62
499.049	466.62
499.267	466.62
499.484	473.62
499.701	498.62
499.918	523.62
500.135	503.62
500.352	527.62
500.569	518.62
500.786	531.62
501.003	519.62
501.22	522.62
501.437	511.62
501.654	523.62
501.871	508.62
502.088	491.62
