Data from 1982.PennyLincolnUp.Lamp.En5.5.200Scan.071819.P1_HRD10591_16-45-53-961.txt Node
Date: Thu Jul 18 16:45:53 EDT 2019
User: cochatt
Spectrometer: HR+D1059
Trigger mode: 1
Integration Time (sec): 1.000000E-1
Scans to average: 1
Electric dark correction enabled: true
Nonlinearity correction enabled: false
Boxcar width: 0
XAxis mode: Wavelengths
Number of Pixels in Spectrum: 2048
>>>>>Begin Spectral Data<<<<<
223.165	-15.19
223.4	-15.19
223.635	-15.19
223.869	-11.19
224.104	-18.19
224.338	-10.19
224.573	-4.19
224.808	-24.19
225.042	-4.19
225.277	0.81
225.511	-15.19
225.746	2.81
225.98	5.81
226.215	7.81
226.449	17.81
226.683	13.81
226.918	27.81
227.152	25.81
227.387	35.81
227.621	38.81
227.856	27.81
228.09	49.81
228.324	52.81
228.559	54.81
228.793	57.81
229.027	92.81
229.262	88.81
229.496	97.81
229.73	119.81
229.964	112.81
230.199	112.81
230.433	86.81
230.667	108.81
230.901	105.81
231.136	88.81
231.37	95.81
231.604	103.81
231.838	88.81
232.072	96.81
232.306	100.81
232.541	101.81
232.775	93.81
233.009	112.81
233.243	91.81
233.477	103.81
233.711	96.81
233.945	103.81
234.179	113.81
234.413	117.81
234.647	105.81
234.881	91.81
235.115	92.81
235.349	101.81
235.583	104.81
235.817	105.81
236.051	115.81
236.285	96.81
236.519	106.81
236.753	99.81
236.987	112.81
237.221	150.81
237.455	173.81
237.689	132.81
237.922	123.81
238.156	108.81
238.39	112.81
238.624	103.81
238.858	101.81
239.091	101.81
239.325	119.81
239.559	101.81
239.793	97.81
240.027	116.81
240.26	127.81
240.494	118.81
240.728	120.81
240.961	125.81
241.195	107.81
241.429	104.81
241.662	115.81
241.896	100.81
242.13	111.81
242.363	103.81
242.597	123.81
242.83	96.81
243.064	128.81
243.298	99.81
243.531	109.81
243.765	113.81
243.998	111.81
244.232	108.81
244.465	119.81
244.699	121.81
244.932	114.81
245.166	121.81
245.399	112.81
245.633	117.81
245.866	117.81
246.099	113.81
246.333	112.81
246.566	132.81
246.8	137.81
247.033	121.81
247.266	121.81
247.5	129.81
247.733	133.81
247.966	130.81
248.2	140.81
248.433	128.81
248.666	147.81
248.899	139.81
249.133	166.81
249.366	166.81
249.599	161.81
249.832	152.81
250.066	161.81
250.299	148.81
250.532	162.81
250.765	158.81
250.998	164.81
251.231	173.81
251.465	165.81
251.698	160.81
251.931	147.81
252.164	151.81
252.397	158.81
252.63	160.81
252.863	149.81
253.096	156.81
253.329	180.81
253.562	173.81
253.795	171.81
254.028	167.81
254.261	169.81
254.494	158.81
254.727	209.81
254.96	204.81
255.193	210.81
255.426	219.81
255.659	171.81
255.892	195.81
256.124	186.81
256.357	187.81
256.59	163.81
256.823	163.81
257.056	163.81
257.289	160.81
257.521	166.81
257.754	172.81
257.987	155.81
258.22	175.81
258.452	175.81
258.685	159.81
258.918	147.81
259.151	160.81
259.383	172.81
259.616	156.81
259.849	169.81
260.081	166.81
260.314	187.81
260.547	204.81
260.779	173.81
261.012	185.81
261.244	169.81
261.477	177.81
261.71	169.81
261.942	172.81
262.175	173.81
262.407	172.81
262.64	166.81
262.872	152.81
263.105	163.81
263.337	180.81
263.57	165.81
263.802	154.81
264.035	176.81
264.267	161.81
264.499	161.81
264.732	171.81
264.964	163.81
265.197	165.81
265.429	168.81
265.661	175.81
265.894	186.81
266.126	162.81
266.358	152.81
266.591	181.81
266.823	164.81
267.055	162.81
267.287	175.81
267.52	151.81
267.752	175.81
267.984	185.81
268.216	181.81
268.448	183.81
268.681	183.81
268.913	193.81
269.145	208.81
269.377	194.81
269.609	209.81
269.841	210.81
270.073	226.81
270.306	234.81
270.538	222.81
270.77	253.81
271.002	241.81
271.234	221.81
271.466	237.81
271.698	215.81
271.93	227.81
272.162	228.81
272.394	231.81
272.626	226.81
272.858	211.81
273.09	217.81
273.322	219.81
273.553	204.81
273.785	206.81
274.017	200.81
274.249	203.81
274.481	207.81
274.713	209.81
274.945	199.81
275.176	202.81
275.408	200.81
275.64	200.81
275.872	182.81
276.104	208.81
276.335	213.81
276.567	210.81
276.799	205.81
277.031	229.81
277.262	231.81
277.494	244.81
277.726	228.81
277.957	215.81
278.189	208.81
278.421	180.81
278.652	211.81
278.884	203.81
279.115	197.81
279.347	207.81
279.579	198.81
279.81	208.81
280.042	195.81
280.273	203.81
280.505	197.81
280.736	197.81
280.968	189.81
281.199	206.81
281.431	225.81
281.662	200.81
281.894	202.81
282.125	191.81
282.356	216.81
282.588	216.81
282.819	230.81
283.051	213.81
283.282	190.81
283.513	211.81
283.745	199.81
283.976	217.81
284.207	213.81
284.439	223.81
284.67	203.81
284.901	196.81
285.132	198.81
285.364	223.81
285.595	210.81
285.826	187.81
286.057	201.81
286.288	212.81
286.52	204.81
286.751	196.81
286.982	189.81
287.213	195.81
287.444	216.81
287.675	218.81
287.906	224.81
288.138	219.81
288.369	204.81
288.6	215.81
288.831	212.81
289.062	220.81
289.293	212.81
289.524	200.81
289.755	215.81
289.986	216.81
290.217	197.81
290.448	213.81
290.679	234.81
290.91	229.81
291.141	231.81
291.371	224.81
291.602	207.81
291.833	229.81
292.064	216.81
292.295	205.81
292.526	228.81
292.757	212.81
292.987	227.81
293.218	225.81
293.449	219.81
293.68	211.81
293.91	228.81
294.141	212.81
294.372	211.81
294.603	200.81
294.833	204.81
295.064	205.81
295.295	219.81
295.525	196.81
295.756	221.81
295.987	226.81
296.217	227.81
296.448	240.81
296.679	216.81
296.909	213.81
297.14	215.81
297.37	221.81
297.601	213.81
297.831	199.81
298.062	217.81
298.292	205.81
298.523	231.81
298.753	213.81
298.984	213.81
299.214	223.81
299.445	219.81
299.675	228.81
299.905	226.81
300.136	238.81
300.366	236.81
300.597	237.81
300.827	223.81
301.057	246.81
301.288	239.81
301.518	240.81
301.748	241.81
301.979	224.81
302.209	252.81
302.439	233.81
302.669	228.81
302.9	239.81
303.13	236.81
303.36	227.81
303.59	261.81
303.82	263.81
304.051	240.81
304.281	234.81
304.511	233.81
304.741	236.81
304.971	240.81
305.201	249.81
305.431	244.81
305.661	241.81
305.891	226.81
306.121	243.81
306.352	228.81
306.582	236.81
306.812	265.81
307.042	246.81
307.272	240.81
307.502	245.81
307.731	257.81
307.961	244.81
308.191	245.81
308.421	243.81
308.651	244.81
308.881	255.81
309.111	252.81
309.341	241.81
309.571	267.81
309.8	273.81
310.03	266.81
310.26	269.81
310.49	289.81
310.72	268.81
310.949	293.81
311.179	290.81
311.409	278.81
311.639	284.81
311.868	274.81
312.098	300.81
312.328	288.81
312.557	299.81
312.787	278.81
313.017	301.81
313.246	273.81
313.476	279.81
313.706	249.81
313.935	260.81
314.165	295.81
314.394	289.81
314.624	293.81
314.853	277.81
315.083	269.81
315.312	285.81
315.542	268.81
315.771	270.81
316.001	265.81
316.23	266.81
316.46	264.81
316.689	284.81
316.919	264.81
317.148	287.81
317.377	293.81
317.607	300.81
317.836	263.81
318.065	259.81
318.295	264.81
318.524	283.81
318.753	275.81
318.983	286.81
319.212	275.81
319.441	259.81
319.67	296.81
319.9	306.81
320.129	272.81
320.358	283.81
320.587	281.81
320.816	291.81
321.046	307.81
321.275	295.81
321.504	281.81
321.733	276.81
321.962	303.81
322.191	319.81
322.42	312.81
322.649	321.81
322.878	344.81
323.108	352.81
323.337	344.81
323.566	375.81
323.795	413.81
324.024	454.81
324.253	546.81
324.482	794.81
324.71	1205.81
324.939	1556.81
325.168	1261.81
325.397	671.81
325.626	460.81
325.855	416.81
326.084	405.81
326.313	392.81
326.542	392.81
326.77	424.81
326.999	524.81
327.228	730.81
327.457	1030.81
327.686	1163.81
327.914	755.81
328.143	534.81
328.372	476.81
328.6	437.81
328.829	411.81
329.058	423.81
329.287	420.81
329.515	395.81
329.744	356.81
329.972	381.81
330.201	393.81
330.43	400.81
330.658	436.81
330.887	432.81
331.115	434.81
331.344	378.81
331.572	345.81
331.801	356.81
332.03	357.81
332.258	325.81
332.486	342.81
332.715	317.81
332.943	324.81
333.172	329.81
333.4	323.81
333.629	328.81
333.857	347.81
334.085	324.81
334.314	345.81
334.542	385.81
334.771	375.81
334.999	344.81
335.227	335.81
335.455	337.81
335.684	314.81
335.912	315.81
336.14	317.81
336.369	304.81
336.597	301.81
336.825	316.81
337.053	324.81
337.281	321.81
337.51	285.81
337.738	313.81
337.966	308.81
338.194	315.81
338.422	315.81
338.65	304.81
338.878	288.81
339.106	296.81
339.334	311.81
339.562	305.81
339.79	296.81
340.018	299.81
340.246	286.81
340.474	314.81
340.702	311.81
340.93	293.81
341.158	288.81
341.386	304.81
341.614	298.81
341.842	304.81
342.07	290.81
342.298	292.81
342.526	294.81
342.754	281.81
342.981	295.81
343.209	298.81
343.437	297.81
343.665	298.81
343.893	306.81
344.12	305.81
344.348	308.81
344.576	293.81
344.804	303.81
345.031	311.81
345.259	327.81
345.487	294.81
345.714	300.81
345.942	286.81
346.17	287.81
346.397	274.81
346.625	283.81
346.853	288.81
347.08	298.81
347.308	284.81
347.535	312.81
347.763	311.81
347.99	284.81
348.218	310.81
348.445	297.81
348.673	300.81
348.9	302.81
349.128	293.81
349.355	273.81
349.583	295.81
349.81	286.81
350.037	280.81
350.265	285.81
350.492	290.81
350.72	277.81
350.947	287.81
351.174	302.81
351.402	322.81
351.629	287.81
351.856	322.81
352.083	298.81
352.311	296.81
352.538	310.81
352.765	322.81
352.992	311.81
353.22	277.81
353.447	293.81
353.674	301.81
353.901	287.81
354.128	281.81
354.355	281.81
354.583	253.81
354.81	277.81
355.037	277.81
355.264	270.81
355.491	262.81
355.718	275.81
355.945	267.81
356.172	280.81
356.399	263.81
356.626	256.81
356.853	266.81
357.08	250.81
357.307	263.81
357.534	259.81
357.761	261.81
357.988	276.81
358.215	264.81
358.441	264.81
358.668	261.81
358.895	263.81
359.122	279.81
359.349	284.81
359.576	282.81
359.802	299.81
360.029	323.81
360.256	314.81
360.483	307.81
360.709	301.81
360.936	284.81
361.163	293.81
361.39	265.81
361.616	284.81
361.843	289.81
362.07	268.81
362.296	291.81
362.523	273.81
362.749	291.81
362.976	267.81
363.203	279.81
363.429	274.81
363.656	264.81
363.882	273.81
364.109	277.81
364.335	272.81
364.562	279.81
364.788	272.81
365.015	267.81
365.241	255.81
365.468	272.81
365.694	259.81
365.92	274.81
366.147	290.81
366.373	281.81
366.599	267.81
366.826	265.81
367.052	276.81
367.278	265.81
367.505	257.81
367.731	266.81
367.957	268.81
368.184	247.81
368.41	252.81
368.636	263.81
368.862	276.81
369.089	287.81
369.315	283.81
369.541	248.81
369.767	264.81
369.993	269.81
370.219	268.81
370.445	264.81
370.672	283.81
370.898	261.81
371.124	245.81
371.35	267.81
371.576	263.81
371.802	257.81
372.028	260.81
372.254	271.81
372.48	272.81
372.706	253.81
372.932	261.81
373.158	269.81
373.384	272.81
373.61	288.81
373.835	262.81
374.061	268.81
374.287	274.81
374.513	270.81
374.739	267.81
374.965	257.81
375.191	255.81
375.416	248.81
375.642	261.81
375.868	258.81
376.094	266.81
376.319	281.81
376.545	273.81
376.771	264.81
376.997	272.81
377.222	263.81
377.448	259.81
377.674	263.81
377.899	250.81
378.125	254.81
378.35	242.81
378.576	259.81
378.802	258.81
379.027	257.81
379.253	258.81
379.478	261.81
379.704	253.81
379.929	251.81
380.155	243.81
380.38	258.81
380.606	253.81
380.831	266.81
381.057	274.81
381.282	257.81
381.507	270.81
381.733	269.81
381.958	275.81
382.184	255.81
382.409	260.81
382.634	253.81
382.86	260.81
383.085	282.81
383.31	264.81
383.535	272.81
383.761	260.81
383.986	277.81
384.211	300.81
384.436	268.81
384.662	267.81
384.887	268.81
385.112	276.81
385.337	271.81
385.562	272.81
385.787	271.81
386.013	282.81
386.238	268.81
386.463	269.81
386.688	287.81
386.913	275.81
387.138	268.81
387.363	283.81
387.588	276.81
387.813	262.81
388.038	253.81
388.263	260.81
388.488	259.81
388.713	269.81
388.938	277.81
389.163	289.81
389.387	293.81
389.612	279.81
389.837	275.81
390.062	283.81
390.287	268.81
390.512	265.81
390.736	254.81
390.961	264.81
391.186	272.81
391.411	263.81
391.636	271.81
391.86	271.81
392.085	274.81
392.31	275.81
392.534	274.81
392.759	296.81
392.984	271.81
393.208	286.81
393.433	283.81
393.658	276.81
393.882	258.81
394.107	262.81
394.331	257.81
394.556	253.81
394.78	284.81
395.005	273.81
395.229	278.81
395.454	263.81
395.678	267.81
395.903	288.81
396.127	291.81
396.352	304.81
396.576	266.81
396.801	267.81
397.025	286.81
397.249	255.81
397.474	289.81
397.698	288.81
397.922	284.81
398.147	319.81
398.371	285.81
398.595	284.81
398.82	303.81
399.044	307.81
399.268	311.81
399.492	311.81
399.717	337.81
399.941	361.81
400.165	349.81
400.389	357.81
400.613	336.81
400.837	317.81
401.062	308.81
401.286	310.81
401.51	298.81
401.734	289.81
401.958	296.81
402.182	304.81
402.406	297.81
402.63	304.81
402.854	300.81
403.078	311.81
403.302	312.81
403.526	335.81
403.75	318.81
403.974	301.81
404.198	295.81
404.422	305.81
404.645	309.81
404.869	304.81
405.093	330.81
405.317	356.81
405.541	378.81
405.765	328.81
405.988	329.81
406.212	338.81
406.436	332.81
406.66	357.81
406.883	346.81
407.107	364.81
407.331	389.81
407.555	401.81
407.778	395.81
408.002	369.81
408.226	332.81
408.449	352.81
408.673	348.81
408.896	353.81
409.12	373.81
409.344	356.81
409.567	329.81
409.791	330.81
410.014	316.81
410.238	309.81
410.461	314.81
410.685	308.81
410.908	323.81
411.132	337.81
411.355	354.81
411.578	341.81
411.802	317.81
412.025	294.81
412.249	313.81
412.472	315.81
412.695	356.81
412.919	323.81
413.142	310.81
413.365	324.81
413.589	304.81
413.812	302.81
414.035	308.81
414.258	290.81
414.482	277.81
414.705	273.81
414.928	281.81
415.151	280.81
415.374	263.81
415.597	272.81
415.821	311.81
416.044	293.81
416.267	301.81
416.49	298.81
416.713	277.81
416.936	278.81
417.159	284.81
417.382	295.81
417.605	290.81
417.828	297.81
418.051	326.81
418.274	302.81
418.497	293.81
418.72	297.81
418.943	290.81
419.166	290.81
419.389	315.81
419.611	301.81
419.834	313.81
420.057	299.81
420.28	317.81
420.503	293.81
420.726	319.81
420.948	323.81
421.171	343.81
421.394	335.81
421.617	304.81
421.839	323.81
422.062	309.81
422.285	326.81
422.507	343.81
422.73	390.81
422.953	387.81
423.175	333.81
423.398	323.81
423.621	321.81
423.843	330.81
424.066	325.81
424.288	335.81
424.511	347.81
424.733	392.81
424.956	431.81
425.178	408.81
425.401	405.81
425.623	400.81
425.846	352.81
426.068	332.81
426.291	331.81
426.513	346.81
426.735	342.81
426.958	368.81
427.18	401.81
427.402	490.81
427.625	526.81
427.847	465.81
428.069	394.81
428.292	356.81
428.514	330.81
428.736	322.81
428.958	315.81
429.181	314.81
429.403	298.81
429.625	321.81
429.847	343.81
430.069	391.81
430.292	377.81
430.514	331.81
430.736	298.81
430.958	295.81
431.18	288.81
431.402	295.81
431.624	283.81
431.846	287.81
432.068	275.81
432.29	300.81
432.512	275.81
432.734	285.81
432.956	300.81
433.178	306.81
433.4	303.81
433.622	284.81
433.844	287.81
434.066	285.81
434.287	299.81
434.509	282.81
434.731	300.81
434.953	295.81
435.175	316.81
435.397	334.81
435.618	349.81
435.84	364.81
436.062	418.81
436.284	444.81
436.505	371.81
436.727	339.81
436.949	312.81
437.17	309.81
437.392	310.81
437.614	315.81
437.835	345.81
438.057	402.81
438.278	437.81
438.5	462.81
438.721	482.81
438.943	470.81
439.165	389.81
439.386	349.81
439.608	339.81
439.829	346.81
440.05	354.81
440.272	393.81
440.493	350.81
440.715	333.81
440.936	327.81
441.158	328.81
441.379	310.81
441.6	328.81
441.822	318.81
442.043	350.81
442.264	403.81
442.486	419.81
442.707	360.81
442.928	348.81
443.149	346.81
443.371	356.81
443.592	407.81
443.813	442.81
444.034	459.81
444.255	381.81
444.476	341.81
444.698	342.81
444.919	325.81
445.14	405.81
445.361	368.81
445.582	356.81
445.803	405.81
446.024	471.81
446.245	446.81
446.466	420.81
446.687	354.81
446.908	332.81
447.129	305.81
447.35	327.81
447.571	322.81
447.792	305.81
448.013	318.81
448.234	325.81
448.455	393.81
448.675	428.81
448.896	470.81
449.117	419.81
449.338	382.81
449.559	457.81
449.779	519.81
450	397.81
450.221	328.81
450.442	332.81
450.662	298.81
450.883	297.81
451.104	330.81
451.324	312.81
451.545	297.81
451.766	284.81
451.986	289.81
452.207	283.81
452.428	262.81
452.648	267.81
452.869	280.81
453.089	288.81
453.31	286.81
453.53	284.81
453.751	292.81
453.971	294.81
454.192	304.81
454.412	295.81
454.633	275.81
454.853	260.81
455.073	282.81
455.294	307.81
455.514	341.81
455.734	324.81
455.955	275.81
456.175	275.81
456.395	269.81
456.616	269.81
456.836	260.81
457.056	260.81
457.276	267.81
457.497	267.81
457.717	270.81
457.937	280.81
458.157	274.81
458.377	279.81
458.598	296.81
458.818	331.81
459.038	372.81
459.258	387.81
459.478	325.81
459.698	315.81
459.918	296.81
460.138	281.81
460.358	292.81
460.578	303.81
460.798	283.81
461.018	267.81
461.238	301.81
461.458	291.81
461.678	275.81
461.898	291.81
462.118	268.81
462.338	291.81
462.558	305.81
462.777	296.81
462.997	309.81
463.217	309.81
463.437	316.81
463.657	306.81
463.876	293.81
464.096	296.81
464.316	291.81
464.536	295.81
464.755	305.81
464.975	318.81
465.195	332.81
465.414	388.81
465.634	351.81
465.854	320.81
466.073	291.81
466.293	289.81
466.512	291.81
466.732	289.81
466.951	287.81
467.171	282.81
467.391	299.81
467.61	281.81
467.829	288.81
468.049	283.81
468.268	287.81
468.488	287.81
468.707	274.81
468.927	292.81
469.146	282.81
469.365	267.81
469.585	264.81
469.804	270.81
470.023	293.81
470.243	295.81
470.462	298.81
470.681	312.81
470.901	299.81
471.12	292.81
471.339	305.81
471.558	285.81
471.777	303.81
471.997	281.81
472.216	297.81
472.435	301.81
472.654	299.81
472.873	274.81
473.092	282.81
473.311	280.81
473.53	277.81
473.749	304.81
473.968	332.81
474.187	394.81
474.406	397.81
474.625	308.81
474.844	293.81
475.063	292.81
475.282	267.81
475.501	306.81
475.72	305.81
475.939	311.81
476.158	283.81
476.377	291.81
476.596	272.81
476.814	294.81
477.033	298.81
477.252	307.81
477.471	291.81
477.69	304.81
477.908	300.81
478.127	295.81
478.346	307.81
478.564	309.81
478.783	331.81
479.002	298.81
479.22	320.81
479.439	342.81
479.658	347.81
479.876	348.81
480.095	342.81
480.313	351.81
480.532	363.81
480.751	332.81
480.969	367.81
481.188	396.81
481.406	387.81
481.624	387.81
481.843	346.81
482.061	321.81
482.28	326.81
482.498	340.81
482.717	335.81
482.935	312.81
483.153	340.81
483.372	360.81
483.59	328.81
483.808	337.81
484.027	331.81
484.245	326.81
484.463	341.81
484.681	345.81
484.9	339.81
485.118	334.81
485.336	340.81
485.554	344.81
485.772	333.81
485.99	327.81
486.209	347.81
486.427	358.81
486.645	353.81
486.863	367.81
487.081	361.81
487.299	342.81
487.517	357.81
487.735	361.81
487.953	362.81
488.171	358.81
488.389	370.81
488.607	363.81
488.825	373.81
489.043	356.81
489.261	361.81
489.479	351.81
489.696	390.81
489.914	371.81
490.132	381.81
490.35	353.81
490.568	379.81
490.786	369.81
491.003	399.81
491.221	404.81
491.439	410.81
491.657	424.81
491.874	403.81
492.092	412.81
492.31	397.81
492.527	407.81
492.745	403.81
492.963	396.81
493.18	413.81
493.398	422.81
493.615	419.81
493.833	413.81
494.05	416.81
494.268	405.81
494.485	414.81
494.703	425.81
494.92	404.81
495.138	429.81
495.355	439.81
495.573	443.81
495.79	423.81
496.008	425.81
496.225	418.81
496.442	408.81
496.66	433.81
496.877	413.81
497.094	415.81
497.312	404.81
497.529	427.81
497.746	431.81
497.963	436.81
498.181	463.81
498.398	458.81
498.615	426.81
498.832	445.81
499.049	455.81
499.267	457.81
499.484	481.81
499.701	463.81
499.918	489.81
500.135	511.81
500.352	511.81
500.569	523.81
500.786	520.81
501.003	528.81
501.22	499.81
501.437	518.81
501.654	518.81
501.871	508.81
502.088	485.81
502.305	460.81
