Data from 1982.PennyLincolnUp.Lamp.En5.5.200Scan.071819.P1_HRD10591_16-47-04-963.txt Node
Date: Thu Jul 18 16:47:04 EDT 2019
User: cochatt
Spectrometer: HR+D1059
Trigger mode: 1
Integration Time (sec): 1.000000E-1
Scans to average: 1
Electric dark correction enabled: true
Nonlinearity correction enabled: false
Boxcar width: 0
XAxis mode: Wavelengths
Number of Pixels in Spectrum: 2048
>>>>>Begin Spectral Data<<<<<
223.165	-17.94
223.4	-17.94
223.635	-17.94
223.869	-17.94
224.104	-9.94
224.338	-20.94
224.573	-5.94
224.808	-6.94
225.042	-22.94
225.277	-13.94
225.511	-4.94
225.746	2.06
225.98	15.06
226.215	15.06
226.449	21.06
226.683	22.06
226.918	16.06
227.152	30.06
227.387	31.06
227.621	43.06
227.856	36.06
228.09	56.06
228.324	41.06
228.559	60.06
228.793	59.06
229.027	87.06
229.262	97.06
229.496	106.06
229.73	109.06
229.964	136.06
230.199	113.06
230.433	101.06
230.667	111.06
230.901	91.06
231.136	101.06
231.37	87.06
231.604	98.06
231.838	105.06
232.072	99.06
232.306	86.06
232.541	89.06
232.775	95.06
233.009	94.06
233.243	107.06
233.477	101.06
233.711	113.06
233.945	105.06
234.179	91.06
234.413	99.06
234.647	125.06
234.881	113.06
235.115	95.06
235.349	112.06
235.583	104.06
235.817	115.06
236.051	99.06
236.285	110.06
236.519	97.06
236.753	118.06
236.987	132.06
237.221	140.06
237.455	186.06
237.689	152.06
237.922	124.06
238.156	116.06
238.39	112.06
238.624	117.06
238.858	108.06
239.091	107.06
239.325	106.06
239.559	103.06
239.793	129.06
240.027	126.06
240.26	114.06
240.494	147.06
240.728	133.06
240.961	130.06
241.195	124.06
241.429	118.06
241.662	127.06
241.896	108.06
242.13	116.06
242.363	102.06
242.597	118.06
242.83	120.06
243.064	115.06
243.298	109.06
243.531	118.06
243.765	127.06
243.998	119.06
244.232	116.06
244.465	111.06
244.699	123.06
244.932	111.06
245.166	131.06
245.399	117.06
245.633	108.06
245.866	127.06
246.099	137.06
246.333	136.06
246.566	133.06
246.8	125.06
247.033	121.06
247.266	114.06
247.5	130.06
247.733	142.06
247.966	144.06
248.2	140.06
248.433	138.06
248.666	133.06
248.899	145.06
249.133	168.06
249.366	165.06
249.599	161.06
249.832	151.06
250.066	154.06
250.299	159.06
250.532	138.06
250.765	164.06
250.998	175.06
251.231	181.06
251.465	161.06
251.698	166.06
251.931	170.06
252.164	165.06
252.397	155.06
252.63	167.06
252.863	172.06
253.096	181.06
253.329	187.06
253.562	191.06
253.795	184.06
254.028	180.06
254.261	185.06
254.494	177.06
254.727	199.06
254.96	224.06
255.193	212.06
255.426	199.06
255.659	187.06
255.892	185.06
256.124	191.06
256.357	181.06
256.59	179.06
256.823	166.06
257.056	184.06
257.289	179.06
257.521	174.06
257.754	168.06
257.987	172.06
258.22	166.06
258.452	170.06
258.685	159.06
258.918	169.06
259.151	178.06
259.383	177.06
259.616	169.06
259.849	189.06
260.081	197.06
260.314	197.06
260.547	222.06
260.779	196.06
261.012	190.06
261.244	185.06
261.477	186.06
261.71	172.06
261.942	203.06
262.175	191.06
262.407	199.06
262.64	175.06
262.872	176.06
263.105	174.06
263.337	178.06
263.57	171.06
263.802	166.06
264.035	160.06
264.267	165.06
264.499	166.06
264.732	176.06
264.964	164.06
265.197	170.06
265.429	165.06
265.661	169.06
265.894	172.06
266.126	181.06
266.358	169.06
266.591	177.06
266.823	183.06
267.055	186.06
267.287	191.06
267.52	182.06
267.752	180.06
267.984	185.06
268.216	194.06
268.448	170.06
268.681	190.06
268.913	197.06
269.145	210.06
269.377	223.06
269.609	214.06
269.841	214.06
270.073	230.06
270.306	224.06
270.538	245.06
270.77	250.06
271.002	228.06
271.234	228.06
271.466	249.06
271.698	249.06
271.93	270.06
272.162	265.06
272.394	254.06
272.626	232.06
272.858	226.06
273.09	220.06
273.322	219.06
273.553	196.06
273.785	204.06
274.017	201.06
274.249	211.06
274.481	206.06
274.713	218.06
274.945	223.06
275.176	219.06
275.408	221.06
275.64	199.06
275.872	205.06
276.104	204.06
276.335	218.06
276.567	239.06
276.799	222.06
277.031	252.06
277.262	265.06
277.494	250.06
277.726	258.06
277.957	215.06
278.189	227.06
278.421	223.06
278.652	214.06
278.884	212.06
279.115	212.06
279.347	213.06
279.579	223.06
279.81	224.06
280.042	206.06
280.273	204.06
280.505	209.06
280.736	211.06
280.968	225.06
281.199	207.06
281.431	207.06
281.662	208.06
281.894	209.06
282.125	209.06
282.356	206.06
282.588	254.06
282.819	250.06
283.051	223.06
283.282	221.06
283.513	218.06
283.745	218.06
283.976	219.06
284.207	233.06
284.439	225.06
284.67	230.06
284.901	235.06
285.132	211.06
285.364	227.06
285.595	220.06
285.826	205.06
286.057	197.06
286.288	228.06
286.52	222.06
286.751	229.06
286.982	214.06
287.213	214.06
287.444	211.06
287.675	253.06
287.906	225.06
288.138	228.06
288.369	230.06
288.6	226.06
288.831	208.06
289.062	225.06
289.293	219.06
289.524	211.06
289.755	227.06
289.986	217.06
290.217	213.06
290.448	234.06
290.679	219.06
290.91	218.06
291.141	215.06
291.371	211.06
291.602	206.06
291.833	219.06
292.064	233.06
292.295	218.06
292.526	209.06
292.757	214.06
292.987	214.06
293.218	231.06
293.449	234.06
293.68	237.06
293.91	225.06
294.141	214.06
294.372	228.06
294.603	225.06
294.833	225.06
295.064	230.06
295.295	225.06
295.525	215.06
295.756	253.06
295.987	226.06
296.217	245.06
296.448	251.06
296.679	232.06
296.909	213.06
297.14	226.06
297.37	221.06
297.601	218.06
297.831	235.06
298.062	229.06
298.292	222.06
298.523	214.06
298.753	230.06
298.984	224.06
299.214	239.06
299.445	228.06
299.675	236.06
299.905	253.06
300.136	245.06
300.366	221.06
300.597	233.06
300.827	234.06
301.057	226.06
301.288	246.06
301.518	237.06
301.748	261.06
301.979	237.06
302.209	249.06
302.439	248.06
302.669	242.06
302.9	229.06
303.13	242.06
303.36	254.06
303.59	249.06
303.82	257.06
304.051	271.06
304.281	253.06
304.511	254.06
304.741	249.06
304.971	249.06
305.201	234.06
305.431	229.06
305.661	255.06
305.891	237.06
306.121	237.06
306.352	243.06
306.582	259.06
306.812	245.06
307.042	246.06
307.272	230.06
307.502	246.06
307.731	262.06
307.961	258.06
308.191	268.06
308.421	269.06
308.651	268.06
308.881	265.06
309.111	277.06
309.341	257.06
309.571	292.06
309.8	292.06
310.03	286.06
310.26	302.06
310.49	298.06
310.72	296.06
310.949	315.06
311.179	313.06
311.409	282.06
311.639	294.06
311.868	311.06
312.098	293.06
312.328	310.06
312.557	327.06
312.787	313.06
313.017	318.06
313.246	317.06
313.476	286.06
313.706	281.06
313.935	296.06
314.165	308.06
314.394	306.06
314.624	298.06
314.853	305.06
315.083	289.06
315.312	300.06
315.542	282.06
315.771	280.06
316.001	301.06
316.23	275.06
316.46	284.06
316.689	294.06
316.919	293.06
317.148	300.06
317.377	293.06
317.607	286.06
317.836	291.06
318.065	300.06
318.295	286.06
318.524	280.06
318.753	294.06
318.983	309.06
319.212	300.06
319.441	302.06
319.67	315.06
319.9	307.06
320.129	290.06
320.358	295.06
320.587	295.06
320.816	313.06
321.046	325.06
321.275	321.06
321.504	325.06
321.733	312.06
321.962	331.06
322.191	341.06
322.42	336.06
322.649	346.06
322.878	358.06
323.108	377.06
323.337	391.06
323.566	393.06
323.795	456.06
324.024	491.06
324.253	610.06
324.482	930.06
324.71	1366.06
324.939	1805.06
325.168	1505.06
325.397	793.06
325.626	535.06
325.855	450.06
326.084	436.06
326.313	425.06
326.542	426.06
326.77	483.06
326.999	584.06
327.228	813.06
327.457	1171.06
327.686	1300.06
327.914	819.06
328.143	591.06
328.372	526.06
328.6	476.06
328.829	471.06
329.058	446.06
329.287	470.06
329.515	441.06
329.744	410.06
329.972	412.06
330.201	415.06
330.43	451.06
330.658	486.06
330.887	491.06
331.115	450.06
331.344	402.06
331.572	386.06
331.801	382.06
332.03	378.06
332.258	371.06
332.486	358.06
332.715	341.06
332.943	326.06
333.172	346.06
333.4	358.06
333.629	356.06
333.857	372.06
334.085	374.06
334.314	387.06
334.542	412.06
334.771	407.06
334.999	392.06
335.227	382.06
335.455	350.06
335.684	345.06
335.912	337.06
336.14	328.06
336.369	349.06
336.597	343.06
336.825	334.06
337.053	324.06
337.281	317.06
337.51	327.06
337.738	327.06
337.966	309.06
338.194	354.06
338.422	330.06
338.65	319.06
338.878	335.06
339.106	324.06
339.334	331.06
339.562	292.06
339.79	316.06
340.018	331.06
340.246	311.06
340.474	324.06
340.702	317.06
340.93	315.06
341.158	314.06
341.386	321.06
341.614	315.06
341.842	332.06
342.07	329.06
342.298	329.06
342.526	297.06
342.754	306.06
342.981	305.06
343.209	298.06
343.437	281.06
343.665	317.06
343.893	309.06
344.12	309.06
344.348	320.06
344.576	305.06
344.804	319.06
345.031	330.06
345.259	345.06
345.487	312.06
345.714	335.06
345.942	329.06
346.17	300.06
346.397	312.06
346.625	313.06
346.853	296.06
347.08	312.06
347.308	314.06
347.535	318.06
347.763	313.06
347.99	329.06
348.218	331.06
348.445	340.06
348.673	310.06
348.9	317.06
349.128	304.06
349.355	295.06
349.583	309.06
349.81	313.06
350.037	304.06
350.265	312.06
350.492	296.06
350.72	289.06
350.947	297.06
351.174	316.06
351.402	317.06
351.629	329.06
351.856	309.06
352.083	314.06
352.311	331.06
352.538	309.06
352.765	326.06
352.992	314.06
353.22	325.06
353.447	305.06
353.674	300.06
353.901	296.06
354.128	293.06
354.355	291.06
354.583	301.06
354.81	285.06
355.037	285.06
355.264	263.06
355.491	281.06
355.718	294.06
355.945	274.06
356.172	284.06
356.399	272.06
356.626	268.06
356.853	289.06
357.08	267.06
357.307	277.06
357.534	283.06
357.761	264.06
357.988	293.06
358.215	284.06
358.441	295.06
358.668	283.06
358.895	284.06
359.122	293.06
359.349	302.06
359.576	320.06
359.802	322.06
360.029	339.06
360.256	348.06
360.483	338.06
360.709	328.06
360.936	312.06
361.163	322.06
361.39	293.06
361.616	295.06
361.843	289.06
362.07	324.06
362.296	305.06
362.523	284.06
362.749	305.06
362.976	298.06
363.203	297.06
363.429	292.06
363.656	287.06
363.882	300.06
364.109	274.06
364.335	293.06
364.562	283.06
364.788	282.06
365.015	282.06
365.241	306.06
365.468	280.06
365.694	275.06
365.92	290.06
366.147	274.06
366.373	277.06
366.599	286.06
366.826	286.06
367.052	284.06
367.278	279.06
367.505	276.06
367.731	284.06
367.957	286.06
368.184	293.06
368.41	295.06
368.636	296.06
368.862	277.06
369.089	294.06
369.315	284.06
369.541	303.06
369.767	283.06
369.993	277.06
370.219	285.06
370.445	290.06
370.672	273.06
370.898	269.06
371.124	271.06
371.35	290.06
371.576	279.06
371.802	276.06
372.028	281.06
372.254	277.06
372.48	270.06
372.706	269.06
372.932	278.06
373.158	278.06
373.384	270.06
373.61	274.06
373.835	278.06
374.061	275.06
374.287	261.06
374.513	266.06
374.739	287.06
374.965	263.06
375.191	280.06
375.416	269.06
375.642	264.06
375.868	274.06
376.094	254.06
376.319	279.06
376.545	277.06
376.771	265.06
376.997	264.06
377.222	270.06
377.448	263.06
377.674	262.06
377.899	285.06
378.125	257.06
378.35	279.06
378.576	270.06
378.802	265.06
379.027	263.06
379.253	274.06
379.478	267.06
379.704	270.06
379.929	276.06
380.155	281.06
380.38	263.06
380.606	265.06
380.831	276.06
381.057	273.06
381.282	270.06
381.507	287.06
381.733	281.06
381.958	270.06
382.184	256.06
382.409	286.06
382.634	266.06
382.86	273.06
383.085	271.06
383.31	266.06
383.535	269.06
383.761	265.06
383.986	289.06
384.211	274.06
384.436	261.06
384.662	278.06
384.887	278.06
385.112	302.06
385.337	276.06
385.562	266.06
385.787	262.06
386.013	303.06
386.238	293.06
386.463	302.06
386.688	299.06
386.913	265.06
387.138	293.06
387.363	271.06
387.588	289.06
387.813	289.06
388.038	283.06
388.263	284.06
388.488	294.06
388.713	284.06
388.938	274.06
389.163	279.06
389.387	287.06
389.612	265.06
389.837	284.06
390.062	279.06
390.287	269.06
390.512	283.06
390.736	269.06
390.961	284.06
391.186	291.06
391.411	275.06
391.636	274.06
391.86	289.06
392.085	290.06
392.31	281.06
392.534	275.06
392.759	280.06
392.984	285.06
393.208	279.06
393.433	287.06
393.658	272.06
393.882	277.06
394.107	276.06
394.331	275.06
394.556	282.06
394.78	263.06
395.005	281.06
395.229	280.06
395.454	281.06
395.678	284.06
395.903	281.06
396.127	301.06
396.352	321.06
396.576	299.06
396.801	295.06
397.025	289.06
397.249	312.06
397.474	298.06
397.698	307.06
397.922	297.06
398.147	302.06
398.371	306.06
398.595	308.06
398.82	281.06
399.044	303.06
399.268	325.06
399.492	322.06
399.717	323.06
399.941	352.06
400.165	361.06
400.389	374.06
400.613	343.06
400.837	327.06
401.062	343.06
401.286	309.06
401.51	325.06
401.734	311.06
401.958	321.06
402.182	321.06
402.406	321.06
402.63	316.06
402.854	327.06
403.078	316.06
403.302	311.06
403.526	319.06
403.75	332.06
403.974	323.06
404.198	334.06
404.422	309.06
404.645	317.06
404.869	336.06
405.093	361.06
405.317	374.06
405.541	371.06
405.765	352.06
405.988	331.06
406.212	347.06
406.436	351.06
406.66	382.06
406.883	356.06
407.107	357.06
407.331	405.06
407.555	440.06
407.778	422.06
408.002	385.06
408.226	354.06
408.449	354.06
408.673	354.06
408.896	363.06
409.12	403.06
409.344	378.06
409.567	327.06
409.791	353.06
410.014	320.06
410.238	346.06
410.461	334.06
410.685	326.06
410.908	346.06
411.132	359.06
411.355	393.06
411.578	366.06
411.802	326.06
412.025	334.06
412.249	350.06
412.472	325.06
412.695	373.06
412.919	354.06
413.142	314.06
413.365	309.06
413.589	322.06
413.812	325.06
414.035	295.06
414.258	295.06
414.482	295.06
414.705	288.06
414.928	313.06
415.151	312.06
415.374	318.06
415.597	297.06
415.821	308.06
416.044	293.06
416.267	298.06
416.49	320.06
416.713	299.06
416.936	315.06
417.159	309.06
417.382	328.06
417.605	308.06
417.828	305.06
418.051	325.06
418.274	326.06
418.497	298.06
418.72	307.06
418.943	303.06
419.166	311.06
419.389	326.06
419.611	295.06
419.834	298.06
420.057	313.06
420.28	310.06
420.503	311.06
420.726	343.06
420.948	334.06
421.171	371.06
421.394	399.06
421.617	346.06
421.839	312.06
422.062	342.06
422.285	323.06
422.507	353.06
422.73	410.06
422.953	406.06
423.175	364.06
423.398	343.06
423.621	333.06
423.843	348.06
424.066	350.06
424.288	347.06
424.511	361.06
424.733	386.06
424.956	443.06
425.178	420.06
425.401	433.06
425.623	448.06
425.846	377.06
426.068	366.06
426.291	347.06
426.513	347.06
426.735	349.06
426.958	389.06
427.18	454.06
427.402	503.06
427.625	589.06
427.847	494.06
428.069	434.06
428.292	382.06
428.514	354.06
428.736	356.06
428.958	346.06
429.181	319.06
429.403	333.06
429.625	344.06
429.847	346.06
430.069	386.06
430.292	409.06
430.514	342.06
430.736	335.06
430.958	315.06
431.18	295.06
431.402	301.06
431.624	302.06
431.846	292.06
432.068	301.06
432.29	300.06
432.512	308.06
432.734	313.06
432.956	302.06
433.178	313.06
433.4	331.06
433.622	315.06
433.844	291.06
434.066	294.06
434.287	319.06
434.509	295.06
434.731	309.06
434.953	309.06
435.175	336.06
435.397	342.06
435.618	354.06
435.84	386.06
436.062	458.06
436.284	481.06
436.505	395.06
436.727	353.06
436.949	327.06
437.17	321.06
437.392	330.06
437.614	351.06
437.835	357.06
438.057	438.06
438.278	470.06
438.5	503.06
438.721	530.06
438.943	482.06
439.165	415.06
439.386	378.06
439.608	350.06
439.829	344.06
440.05	395.06
440.272	421.06
440.493	391.06
440.715	364.06
440.936	335.06
441.158	325.06
441.379	331.06
441.6	325.06
441.822	359.06
442.043	381.06
442.264	441.06
442.486	440.06
442.707	374.06
442.928	341.06
443.149	374.06
443.371	399.06
443.592	414.06
443.813	458.06
444.034	487.06
444.255	398.06
444.476	346.06
444.698	346.06
444.919	355.06
445.14	431.06
445.361	380.06
445.582	379.06
445.803	437.06
446.024	483.06
446.245	501.06
446.466	458.06
446.687	388.06
446.908	364.06
447.129	351.06
447.35	328.06
447.571	343.06
447.792	332.06
448.013	337.06
448.234	365.06
448.455	395.06
448.675	450.06
448.896	510.06
449.117	457.06
449.338	432.06
449.559	498.06
449.779	537.06
450	449.06
450.221	364.06
450.442	332.06
450.662	331.06
450.883	332.06
451.104	326.06
451.324	307.06
451.545	327.06
451.766	295.06
451.986	300.06
452.207	295.06
452.428	300.06
452.648	289.06
452.869	287.06
453.089	310.06
453.31	335.06
453.53	291.06
453.751	316.06
453.971	320.06
454.192	323.06
454.412	303.06
454.633	316.06
454.853	305.06
455.073	302.06
455.294	311.06
455.514	365.06
455.734	350.06
455.955	330.06
456.175	282.06
456.395	287.06
456.616	265.06
456.836	280.06
457.056	274.06
457.276	268.06
457.497	287.06
457.717	265.06
457.937	269.06
458.157	296.06
458.377	289.06
458.598	312.06
458.818	357.06
459.038	402.06
459.258	407.06
459.478	353.06
459.698	309.06
459.918	309.06
460.138	302.06
460.358	298.06
460.578	296.06
460.798	292.06
461.018	289.06
461.238	286.06
461.458	302.06
461.678	291.06
461.898	311.06
462.118	299.06
462.338	307.06
462.558	293.06
462.777	311.06
462.997	296.06
463.217	315.06
463.437	330.06
463.657	347.06
463.876	315.06
464.096	310.06
464.316	298.06
464.536	319.06
464.755	324.06
464.975	338.06
465.195	377.06
465.414	403.06
465.634	353.06
465.854	340.06
466.073	314.06
466.293	326.06
466.512	293.06
466.732	285.06
466.951	290.06
467.171	314.06
467.391	293.06
467.61	311.06
467.829	294.06
468.049	308.06
468.268	298.06
468.488	308.06
468.707	308.06
468.927	295.06
469.146	292.06
469.365	275.06
469.585	292.06
469.804	285.06
470.023	297.06
470.243	294.06
470.462	294.06
470.681	333.06
470.901	297.06
471.12	301.06
471.339	293.06
471.558	305.06
471.777	287.06
471.997	302.06
472.216	294.06
472.435	330.06
472.654	318.06
472.873	318.06
473.092	292.06
473.311	297.06
473.53	309.06
473.749	318.06
473.968	351.06
474.187	425.06
474.406	417.06
474.625	360.06
474.844	313.06
475.063	339.06
475.282	316.06
475.501	311.06
475.72	309.06
475.939	300.06
476.158	305.06
476.377	298.06
476.596	301.06
476.814	312.06
477.033	336.06
477.252	308.06
477.471	329.06
477.69	313.06
477.908	318.06
478.127	330.06
478.346	316.06
478.564	304.06
478.783	320.06
479.002	330.06
479.22	337.06
479.439	352.06
479.658	355.06
479.876	359.06
480.095	397.06
480.313	379.06
480.532	357.06
480.751	366.06
480.969	372.06
481.188	419.06
481.406	451.06
481.624	378.06
481.843	357.06
482.061	349.06
482.28	342.06
482.498	372.06
482.717	356.06
482.935	337.06
483.153	357.06
483.372	375.06
483.59	339.06
483.808	335.06
484.027	348.06
484.245	361.06
484.463	354.06
484.681	336.06
484.9	356.06
485.118	354.06
485.336	354.06
485.554	354.06
485.772	359.06
485.99	341.06
486.209	355.06
486.427	364.06
486.645	389.06
486.863	384.06
487.081	385.06
487.299	358.06
487.517	362.06
487.735	375.06
487.953	394.06
488.171	359.06
488.389	356.06
488.607	377.06
488.825	362.06
489.043	360.06
489.261	369.06
489.479	379.06
489.696	362.06
489.914	371.06
490.132	402.06
490.35	397.06
490.568	359.06
490.786	409.06
491.003	401.06
491.221	415.06
491.439	433.06
491.657	403.06
491.874	415.06
492.092	435.06
492.31	442.06
492.527	450.06
492.745	418.06
492.963	427.06
493.18	431.06
493.398	438.06
493.615	450.06
493.833	431.06
494.05	432.06
494.268	421.06
494.485	440.06
494.703	439.06
494.92	432.06
495.138	442.06
495.355	413.06
495.573	425.06
495.79	429.06
496.008	444.06
496.225	441.06
496.442	443.06
496.66	446.06
496.877	449.06
497.094	445.06
497.312	446.06
497.529	459.06
497.746	452.06
497.963	454.06
498.181	459.06
498.398	462.06
498.615	483.06
498.832	481.06
499.049	477.06
499.267	493.06
499.484	483.06
499.701	497.06
499.918	512.06
500.135	539.06
500.352	559.06
500.569	555.06
500.786	517.06
501.003	548.06
501.22	534.06
501.437	519.06
501.654	515.06
501.871	526.06
502.088	518.06
