Data from 1982.PennyLincolnUp.Lamp.En5.5.200Scan.071819.P1_HRD10591_16-46-03-961.txt Node
Date: Thu Jul 18 16:46:03 EDT 2019
User: cochatt
Spectrometer: HR+D1059
Trigger mode: 1
Integration Time (sec): 1.000000E-1
Scans to average: 1
Electric dark correction enabled: true
Nonlinearity correction enabled: false
Boxcar width: 0
XAxis mode: Wavelengths
Number of Pixels in Spectrum: 2048
>>>>>Begin Spectral Data<<<<<
223.165	-21.38
223.4	-21.38
223.635	-21.38
223.869	-30.38
224.104	-5.38
224.338	-23.38
224.573	-14.38
224.808	-4.38
225.042	2.62
225.277	-2.38
225.511	-3.38
225.746	-5.38
225.98	4.62
226.215	11.62
226.449	17.62
226.683	26.62
226.918	17.62
227.152	29.62
227.387	20.62
227.621	35.62
227.856	50.62
228.09	43.62
228.324	43.62
228.559	40.62
228.793	72.62
229.027	88.62
229.262	99.62
229.496	81.62
229.73	94.62
229.964	128.62
230.199	113.62
230.433	87.62
230.667	92.62
230.901	103.62
231.136	87.62
231.37	89.62
231.604	104.62
231.838	97.62
232.072	85.62
232.306	100.62
232.541	102.62
232.775	98.62
233.009	104.62
233.243	107.62
233.477	98.62
233.711	94.62
233.945	96.62
234.179	94.62
234.413	119.62
234.647	106.62
234.881	100.62
235.115	104.62
235.349	104.62
235.583	98.62
235.817	104.62
236.051	109.62
236.285	113.62
236.519	115.62
236.753	111.62
236.987	120.62
237.221	142.62
237.455	185.62
237.689	153.62
237.922	115.62
238.156	93.62
238.39	103.62
238.624	90.62
238.858	107.62
239.091	122.62
239.325	103.62
239.559	118.62
239.793	108.62
240.027	109.62
240.26	125.62
240.494	123.62
240.728	123.62
240.961	141.62
241.195	120.62
241.429	118.62
241.662	118.62
241.896	115.62
242.13	105.62
242.363	125.62
242.597	102.62
242.83	106.62
243.064	105.62
243.298	117.62
243.531	119.62
243.765	109.62
243.998	102.62
244.232	102.62
244.465	119.62
244.699	126.62
244.932	121.62
245.166	122.62
245.399	118.62
245.633	114.62
245.866	118.62
246.099	125.62
246.333	119.62
246.566	109.62
246.8	134.62
247.033	111.62
247.266	107.62
247.5	131.62
247.733	136.62
247.966	136.62
248.2	133.62
248.433	145.62
248.666	155.62
248.899	143.62
249.133	156.62
249.366	169.62
249.599	159.62
249.832	141.62
250.066	142.62
250.299	135.62
250.532	159.62
250.765	156.62
250.998	155.62
251.231	172.62
251.465	158.62
251.698	157.62
251.931	161.62
252.164	162.62
252.397	147.62
252.63	158.62
252.863	171.62
253.096	159.62
253.329	165.62
253.562	166.62
253.795	171.62
254.028	171.62
254.261	178.62
254.494	177.62
254.727	173.62
254.96	197.62
255.193	227.62
255.426	181.62
255.659	183.62
255.892	185.62
256.124	185.62
256.357	172.62
256.59	164.62
256.823	172.62
257.056	164.62
257.289	173.62
257.521	156.62
257.754	164.62
257.987	160.62
258.22	160.62
258.452	161.62
258.685	159.62
258.918	156.62
259.151	161.62
259.383	158.62
259.616	169.62
259.849	193.62
260.081	171.62
260.314	197.62
260.547	187.62
260.779	186.62
261.012	170.62
261.244	178.62
261.477	163.62
261.71	173.62
261.942	165.62
262.175	189.62
262.407	178.62
262.64	180.62
262.872	180.62
263.105	172.62
263.337	163.62
263.57	155.62
263.802	165.62
264.035	158.62
264.267	159.62
264.499	177.62
264.732	155.62
264.964	172.62
265.197	168.62
265.429	150.62
265.661	165.62
265.894	170.62
266.126	156.62
266.358	163.62
266.591	145.62
266.823	179.62
267.055	180.62
267.287	183.62
267.52	172.62
267.752	163.62
267.984	185.62
268.216	179.62
268.448	179.62
268.681	183.62
268.913	188.62
269.145	201.62
269.377	204.62
269.609	211.62
269.841	210.62
270.073	211.62
270.306	215.62
270.538	220.62
270.77	235.62
271.002	232.62
271.234	230.62
271.466	233.62
271.698	243.62
271.93	249.62
272.162	228.62
272.394	240.62
272.626	239.62
272.858	215.62
273.09	232.62
273.322	202.62
273.553	202.62
273.785	213.62
274.017	202.62
274.249	202.62
274.481	214.62
274.713	200.62
274.945	193.62
275.176	202.62
275.408	218.62
275.64	204.62
275.872	190.62
276.104	208.62
276.335	194.62
276.567	195.62
276.799	216.62
277.031	232.62
277.262	226.62
277.494	241.62
277.726	225.62
277.957	228.62
278.189	219.62
278.421	214.62
278.652	208.62
278.884	191.62
279.115	201.62
279.347	219.62
279.579	184.62
279.81	204.62
280.042	199.62
280.273	200.62
280.505	199.62
280.736	198.62
280.968	183.62
281.199	210.62
281.431	194.62
281.662	202.62
281.894	193.62
282.125	204.62
282.356	215.62
282.588	238.62
282.819	220.62
283.051	208.62
283.282	202.62
283.513	223.62
283.745	209.62
283.976	193.62
284.207	215.62
284.439	207.62
284.67	208.62
284.901	210.62
285.132	214.62
285.364	200.62
285.595	213.62
285.826	197.62
286.057	200.62
286.288	214.62
286.52	211.62
286.751	219.62
286.982	217.62
287.213	198.62
287.444	221.62
287.675	217.62
287.906	209.62
288.138	219.62
288.369	221.62
288.6	214.62
288.831	202.62
289.062	204.62
289.293	219.62
289.524	209.62
289.755	199.62
289.986	217.62
290.217	207.62
290.448	204.62
290.679	173.62
290.91	199.62
291.141	209.62
291.371	212.62
291.602	215.62
291.833	211.62
292.064	207.62
292.295	219.62
292.526	218.62
292.757	216.62
292.987	210.62
293.218	208.62
293.449	202.62
293.68	211.62
293.91	219.62
294.141	207.62
294.372	210.62
294.603	226.62
294.833	212.62
295.064	221.62
295.295	221.62
295.525	209.62
295.756	203.62
295.987	218.62
296.217	234.62
296.448	237.62
296.679	229.62
296.909	230.62
297.14	209.62
297.37	218.62
297.601	221.62
297.831	209.62
298.062	225.62
298.292	207.62
298.523	223.62
298.753	209.62
298.984	226.62
299.214	223.62
299.445	222.62
299.675	227.62
299.905	212.62
300.136	235.62
300.366	225.62
300.597	227.62
300.827	231.62
301.057	232.62
301.288	230.62
301.518	243.62
301.748	225.62
301.979	227.62
302.209	235.62
302.439	236.62
302.669	224.62
302.9	255.62
303.13	230.62
303.36	234.62
303.59	268.62
303.82	241.62
304.051	242.62
304.281	261.62
304.511	235.62
304.741	236.62
304.971	244.62
305.201	232.62
305.431	236.62
305.661	231.62
305.891	236.62
306.121	233.62
306.352	242.62
306.582	238.62
306.812	241.62
307.042	241.62
307.272	237.62
307.502	254.62
307.731	244.62
307.961	227.62
308.191	247.62
308.421	245.62
308.651	257.62
308.881	260.62
309.111	243.62
309.341	260.62
309.571	267.62
309.8	271.62
310.03	278.62
310.26	275.62
310.49	279.62
310.72	279.62
310.949	307.62
311.179	286.62
311.409	288.62
311.639	288.62
311.868	290.62
312.098	291.62
312.328	284.62
312.557	275.62
312.787	308.62
313.017	289.62
313.246	282.62
313.476	276.62
313.706	269.62
313.935	288.62
314.165	298.62
314.394	297.62
314.624	275.62
314.853	299.62
315.083	277.62
315.312	282.62
315.542	271.62
315.771	267.62
316.001	267.62
316.23	259.62
316.46	278.62
316.689	267.62
316.919	296.62
317.148	276.62
317.377	291.62
317.607	288.62
317.836	283.62
318.065	273.62
318.295	273.62
318.524	265.62
318.753	263.62
318.983	272.62
319.212	279.62
319.441	289.62
319.67	279.62
319.9	287.62
320.129	275.62
320.358	288.62
320.587	272.62
320.816	304.62
321.046	315.62
321.275	299.62
321.504	297.62
321.733	298.62
321.962	295.62
322.191	312.62
322.42	321.62
322.649	333.62
322.878	349.62
323.108	352.62
323.337	369.62
323.566	369.62
323.795	415.62
324.024	464.62
324.253	550.62
324.482	844.62
324.71	1193.62
324.939	1577.62
325.168	1302.62
325.397	706.62
325.626	490.62
325.855	409.62
326.084	381.62
326.313	369.62
326.542	393.62
326.77	420.62
326.999	503.62
327.228	739.62
327.457	1029.62
327.686	1192.62
327.914	784.62
328.143	530.62
328.372	454.62
328.6	427.62
328.829	406.62
329.058	429.62
329.287	414.62
329.515	401.62
329.744	356.62
329.972	379.62
330.201	390.62
330.43	413.62
330.658	449.62
330.887	442.62
331.115	422.62
331.344	379.62
331.572	334.62
331.801	355.62
332.03	341.62
332.258	340.62
332.486	325.62
332.715	315.62
332.943	312.62
333.172	298.62
333.4	319.62
333.629	332.62
333.857	331.62
334.085	347.62
334.314	342.62
334.542	367.62
334.771	364.62
334.999	342.62
335.227	343.62
335.455	333.62
335.684	315.62
335.912	323.62
336.14	308.62
336.369	309.62
336.597	315.62
336.825	311.62
337.053	325.62
337.281	290.62
337.51	288.62
337.738	295.62
337.966	303.62
338.194	316.62
338.422	329.62
338.65	297.62
338.878	307.62
339.106	303.62
339.334	308.62
339.562	304.62
339.79	313.62
340.018	299.62
340.246	303.62
340.474	323.62
340.702	308.62
340.93	299.62
341.158	300.62
341.386	294.62
341.614	311.62
341.842	299.62
342.07	312.62
342.298	291.62
342.526	307.62
342.754	293.62
342.981	281.62
343.209	278.62
343.437	290.62
343.665	301.62
343.893	270.62
344.12	309.62
344.348	293.62
344.576	292.62
344.804	284.62
345.031	301.62
345.259	305.62
345.487	292.62
345.714	299.62
345.942	284.62
346.17	281.62
346.397	301.62
346.625	299.62
346.853	294.62
347.08	304.62
347.308	296.62
347.535	286.62
347.763	303.62
347.99	304.62
348.218	309.62
348.445	311.62
348.673	314.62
348.9	321.62
349.128	302.62
349.355	302.62
349.583	260.62
349.81	277.62
350.037	283.62
350.265	305.62
350.492	283.62
350.72	266.62
350.947	287.62
351.174	283.62
351.402	299.62
351.629	333.62
351.856	294.62
352.083	310.62
352.311	315.62
352.538	313.62
352.765	323.62
352.992	301.62
353.22	287.62
353.447	288.62
353.674	242.62
353.901	277.62
354.128	293.62
354.355	278.62
354.583	284.62
354.81	275.62
355.037	275.62
355.264	259.62
355.491	290.62
355.718	287.62
355.945	264.62
356.172	254.62
356.399	247.62
356.626	266.62
356.853	257.62
357.08	263.62
357.307	261.62
357.534	269.62
357.761	257.62
357.988	279.62
358.215	265.62
358.441	274.62
358.668	270.62
358.895	278.62
359.122	285.62
359.349	274.62
359.576	298.62
359.802	297.62
360.029	307.62
360.256	309.62
360.483	335.62
360.709	296.62
360.936	295.62
361.163	278.62
361.39	305.62
361.616	289.62
361.843	287.62
362.07	281.62
362.296	292.62
362.523	301.62
362.749	295.62
362.976	275.62
363.203	261.62
363.429	280.62
363.656	283.62
363.882	281.62
364.109	273.62
364.335	284.62
364.562	265.62
364.788	259.62
365.015	252.62
365.241	261.62
365.468	272.62
365.694	276.62
365.92	280.62
366.147	274.62
366.373	266.62
366.599	267.62
366.826	275.62
367.052	264.62
367.278	266.62
367.505	272.62
367.731	287.62
367.957	258.62
368.184	271.62
368.41	287.62
368.636	280.62
368.862	286.62
369.089	270.62
369.315	267.62
369.541	268.62
369.767	266.62
369.993	288.62
370.219	273.62
370.445	270.62
370.672	267.62
370.898	250.62
371.124	279.62
371.35	271.62
371.576	281.62
371.802	249.62
372.028	254.62
372.254	280.62
372.48	247.62
372.706	267.62
372.932	265.62
373.158	274.62
373.384	261.62
373.61	273.62
373.835	271.62
374.061	276.62
374.287	269.62
374.513	262.62
374.739	277.62
374.965	264.62
375.191	271.62
375.416	266.62
375.642	244.62
375.868	287.62
376.094	274.62
376.319	264.62
376.545	259.62
376.771	259.62
376.997	265.62
377.222	263.62
377.448	271.62
377.674	267.62
377.899	257.62
378.125	246.62
378.35	244.62
378.576	258.62
378.802	253.62
379.027	261.62
379.253	267.62
379.478	260.62
379.704	262.62
379.929	257.62
380.155	270.62
380.38	263.62
380.606	273.62
380.831	251.62
381.057	276.62
381.282	254.62
381.507	244.62
381.733	255.62
381.958	271.62
382.184	263.62
382.409	272.62
382.634	270.62
382.86	252.62
383.085	276.62
383.31	241.62
383.535	259.62
383.761	259.62
383.986	278.62
384.211	261.62
384.436	268.62
384.662	268.62
384.887	267.62
385.112	272.62
385.337	262.62
385.562	267.62
385.787	248.62
386.013	276.62
386.238	284.62
386.463	287.62
386.688	265.62
386.913	275.62
387.138	273.62
387.363	262.62
387.588	265.62
387.813	278.62
388.038	281.62
388.263	258.62
388.488	291.62
388.713	262.62
388.938	274.62
389.163	263.62
389.387	275.62
389.612	278.62
389.837	265.62
390.062	261.62
390.287	269.62
390.512	268.62
390.736	264.62
390.961	261.62
391.186	280.62
391.411	275.62
391.636	271.62
391.86	289.62
392.085	275.62
392.31	274.62
392.534	264.62
392.759	277.62
392.984	264.62
393.208	279.62
393.433	259.62
393.658	253.62
393.882	279.62
394.107	285.62
394.331	286.62
394.556	279.62
394.78	275.62
395.005	277.62
395.229	263.62
395.454	287.62
395.678	281.62
395.903	306.62
396.127	283.62
396.352	281.62
396.576	267.62
396.801	273.62
397.025	276.62
397.249	268.62
397.474	298.62
397.698	272.62
397.922	288.62
398.147	306.62
398.371	303.62
398.595	295.62
398.82	287.62
399.044	293.62
399.268	295.62
399.492	326.62
399.717	321.62
399.941	336.62
400.165	361.62
400.389	349.62
400.613	327.62
400.837	329.62
401.062	330.62
401.286	306.62
401.51	315.62
401.734	275.62
401.958	305.62
402.182	296.62
402.406	295.62
402.63	311.62
402.854	308.62
403.078	307.62
403.302	309.62
403.526	310.62
403.75	308.62
403.974	307.62
404.198	298.62
404.422	296.62
404.645	303.62
404.869	322.62
405.093	344.62
405.317	321.62
405.541	356.62
405.765	355.62
405.988	321.62
406.212	341.62
406.436	354.62
406.66	365.62
406.883	333.62
407.107	346.62
407.331	380.62
407.555	400.62
407.778	403.62
408.002	365.62
408.226	341.62
408.449	343.62
408.673	361.62
408.896	345.62
409.12	376.62
409.344	343.62
409.567	328.62
409.791	308.62
410.014	310.62
410.238	311.62
410.461	298.62
410.685	317.62
410.908	329.62
411.132	332.62
411.355	359.62
411.578	349.62
411.802	306.62
412.025	314.62
412.249	314.62
412.472	327.62
412.695	338.62
412.919	343.62
413.142	307.62
413.365	309.62
413.589	299.62
413.812	294.62
414.035	291.62
414.258	293.62
414.482	282.62
414.705	299.62
414.928	278.62
415.151	269.62
415.374	289.62
415.597	307.62
415.821	310.62
416.044	300.62
416.267	292.62
416.49	288.62
416.713	303.62
416.936	300.62
417.159	298.62
417.382	289.62
417.605	289.62
417.828	318.62
418.051	314.62
418.274	290.62
418.497	287.62
418.72	307.62
418.943	293.62
419.166	291.62
419.389	293.62
419.611	299.62
419.834	306.62
420.057	307.62
420.28	310.62
420.503	309.62
420.726	290.62
420.948	320.62
421.171	355.62
421.394	359.62
421.617	321.62
421.839	317.62
422.062	319.62
422.285	333.62
422.507	354.62
422.73	387.62
422.953	379.62
423.175	328.62
423.398	307.62
423.621	337.62
423.843	336.62
424.066	306.62
424.288	350.62
424.511	347.62
424.733	363.62
424.956	406.62
425.178	401.62
425.401	411.62
425.623	401.62
425.846	371.62
426.068	350.62
426.291	342.62
426.513	331.62
426.735	342.62
426.958	361.62
427.18	417.62
427.402	499.62
427.625	531.62
427.847	469.62
428.069	409.62
428.292	367.62
428.514	338.62
428.736	308.62
428.958	303.62
429.181	301.62
429.403	306.62
429.625	316.62
429.847	351.62
430.069	386.62
430.292	360.62
430.514	315.62
430.736	308.62
430.958	312.62
431.18	307.62
431.402	309.62
431.624	285.62
431.846	285.62
432.068	273.62
432.29	279.62
432.512	289.62
432.734	290.62
432.956	299.62
433.178	304.62
433.4	283.62
433.622	312.62
433.844	287.62
434.066	300.62
434.287	287.62
434.509	301.62
434.731	291.62
434.953	290.62
435.175	313.62
435.397	321.62
435.618	341.62
435.84	372.62
436.062	417.62
436.284	447.62
436.505	370.62
436.727	337.62
436.949	339.62
437.17	319.62
437.392	307.62
437.614	309.62
437.835	350.62
438.057	408.62
438.278	461.62
438.5	451.62
438.721	491.62
438.943	458.62
439.165	375.62
439.386	347.62
439.608	355.62
439.829	330.62
440.05	357.62
440.272	411.62
440.493	377.62
440.715	323.62
440.936	305.62
441.158	315.62
441.379	304.62
441.6	322.62
441.822	333.62
442.043	374.62
442.264	407.62
442.486	410.62
442.707	353.62
442.928	348.62
443.149	324.62
443.371	373.62
443.592	392.62
443.813	439.62
444.034	463.62
444.255	379.62
444.476	332.62
444.698	333.62
444.919	325.62
445.14	404.62
445.361	379.62
445.582	372.62
445.803	403.62
446.024	472.62
446.245	478.62
446.466	445.62
446.687	365.62
446.908	347.62
447.129	326.62
447.35	317.62
447.571	298.62
447.792	319.62
448.013	326.62
448.234	353.62
448.455	377.62
448.675	425.62
448.896	498.62
449.117	401.62
449.338	399.62
449.559	465.62
449.779	495.62
450	403.62
450.221	330.62
450.442	321.62
450.662	308.62
450.883	314.62
451.104	323.62
451.324	307.62
451.545	308.62
451.766	305.62
451.986	292.62
452.207	284.62
452.428	273.62
452.648	281.62
452.869	276.62
453.089	284.62
453.31	308.62
453.53	284.62
453.751	282.62
453.971	291.62
454.192	307.62
454.412	293.62
454.633	291.62
454.853	297.62
455.073	286.62
455.294	313.62
455.514	340.62
455.734	321.62
455.955	294.62
456.175	277.62
456.395	260.62
456.616	258.62
456.836	266.62
457.056	246.62
457.276	257.62
457.497	276.62
457.717	257.62
457.937	278.62
458.157	263.62
458.377	290.62
458.598	287.62
458.818	332.62
459.038	373.62
459.258	389.62
459.478	328.62
459.698	300.62
459.918	300.62
460.138	306.62
460.358	290.62
460.578	287.62
460.798	290.62
461.018	291.62
461.238	275.62
461.458	278.62
461.678	284.62
461.898	285.62
462.118	278.62
462.338	285.62
462.558	290.62
462.777	292.62
462.997	312.62
463.217	315.62
463.437	319.62
463.657	293.62
463.876	300.62
464.096	317.62
464.316	294.62
464.536	303.62
464.755	306.62
464.975	324.62
465.195	338.62
465.414	393.62
465.634	335.62
465.854	343.62
466.073	300.62
466.293	312.62
466.512	295.62
466.732	281.62
466.951	294.62
467.171	275.62
467.391	305.62
467.61	305.62
467.829	305.62
468.049	288.62
468.268	283.62
468.488	294.62
468.707	288.62
468.927	291.62
469.146	278.62
469.365	279.62
469.585	280.62
469.804	284.62
470.023	293.62
470.243	275.62
470.462	288.62
470.681	307.62
470.901	288.62
471.12	284.62
471.339	275.62
471.558	275.62
471.777	277.62
471.997	259.62
472.216	287.62
472.435	323.62
472.654	319.62
472.873	305.62
473.092	290.62
473.311	278.62
473.53	299.62
473.749	301.62
473.968	324.62
474.187	397.62
474.406	410.62
474.625	328.62
474.844	295.62
475.063	324.62
475.282	295.62
475.501	296.62
475.72	307.62
475.939	294.62
476.158	285.62
476.377	303.62
476.596	309.62
476.814	319.62
477.033	311.62
477.252	303.62
477.471	302.62
477.69	307.62
477.908	295.62
478.127	314.62
478.346	319.62
478.564	320.62
478.783	323.62
479.002	310.62
479.22	336.62
479.439	329.62
479.658	334.62
479.876	353.62
480.095	340.62
480.313	347.62
480.532	347.62
480.751	335.62
480.969	356.62
481.188	394.62
481.406	387.62
481.624	371.62
481.843	353.62
482.061	347.62
482.28	340.62
482.498	328.62
482.717	327.62
482.935	344.62
483.153	344.62
483.372	309.62
483.59	336.62
483.808	349.62
484.027	316.62
484.245	327.62
484.463	344.62
484.681	346.62
484.9	325.62
485.118	336.62
485.336	326.62
485.554	349.62
485.772	348.62
485.99	356.62
486.209	345.62
486.427	338.62
486.645	344.62
486.863	355.62
487.081	378.62
487.299	364.62
487.517	361.62
487.735	347.62
487.953	367.62
488.171	377.62
488.389	345.62
488.607	365.62
488.825	364.62
489.043	362.62
489.261	378.62
489.479	351.62
489.696	375.62
489.914	357.62
490.132	376.62
490.35	369.62
490.568	360.62
490.786	375.62
491.003	376.62
491.221	389.62
491.439	404.62
491.657	404.62
491.874	377.62
492.092	416.62
492.31	413.62
492.527	381.62
492.745	406.62
492.963	428.62
493.18	424.62
493.398	406.62
493.615	409.62
493.833	419.62
494.05	409.62
494.268	395.62
494.485	409.62
494.703	426.62
494.92	418.62
495.138	408.62
495.355	430.62
495.573	429.62
495.79	424.62
496.008	420.62
496.225	419.62
496.442	434.62
496.66	430.62
496.877	411.62
497.094	433.62
497.312	400.62
497.529	415.62
497.746	410.62
497.963	444.62
498.181	452.62
498.398	447.62
498.615	448.62
498.832	453.62
499.049	452.62
499.267	455.62
499.484	465.62
499.701	503.62
499.918	469.62
500.135	501.62
500.352	521.62
500.569	513.62
500.786	520.62
501.003	503.62
501.22	517.62
501.437	501.62
501.654	502.62
501.871	490.62
502.088	491.62
502.305	472.62
