Data from 1982.PennyLincolnUp.Lamp.En5.5.200Scan.071819.P1_HRD10591_16-46-12-962.txt Node
Date: Thu Jul 18 16:46:12 EDT 2019
User: cochatt
Spectrometer: HR+D1059
Trigger mode: 1
Integration Time (sec): 1.000000E-1
Scans to average: 1
Electric dark correction enabled: true
Nonlinearity correction enabled: false
Boxcar width: 0
XAxis mode: Wavelengths
Number of Pixels in Spectrum: 2048
>>>>>Begin Spectral Data<<<<<
223.165	-12.69
223.4	-12.69
223.635	-12.69
223.869	-19.69
224.104	-14.69
224.338	-13.69
224.573	-17.69
224.808	-12.69
225.042	3.31
225.277	-12.69
225.511	-7.69
225.746	12.31
225.98	-2.69
226.215	13.31
226.449	12.31
226.683	12.31
226.918	29.31
227.152	31.31
227.387	25.31
227.621	34.31
227.856	47.31
228.09	40.31
228.324	43.31
228.559	47.31
228.793	68.31
229.027	85.31
229.262	98.31
229.496	104.31
229.73	112.31
229.964	133.31
230.199	118.31
230.433	114.31
230.667	99.31
230.901	123.31
231.136	97.31
231.37	111.31
231.604	111.31
231.838	109.31
232.072	93.31
232.306	110.31
232.541	114.31
232.775	109.31
233.009	95.31
233.243	96.31
233.477	110.31
233.711	101.31
233.945	98.31
234.179	115.31
234.413	108.31
234.647	103.31
234.881	107.31
235.115	114.31
235.349	100.31
235.583	109.31
235.817	117.31
236.051	121.31
236.285	104.31
236.519	99.31
236.753	112.31
236.987	121.31
237.221	156.31
237.455	160.31
237.689	158.31
237.922	122.31
238.156	114.31
238.39	114.31
238.624	108.31
238.858	107.31
239.091	105.31
239.325	111.31
239.559	104.31
239.793	122.31
240.027	121.31
240.26	118.31
240.494	122.31
240.728	120.31
240.961	130.31
241.195	119.31
241.429	99.31
241.662	116.31
241.896	114.31
242.13	111.31
242.363	116.31
242.597	100.31
242.83	125.31
243.064	117.31
243.298	127.31
243.531	114.31
243.765	125.31
243.998	121.31
244.232	111.31
244.465	127.31
244.699	124.31
244.932	119.31
245.166	134.31
245.399	131.31
245.633	123.31
245.866	137.31
246.099	125.31
246.333	136.31
246.566	130.31
246.8	122.31
247.033	133.31
247.266	123.31
247.5	134.31
247.733	123.31
247.966	134.31
248.2	159.31
248.433	142.31
248.666	158.31
248.899	142.31
249.133	172.31
249.366	165.31
249.599	146.31
249.832	146.31
250.066	137.31
250.299	152.31
250.532	146.31
250.765	154.31
250.998	170.31
251.231	182.31
251.465	164.31
251.698	161.31
251.931	155.31
252.164	162.31
252.397	154.31
252.63	154.31
252.863	167.31
253.096	180.31
253.329	185.31
253.562	179.31
253.795	163.31
254.028	162.31
254.261	185.31
254.494	182.31
254.727	183.31
254.96	228.31
255.193	207.31
255.426	179.31
255.659	180.31
255.892	180.31
256.124	180.31
256.357	190.31
256.59	180.31
256.823	178.31
257.056	166.31
257.289	165.31
257.521	167.31
257.754	158.31
257.987	167.31
258.22	167.31
258.452	177.31
258.685	175.31
258.918	155.31
259.151	173.31
259.383	190.31
259.616	165.31
259.849	192.31
260.081	210.31
260.314	203.31
260.547	199.31
260.779	192.31
261.012	195.31
261.244	191.31
261.477	173.31
261.71	190.31
261.942	183.31
262.175	182.31
262.407	188.31
262.64	173.31
262.872	167.31
263.105	165.31
263.337	164.31
263.57	158.31
263.802	175.31
264.035	162.31
264.267	162.31
264.499	171.31
264.732	171.31
264.964	163.31
265.197	166.31
265.429	172.31
265.661	163.31
265.894	183.31
266.126	181.31
266.358	160.31
266.591	170.31
266.823	166.31
267.055	185.31
267.287	183.31
267.52	160.31
267.752	184.31
267.984	175.31
268.216	196.31
268.448	184.31
268.681	179.31
268.913	196.31
269.145	207.31
269.377	204.31
269.609	195.31
269.841	217.31
270.073	216.31
270.306	223.31
270.538	236.31
270.77	238.31
271.002	223.31
271.234	220.31
271.466	220.31
271.698	228.31
271.93	248.31
272.162	237.31
272.394	255.31
272.626	232.31
272.858	224.31
273.09	218.31
273.322	231.31
273.553	216.31
273.785	213.31
274.017	194.31
274.249	192.31
274.481	191.31
274.713	205.31
274.945	223.31
275.176	219.31
275.408	188.31
275.64	211.31
275.872	201.31
276.104	192.31
276.335	199.31
276.567	210.31
276.799	212.31
277.031	229.31
277.262	231.31
277.494	219.31
277.726	221.31
277.957	220.31
278.189	207.31
278.421	220.31
278.652	211.31
278.884	205.31
279.115	199.31
279.347	227.31
279.579	207.31
279.81	217.31
280.042	198.31
280.273	214.31
280.505	189.31
280.736	207.31
280.968	202.31
281.199	216.31
281.431	205.31
281.662	205.31
281.894	213.31
282.125	206.31
282.356	214.31
282.588	237.31
282.819	221.31
283.051	215.31
283.282	198.31
283.513	204.31
283.745	219.31
283.976	222.31
284.207	208.31
284.439	206.31
284.67	212.31
284.901	213.31
285.132	194.31
285.364	217.31
285.595	189.31
285.826	213.31
286.057	210.31
286.288	212.31
286.52	198.31
286.751	191.31
286.982	217.31
287.213	214.31
287.444	231.31
287.675	216.31
287.906	224.31
288.138	217.31
288.369	198.31
288.6	214.31
288.831	227.31
289.062	220.31
289.293	212.31
289.524	222.31
289.755	211.31
289.986	227.31
290.217	198.31
290.448	203.31
290.679	214.31
290.91	213.31
291.141	212.31
291.371	223.31
291.602	221.31
291.833	222.31
292.064	224.31
292.295	207.31
292.526	218.31
292.757	212.31
292.987	226.31
293.218	215.31
293.449	212.31
293.68	206.31
293.91	215.31
294.141	209.31
294.372	206.31
294.603	205.31
294.833	213.31
295.064	203.31
295.295	213.31
295.525	215.31
295.756	216.31
295.987	226.31
296.217	239.31
296.448	242.31
296.679	241.31
296.909	224.31
297.14	218.31
297.37	213.31
297.601	220.31
297.831	229.31
298.062	220.31
298.292	205.31
298.523	217.31
298.753	227.31
298.984	238.31
299.214	229.31
299.445	229.31
299.675	226.31
299.905	244.31
300.136	229.31
300.366	228.31
300.597	228.31
300.827	234.31
301.057	249.31
301.288	243.31
301.518	224.31
301.748	251.31
301.979	262.31
302.209	234.31
302.439	231.31
302.669	235.31
302.9	231.31
303.13	247.31
303.36	231.31
303.59	233.31
303.82	267.31
304.051	258.31
304.281	238.31
304.511	234.31
304.741	259.31
304.971	242.31
305.201	222.31
305.431	245.31
305.661	239.31
305.891	251.31
306.121	242.31
306.352	249.31
306.582	244.31
306.812	242.31
307.042	259.31
307.272	269.31
307.502	234.31
307.731	249.31
307.961	256.31
308.191	246.31
308.421	237.31
308.651	232.31
308.881	261.31
309.111	264.31
309.341	259.31
309.571	283.31
309.8	264.31
310.03	272.31
310.26	280.31
310.49	276.31
310.72	293.31
310.949	303.31
311.179	298.31
311.409	289.31
311.639	286.31
311.868	284.31
312.098	281.31
312.328	288.31
312.557	296.31
312.787	314.31
313.017	300.31
313.246	294.31
313.476	257.31
313.706	279.31
313.935	278.31
314.165	307.31
314.394	313.31
314.624	291.31
314.853	290.31
315.083	272.31
315.312	283.31
315.542	270.31
315.771	272.31
316.001	272.31
316.23	270.31
316.46	275.31
316.689	302.31
316.919	286.31
317.148	283.31
317.377	307.31
317.607	303.31
317.836	298.31
318.065	272.31
318.295	295.31
318.524	273.31
318.753	291.31
318.983	277.31
319.212	272.31
319.441	277.31
319.67	290.31
319.9	278.31
320.129	288.31
320.358	286.31
320.587	287.31
320.816	301.31
321.046	292.31
321.275	311.31
321.504	289.31
321.733	294.31
321.962	318.31
322.191	330.31
322.42	319.31
322.649	349.31
322.878	353.31
323.108	367.31
323.337	374.31
323.566	385.31
323.795	427.31
324.024	453.31
324.253	580.31
324.482	853.31
324.71	1272.31
324.939	1612.31
325.168	1346.31
325.397	698.31
325.626	509.31
325.855	437.31
326.084	405.31
326.313	384.31
326.542	399.31
326.77	434.31
326.999	502.31
327.228	743.31
327.457	1076.31
327.686	1178.31
327.914	792.31
328.143	548.31
328.372	484.31
328.6	440.31
328.829	431.31
329.058	442.31
329.287	442.31
329.515	406.31
329.744	412.31
329.972	386.31
330.201	383.31
330.43	422.31
330.658	457.31
330.887	455.31
331.115	448.31
331.344	386.31
331.572	362.31
331.801	352.31
332.03	362.31
332.258	354.31
332.486	343.31
332.715	321.31
332.943	320.31
333.172	333.31
333.4	335.31
333.629	329.31
333.857	350.31
334.085	336.31
334.314	368.31
334.542	393.31
334.771	394.31
334.999	349.31
335.227	317.31
335.455	320.31
335.684	316.31
335.912	308.31
336.14	332.31
336.369	330.31
336.597	338.31
336.825	324.31
337.053	321.31
337.281	334.31
337.51	303.31
337.738	306.31
337.966	318.31
338.194	313.31
338.422	313.31
338.65	307.31
338.878	301.31
339.106	315.31
339.334	316.31
339.562	315.31
339.79	298.31
340.018	306.31
340.246	307.31
340.474	318.31
340.702	304.31
340.93	299.31
341.158	299.31
341.386	301.31
341.614	333.31
341.842	311.31
342.07	308.31
342.298	290.31
342.526	296.31
342.754	288.31
342.981	295.31
343.209	305.31
343.437	292.31
343.665	280.31
343.893	300.31
344.12	308.31
344.348	310.31
344.576	318.31
344.804	314.31
345.031	316.31
345.259	318.31
345.487	314.31
345.714	299.31
345.942	298.31
346.17	302.31
346.397	296.31
346.625	303.31
346.853	310.31
347.08	295.31
347.308	304.31
347.535	292.31
347.763	303.31
347.99	319.31
348.218	312.31
348.445	310.31
348.673	317.31
348.9	310.31
349.128	317.31
349.355	286.31
349.583	280.31
349.81	291.31
350.037	282.31
350.265	292.31
350.492	283.31
350.72	291.31
350.947	287.31
351.174	291.31
351.402	302.31
351.629	297.31
351.856	308.31
352.083	299.31
352.311	310.31
352.538	308.31
352.765	318.31
352.992	292.31
353.22	299.31
353.447	288.31
353.674	277.31
353.901	288.31
354.128	281.31
354.355	289.31
354.583	282.31
354.81	280.31
355.037	283.31
355.264	261.31
355.491	258.31
355.718	262.31
355.945	270.31
356.172	267.31
356.399	269.31
356.626	261.31
356.853	283.31
357.08	272.31
357.307	262.31
357.534	270.31
357.761	276.31
357.988	268.31
358.215	262.31
358.441	275.31
358.668	290.31
358.895	283.31
359.122	284.31
359.349	280.31
359.576	318.31
359.802	316.31
360.029	330.31
360.256	334.31
360.483	327.31
360.709	291.31
360.936	290.31
361.163	268.31
361.39	296.31
361.616	301.31
361.843	298.31
362.07	310.31
362.296	303.31
362.523	282.31
362.749	282.31
362.976	285.31
363.203	302.31
363.429	270.31
363.656	279.31
363.882	300.31
364.109	296.31
364.335	292.31
364.562	292.31
364.788	284.31
365.015	283.31
365.241	251.31
365.468	286.31
365.694	282.31
365.92	282.31
366.147	266.31
366.373	288.31
366.599	292.31
366.826	271.31
367.052	272.31
367.278	278.31
367.505	276.31
367.731	252.31
367.957	263.31
368.184	280.31
368.41	289.31
368.636	284.31
368.862	291.31
369.089	278.31
369.315	283.31
369.541	263.31
369.767	260.31
369.993	258.31
370.219	271.31
370.445	274.31
370.672	268.31
370.898	266.31
371.124	270.31
371.35	254.31
371.576	251.31
371.802	261.31
372.028	262.31
372.254	273.31
372.48	260.31
372.706	290.31
372.932	265.31
373.158	275.31
373.384	266.31
373.61	282.31
373.835	264.31
374.061	276.31
374.287	293.31
374.513	282.31
374.739	272.31
374.965	264.31
375.191	272.31
375.416	282.31
375.642	282.31
375.868	270.31
376.094	280.31
376.319	281.31
376.545	251.31
376.771	278.31
376.997	270.31
377.222	268.31
377.448	267.31
377.674	255.31
377.899	272.31
378.125	251.31
378.35	271.31
378.576	256.31
378.802	248.31
379.027	252.31
379.253	259.31
379.478	263.31
379.704	275.31
379.929	272.31
380.155	244.31
380.38	254.31
380.606	278.31
380.831	264.31
381.057	259.31
381.282	261.31
381.507	268.31
381.733	267.31
381.958	261.31
382.184	270.31
382.409	262.31
382.634	256.31
382.86	270.31
383.085	271.31
383.31	276.31
383.535	259.31
383.761	275.31
383.986	262.31
384.211	267.31
384.436	288.31
384.662	269.31
384.887	272.31
385.112	290.31
385.337	287.31
385.562	264.31
385.787	278.31
386.013	282.31
386.238	278.31
386.463	283.31
386.688	286.31
386.913	298.31
387.138	284.31
387.363	285.31
387.588	278.31
387.813	273.31
388.038	274.31
388.263	264.31
388.488	269.31
388.713	277.31
388.938	268.31
389.163	290.31
389.387	276.31
389.612	271.31
389.837	275.31
390.062	279.31
390.287	273.31
390.512	271.31
390.736	282.31
390.961	286.31
391.186	287.31
391.411	284.31
391.636	280.31
391.86	284.31
392.085	291.31
392.31	292.31
392.534	281.31
392.759	284.31
392.984	272.31
393.208	280.31
393.433	289.31
393.658	286.31
393.882	271.31
394.107	270.31
394.331	278.31
394.556	270.31
394.78	287.31
395.005	267.31
395.229	277.31
395.454	268.31
395.678	293.31
395.903	287.31
396.127	297.31
396.352	318.31
396.576	286.31
396.801	282.31
397.025	288.31
397.249	278.31
397.474	286.31
397.698	283.31
397.922	285.31
398.147	307.31
398.371	287.31
398.595	294.31
398.82	308.31
399.044	315.31
399.268	303.31
399.492	313.31
399.717	324.31
399.941	347.31
400.165	367.31
400.389	349.31
400.613	324.31
400.837	312.31
401.062	326.31
401.286	290.31
401.51	314.31
401.734	293.31
401.958	321.31
402.182	300.31
402.406	323.31
402.63	316.31
402.854	311.31
403.078	311.31
403.302	322.31
403.526	323.31
403.75	316.31
403.974	302.31
404.198	318.31
404.422	318.31
404.645	324.31
404.869	310.31
405.093	342.31
405.317	351.31
405.541	376.31
405.765	370.31
405.988	365.31
406.212	342.31
406.436	343.31
406.66	363.31
406.883	344.31
407.107	348.31
407.331	371.31
407.555	400.31
407.778	409.31
408.002	389.31
408.226	332.31
408.449	326.31
408.673	344.31
408.896	367.31
409.12	394.31
409.344	356.31
409.567	309.31
409.791	333.31
410.014	327.31
410.238	315.31
410.461	311.31
410.685	326.31
410.908	322.31
411.132	336.31
411.355	357.31
411.578	341.31
411.802	339.31
412.025	315.31
412.249	315.31
412.472	335.31
412.695	357.31
412.919	335.31
413.142	318.31
413.365	301.31
413.589	322.31
413.812	295.31
414.035	308.31
414.258	308.31
414.482	299.31
414.705	305.31
414.928	273.31
415.151	312.31
415.374	295.31
415.597	290.31
415.821	303.31
416.044	288.31
416.267	297.31
416.49	303.31
416.713	287.31
416.936	286.31
417.159	310.31
417.382	315.31
417.605	299.31
417.828	298.31
418.051	288.31
418.274	298.31
418.497	303.31
418.72	296.31
418.943	303.31
419.166	309.31
419.389	312.31
419.611	297.31
419.834	309.31
420.057	318.31
420.28	317.31
420.503	314.31
420.726	321.31
420.948	328.31
421.171	372.31
421.394	354.31
421.617	322.31
421.839	312.31
422.062	325.31
422.285	342.31
422.507	356.31
422.73	413.31
422.953	390.31
423.175	337.31
423.398	324.31
423.621	320.31
423.843	345.31
424.066	334.31
424.288	347.31
424.511	338.31
424.733	364.31
424.956	420.31
425.178	408.31
425.401	427.31
425.623	401.31
425.846	373.31
426.068	344.31
426.291	342.31
426.513	340.31
426.735	340.31
426.958	358.31
427.18	429.31
427.402	493.31
427.625	548.31
427.847	472.31
428.069	424.31
428.292	380.31
428.514	336.31
428.736	334.31
428.958	327.31
429.181	329.31
429.403	312.31
429.625	336.31
429.847	358.31
430.069	383.31
430.292	368.31
430.514	310.31
430.736	318.31
430.958	311.31
431.18	314.31
431.402	296.31
431.624	306.31
431.846	287.31
432.068	267.31
432.29	302.31
432.512	282.31
432.734	288.31
432.956	303.31
433.178	293.31
433.4	302.31
433.622	296.31
433.844	307.31
434.066	287.31
434.287	287.31
434.509	275.31
434.731	308.31
434.953	291.31
435.175	318.31
435.397	334.31
435.618	347.31
435.84	361.31
436.062	431.31
436.284	445.31
436.505	376.31
436.727	351.31
436.949	330.31
437.17	318.31
437.392	320.31
437.614	308.31
437.835	363.31
438.057	409.31
438.278	448.31
438.5	459.31
438.721	491.31
438.943	481.31
439.165	395.31
439.386	350.31
439.608	366.31
439.829	348.31
440.05	374.31
440.272	395.31
440.493	361.31
440.715	338.31
440.936	325.31
441.158	332.31
441.379	330.31
441.6	322.31
441.822	358.31
442.043	367.31
442.264	438.31
442.486	431.31
442.707	359.31
442.928	350.31
443.149	355.31
443.371	374.31
443.592	402.31
443.813	442.31
444.034	485.31
444.255	401.31
444.476	349.31
444.698	342.31
444.919	356.31
445.14	426.31
445.361	387.31
445.582	371.31
445.803	417.31
446.024	462.31
446.245	482.31
446.466	424.31
446.687	374.31
446.908	353.31
447.129	331.31
447.35	310.31
447.571	326.31
447.792	314.31
448.013	312.31
448.234	351.31
448.455	374.31
448.675	451.31
448.896	481.31
449.117	410.31
449.338	409.31
449.559	496.31
449.779	520.31
450	413.31
450.221	351.31
450.442	316.31
450.662	343.31
450.883	324.31
451.104	334.31
451.324	307.31
451.545	297.31
451.766	299.31
451.986	291.31
452.207	295.31
452.428	292.31
452.648	278.31
452.869	280.31
453.089	291.31
453.31	295.31
453.53	299.31
453.751	286.31
453.971	299.31
454.192	318.31
454.412	303.31
454.633	297.31
454.853	279.31
455.073	278.31
455.294	293.31
455.514	348.31
455.734	315.31
455.955	275.31
456.175	275.31
456.395	288.31
456.616	279.31
456.836	264.31
457.056	267.31
457.276	293.31
457.497	252.31
457.717	280.31
457.937	272.31
458.157	287.31
458.377	280.31
458.598	284.31
458.818	335.31
459.038	393.31
459.258	411.31
459.478	349.31
459.698	328.31
459.918	280.31
460.138	304.31
460.358	293.31
460.578	291.31
460.798	299.31
461.018	299.31
461.238	296.31
461.458	289.31
461.678	290.31
461.898	299.31
462.118	279.31
462.338	288.31
462.558	290.31
462.777	289.31
462.997	302.31
463.217	307.31
463.437	308.31
463.657	297.31
463.876	287.31
464.096	301.31
464.316	297.31
464.536	306.31
464.755	314.31
464.975	295.31
465.195	352.31
465.414	396.31
465.634	345.31
465.854	310.31
466.073	322.31
466.293	284.31
466.512	278.31
466.732	279.31
466.951	278.31
467.171	269.31
467.391	282.31
467.61	306.31
467.829	318.31
468.049	300.31
468.268	298.31
468.488	279.31
468.707	266.31
468.927	300.31
469.146	278.31
469.365	273.31
469.585	294.31
469.804	299.31
470.023	307.31
470.243	286.31
470.462	313.31
470.681	318.31
470.901	315.31
471.12	309.31
471.339	310.31
471.558	299.31
471.777	294.31
471.997	309.31
472.216	302.31
472.435	316.31
472.654	322.31
472.873	282.31
473.092	284.31
473.311	289.31
473.53	284.31
473.749	286.31
473.968	334.31
474.187	372.31
474.406	404.31
474.625	344.31
474.844	317.31
475.063	309.31
475.282	298.31
475.501	283.31
475.72	282.31
475.939	298.31
476.158	287.31
476.377	299.31
476.596	300.31
476.814	302.31
477.033	308.31
477.252	307.31
477.471	317.31
477.69	315.31
477.908	321.31
478.127	307.31
478.346	317.31
478.564	305.31
478.783	321.31
479.002	323.31
479.22	314.31
479.439	328.31
479.658	350.31
479.876	338.31
480.095	347.31
480.313	367.31
480.532	354.31
480.751	349.31
480.969	350.31
481.188	394.31
481.406	418.31
481.624	366.31
481.843	349.31
482.061	359.31
482.28	339.31
482.498	348.31
482.717	331.31
482.935	321.31
483.153	331.31
483.372	334.31
483.59	338.31
483.808	328.31
484.027	359.31
484.245	349.31
484.463	332.31
484.681	343.31
484.9	324.31
485.118	322.31
485.336	342.31
485.554	339.31
485.772	354.31
485.99	347.31
486.209	349.31
486.427	333.31
486.645	362.31
486.863	374.31
487.081	372.31
487.299	375.31
487.517	349.31
487.735	381.31
487.953	350.31
488.171	345.31
488.389	351.31
488.607	343.31
488.825	364.31
489.043	358.31
489.261	356.31
489.479	369.31
489.696	378.31
489.914	345.31
490.132	367.31
490.35	378.31
490.568	375.31
490.786	386.31
491.003	390.31
491.221	399.31
491.439	395.31
491.657	408.31
491.874	403.31
492.092	398.31
492.31	408.31
492.527	401.31
492.745	410.31
492.963	410.31
493.18	412.31
493.398	427.31
493.615	399.31
493.833	412.31
494.05	408.31
494.268	413.31
494.485	414.31
494.703	395.31
494.92	410.31
495.138	426.31
495.355	433.31
495.573	438.31
495.79	442.31
496.008	435.31
496.225	432.31
496.442	426.31
496.66	417.31
496.877	421.31
497.094	408.31
497.312	427.31
497.529	431.31
497.746	443.31
497.963	444.31
498.181	434.31
498.398	455.31
498.615	436.31
498.832	460.31
499.049	459.31
499.267	461.31
499.484	462.31
499.701	489.31
499.918	478.31
500.135	484.31
500.352	520.31
500.569	520.31
500.786	526.31
501.003	523.31
501.22	516.31
501.437	498.31
501.654	526.31
501.871	509.31
502.088	492.31
