Data from 1982.PennyLincolnUp.Lamp.En5.5.200Scan.071819.P1_HRD10591_16-46-43-963.txt Node
Date: Thu Jul 18 16:46:43 EDT 2019
User: cochatt
Spectrometer: HR+D1059
Trigger mode: 1
Integration Time (sec): 1.000000E-1
Scans to average: 1
Electric dark correction enabled: true
Nonlinearity correction enabled: false
Boxcar width: 0
XAxis mode: Wavelengths
Number of Pixels in Spectrum: 2048
>>>>>Begin Spectral Data<<<<<
223.165	-5.25
223.4	-5.25
223.635	-5.25
223.869	-12.25
224.104	-12.25
224.338	-23.25
224.573	-11.25
224.808	-18.25
225.042	-7.25
225.277	-17.25
225.511	-2.25
225.746	5.75
225.98	3.75
226.215	14.75
226.449	18.75
226.683	23.75
226.918	24.75
227.152	17.75
227.387	24.75
227.621	46.75
227.856	26.75
228.09	40.75
228.324	46.75
228.559	40.75
228.793	57.75
229.027	75.75
229.262	101.75
229.496	96.75
229.73	95.75
229.964	115.75
230.199	97.75
230.433	94.75
230.667	103.75
230.901	99.75
231.136	103.75
231.37	106.75
231.604	108.75
231.838	100.75
232.072	94.75
232.306	97.75
232.541	100.75
232.775	114.75
233.009	94.75
233.243	105.75
233.477	100.75
233.711	108.75
233.945	98.75
234.179	94.75
234.413	116.75
234.647	95.75
234.881	96.75
235.115	96.75
235.349	101.75
235.583	113.75
235.817	108.75
236.051	118.75
236.285	114.75
236.519	102.75
236.753	115.75
236.987	140.75
237.221	140.75
237.455	165.75
237.689	150.75
237.922	115.75
238.156	111.75
238.39	125.75
238.624	105.75
238.858	95.75
239.091	110.75
239.325	107.75
239.559	101.75
239.793	112.75
240.027	126.75
240.26	129.75
240.494	128.75
240.728	118.75
240.961	131.75
241.195	132.75
241.429	124.75
241.662	116.75
241.896	107.75
242.13	114.75
242.363	107.75
242.597	121.75
242.83	120.75
243.064	116.75
243.298	113.75
243.531	100.75
243.765	113.75
243.998	121.75
244.232	115.75
244.465	104.75
244.699	138.75
244.932	136.75
245.166	105.75
245.399	123.75
245.633	141.75
245.866	127.75
246.099	124.75
246.333	107.75
246.566	123.75
246.8	118.75
247.033	118.75
247.266	135.75
247.5	121.75
247.733	143.75
247.966	140.75
248.2	126.75
248.433	138.75
248.666	146.75
248.899	170.75
249.133	150.75
249.366	163.75
249.599	160.75
249.832	168.75
250.066	143.75
250.299	138.75
250.532	162.75
250.765	164.75
250.998	172.75
251.231	182.75
251.465	189.75
251.698	176.75
251.931	150.75
252.164	160.75
252.397	157.75
252.63	172.75
252.863	162.75
253.096	174.75
253.329	181.75
253.562	166.75
253.795	170.75
254.028	184.75
254.261	185.75
254.494	198.75
254.727	216.75
254.96	245.75
255.193	210.75
255.426	202.75
255.659	193.75
255.892	181.75
256.124	178.75
256.357	173.75
256.59	174.75
256.823	166.75
257.056	168.75
257.289	170.75
257.521	185.75
257.754	171.75
257.987	171.75
258.22	176.75
258.452	157.75
258.685	162.75
258.918	177.75
259.151	163.75
259.383	186.75
259.616	181.75
259.849	179.75
260.081	186.75
260.314	205.75
260.547	210.75
260.779	189.75
261.012	196.75
261.244	190.75
261.477	189.75
261.71	193.75
261.942	180.75
262.175	194.75
262.407	195.75
262.64	186.75
262.872	181.75
263.105	186.75
263.337	185.75
263.57	168.75
263.802	180.75
264.035	165.75
264.267	170.75
264.499	160.75
264.732	162.75
264.964	169.75
265.197	176.75
265.429	155.75
265.661	156.75
265.894	171.75
266.126	166.75
266.358	165.75
266.591	177.75
266.823	182.75
267.055	180.75
267.287	171.75
267.52	157.75
267.752	177.75
267.984	189.75
268.216	181.75
268.448	205.75
268.681	203.75
268.913	208.75
269.145	205.75
269.377	220.75
269.609	218.75
269.841	215.75
270.073	219.75
270.306	225.75
270.538	251.75
270.77	241.75
271.002	242.75
271.234	244.75
271.466	254.75
271.698	240.75
271.93	246.75
272.162	248.75
272.394	253.75
272.626	233.75
272.858	212.75
273.09	218.75
273.322	204.75
273.553	188.75
273.785	204.75
274.017	193.75
274.249	200.75
274.481	210.75
274.713	205.75
274.945	214.75
275.176	211.75
275.408	214.75
275.64	208.75
275.872	202.75
276.104	227.75
276.335	211.75
276.567	221.75
276.799	218.75
277.031	249.75
277.262	245.75
277.494	253.75
277.726	227.75
277.957	233.75
278.189	206.75
278.421	227.75
278.652	221.75
278.884	198.75
279.115	199.75
279.347	220.75
279.579	207.75
279.81	205.75
280.042	206.75
280.273	228.75
280.505	219.75
280.736	199.75
280.968	206.75
281.199	207.75
281.431	208.75
281.662	210.75
281.894	202.75
282.125	207.75
282.356	212.75
282.588	237.75
282.819	229.75
283.051	209.75
283.282	214.75
283.513	217.75
283.745	218.75
283.976	209.75
284.207	210.75
284.439	205.75
284.67	213.75
284.901	210.75
285.132	205.75
285.364	221.75
285.595	213.75
285.826	206.75
286.057	216.75
286.288	217.75
286.52	228.75
286.751	226.75
286.982	221.75
287.213	212.75
287.444	243.75
287.675	229.75
287.906	240.75
288.138	251.75
288.369	233.75
288.6	227.75
288.831	229.75
289.062	211.75
289.293	220.75
289.524	236.75
289.755	225.75
289.986	220.75
290.217	222.75
290.448	240.75
290.679	220.75
290.91	206.75
291.141	225.75
291.371	209.75
291.602	214.75
291.833	243.75
292.064	226.75
292.295	219.75
292.526	214.75
292.757	210.75
292.987	208.75
293.218	225.75
293.449	235.75
293.68	238.75
293.91	227.75
294.141	212.75
294.372	220.75
294.603	228.75
294.833	222.75
295.064	224.75
295.295	237.75
295.525	240.75
295.756	222.75
295.987	236.75
296.217	253.75
296.448	247.75
296.679	231.75
296.909	241.75
297.14	229.75
297.37	233.75
297.601	238.75
297.831	227.75
298.062	236.75
298.292	214.75
298.523	228.75
298.753	216.75
298.984	238.75
299.214	222.75
299.445	243.75
299.675	256.75
299.905	248.75
300.136	221.75
300.366	218.75
300.597	221.75
300.827	242.75
301.057	237.75
301.288	246.75
301.518	245.75
301.748	239.75
301.979	246.75
302.209	230.75
302.439	240.75
302.669	250.75
302.9	255.75
303.13	251.75
303.36	248.75
303.59	257.75
303.82	237.75
304.051	253.75
304.281	245.75
304.511	257.75
304.741	230.75
304.971	254.75
305.201	257.75
305.431	243.75
305.661	242.75
305.891	249.75
306.121	244.75
306.352	233.75
306.582	260.75
306.812	245.75
307.042	254.75
307.272	251.75
307.502	256.75
307.731	245.75
307.961	229.75
308.191	252.75
308.421	261.75
308.651	248.75
308.881	265.75
309.111	260.75
309.341	269.75
309.571	261.75
309.8	275.75
310.03	301.75
310.26	289.75
310.49	308.75
310.72	298.75
310.949	312.75
311.179	309.75
311.409	301.75
311.639	312.75
311.868	300.75
312.098	279.75
312.328	286.75
312.557	296.75
312.787	316.75
313.017	312.75
313.246	300.75
313.476	298.75
313.706	304.75
313.935	306.75
314.165	322.75
314.394	313.75
314.624	299.75
314.853	286.75
315.083	288.75
315.312	292.75
315.542	268.75
315.771	278.75
316.001	283.75
316.23	295.75
316.46	292.75
316.689	299.75
316.919	273.75
317.148	296.75
317.377	298.75
317.607	289.75
317.836	302.75
318.065	293.75
318.295	285.75
318.524	291.75
318.753	294.75
318.983	288.75
319.212	296.75
319.441	297.75
319.67	306.75
319.9	306.75
320.129	281.75
320.358	276.75
320.587	306.75
320.816	309.75
321.046	304.75
321.275	322.75
321.504	302.75
321.733	305.75
321.962	326.75
322.191	338.75
322.42	334.75
322.649	334.75
322.878	365.75
323.108	377.75
323.337	390.75
323.566	415.75
323.795	426.75
324.024	478.75
324.253	610.75
324.482	877.75
324.71	1366.75
324.939	1794.75
325.168	1443.75
325.397	765.75
325.626	526.75
325.855	445.75
326.084	427.75
326.313	424.75
326.542	406.75
326.77	445.75
326.999	578.75
327.228	786.75
327.457	1157.75
327.686	1282.75
327.914	864.75
328.143	566.75
328.372	515.75
328.6	476.75
328.829	445.75
329.058	452.75
329.287	479.75
329.515	446.75
329.744	404.75
329.972	400.75
330.201	422.75
330.43	450.75
330.658	473.75
330.887	494.75
331.115	456.75
331.344	405.75
331.572	382.75
331.801	364.75
332.03	378.75
332.258	354.75
332.486	342.75
332.715	322.75
332.943	330.75
333.172	331.75
333.4	318.75
333.629	340.75
333.857	361.75
334.085	373.75
334.314	388.75
334.542	383.75
334.771	388.75
334.999	379.75
335.227	383.75
335.455	347.75
335.684	330.75
335.912	328.75
336.14	325.75
336.369	331.75
336.597	360.75
336.825	335.75
337.053	332.75
337.281	324.75
337.51	334.75
337.738	332.75
337.966	327.75
338.194	327.75
338.422	324.75
338.65	323.75
338.878	328.75
339.106	324.75
339.334	313.75
339.562	310.75
339.79	329.75
340.018	333.75
340.246	309.75
340.474	322.75
340.702	319.75
340.93	332.75
341.158	322.75
341.386	316.75
341.614	314.75
341.842	305.75
342.07	310.75
342.298	318.75
342.526	310.75
342.754	309.75
342.981	318.75
343.209	313.75
343.437	298.75
343.665	316.75
343.893	310.75
344.12	316.75
344.348	326.75
344.576	312.75
344.804	308.75
345.031	334.75
345.259	339.75
345.487	332.75
345.714	318.75
345.942	312.75
346.17	323.75
346.397	314.75
346.625	317.75
346.853	340.75
347.08	302.75
347.308	317.75
347.535	325.75
347.763	327.75
347.99	320.75
348.218	324.75
348.445	319.75
348.673	303.75
348.9	315.75
349.128	312.75
349.355	296.75
349.583	299.75
349.81	302.75
350.037	302.75
350.265	289.75
350.492	302.75
350.72	287.75
350.947	300.75
351.174	309.75
351.402	322.75
351.629	322.75
351.856	305.75
352.083	304.75
352.311	348.75
352.538	318.75
352.765	340.75
352.992	311.75
353.22	304.75
353.447	306.75
353.674	298.75
353.901	277.75
354.128	282.75
354.355	280.75
354.583	310.75
354.81	304.75
355.037	293.75
355.264	292.75
355.491	270.75
355.718	261.75
355.945	270.75
356.172	288.75
356.399	268.75
356.626	268.75
356.853	264.75
357.08	292.75
357.307	276.75
357.534	301.75
357.761	285.75
357.988	292.75
358.215	275.75
358.441	292.75
358.668	276.75
358.895	287.75
359.122	311.75
359.349	305.75
359.576	314.75
359.802	341.75
360.029	342.75
360.256	337.75
360.483	320.75
360.709	320.75
360.936	313.75
361.163	310.75
361.39	291.75
361.616	294.75
361.843	301.75
362.07	281.75
362.296	308.75
362.523	304.75
362.749	293.75
362.976	298.75
363.203	284.75
363.429	289.75
363.656	298.75
363.882	306.75
364.109	294.75
364.335	293.75
364.562	296.75
364.788	287.75
365.015	304.75
365.241	280.75
365.468	297.75
365.694	299.75
365.92	287.75
366.147	294.75
366.373	277.75
366.599	285.75
366.826	279.75
367.052	273.75
367.278	274.75
367.505	293.75
367.731	295.75
367.957	283.75
368.184	271.75
368.41	297.75
368.636	299.75
368.862	268.75
369.089	291.75
369.315	276.75
369.541	278.75
369.767	277.75
369.993	281.75
370.219	297.75
370.445	280.75
370.672	272.75
370.898	284.75
371.124	283.75
371.35	267.75
371.576	273.75
371.802	257.75
372.028	277.75
372.254	291.75
372.48	273.75
372.706	272.75
372.932	290.75
373.158	285.75
373.384	276.75
373.61	290.75
373.835	272.75
374.061	274.75
374.287	271.75
374.513	276.75
374.739	289.75
374.965	284.75
375.191	278.75
375.416	276.75
375.642	275.75
375.868	265.75
376.094	274.75
376.319	268.75
376.545	266.75
376.771	273.75
376.997	267.75
377.222	285.75
377.448	260.75
377.674	271.75
377.899	276.75
378.125	263.75
378.35	283.75
378.576	265.75
378.802	268.75
379.027	257.75
379.253	292.75
379.478	276.75
379.704	264.75
379.929	265.75
380.155	268.75
380.38	262.75
380.606	282.75
380.831	266.75
381.057	275.75
381.282	272.75
381.507	291.75
381.733	256.75
381.958	267.75
382.184	285.75
382.409	271.75
382.634	284.75
382.86	263.75
383.085	275.75
383.31	253.75
383.535	254.75
383.761	269.75
383.986	259.75
384.211	280.75
384.436	284.75
384.662	269.75
384.887	274.75
385.112	278.75
385.337	284.75
385.562	282.75
385.787	275.75
386.013	268.75
386.238	297.75
386.463	306.75
386.688	279.75
386.913	270.75
387.138	269.75
387.363	304.75
387.588	283.75
387.813	304.75
388.038	265.75
388.263	281.75
388.488	297.75
388.713	277.75
388.938	283.75
389.163	287.75
389.387	282.75
389.612	264.75
389.837	277.75
390.062	286.75
390.287	304.75
390.512	287.75
390.736	290.75
390.961	280.75
391.186	289.75
391.411	278.75
391.636	277.75
391.86	294.75
392.085	286.75
392.31	276.75
392.534	269.75
392.759	292.75
392.984	293.75
393.208	286.75
393.433	291.75
393.658	286.75
393.882	271.75
394.107	274.75
394.331	282.75
394.556	273.75
394.78	270.75
395.005	291.75
395.229	281.75
395.454	288.75
395.678	294.75
395.903	296.75
396.127	283.75
396.352	300.75
396.576	289.75
396.801	272.75
397.025	272.75
397.249	289.75
397.474	304.75
397.698	309.75
397.922	298.75
398.147	304.75
398.371	308.75
398.595	305.75
398.82	300.75
399.044	309.75
399.268	321.75
399.492	310.75
399.717	351.75
399.941	383.75
400.165	358.75
400.389	374.75
400.613	332.75
400.837	333.75
401.062	327.75
401.286	332.75
401.51	310.75
401.734	314.75
401.958	310.75
402.182	307.75
402.406	310.75
402.63	329.75
402.854	311.75
403.078	313.75
403.302	326.75
403.526	306.75
403.75	319.75
403.974	303.75
404.198	314.75
404.422	341.75
404.645	353.75
404.869	316.75
405.093	346.75
405.317	366.75
405.541	388.75
405.765	362.75
405.988	340.75
406.212	337.75
406.436	377.75
406.66	372.75
406.883	352.75
407.107	384.75
407.331	397.75
407.555	418.75
407.778	428.75
408.002	407.75
408.226	356.75
408.449	354.75
408.673	364.75
408.896	355.75
409.12	382.75
409.344	356.75
409.567	333.75
409.791	330.75
410.014	310.75
410.238	317.75
410.461	322.75
410.685	328.75
410.908	341.75
411.132	343.75
411.355	383.75
411.578	364.75
411.802	340.75
412.025	341.75
412.249	329.75
412.472	334.75
412.695	353.75
412.919	364.75
413.142	342.75
413.365	295.75
413.589	296.75
413.812	305.75
414.035	314.75
414.258	318.75
414.482	293.75
414.705	275.75
414.928	296.75
415.151	285.75
415.374	307.75
415.597	306.75
415.821	316.75
416.044	298.75
416.267	289.75
416.49	311.75
416.713	300.75
416.936	296.75
417.159	284.75
417.382	308.75
417.605	324.75
417.828	333.75
418.051	325.75
418.274	299.75
418.497	305.75
418.72	303.75
418.943	298.75
419.166	300.75
419.389	326.75
419.611	311.75
419.834	344.75
420.057	331.75
420.28	310.75
420.503	319.75
420.726	334.75
420.948	330.75
421.171	368.75
421.394	365.75
421.617	348.75
421.839	331.75
422.062	322.75
422.285	324.75
422.507	372.75
422.73	411.75
422.953	384.75
423.175	350.75
423.398	338.75
423.621	333.75
423.843	355.75
424.066	353.75
424.288	354.75
424.511	369.75
424.733	387.75
424.956	436.75
425.178	407.75
425.401	427.75
425.623	434.75
425.846	377.75
426.068	362.75
426.291	359.75
426.513	344.75
426.735	372.75
426.958	402.75
427.18	451.75
427.402	504.75
427.625	555.75
427.847	488.75
428.069	443.75
428.292	389.75
428.514	363.75
428.736	342.75
428.958	342.75
429.181	327.75
429.403	332.75
429.625	343.75
429.847	362.75
430.069	406.75
430.292	400.75
430.514	328.75
430.736	339.75
430.958	309.75
431.18	308.75
431.402	313.75
431.624	277.75
431.846	298.75
432.068	292.75
432.29	306.75
432.512	307.75
432.734	301.75
432.956	297.75
433.178	307.75
433.4	301.75
433.622	299.75
433.844	310.75
434.066	304.75
434.287	288.75
434.509	306.75
434.731	315.75
434.953	323.75
435.175	338.75
435.397	346.75
435.618	375.75
435.84	389.75
436.062	450.75
436.284	491.75
436.505	392.75
436.727	375.75
436.949	348.75
437.17	318.75
437.392	315.75
437.614	331.75
437.835	375.75
438.057	438.75
438.278	481.75
438.5	496.75
438.721	510.75
438.943	503.75
439.165	422.75
439.386	378.75
439.608	361.75
439.829	360.75
440.05	385.75
440.272	422.75
440.493	373.75
440.715	345.75
440.936	352.75
441.158	347.75
441.379	323.75
441.6	359.75
441.822	349.75
442.043	374.75
442.264	441.75
442.486	427.75
442.707	395.75
442.928	369.75
443.149	372.75
443.371	389.75
443.592	412.75
443.813	445.75
444.034	505.75
444.255	427.75
444.476	356.75
444.698	351.75
444.919	362.75
445.14	420.75
445.361	392.75
445.582	370.75
445.803	432.75
446.024	495.75
446.245	493.75
446.466	452.75
446.687	380.75
446.908	349.75
447.129	356.75
447.35	339.75
447.571	328.75
447.792	329.75
448.013	332.75
448.234	349.75
448.455	384.75
448.675	447.75
448.896	504.75
449.117	437.75
449.338	435.75
449.559	470.75
449.779	521.75
450	434.75
450.221	384.75
450.442	328.75
450.662	341.75
450.883	327.75
451.104	352.75
451.324	341.75
451.545	323.75
451.766	291.75
451.986	300.75
452.207	297.75
452.428	314.75
452.648	282.75
452.869	288.75
453.089	309.75
453.31	317.75
453.53	296.75
453.751	300.75
453.971	305.75
454.192	295.75
454.412	308.75
454.633	291.75
454.853	294.75
455.073	300.75
455.294	324.75
455.514	377.75
455.734	320.75
455.955	300.75
456.175	296.75
456.395	274.75
456.616	274.75
456.836	272.75
457.056	269.75
457.276	288.75
457.497	281.75
457.717	276.75
457.937	284.75
458.157	286.75
458.377	282.75
458.598	313.75
458.818	353.75
459.038	374.75
459.258	408.75
459.478	345.75
459.698	314.75
459.918	308.75
460.138	288.75
460.358	282.75
460.578	292.75
460.798	302.75
461.018	317.75
461.238	307.75
461.458	298.75
461.678	308.75
461.898	293.75
462.118	290.75
462.338	297.75
462.558	309.75
462.777	307.75
462.997	324.75
463.217	323.75
463.437	315.75
463.657	318.75
463.876	320.75
464.096	316.75
464.316	311.75
464.536	324.75
464.755	308.75
464.975	344.75
465.195	372.75
465.414	419.75
465.634	361.75
465.854	322.75
466.073	312.75
466.293	299.75
466.512	292.75
466.732	304.75
466.951	305.75
467.171	296.75
467.391	284.75
467.61	305.75
467.829	293.75
468.049	318.75
468.268	304.75
468.488	292.75
468.707	287.75
468.927	298.75
469.146	290.75
469.365	288.75
469.585	292.75
469.804	305.75
470.023	322.75
470.243	313.75
470.462	316.75
470.681	322.75
470.901	337.75
471.12	308.75
471.339	309.75
471.558	287.75
471.777	306.75
471.997	291.75
472.216	322.75
472.435	354.75
472.654	324.75
472.873	298.75
473.092	300.75
473.311	290.75
473.53	315.75
473.749	312.75
473.968	358.75
474.187	412.75
474.406	418.75
474.625	365.75
474.844	310.75
475.063	304.75
475.282	296.75
475.501	297.75
475.72	327.75
475.939	326.75
476.158	307.75
476.377	312.75
476.596	306.75
476.814	310.75
477.033	308.75
477.252	306.75
477.471	318.75
477.69	328.75
477.908	320.75
478.127	317.75
478.346	329.75
478.564	321.75
478.783	322.75
479.002	321.75
479.22	349.75
479.439	332.75
479.658	356.75
479.876	373.75
480.095	361.75
480.313	377.75
480.532	354.75
480.751	359.75
480.969	355.75
481.188	397.75
481.406	417.75
481.624	383.75
481.843	379.75
482.061	368.75
482.28	343.75
482.498	348.75
482.717	340.75
482.935	337.75
483.153	343.75
483.372	345.75
483.59	358.75
483.808	339.75
484.027	350.75
484.245	351.75
484.463	358.75
484.681	355.75
484.9	373.75
485.118	336.75
485.336	350.75
485.554	369.75
485.772	353.75
485.99	348.75
486.209	344.75
486.427	362.75
486.645	375.75
486.863	388.75
487.081	383.75
487.299	385.75
487.517	384.75
487.735	363.75
487.953	382.75
488.171	367.75
488.389	377.75
488.607	392.75
488.825	372.75
489.043	385.75
489.261	368.75
489.479	365.75
489.696	377.75
489.914	384.75
490.132	401.75
490.35	395.75
490.568	400.75
490.786	406.75
491.003	396.75
491.221	406.75
491.439	414.75
491.657	424.75
491.874	423.75
492.092	412.75
492.31	428.75
492.527	405.75
492.745	418.75
492.963	437.75
493.18	438.75
493.398	435.75
493.615	452.75
493.833	440.75
494.05	447.75
494.268	438.75
494.485	428.75
494.703	427.75
494.92	436.75
495.138	438.75
495.355	432.75
495.573	464.75
495.79	441.75
496.008	450.75
496.225	439.75
496.442	434.75
496.66	452.75
496.877	437.75
497.094	451.75
497.312	466.75
497.529	450.75
497.746	460.75
497.963	445.75
498.181	464.75
498.398	459.75
498.615	478.75
498.832	458.75
499.049	484.75
499.267	481.75
499.484	489.75
499.701	480.75
499.918	503.75
500.135	547.75
500.352	529.75
500.569	523.75
500.786	548.75
501.003	535.75
501.22	537.75
501.437	516.75
501.654	514.75
501.871	527.75
502.088	520.75
