Data from 1982.PennyLincolnUp.Lamp.En5.5.200Scan.071819.P1_HRD10591_16-47-43-963.txt Node
Date: Thu Jul 18 16:47:43 EDT 2019
User: cochatt
Spectrometer: HR+D1059
Trigger mode: 1
Integration Time (sec): 1.000000E-1
Scans to average: 1
Electric dark correction enabled: true
Nonlinearity correction enabled: false
Boxcar width: 0
XAxis mode: Wavelengths
Number of Pixels in Spectrum: 2048
>>>>>Begin Spectral Data<<<<<
223.165	-15.88
223.4	-15.88
223.635	-15.88
223.869	-16.88
224.104	-6.88
224.338	-21.88
224.573	-24.88
224.808	-11.88
225.042	-13.88
225.277	0.12
225.511	-7.88
225.746	9.12
225.98	8.12
226.215	12.12
226.449	15.12
226.683	14.12
226.918	24.12
227.152	37.12
227.387	41.12
227.621	49.12
227.856	53.12
228.09	45.12
228.324	61.12
228.559	54.12
228.793	77.12
229.027	86.12
229.262	98.12
229.496	118.12
229.73	119.12
229.964	139.12
230.199	113.12
230.433	106.12
230.667	96.12
230.901	102.12
231.136	95.12
231.37	96.12
231.604	102.12
231.838	102.12
232.072	96.12
232.306	99.12
232.541	104.12
232.775	120.12
233.009	118.12
233.243	107.12
233.477	104.12
233.711	108.12
233.945	88.12
234.179	92.12
234.413	104.12
234.647	109.12
234.881	115.12
235.115	113.12
235.349	100.12
235.583	94.12
235.817	106.12
236.051	101.12
236.285	114.12
236.519	110.12
236.753	116.12
236.987	121.12
237.221	158.12
237.455	190.12
237.689	160.12
237.922	128.12
238.156	112.12
238.39	107.12
238.624	126.12
238.858	115.12
239.091	109.12
239.325	108.12
239.559	104.12
239.793	115.12
240.027	114.12
240.26	133.12
240.494	140.12
240.728	140.12
240.961	143.12
241.195	122.12
241.429	128.12
241.662	120.12
241.896	122.12
242.13	121.12
242.363	119.12
242.597	113.12
242.83	105.12
243.064	122.12
243.298	105.12
243.531	104.12
243.765	126.12
243.998	116.12
244.232	118.12
244.465	121.12
244.699	138.12
244.932	107.12
245.166	110.12
245.399	117.12
245.633	133.12
245.866	119.12
246.099	127.12
246.333	138.12
246.566	139.12
246.8	118.12
247.033	138.12
247.266	130.12
247.5	140.12
247.733	146.12
247.966	140.12
248.2	146.12
248.433	132.12
248.666	146.12
248.899	156.12
249.133	179.12
249.366	190.12
249.599	169.12
249.832	164.12
250.066	144.12
250.299	155.12
250.532	169.12
250.765	164.12
250.998	184.12
251.231	193.12
251.465	170.12
251.698	176.12
251.931	158.12
252.164	141.12
252.397	165.12
252.63	167.12
252.863	172.12
253.096	173.12
253.329	188.12
253.562	186.12
253.795	179.12
254.028	183.12
254.261	176.12
254.494	193.12
254.727	218.12
254.96	218.12
255.193	205.12
255.426	201.12
255.659	198.12
255.892	195.12
256.124	186.12
256.357	199.12
256.59	197.12
256.823	182.12
257.056	173.12
257.289	188.12
257.521	164.12
257.754	176.12
257.987	166.12
258.22	182.12
258.452	177.12
258.685	183.12
258.918	180.12
259.151	184.12
259.383	181.12
259.616	181.12
259.849	190.12
260.081	198.12
260.314	206.12
260.547	209.12
260.779	205.12
261.012	194.12
261.244	188.12
261.477	193.12
261.71	184.12
261.942	183.12
262.175	188.12
262.407	193.12
262.64	173.12
262.872	192.12
263.105	184.12
263.337	172.12
263.57	184.12
263.802	163.12
264.035	172.12
264.267	175.12
264.499	170.12
264.732	190.12
264.964	179.12
265.197	176.12
265.429	176.12
265.661	177.12
265.894	174.12
266.126	164.12
266.358	189.12
266.591	174.12
266.823	185.12
267.055	194.12
267.287	184.12
267.52	173.12
267.752	189.12
267.984	184.12
268.216	170.12
268.448	197.12
268.681	196.12
268.913	192.12
269.145	217.12
269.377	214.12
269.609	205.12
269.841	223.12
270.073	204.12
270.306	233.12
270.538	243.12
270.77	242.12
271.002	248.12
271.234	236.12
271.466	252.12
271.698	241.12
271.93	257.12
272.162	257.12
272.394	254.12
272.626	223.12
272.858	217.12
273.09	205.12
273.322	229.12
273.553	222.12
273.785	218.12
274.017	228.12
274.249	233.12
274.481	218.12
274.713	216.12
274.945	211.12
275.176	200.12
275.408	204.12
275.64	225.12
275.872	222.12
276.104	221.12
276.335	213.12
276.567	211.12
276.799	226.12
277.031	248.12
277.262	253.12
277.494	248.12
277.726	253.12
277.957	235.12
278.189	233.12
278.421	219.12
278.652	211.12
278.884	203.12
279.115	206.12
279.347	204.12
279.579	209.12
279.81	216.12
280.042	225.12
280.273	212.12
280.505	204.12
280.736	205.12
280.968	214.12
281.199	217.12
281.431	221.12
281.662	210.12
281.894	233.12
282.125	213.12
282.356	225.12
282.588	254.12
282.819	240.12
283.051	241.12
283.282	220.12
283.513	229.12
283.745	227.12
283.976	217.12
284.207	228.12
284.439	220.12
284.67	223.12
284.901	237.12
285.132	231.12
285.364	208.12
285.595	234.12
285.826	217.12
286.057	215.12
286.288	217.12
286.52	219.12
286.751	209.12
286.982	213.12
287.213	234.12
287.444	200.12
287.675	232.12
287.906	222.12
288.138	242.12
288.369	232.12
288.6	245.12
288.831	235.12
289.062	236.12
289.293	232.12
289.524	225.12
289.755	216.12
289.986	228.12
290.217	222.12
290.448	226.12
290.679	213.12
290.91	218.12
291.141	232.12
291.371	221.12
291.602	226.12
291.833	223.12
292.064	226.12
292.295	226.12
292.526	233.12
292.757	217.12
292.987	229.12
293.218	219.12
293.449	219.12
293.68	221.12
293.91	209.12
294.141	217.12
294.372	209.12
294.603	220.12
294.833	250.12
295.064	226.12
295.295	229.12
295.525	223.12
295.756	232.12
295.987	242.12
296.217	264.12
296.448	262.12
296.679	244.12
296.909	216.12
297.14	232.12
297.37	224.12
297.601	216.12
297.831	240.12
298.062	226.12
298.292	225.12
298.523	237.12
298.753	234.12
298.984	251.12
299.214	219.12
299.445	228.12
299.675	262.12
299.905	260.12
300.136	234.12
300.366	249.12
300.597	248.12
300.827	247.12
301.057	252.12
301.288	258.12
301.518	233.12
301.748	263.12
301.979	254.12
302.209	256.12
302.439	236.12
302.669	248.12
302.9	248.12
303.13	257.12
303.36	253.12
303.59	246.12
303.82	263.12
304.051	256.12
304.281	264.12
304.511	246.12
304.741	240.12
304.971	259.12
305.201	258.12
305.431	242.12
305.661	237.12
305.891	243.12
306.121	258.12
306.352	250.12
306.582	270.12
306.812	268.12
307.042	264.12
307.272	259.12
307.502	263.12
307.731	241.12
307.961	266.12
308.191	280.12
308.421	275.12
308.651	277.12
308.881	276.12
309.111	265.12
309.341	249.12
309.571	282.12
309.8	301.12
310.03	293.12
310.26	297.12
310.49	288.12
310.72	312.12
310.949	321.12
311.179	313.12
311.409	320.12
311.639	297.12
311.868	291.12
312.098	301.12
312.328	317.12
312.557	318.12
312.787	330.12
313.017	314.12
313.246	314.12
313.476	309.12
313.706	312.12
313.935	316.12
314.165	316.12
314.394	309.12
314.624	320.12
314.853	312.12
315.083	290.12
315.312	306.12
315.542	311.12
315.771	298.12
316.001	284.12
316.23	290.12
316.46	277.12
316.689	297.12
316.919	324.12
317.148	314.12
317.377	303.12
317.607	321.12
317.836	313.12
318.065	304.12
318.295	311.12
318.524	280.12
318.753	286.12
318.983	298.12
319.212	289.12
319.441	315.12
319.67	316.12
319.9	281.12
320.129	301.12
320.358	305.12
320.587	318.12
320.816	318.12
321.046	323.12
321.275	333.12
321.504	304.12
321.733	345.12
321.962	338.12
322.191	352.12
322.42	356.12
322.649	366.12
322.878	377.12
323.108	376.12
323.337	413.12
323.566	418.12
323.795	465.12
324.024	498.12
324.253	642.12
324.482	942.12
324.71	1446.12
324.939	1837.12
325.168	1511.12
325.397	794.12
325.626	560.12
325.855	466.12
326.084	422.12
326.313	440.12
326.542	429.12
326.77	470.12
326.999	590.12
327.228	834.12
327.457	1206.12
327.686	1330.12
327.914	882.12
328.143	593.12
328.372	527.12
328.6	490.12
328.829	480.12
329.058	477.12
329.287	498.12
329.515	460.12
329.744	409.12
329.972	427.12
330.201	431.12
330.43	476.12
330.658	485.12
330.887	485.12
331.115	457.12
331.344	411.12
331.572	388.12
331.801	405.12
332.03	387.12
332.258	358.12
332.486	343.12
332.715	357.12
332.943	348.12
333.172	333.12
333.4	347.12
333.629	360.12
333.857	381.12
334.085	368.12
334.314	393.12
334.542	427.12
334.771	421.12
334.999	392.12
335.227	348.12
335.455	367.12
335.684	350.12
335.912	350.12
336.14	342.12
336.369	356.12
336.597	334.12
336.825	343.12
337.053	342.12
337.281	341.12
337.51	336.12
337.738	341.12
337.966	330.12
338.194	354.12
338.422	346.12
338.65	326.12
338.878	324.12
339.106	340.12
339.334	315.12
339.562	326.12
339.79	320.12
340.018	322.12
340.246	339.12
340.474	338.12
340.702	334.12
340.93	328.12
341.158	313.12
341.386	341.12
341.614	353.12
341.842	318.12
342.07	316.12
342.298	329.12
342.526	324.12
342.754	306.12
342.981	319.12
343.209	324.12
343.437	322.12
343.665	312.12
343.893	304.12
344.12	317.12
344.348	328.12
344.576	323.12
344.804	333.12
345.031	338.12
345.259	344.12
345.487	334.12
345.714	328.12
345.942	316.12
346.17	325.12
346.397	301.12
346.625	324.12
346.853	315.12
347.08	304.12
347.308	329.12
347.535	340.12
347.763	332.12
347.99	337.12
348.218	315.12
348.445	320.12
348.673	350.12
348.9	320.12
349.128	314.12
349.355	299.12
349.583	323.12
349.81	293.12
350.037	293.12
350.265	313.12
350.492	304.12
350.72	309.12
350.947	316.12
351.174	321.12
351.402	323.12
351.629	301.12
351.856	330.12
352.083	322.12
352.311	336.12
352.538	357.12
352.765	335.12
352.992	327.12
353.22	329.12
353.447	327.12
353.674	317.12
353.901	314.12
354.128	306.12
354.355	291.12
354.583	291.12
354.81	286.12
355.037	283.12
355.264	280.12
355.491	295.12
355.718	265.12
355.945	299.12
356.172	296.12
356.399	286.12
356.626	277.12
356.853	278.12
357.08	285.12
357.307	284.12
357.534	304.12
357.761	285.12
357.988	277.12
358.215	283.12
358.441	282.12
358.668	289.12
358.895	283.12
359.122	288.12
359.349	298.12
359.576	323.12
359.802	310.12
360.029	350.12
360.256	348.12
360.483	332.12
360.709	314.12
360.936	307.12
361.163	318.12
361.39	308.12
361.616	310.12
361.843	310.12
362.07	310.12
362.296	318.12
362.523	301.12
362.749	293.12
362.976	307.12
363.203	300.12
363.429	297.12
363.656	308.12
363.882	298.12
364.109	288.12
364.335	290.12
364.562	293.12
364.788	291.12
365.015	300.12
365.241	286.12
365.468	293.12
365.694	295.12
365.92	296.12
366.147	308.12
366.373	290.12
366.599	272.12
366.826	288.12
367.052	278.12
367.278	294.12
367.505	297.12
367.731	300.12
367.957	276.12
368.184	282.12
368.41	300.12
368.636	282.12
368.862	292.12
369.089	282.12
369.315	286.12
369.541	301.12
369.767	280.12
369.993	294.12
370.219	294.12
370.445	299.12
370.672	285.12
370.898	285.12
371.124	285.12
371.35	281.12
371.576	275.12
371.802	281.12
372.028	271.12
372.254	273.12
372.48	273.12
372.706	279.12
372.932	277.12
373.158	290.12
373.384	274.12
373.61	279.12
373.835	279.12
374.061	288.12
374.287	283.12
374.513	284.12
374.739	275.12
374.965	286.12
375.191	294.12
375.416	280.12
375.642	293.12
375.868	286.12
376.094	279.12
376.319	282.12
376.545	257.12
376.771	279.12
376.997	284.12
377.222	280.12
377.448	277.12
377.674	270.12
377.899	296.12
378.125	284.12
378.35	270.12
378.576	264.12
378.802	264.12
379.027	266.12
379.253	268.12
379.478	268.12
379.704	250.12
379.929	256.12
380.155	287.12
380.38	285.12
380.606	276.12
380.831	271.12
381.057	297.12
381.282	277.12
381.507	281.12
381.733	261.12
381.958	264.12
382.184	283.12
382.409	275.12
382.634	288.12
382.86	289.12
383.085	263.12
383.31	272.12
383.535	269.12
383.761	278.12
383.986	285.12
384.211	285.12
384.436	283.12
384.662	284.12
384.887	268.12
385.112	277.12
385.337	275.12
385.562	266.12
385.787	282.12
386.013	296.12
386.238	278.12
386.463	297.12
386.688	303.12
386.913	284.12
387.138	285.12
387.363	291.12
387.588	292.12
387.813	288.12
388.038	282.12
388.263	284.12
388.488	295.12
388.713	311.12
388.938	290.12
389.163	287.12
389.387	309.12
389.612	299.12
389.837	283.12
390.062	297.12
390.287	283.12
390.512	289.12
390.736	282.12
390.961	289.12
391.186	281.12
391.411	295.12
391.636	302.12
391.86	285.12
392.085	296.12
392.31	318.12
392.534	290.12
392.759	294.12
392.984	301.12
393.208	296.12
393.433	303.12
393.658	294.12
393.882	276.12
394.107	285.12
394.331	289.12
394.556	282.12
394.78	271.12
395.005	274.12
395.229	258.12
395.454	296.12
395.678	297.12
395.903	312.12
396.127	325.12
396.352	320.12
396.576	295.12
396.801	297.12
397.025	301.12
397.249	325.12
397.474	316.12
397.698	301.12
397.922	325.12
398.147	312.12
398.371	323.12
398.595	321.12
398.82	308.12
399.044	317.12
399.268	332.12
399.492	349.12
399.717	365.12
399.941	374.12
400.165	376.12
400.389	394.12
400.613	358.12
400.837	354.12
401.062	316.12
401.286	321.12
401.51	326.12
401.734	315.12
401.958	330.12
402.182	301.12
402.406	336.12
402.63	338.12
402.854	326.12
403.078	326.12
403.302	335.12
403.526	335.12
403.75	322.12
403.974	318.12
404.198	334.12
404.422	338.12
404.645	332.12
404.869	345.12
405.093	357.12
405.317	386.12
405.541	411.12
405.765	347.12
405.988	349.12
406.212	354.12
406.436	384.12
406.66	373.12
406.883	363.12
407.107	374.12
407.331	398.12
407.555	422.12
407.778	410.12
408.002	381.12
408.226	372.12
408.449	351.12
408.673	368.12
408.896	381.12
409.12	400.12
409.344	388.12
409.567	337.12
409.791	334.12
410.014	349.12
410.238	325.12
410.461	328.12
410.685	332.12
410.908	361.12
411.132	362.12
411.355	398.12
411.578	356.12
411.802	333.12
412.025	321.12
412.249	327.12
412.472	360.12
412.695	379.12
412.919	356.12
413.142	342.12
413.365	339.12
413.589	293.12
413.812	298.12
414.035	315.12
414.258	314.12
414.482	324.12
414.705	308.12
414.928	310.12
415.151	297.12
415.374	317.12
415.597	288.12
415.821	316.12
416.044	329.12
416.267	320.12
416.49	323.12
416.713	322.12
416.936	322.12
417.159	306.12
417.382	322.12
417.605	309.12
417.828	341.12
418.051	337.12
418.274	315.12
418.497	297.12
418.72	328.12
418.943	309.12
419.166	323.12
419.389	341.12
419.611	297.12
419.834	326.12
420.057	334.12
420.28	325.12
420.503	326.12
420.726	324.12
420.948	345.12
421.171	386.12
421.394	392.12
421.617	349.12
421.839	342.12
422.062	332.12
422.285	349.12
422.507	364.12
422.73	399.12
422.953	398.12
423.175	359.12
423.398	351.12
423.621	349.12
423.843	373.12
424.066	357.12
424.288	362.12
424.511	368.12
424.733	403.12
424.956	475.12
425.178	442.12
425.401	422.12
425.623	451.12
425.846	405.12
426.068	354.12
426.291	354.12
426.513	373.12
426.735	374.12
426.958	404.12
427.18	467.12
427.402	537.12
427.625	600.12
427.847	518.12
428.069	456.12
428.292	408.12
428.514	347.12
428.736	363.12
428.958	339.12
429.181	338.12
429.403	343.12
429.625	348.12
429.847	350.12
430.069	412.12
430.292	421.12
430.514	347.12
430.736	320.12
430.958	321.12
431.18	317.12
431.402	313.12
431.624	297.12
431.846	312.12
432.068	312.12
432.29	306.12
432.512	326.12
432.734	331.12
432.956	318.12
433.178	307.12
433.4	323.12
433.622	309.12
433.844	301.12
434.066	313.12
434.287	311.12
434.509	323.12
434.731	320.12
434.953	317.12
435.175	334.12
435.397	365.12
435.618	354.12
435.84	389.12
436.062	472.12
436.284	497.12
436.505	418.12
436.727	381.12
436.949	353.12
437.17	340.12
437.392	347.12
437.614	355.12
437.835	385.12
438.057	438.12
438.278	517.12
438.5	491.12
438.721	548.12
438.943	521.12
439.165	417.12
439.386	386.12
439.608	393.12
439.829	392.12
440.05	399.12
440.272	425.12
440.493	389.12
440.715	370.12
440.936	364.12
441.158	340.12
441.379	348.12
441.6	342.12
441.822	356.12
442.043	393.12
442.264	448.12
442.486	461.12
442.707	405.12
442.928	373.12
443.149	375.12
443.371	394.12
443.592	420.12
443.813	468.12
444.034	521.12
444.255	413.12
444.476	377.12
444.698	375.12
444.919	347.12
445.14	460.12
445.361	406.12
445.582	392.12
445.803	448.12
446.024	519.12
446.245	518.12
446.466	462.12
446.687	386.12
446.908	365.12
447.129	334.12
447.35	355.12
447.571	344.12
447.792	337.12
448.013	337.12
448.234	343.12
448.455	413.12
448.675	475.12
448.896	518.12
449.117	440.12
449.338	438.12
449.559	498.12
449.779	557.12
450	461.12
450.221	364.12
450.442	352.12
450.662	321.12
450.883	344.12
451.104	343.12
451.324	342.12
451.545	330.12
451.766	315.12
451.986	306.12
452.207	298.12
452.428	320.12
452.648	289.12
452.869	306.12
453.089	325.12
453.31	311.12
453.53	292.12
453.751	307.12
453.971	302.12
454.192	330.12
454.412	328.12
454.633	316.12
454.853	282.12
455.073	314.12
455.294	322.12
455.514	374.12
455.734	357.12
455.955	303.12
456.175	289.12
456.395	285.12
456.616	276.12
456.836	282.12
457.056	289.12
457.276	274.12
457.497	285.12
457.717	296.12
457.937	283.12
458.157	287.12
458.377	305.12
458.598	311.12
458.818	357.12
459.038	419.12
459.258	401.12
459.478	353.12
459.698	317.12
459.918	320.12
460.138	318.12
460.358	293.12
460.578	308.12
460.798	322.12
461.018	301.12
461.238	299.12
461.458	309.12
461.678	303.12
461.898	305.12
462.118	316.12
462.338	305.12
462.558	337.12
462.777	309.12
462.997	331.12
463.217	324.12
463.437	306.12
463.657	296.12
463.876	305.12
464.096	337.12
464.316	326.12
464.536	334.12
464.755	346.12
464.975	341.12
465.195	373.12
465.414	410.12
465.634	357.12
465.854	333.12
466.073	341.12
466.293	309.12
466.512	319.12
466.732	316.12
466.951	313.12
467.171	300.12
467.391	314.12
467.61	296.12
467.829	327.12
468.049	326.12
468.268	318.12
468.488	299.12
468.707	282.12
468.927	284.12
469.146	307.12
469.365	290.12
469.585	298.12
469.804	311.12
470.023	294.12
470.243	304.12
470.462	324.12
470.681	325.12
470.901	315.12
471.12	311.12
471.339	314.12
471.558	319.12
471.777	282.12
471.997	308.12
472.216	320.12
472.435	357.12
472.654	331.12
472.873	323.12
473.092	305.12
473.311	304.12
473.53	317.12
473.749	327.12
473.968	358.12
474.187	408.12
474.406	440.12
474.625	373.12
474.844	322.12
475.063	320.12
475.282	320.12
475.501	302.12
475.72	335.12
475.939	318.12
476.158	326.12
476.377	343.12
476.596	308.12
476.814	328.12
477.033	337.12
477.252	325.12
477.471	323.12
477.69	325.12
477.908	346.12
478.127	333.12
478.346	321.12
478.564	323.12
478.783	345.12
479.002	356.12
479.22	348.12
479.439	352.12
479.658	391.12
479.876	360.12
480.095	376.12
480.313	381.12
480.532	391.12
480.751	385.12
480.969	405.12
481.188	430.12
481.406	447.12
481.624	391.12
481.843	375.12
482.061	353.12
482.28	367.12
482.498	361.12
482.717	354.12
482.935	361.12
483.153	344.12
483.372	353.12
483.59	365.12
483.808	344.12
484.027	333.12
484.245	358.12
484.463	360.12
484.681	365.12
484.9	362.12
485.118	360.12
485.336	366.12
485.554	391.12
485.772	370.12
485.99	370.12
486.209	366.12
486.427	361.12
486.645	361.12
486.863	385.12
487.081	396.12
487.299	382.12
487.517	394.12
487.735	385.12
487.953	394.12
488.171	371.12
488.389	379.12
488.607	381.12
488.825	370.12
489.043	390.12
489.261	381.12
489.479	381.12
489.696	393.12
489.914	398.12
490.132	402.12
490.35	380.12
490.568	386.12
490.786	414.12
491.003	406.12
491.221	421.12
491.439	425.12
491.657	400.12
491.874	462.12
492.092	425.12
492.31	429.12
492.527	442.12
492.745	447.12
492.963	442.12
493.18	441.12
493.398	452.12
493.615	452.12
493.833	447.12
494.05	457.12
494.268	454.12
494.485	443.12
494.703	486.12
494.92	463.12
495.138	439.12
495.355	458.12
495.573	454.12
495.79	469.12
496.008	460.12
496.225	466.12
496.442	456.12
496.66	458.12
496.877	466.12
497.094	445.12
497.312	457.12
497.529	457.12
497.746	452.12
497.963	453.12
498.181	472.12
498.398	480.12
498.615	475.12
498.832	474.12
499.049	460.12
499.267	479.12
499.484	485.12
499.701	497.12
499.918	515.12
500.135	525.12
500.352	554.12
500.569	553.12
500.786	556.12
501.003	580.12
501.22	549.12
501.437	533.12
501.654	537.12
501.871	546.12
502.088	497.12
