Data from 1982.PennyLincolnUp.Lamp.En5.5.200Scan.071819.P1_HRD10591_16-45-47-961.txt Node
Date: Thu Jul 18 16:45:47 EDT 2019
User: cochatt
Spectrometer: HR+D1059
Trigger mode: 1
Integration Time (sec): 1.000000E-1
Scans to average: 1
Electric dark correction enabled: true
Nonlinearity correction enabled: false
Boxcar width: 0
XAxis mode: Wavelengths
Number of Pixels in Spectrum: 2048
>>>>>Begin Spectral Data<<<<<
223.165	-0.31
223.4	-0.31
223.635	-0.31
223.869	-21.31
224.104	-18.31
224.338	-21.31
224.573	-30.31
224.808	-25.31
225.042	9.69
225.277	-8.31
225.511	-9.31
225.746	3.69
225.98	12.69
226.215	6.69
226.449	10.69
226.683	31.69
226.918	37.69
227.152	21.69
227.387	41.69
227.621	42.69
227.856	39.69
228.09	29.69
228.324	45.69
228.559	51.69
228.793	60.69
229.027	81.69
229.262	75.69
229.496	101.69
229.73	118.69
229.964	127.69
230.199	104.69
230.433	102.69
230.667	99.69
230.901	97.69
231.136	93.69
231.37	92.69
231.604	91.69
231.838	93.69
232.072	91.69
232.306	98.69
232.541	115.69
232.775	97.69
233.009	95.69
233.243	110.69
233.477	106.69
233.711	95.69
233.945	91.69
234.179	99.69
234.413	114.69
234.647	104.69
234.881	104.69
235.115	92.69
235.349	97.69
235.583	96.69
235.817	101.69
236.051	96.69
236.285	97.69
236.519	122.69
236.753	118.69
236.987	114.69
237.221	157.69
237.455	171.69
237.689	150.69
237.922	110.69
238.156	110.69
238.39	115.69
238.624	107.69
238.858	91.69
239.091	104.69
239.325	106.69
239.559	122.69
239.793	119.69
240.027	113.69
240.26	120.69
240.494	113.69
240.728	133.69
240.961	123.69
241.195	113.69
241.429	118.69
241.662	109.69
241.896	91.69
242.13	127.69
242.363	107.69
242.597	110.69
242.83	108.69
243.064	114.69
243.298	108.69
243.531	110.69
243.765	107.69
243.998	123.69
244.232	119.69
244.465	112.69
244.699	107.69
244.932	101.69
245.166	121.69
245.399	123.69
245.633	126.69
245.866	108.69
246.099	123.69
246.333	120.69
246.566	110.69
246.8	123.69
247.033	123.69
247.266	128.69
247.5	140.69
247.733	130.69
247.966	136.69
248.2	134.69
248.433	133.69
248.666	125.69
248.899	145.69
249.133	148.69
249.366	147.69
249.599	159.69
249.832	144.69
250.066	135.69
250.299	141.69
250.532	160.69
250.765	161.69
250.998	168.69
251.231	184.69
251.465	173.69
251.698	160.69
251.931	167.69
252.164	170.69
252.397	163.69
252.63	162.69
252.863	154.69
253.096	173.69
253.329	182.69
253.562	179.69
253.795	171.69
254.028	174.69
254.261	179.69
254.494	163.69
254.727	200.69
254.96	203.69
255.193	205.69
255.426	176.69
255.659	178.69
255.892	179.69
256.124	189.69
256.357	183.69
256.59	169.69
256.823	169.69
257.056	170.69
257.289	177.69
257.521	158.69
257.754	189.69
257.987	171.69
258.22	168.69
258.452	161.69
258.685	167.69
258.918	165.69
259.151	161.69
259.383	168.69
259.616	182.69
259.849	173.69
260.081	182.69
260.314	193.69
260.547	185.69
260.779	188.69
261.012	181.69
261.244	177.69
261.477	174.69
261.71	166.69
261.942	190.69
262.175	190.69
262.407	183.69
262.64	176.69
262.872	177.69
263.105	152.69
263.337	158.69
263.57	151.69
263.802	159.69
264.035	177.69
264.267	165.69
264.499	166.69
264.732	145.69
264.964	179.69
265.197	160.69
265.429	180.69
265.661	168.69
265.894	181.69
266.126	178.69
266.358	165.69
266.591	179.69
266.823	163.69
267.055	180.69
267.287	167.69
267.52	169.69
267.752	180.69
267.984	188.69
268.216	183.69
268.448	185.69
268.681	188.69
268.913	183.69
269.145	188.69
269.377	200.69
269.609	197.69
269.841	206.69
270.073	199.69
270.306	222.69
270.538	240.69
270.77	232.69
271.002	223.69
271.234	224.69
271.466	230.69
271.698	228.69
271.93	239.69
272.162	237.69
272.394	224.69
272.626	227.69
272.858	214.69
273.09	207.69
273.322	198.69
273.553	196.69
273.785	210.69
274.017	200.69
274.249	200.69
274.481	221.69
274.713	227.69
274.945	216.69
275.176	196.69
275.408	199.69
275.64	209.69
275.872	177.69
276.104	206.69
276.335	198.69
276.567	193.69
276.799	216.69
277.031	218.69
277.262	260.69
277.494	234.69
277.726	223.69
277.957	214.69
278.189	221.69
278.421	205.69
278.652	209.69
278.884	220.69
279.115	194.69
279.347	196.69
279.579	204.69
279.81	205.69
280.042	197.69
280.273	204.69
280.505	187.69
280.736	201.69
280.968	199.69
281.199	199.69
281.431	198.69
281.662	191.69
281.894	197.69
282.125	197.69
282.356	219.69
282.588	222.69
282.819	233.69
283.051	193.69
283.282	206.69
283.513	213.69
283.745	210.69
283.976	216.69
284.207	198.69
284.439	209.69
284.67	197.69
284.901	206.69
285.132	209.69
285.364	207.69
285.595	209.69
285.826	192.69
286.057	199.69
286.288	214.69
286.52	192.69
286.751	215.69
286.982	191.69
287.213	210.69
287.444	202.69
287.675	210.69
287.906	227.69
288.138	226.69
288.369	212.69
288.6	206.69
288.831	221.69
289.062	226.69
289.293	241.69
289.524	228.69
289.755	217.69
289.986	200.69
290.217	209.69
290.448	222.69
290.679	229.69
290.91	213.69
291.141	208.69
291.371	213.69
291.602	209.69
291.833	202.69
292.064	215.69
292.295	209.69
292.526	222.69
292.757	223.69
292.987	225.69
293.218	204.69
293.449	205.69
293.68	209.69
293.91	222.69
294.141	216.69
294.372	218.69
294.603	209.69
294.833	208.69
295.064	200.69
295.295	222.69
295.525	216.69
295.756	198.69
295.987	242.69
296.217	232.69
296.448	257.69
296.679	215.69
296.909	215.69
297.14	207.69
297.37	229.69
297.601	212.69
297.831	212.69
298.062	215.69
298.292	198.69
298.523	238.69
298.753	236.69
298.984	222.69
299.214	234.69
299.445	225.69
299.675	235.69
299.905	226.69
300.136	230.69
300.366	226.69
300.597	235.69
300.827	228.69
301.057	238.69
301.288	257.69
301.518	250.69
301.748	259.69
301.979	238.69
302.209	241.69
302.439	229.69
302.669	255.69
302.9	228.69
303.13	232.69
303.36	251.69
303.59	251.69
303.82	238.69
304.051	249.69
304.281	240.69
304.511	227.69
304.741	253.69
304.971	231.69
305.201	235.69
305.431	246.69
305.661	238.69
305.891	231.69
306.121	242.69
306.352	270.69
306.582	232.69
306.812	222.69
307.042	259.69
307.272	246.69
307.502	252.69
307.731	253.69
307.961	249.69
308.191	239.69
308.421	244.69
308.651	241.69
308.881	244.69
309.111	258.69
309.341	224.69
309.571	271.69
309.8	273.69
310.03	274.69
310.26	285.69
310.49	279.69
310.72	294.69
310.949	291.69
311.179	295.69
311.409	288.69
311.639	277.69
311.868	284.69
312.098	273.69
312.328	285.69
312.557	295.69
312.787	298.69
313.017	307.69
313.246	293.69
313.476	288.69
313.706	279.69
313.935	293.69
314.165	285.69
314.394	305.69
314.624	276.69
314.853	279.69
315.083	270.69
315.312	288.69
315.542	291.69
315.771	275.69
316.001	275.69
316.23	266.69
316.46	296.69
316.689	283.69
316.919	297.69
317.148	299.69
317.377	287.69
317.607	280.69
317.836	289.69
318.065	278.69
318.295	285.69
318.524	286.69
318.753	267.69
318.983	288.69
319.212	265.69
319.441	285.69
319.67	297.69
319.9	284.69
320.129	283.69
320.358	277.69
320.587	301.69
320.816	294.69
321.046	296.69
321.275	288.69
321.504	296.69
321.733	285.69
321.962	293.69
322.191	306.69
322.42	325.69
322.649	321.69
322.878	346.69
323.108	334.69
323.337	371.69
323.566	374.69
323.795	419.69
324.024	458.69
324.253	566.69
324.482	820.69
324.71	1214.69
324.939	1616.69
325.168	1303.69
325.397	713.69
325.626	481.69
325.855	423.69
326.084	393.69
326.313	386.69
326.542	374.69
326.77	403.69
326.999	529.69
327.228	730.69
327.457	1035.69
327.686	1143.69
327.914	744.69
328.143	522.69
328.372	450.69
328.6	445.69
328.829	431.69
329.058	422.69
329.287	410.69
329.515	390.69
329.744	390.69
329.972	394.69
330.201	383.69
330.43	419.69
330.658	438.69
330.887	437.69
331.115	410.69
331.344	358.69
331.572	359.69
331.801	349.69
332.03	340.69
332.258	330.69
332.486	322.69
332.715	340.69
332.943	322.69
333.172	319.69
333.4	319.69
333.629	337.69
333.857	342.69
334.085	356.69
334.314	377.69
334.542	355.69
334.771	374.69
334.999	365.69
335.227	331.69
335.455	331.69
335.684	326.69
335.912	307.69
336.14	315.69
336.369	314.69
336.597	319.69
336.825	330.69
337.053	323.69
337.281	321.69
337.51	314.69
337.738	299.69
337.966	301.69
338.194	330.69
338.422	317.69
338.65	301.69
338.878	314.69
339.106	309.69
339.334	311.69
339.562	291.69
339.79	289.69
340.018	311.69
340.246	296.69
340.474	322.69
340.702	302.69
340.93	290.69
341.158	323.69
341.386	301.69
341.614	308.69
341.842	301.69
342.07	290.69
342.298	296.69
342.526	293.69
342.754	299.69
342.981	309.69
343.209	295.69
343.437	305.69
343.665	287.69
343.893	302.69
344.12	317.69
344.348	303.69
344.576	309.69
344.804	322.69
345.031	312.69
345.259	332.69
345.487	319.69
345.714	305.69
345.942	293.69
346.17	301.69
346.397	305.69
346.625	285.69
346.853	290.69
347.08	297.69
347.308	302.69
347.535	308.69
347.763	305.69
347.99	294.69
348.218	291.69
348.445	304.69
348.673	324.69
348.9	296.69
349.128	309.69
349.355	289.69
349.583	298.69
349.81	303.69
350.037	278.69
350.265	285.69
350.492	294.69
350.72	289.69
350.947	275.69
351.174	307.69
351.402	309.69
351.629	301.69
351.856	303.69
352.083	307.69
352.311	299.69
352.538	301.69
352.765	299.69
352.992	295.69
353.22	317.69
353.447	308.69
353.674	283.69
353.901	282.69
354.128	269.69
354.355	278.69
354.583	292.69
354.81	289.69
355.037	275.69
355.264	278.69
355.491	285.69
355.718	262.69
355.945	275.69
356.172	261.69
356.399	274.69
356.626	263.69
356.853	253.69
357.08	261.69
357.307	277.69
357.534	277.69
357.761	256.69
357.988	266.69
358.215	269.69
358.441	261.69
358.668	284.69
358.895	273.69
359.122	274.69
359.349	267.69
359.576	279.69
359.802	308.69
360.029	316.69
360.256	322.69
360.483	316.69
360.709	298.69
360.936	317.69
361.163	285.69
361.39	306.69
361.616	306.69
361.843	286.69
362.07	275.69
362.296	287.69
362.523	286.69
362.749	284.69
362.976	272.69
363.203	287.69
363.429	261.69
363.656	281.69
363.882	278.69
364.109	275.69
364.335	283.69
364.562	258.69
364.788	273.69
365.015	273.69
365.241	285.69
365.468	273.69
365.694	279.69
365.92	267.69
366.147	255.69
366.373	274.69
366.599	278.69
366.826	279.69
367.052	260.69
367.278	275.69
367.505	281.69
367.731	295.69
367.957	260.69
368.184	271.69
368.41	283.69
368.636	293.69
368.862	275.69
369.089	280.69
369.315	274.69
369.541	306.69
369.767	275.69
369.993	277.69
370.219	260.69
370.445	246.69
370.672	259.69
370.898	278.69
371.124	281.69
371.35	287.69
371.576	263.69
371.802	248.69
372.028	263.69
372.254	249.69
372.48	243.69
372.706	257.69
372.932	260.69
373.158	256.69
373.384	262.69
373.61	271.69
373.835	270.69
374.061	272.69
374.287	281.69
374.513	295.69
374.739	266.69
374.965	266.69
375.191	275.69
375.416	267.69
375.642	257.69
375.868	269.69
376.094	279.69
376.319	260.69
376.545	268.69
376.771	264.69
376.997	249.69
377.222	254.69
377.448	260.69
377.674	245.69
377.899	272.69
378.125	267.69
378.35	276.69
378.576	273.69
378.802	251.69
379.027	281.69
379.253	267.69
379.478	255.69
379.704	279.69
379.929	262.69
380.155	259.69
380.38	280.69
380.606	265.69
380.831	269.69
381.057	257.69
381.282	256.69
381.507	260.69
381.733	257.69
381.958	289.69
382.184	260.69
382.409	263.69
382.634	270.69
382.86	266.69
383.085	249.69
383.31	276.69
383.535	273.69
383.761	272.69
383.986	274.69
384.211	270.69
384.436	264.69
384.662	300.69
384.887	275.69
385.112	282.69
385.337	280.69
385.562	277.69
385.787	294.69
386.013	277.69
386.238	268.69
386.463	272.69
386.688	267.69
386.913	273.69
387.138	286.69
387.363	295.69
387.588	279.69
387.813	285.69
388.038	269.69
388.263	289.69
388.488	287.69
388.713	278.69
388.938	265.69
389.163	287.69
389.387	267.69
389.612	267.69
389.837	281.69
390.062	276.69
390.287	273.69
390.512	285.69
390.736	283.69
390.961	267.69
391.186	278.69
391.411	279.69
391.636	294.69
391.86	277.69
392.085	288.69
392.31	277.69
392.534	260.69
392.759	281.69
392.984	278.69
393.208	289.69
393.433	285.69
393.658	273.69
393.882	298.69
394.107	286.69
394.331	268.69
394.556	259.69
394.78	281.69
395.005	271.69
395.229	286.69
395.454	271.69
395.678	284.69
395.903	293.69
396.127	304.69
396.352	281.69
396.576	280.69
396.801	273.69
397.025	283.69
397.249	285.69
397.474	298.69
397.698	295.69
397.922	294.69
398.147	294.69
398.371	305.69
398.595	305.69
398.82	287.69
399.044	319.69
399.268	316.69
399.492	337.69
399.717	337.69
399.941	359.69
400.165	356.69
400.389	368.69
400.613	345.69
400.837	327.69
401.062	318.69
401.286	313.69
401.51	291.69
401.734	293.69
401.958	305.69
402.182	309.69
402.406	305.69
402.63	296.69
402.854	327.69
403.078	315.69
403.302	298.69
403.526	302.69
403.75	311.69
403.974	302.69
404.198	315.69
404.422	313.69
404.645	342.69
404.869	312.69
405.093	338.69
405.317	367.69
405.541	365.69
405.765	341.69
405.988	305.69
406.212	343.69
406.436	370.69
406.66	356.69
406.883	349.69
407.107	344.69
407.331	397.69
407.555	420.69
407.778	417.69
408.002	375.69
408.226	341.69
408.449	344.69
408.673	341.69
408.896	355.69
409.12	378.69
409.344	370.69
409.567	329.69
409.791	331.69
410.014	315.69
410.238	312.69
410.461	314.69
410.685	315.69
410.908	330.69
411.132	367.69
411.355	363.69
411.578	368.69
411.802	319.69
412.025	310.69
412.249	321.69
412.472	322.69
412.695	353.69
412.919	355.69
413.142	305.69
413.365	311.69
413.589	309.69
413.812	305.69
414.035	289.69
414.258	294.69
414.482	298.69
414.705	306.69
414.928	298.69
415.151	306.69
415.374	302.69
415.597	289.69
415.821	286.69
416.044	293.69
416.267	296.69
416.49	311.69
416.713	288.69
416.936	287.69
417.159	283.69
417.382	282.69
417.605	289.69
417.828	316.69
418.051	329.69
418.274	310.69
418.497	293.69
418.72	298.69
418.943	309.69
419.166	299.69
419.389	310.69
419.611	301.69
419.834	298.69
420.057	329.69
420.28	312.69
420.503	314.69
420.726	309.69
420.948	330.69
421.171	344.69
421.394	351.69
421.617	330.69
421.839	314.69
422.062	325.69
422.285	320.69
422.507	362.69
422.73	387.69
422.953	388.69
423.175	338.69
423.398	335.69
423.621	311.69
423.843	328.69
424.066	330.69
424.288	341.69
424.511	349.69
424.733	377.69
424.956	421.69
425.178	394.69
425.401	408.69
425.623	407.69
425.846	375.69
426.068	360.69
426.291	329.69
426.513	331.69
426.735	357.69
426.958	361.69
427.18	418.69
427.402	482.69
427.625	538.69
427.847	454.69
428.069	399.69
428.292	371.69
428.514	338.69
428.736	328.69
428.958	314.69
429.181	319.69
429.403	327.69
429.625	332.69
429.847	339.69
430.069	365.69
430.292	352.69
430.514	333.69
430.736	313.69
430.958	312.69
431.18	302.69
431.402	292.69
431.624	279.69
431.846	301.69
432.068	293.69
432.29	285.69
432.512	299.69
432.734	301.69
432.956	296.69
433.178	310.69
433.4	317.69
433.622	295.69
433.844	294.69
434.066	306.69
434.287	310.69
434.509	289.69
434.731	306.69
434.953	309.69
435.175	310.69
435.397	329.69
435.618	329.69
435.84	392.69
436.062	405.69
436.284	445.69
436.505	379.69
436.727	361.69
436.949	342.69
437.17	311.69
437.392	318.69
437.614	330.69
437.835	369.69
438.057	416.69
438.278	466.69
438.5	465.69
438.721	486.69
438.943	452.69
439.165	384.69
439.386	352.69
439.608	356.69
439.829	343.69
440.05	366.69
440.272	386.69
440.493	374.69
440.715	346.69
440.936	329.69
441.158	302.69
441.379	334.69
441.6	318.69
441.822	348.69
442.043	360.69
442.264	401.69
442.486	433.69
442.707	364.69
442.928	345.69
443.149	331.69
443.371	355.69
443.592	408.69
443.813	445.69
444.034	480.69
444.255	388.69
444.476	346.69
444.698	341.69
444.919	334.69
445.14	418.69
445.361	386.69
445.582	366.69
445.803	392.69
446.024	460.69
446.245	474.69
446.466	417.69
446.687	367.69
446.908	330.69
447.129	325.69
447.35	331.69
447.571	336.69
447.792	319.69
448.013	314.69
448.234	321.69
448.455	365.69
448.675	437.69
448.896	507.69
449.117	424.69
449.338	413.69
449.559	483.69
449.779	505.69
450	419.69
450.221	352.69
450.442	325.69
450.662	324.69
450.883	336.69
451.104	319.69
451.324	321.69
451.545	297.69
451.766	295.69
451.986	299.69
452.207	261.69
452.428	267.69
452.648	282.69
452.869	276.69
453.089	285.69
453.31	309.69
453.53	297.69
453.751	295.69
453.971	297.69
454.192	311.69
454.412	291.69
454.633	282.69
454.853	290.69
455.073	283.69
455.294	307.69
455.514	351.69
455.734	318.69
455.955	293.69
456.175	283.69
456.395	276.69
456.616	274.69
456.836	265.69
457.056	282.69
457.276	274.69
457.497	266.69
457.717	285.69
457.937	278.69
458.157	288.69
458.377	284.69
458.598	308.69
458.818	332.69
459.038	388.69
459.258	376.69
459.478	339.69
459.698	293.69
459.918	292.69
460.138	293.69
460.358	311.69
460.578	285.69
460.798	281.69
461.018	300.69
461.238	281.69
461.458	281.69
461.678	303.69
461.898	307.69
462.118	291.69
462.338	296.69
462.558	305.69
462.777	303.69
462.997	293.69
463.217	314.69
463.437	321.69
463.657	306.69
463.876	309.69
464.096	317.69
464.316	285.69
464.536	323.69
464.755	307.69
464.975	301.69
465.195	357.69
465.414	392.69
465.634	342.69
465.854	313.69
466.073	322.69
466.293	299.69
466.512	299.69
466.732	273.69
466.951	275.69
467.171	310.69
467.391	277.69
467.61	320.69
467.829	289.69
468.049	291.69
468.268	288.69
468.488	285.69
468.707	272.69
468.927	275.69
469.146	264.69
469.365	289.69
469.585	290.69
469.804	297.69
470.023	310.69
470.243	285.69
470.462	306.69
470.681	311.69
470.901	305.69
471.12	306.69
471.339	298.69
471.558	286.69
471.777	285.69
471.997	281.69
472.216	296.69
472.435	307.69
472.654	308.69
472.873	307.69
473.092	285.69
473.311	294.69
473.53	293.69
473.749	326.69
473.968	331.69
474.187	392.69
474.406	400.69
474.625	335.69
474.844	282.69
475.063	287.69
475.282	297.69
475.501	310.69
475.72	295.69
475.939	314.69
476.158	296.69
476.377	305.69
476.596	311.69
476.814	318.69
477.033	327.69
477.252	325.69
477.471	310.69
477.69	314.69
477.908	306.69
478.127	313.69
478.346	331.69
478.564	326.69
478.783	305.69
479.002	313.69
479.22	328.69
479.439	343.69
479.658	340.69
479.876	359.69
480.095	354.69
480.313	374.69
480.532	349.69
480.751	328.69
480.969	354.69
481.188	379.69
481.406	401.69
481.624	360.69
481.843	357.69
482.061	334.69
482.28	347.69
482.498	341.69
482.717	334.69
482.935	329.69
483.153	327.69
483.372	322.69
483.59	328.69
483.808	337.69
484.027	329.69
484.245	354.69
484.463	346.69
484.681	370.69
484.9	352.69
485.118	346.69
485.336	333.69
485.554	339.69
485.772	347.69
485.99	360.69
486.209	346.69
486.427	362.69
486.645	342.69
486.863	374.69
487.081	350.69
487.299	356.69
487.517	361.69
487.735	368.69
487.953	369.69
488.171	369.69
488.389	357.69
488.607	375.69
488.825	360.69
489.043	358.69
489.261	358.69
489.479	342.69
489.696	369.69
489.914	352.69
490.132	369.69
490.35	375.69
490.568	374.69
490.786	383.69
491.003	371.69
491.221	393.69
491.439	402.69
491.657	393.69
491.874	393.69
492.092	420.69
492.31	419.69
492.527	419.69
492.745	404.69
492.963	407.69
493.18	431.69
493.398	421.69
493.615	433.69
493.833	405.69
494.05	401.69
494.268	394.69
494.485	417.69
494.703	436.69
494.92	429.69
495.138	425.69
495.355	431.69
495.573	429.69
495.79	417.69
496.008	421.69
496.225	413.69
496.442	421.69
496.66	436.69
496.877	416.69
497.094	424.69
497.312	436.69
497.529	437.69
497.746	441.69
497.963	442.69
498.181	450.69
498.398	451.69
498.615	464.69
498.832	453.69
499.049	445.69
499.267	479.69
499.484	480.69
499.701	501.69
499.918	511.69
500.135	508.69
500.352	536.69
500.569	539.69
500.786	545.69
501.003	527.69
501.22	512.69
501.437	521.69
501.654	519.69
501.871	521.69
502.088	480.69
502.305	479.69
