Data from 1982.PennyLincolnUp.Lamp.En5.5.200Scan.071819.P1_HRD10591_16-47-31-962.txt Node
Date: Thu Jul 18 16:47:31 EDT 2019
User: cochatt
Spectrometer: HR+D1059
Trigger mode: 1
Integration Time (sec): 1.000000E-1
Scans to average: 1
Electric dark correction enabled: true
Nonlinearity correction enabled: false
Boxcar width: 0
XAxis mode: Wavelengths
Number of Pixels in Spectrum: 2048
>>>>>Begin Spectral Data<<<<<
223.165	-28.12
223.4	-28.12
223.635	-28.12
223.869	-7.12
224.104	-24.12
224.338	-15.12
224.573	-4.12
224.808	-15.12
225.042	-8.12
225.277	-12.12
225.511	2.88
225.746	11.88
225.98	1.88
226.215	8.88
226.449	-1.12
226.683	28.88
226.918	26.88
227.152	33.88
227.387	44.88
227.621	36.88
227.856	26.88
228.09	36.88
228.324	35.88
228.559	60.88
228.793	56.88
229.027	107.88
229.262	97.88
229.496	105.88
229.73	121.88
229.964	126.88
230.199	107.88
230.433	97.88
230.667	97.88
230.901	93.88
231.136	104.88
231.37	112.88
231.604	97.88
231.838	112.88
232.072	102.88
232.306	106.88
232.541	105.88
232.775	114.88
233.009	98.88
233.243	100.88
233.477	107.88
233.711	90.88
233.945	108.88
234.179	106.88
234.413	106.88
234.647	105.88
234.881	106.88
235.115	98.88
235.349	104.88
235.583	109.88
235.817	106.88
236.051	102.88
236.285	120.88
236.519	103.88
236.753	114.88
236.987	116.88
237.221	162.88
237.455	188.88
237.689	158.88
237.922	123.88
238.156	116.88
238.39	104.88
238.624	108.88
238.858	106.88
239.091	96.88
239.325	95.88
239.559	124.88
239.793	115.88
240.027	118.88
240.26	120.88
240.494	138.88
240.728	131.88
240.961	124.88
241.195	119.88
241.429	118.88
241.662	109.88
241.896	115.88
242.13	120.88
242.363	109.88
242.597	106.88
242.83	125.88
243.064	128.88
243.298	113.88
243.531	107.88
243.765	130.88
243.998	133.88
244.232	114.88
244.465	108.88
244.699	118.88
244.932	114.88
245.166	118.88
245.399	135.88
245.633	125.88
245.866	128.88
246.099	129.88
246.333	131.88
246.566	138.88
246.8	127.88
247.033	129.88
247.266	139.88
247.5	131.88
247.733	134.88
247.966	148.88
248.2	149.88
248.433	132.88
248.666	150.88
248.899	168.88
249.133	164.88
249.366	172.88
249.599	166.88
249.832	141.88
250.066	125.88
250.299	156.88
250.532	170.88
250.765	168.88
250.998	188.88
251.231	182.88
251.465	178.88
251.698	170.88
251.931	163.88
252.164	174.88
252.397	165.88
252.63	165.88
252.863	164.88
253.096	186.88
253.329	183.88
253.562	178.88
253.795	182.88
254.028	177.88
254.261	181.88
254.494	197.88
254.727	208.88
254.96	218.88
255.193	221.88
255.426	203.88
255.659	193.88
255.892	199.88
256.124	176.88
256.357	202.88
256.59	190.88
256.823	181.88
257.056	173.88
257.289	156.88
257.521	159.88
257.754	179.88
257.987	162.88
258.22	167.88
258.452	162.88
258.685	182.88
258.918	174.88
259.151	166.88
259.383	172.88
259.616	189.88
259.849	187.88
260.081	202.88
260.314	201.88
260.547	197.88
260.779	197.88
261.012	197.88
261.244	201.88
261.477	187.88
261.71	182.88
261.942	199.88
262.175	194.88
262.407	190.88
262.64	198.88
262.872	165.88
263.105	180.88
263.337	186.88
263.57	172.88
263.802	172.88
264.035	176.88
264.267	186.88
264.499	175.88
264.732	167.88
264.964	171.88
265.197	168.88
265.429	178.88
265.661	169.88
265.894	165.88
266.126	174.88
266.358	190.88
266.591	186.88
266.823	180.88
267.055	173.88
267.287	173.88
267.52	173.88
267.752	181.88
267.984	175.88
268.216	192.88
268.448	190.88
268.681	196.88
268.913	219.88
269.145	216.88
269.377	228.88
269.609	228.88
269.841	214.88
270.073	226.88
270.306	240.88
270.538	264.88
270.77	271.88
271.002	253.88
271.234	259.88
271.466	254.88
271.698	265.88
271.93	249.88
272.162	278.88
272.394	265.88
272.626	234.88
272.858	237.88
273.09	232.88
273.322	234.88
273.553	238.88
273.785	225.88
274.017	213.88
274.249	215.88
274.481	213.88
274.713	235.88
274.945	229.88
275.176	220.88
275.408	228.88
275.64	208.88
275.872	230.88
276.104	219.88
276.335	213.88
276.567	218.88
276.799	236.88
277.031	259.88
277.262	265.88
277.494	259.88
277.726	244.88
277.957	241.88
278.189	234.88
278.421	237.88
278.652	201.88
278.884	216.88
279.115	226.88
279.347	223.88
279.579	214.88
279.81	224.88
280.042	200.88
280.273	204.88
280.505	220.88
280.736	230.88
280.968	226.88
281.199	212.88
281.431	205.88
281.662	228.88
281.894	213.88
282.125	210.88
282.356	231.88
282.588	254.88
282.819	240.88
283.051	226.88
283.282	221.88
283.513	210.88
283.745	223.88
283.976	224.88
284.207	220.88
284.439	230.88
284.67	231.88
284.901	237.88
285.132	223.88
285.364	227.88
285.595	226.88
285.826	210.88
286.057	241.88
286.288	227.88
286.52	224.88
286.751	202.88
286.982	231.88
287.213	218.88
287.444	223.88
287.675	237.88
287.906	234.88
288.138	233.88
288.369	232.88
288.6	251.88
288.831	248.88
289.062	241.88
289.293	247.88
289.524	233.88
289.755	234.88
289.986	217.88
290.217	226.88
290.448	230.88
290.679	209.88
290.91	222.88
291.141	221.88
291.371	214.88
291.602	210.88
291.833	228.88
292.064	213.88
292.295	221.88
292.526	224.88
292.757	233.88
292.987	227.88
293.218	234.88
293.449	231.88
293.68	223.88
293.91	232.88
294.141	233.88
294.372	214.88
294.603	224.88
294.833	221.88
295.064	234.88
295.295	225.88
295.525	235.88
295.756	231.88
295.987	230.88
296.217	259.88
296.448	237.88
296.679	235.88
296.909	212.88
297.14	234.88
297.37	246.88
297.601	240.88
297.831	247.88
298.062	237.88
298.292	240.88
298.523	248.88
298.753	228.88
298.984	236.88
299.214	245.88
299.445	233.88
299.675	228.88
299.905	258.88
300.136	258.88
300.366	229.88
300.597	241.88
300.827	244.88
301.057	251.88
301.288	261.88
301.518	246.88
301.748	242.88
301.979	247.88
302.209	256.88
302.439	271.88
302.669	265.88
302.9	246.88
303.13	269.88
303.36	254.88
303.59	265.88
303.82	266.88
304.051	268.88
304.281	257.88
304.511	246.88
304.741	246.88
304.971	257.88
305.201	276.88
305.431	257.88
305.661	250.88
305.891	252.88
306.121	240.88
306.352	254.88
306.582	257.88
306.812	274.88
307.042	234.88
307.272	262.88
307.502	290.88
307.731	264.88
307.961	252.88
308.191	272.88
308.421	275.88
308.651	269.88
308.881	274.88
309.111	254.88
309.341	273.88
309.571	295.88
309.8	284.88
310.03	289.88
310.26	290.88
310.49	295.88
310.72	307.88
310.949	312.88
311.179	329.88
311.409	320.88
311.639	293.88
311.868	297.88
312.098	299.88
312.328	307.88
312.557	334.88
312.787	323.88
313.017	315.88
313.246	311.88
313.476	286.88
313.706	299.88
313.935	319.88
314.165	325.88
314.394	316.88
314.624	312.88
314.853	294.88
315.083	301.88
315.312	306.88
315.542	293.88
315.771	288.88
316.001	299.88
316.23	319.88
316.46	305.88
316.689	285.88
316.919	315.88
317.148	318.88
317.377	324.88
317.607	292.88
317.836	294.88
318.065	308.88
318.295	301.88
318.524	299.88
318.753	294.88
318.983	295.88
319.212	292.88
319.441	306.88
319.67	315.88
319.9	290.88
320.129	283.88
320.358	313.88
320.587	302.88
320.816	310.88
321.046	301.88
321.275	322.88
321.504	312.88
321.733	326.88
321.962	318.88
322.191	320.88
322.42	357.88
322.649	368.88
322.878	360.88
323.108	390.88
323.337	415.88
323.566	429.88
323.795	449.88
324.024	508.88
324.253	634.88
324.482	932.88
324.71	1400.88
324.939	1846.88
325.168	1515.88
325.397	781.88
325.626	532.88
325.855	463.88
326.084	434.88
326.313	404.88
326.542	408.88
326.77	471.88
326.999	581.88
327.228	822.88
327.457	1210.88
327.686	1324.88
327.914	884.88
328.143	578.88
328.372	537.88
328.6	479.88
328.829	490.88
329.058	448.88
329.287	434.88
329.515	446.88
329.744	436.88
329.972	438.88
330.201	442.88
330.43	474.88
330.658	487.88
330.887	494.88
331.115	486.88
331.344	397.88
331.572	404.88
331.801	402.88
332.03	388.88
332.258	373.88
332.486	358.88
332.715	360.88
332.943	377.88
333.172	359.88
333.4	364.88
333.629	356.88
333.857	381.88
334.085	374.88
334.314	383.88
334.542	420.88
334.771	432.88
334.999	376.88
335.227	375.88
335.455	341.88
335.684	353.88
335.912	339.88
336.14	344.88
336.369	343.88
336.597	343.88
336.825	353.88
337.053	333.88
337.281	324.88
337.51	321.88
337.738	358.88
337.966	358.88
338.194	348.88
338.422	317.88
338.65	342.88
338.878	322.88
339.106	321.88
339.334	334.88
339.562	338.88
339.79	321.88
340.018	337.88
340.246	348.88
340.474	333.88
340.702	344.88
340.93	353.88
341.158	334.88
341.386	327.88
341.614	326.88
341.842	350.88
342.07	341.88
342.298	327.88
342.526	307.88
342.754	299.88
342.981	321.88
343.209	313.88
343.437	316.88
343.665	305.88
343.893	305.88
344.12	325.88
344.348	327.88
344.576	331.88
344.804	352.88
345.031	331.88
345.259	355.88
345.487	346.88
345.714	324.88
345.942	343.88
346.17	330.88
346.397	315.88
346.625	312.88
346.853	306.88
347.08	318.88
347.308	320.88
347.535	314.88
347.763	338.88
347.99	324.88
348.218	336.88
348.445	330.88
348.673	340.88
348.9	312.88
349.128	342.88
349.355	306.88
349.583	298.88
349.81	305.88
350.037	304.88
350.265	302.88
350.492	300.88
350.72	300.88
350.947	327.88
351.174	337.88
351.402	333.88
351.629	342.88
351.856	325.88
352.083	321.88
352.311	312.88
352.538	330.88
352.765	322.88
352.992	307.88
353.22	312.88
353.447	308.88
353.674	323.88
353.901	318.88
354.128	310.88
354.355	298.88
354.583	279.88
354.81	273.88
355.037	297.88
355.264	280.88
355.491	281.88
355.718	292.88
355.945	290.88
356.172	292.88
356.399	291.88
356.626	272.88
356.853	283.88
357.08	301.88
357.307	293.88
357.534	293.88
357.761	301.88
357.988	285.88
358.215	307.88
358.441	264.88
358.668	282.88
358.895	298.88
359.122	299.88
359.349	298.88
359.576	333.88
359.802	329.88
360.029	346.88
360.256	360.88
360.483	327.88
360.709	313.88
360.936	334.88
361.163	308.88
361.39	316.88
361.616	310.88
361.843	298.88
362.07	297.88
362.296	321.88
362.523	304.88
362.749	313.88
362.976	311.88
363.203	293.88
363.429	291.88
363.656	307.88
363.882	316.88
364.109	301.88
364.335	279.88
364.562	283.88
364.788	294.88
365.015	315.88
365.241	280.88
365.468	292.88
365.694	306.88
365.92	315.88
366.147	296.88
366.373	292.88
366.599	293.88
366.826	286.88
367.052	286.88
367.278	298.88
367.505	300.88
367.731	298.88
367.957	301.88
368.184	286.88
368.41	294.88
368.636	314.88
368.862	316.88
369.089	312.88
369.315	288.88
369.541	280.88
369.767	282.88
369.993	270.88
370.219	293.88
370.445	286.88
370.672	284.88
370.898	282.88
371.124	274.88
371.35	301.88
371.576	273.88
371.802	296.88
372.028	281.88
372.254	277.88
372.48	271.88
372.706	288.88
372.932	274.88
373.158	299.88
373.384	280.88
373.61	287.88
373.835	294.88
374.061	286.88
374.287	292.88
374.513	288.88
374.739	288.88
374.965	281.88
375.191	276.88
375.416	274.88
375.642	283.88
375.868	285.88
376.094	281.88
376.319	283.88
376.545	282.88
376.771	272.88
376.997	271.88
377.222	271.88
377.448	276.88
377.674	267.88
377.899	265.88
378.125	272.88
378.35	266.88
378.576	273.88
378.802	264.88
379.027	281.88
379.253	277.88
379.478	267.88
379.704	249.88
379.929	295.88
380.155	281.88
380.38	281.88
380.606	290.88
380.831	283.88
381.057	277.88
381.282	281.88
381.507	282.88
381.733	270.88
381.958	279.88
382.184	286.88
382.409	288.88
382.634	284.88
382.86	308.88
383.085	300.88
383.31	296.88
383.535	280.88
383.761	273.88
383.986	272.88
384.211	284.88
384.436	310.88
384.662	282.88
384.887	283.88
385.112	279.88
385.337	284.88
385.562	294.88
385.787	289.88
386.013	314.88
386.238	291.88
386.463	308.88
386.688	291.88
386.913	289.88
387.138	290.88
387.363	276.88
387.588	283.88
387.813	298.88
388.038	305.88
388.263	283.88
388.488	281.88
388.713	291.88
388.938	262.88
389.163	302.88
389.387	291.88
389.612	271.88
389.837	289.88
390.062	290.88
390.287	301.88
390.512	300.88
390.736	302.88
390.961	303.88
391.186	309.88
391.411	301.88
391.636	284.88
391.86	272.88
392.085	292.88
392.31	296.88
392.534	299.88
392.759	281.88
392.984	283.88
393.208	289.88
393.433	290.88
393.658	288.88
393.882	288.88
394.107	287.88
394.331	295.88
394.556	285.88
394.78	288.88
395.005	286.88
395.229	305.88
395.454	288.88
395.678	298.88
395.903	321.88
396.127	305.88
396.352	304.88
396.576	287.88
396.801	294.88
397.025	284.88
397.249	288.88
397.474	290.88
397.698	302.88
397.922	329.88
398.147	308.88
398.371	315.88
398.595	342.88
398.82	316.88
399.044	322.88
399.268	322.88
399.492	352.88
399.717	356.88
399.941	374.88
400.165	382.88
400.389	385.88
400.613	362.88
400.837	324.88
401.062	325.88
401.286	351.88
401.51	299.88
401.734	301.88
401.958	323.88
402.182	316.88
402.406	320.88
402.63	336.88
402.854	313.88
403.078	325.88
403.302	311.88
403.526	314.88
403.75	308.88
403.974	320.88
404.198	333.88
404.422	330.88
404.645	341.88
404.869	351.88
405.093	368.88
405.317	380.88
405.541	392.88
405.765	358.88
405.988	365.88
406.212	362.88
406.436	382.88
406.66	374.88
406.883	377.88
407.107	359.88
407.331	396.88
407.555	445.88
407.778	435.88
408.002	412.88
408.226	368.88
408.449	370.88
408.673	364.88
408.896	380.88
409.12	385.88
409.344	383.88
409.567	353.88
409.791	343.88
410.014	313.88
410.238	344.88
410.461	331.88
410.685	352.88
410.908	355.88
411.132	373.88
411.355	387.88
411.578	388.88
411.802	337.88
412.025	333.88
412.249	334.88
412.472	355.88
412.695	384.88
412.919	365.88
413.142	338.88
413.365	329.88
413.589	334.88
413.812	307.88
414.035	324.88
414.258	328.88
414.482	316.88
414.705	314.88
414.928	293.88
415.151	318.88
415.374	332.88
415.597	308.88
415.821	310.88
416.044	302.88
416.267	328.88
416.49	316.88
416.713	318.88
416.936	317.88
417.159	326.88
417.382	332.88
417.605	311.88
417.828	343.88
418.051	337.88
418.274	319.88
418.497	308.88
418.72	320.88
418.943	326.88
419.166	322.88
419.389	333.88
419.611	331.88
419.834	323.88
420.057	338.88
420.28	341.88
420.503	334.88
420.726	329.88
420.948	360.88
421.171	363.88
421.394	382.88
421.617	325.88
421.839	336.88
422.062	328.88
422.285	338.88
422.507	394.88
422.73	416.88
422.953	417.88
423.175	377.88
423.398	352.88
423.621	346.88
423.843	356.88
424.066	375.88
424.288	358.88
424.511	388.88
424.733	404.88
424.956	451.88
425.178	438.88
425.401	443.88
425.623	439.88
425.846	384.88
426.068	390.88
426.291	369.88
426.513	355.88
426.735	354.88
426.958	410.88
427.18	450.88
427.402	540.88
427.625	571.88
427.847	529.88
428.069	454.88
428.292	384.88
428.514	405.88
428.736	345.88
428.958	352.88
429.181	339.88
429.403	342.88
429.625	363.88
429.847	363.88
430.069	429.88
430.292	395.88
430.514	357.88
430.736	314.88
430.958	329.88
431.18	329.88
431.402	313.88
431.624	308.88
431.846	306.88
432.068	292.88
432.29	304.88
432.512	316.88
432.734	305.88
432.956	316.88
433.178	332.88
433.4	334.88
433.622	325.88
433.844	316.88
434.066	302.88
434.287	314.88
434.509	300.88
434.731	309.88
434.953	328.88
435.175	342.88
435.397	357.88
435.618	357.88
435.84	397.88
436.062	457.88
436.284	477.88
436.505	421.88
436.727	365.88
436.949	364.88
437.17	349.88
437.392	358.88
437.614	329.88
437.835	374.88
438.057	461.88
438.278	492.88
438.5	506.88
438.721	542.88
438.943	501.88
439.165	426.88
439.386	369.88
439.608	377.88
439.829	344.88
440.05	407.88
440.272	432.88
440.493	391.88
440.715	362.88
440.936	338.88
441.158	320.88
441.379	359.88
441.6	340.88
441.822	364.88
442.043	386.88
442.264	448.88
442.486	469.88
442.707	420.88
442.928	369.88
443.149	370.88
443.371	405.88
443.592	418.88
443.813	470.88
444.034	508.88
444.255	429.88
444.476	380.88
444.698	355.88
444.919	355.88
445.14	433.88
445.361	415.88
445.582	391.88
445.803	449.88
446.024	533.88
446.245	535.88
446.466	473.88
446.687	378.88
446.908	363.88
447.129	370.88
447.35	346.88
447.571	336.88
447.792	350.88
448.013	359.88
448.234	357.88
448.455	387.88
448.675	459.88
448.896	524.88
449.117	444.88
449.338	438.88
449.559	491.88
449.779	548.88
450	442.88
450.221	371.88
450.442	354.88
450.662	331.88
450.883	337.88
451.104	347.88
451.324	334.88
451.545	348.88
451.766	322.88
451.986	293.88
452.207	314.88
452.428	326.88
452.648	303.88
452.869	320.88
453.089	304.88
453.31	325.88
453.53	296.88
453.751	294.88
453.971	315.88
454.192	318.88
454.412	316.88
454.633	302.88
454.853	296.88
455.073	305.88
455.294	328.88
455.514	363.88
455.734	354.88
455.955	318.88
456.175	288.88
456.395	281.88
456.616	280.88
456.836	299.88
457.056	266.88
457.276	274.88
457.497	297.88
457.717	301.88
457.937	292.88
458.157	283.88
458.377	290.88
458.598	323.88
458.818	347.88
459.038	420.88
459.258	420.88
459.478	327.88
459.698	322.88
459.918	324.88
460.138	319.88
460.358	316.88
460.578	308.88
460.798	313.88
461.018	318.88
461.238	321.88
461.458	329.88
461.678	305.88
461.898	309.88
462.118	326.88
462.338	324.88
462.558	310.88
462.777	327.88
462.997	307.88
463.217	320.88
463.437	336.88
463.657	342.88
463.876	317.88
464.096	330.88
464.316	320.88
464.536	326.88
464.755	331.88
464.975	346.88
465.195	374.88
465.414	407.88
465.634	364.88
465.854	344.88
466.073	320.88
466.293	300.88
466.512	308.88
466.732	294.88
466.951	298.88
467.171	310.88
467.391	294.88
467.61	299.88
467.829	324.88
468.049	327.88
468.268	309.88
468.488	283.88
468.707	293.88
468.927	284.88
469.146	283.88
469.365	294.88
469.585	298.88
469.804	308.88
470.023	312.88
470.243	294.88
470.462	322.88
470.681	329.88
470.901	309.88
471.12	308.88
471.339	312.88
471.558	305.88
471.777	299.88
471.997	325.88
472.216	312.88
472.435	334.88
472.654	334.88
472.873	321.88
473.092	307.88
473.311	293.88
473.53	297.88
473.749	304.88
473.968	361.88
474.187	413.88
474.406	440.88
474.625	340.88
474.844	335.88
475.063	321.88
475.282	315.88
475.501	310.88
475.72	300.88
475.939	320.88
476.158	320.88
476.377	331.88
476.596	316.88
476.814	324.88
477.033	334.88
477.252	335.88
477.471	326.88
477.69	331.88
477.908	333.88
478.127	342.88
478.346	321.88
478.564	322.88
478.783	350.88
479.002	333.88
479.22	347.88
479.439	362.88
479.658	376.88
479.876	382.88
480.095	358.88
480.313	377.88
480.532	384.88
480.751	363.88
480.969	382.88
481.188	413.88
481.406	442.88
481.624	402.88
481.843	378.88
482.061	375.88
482.28	365.88
482.498	380.88
482.717	349.88
482.935	343.88
483.153	361.88
483.372	347.88
483.59	359.88
483.808	362.88
484.027	352.88
484.245	346.88
484.463	354.88
484.681	364.88
484.9	360.88
485.118	356.88
485.336	368.88
485.554	378.88
485.772	360.88
485.99	351.88
486.209	376.88
486.427	368.88
486.645	398.88
486.863	384.88
487.081	373.88
487.299	390.88
487.517	383.88
487.735	380.88
487.953	389.88
488.171	372.88
488.389	389.88
488.607	400.88
488.825	361.88
489.043	377.88
489.261	386.88
489.479	382.88
489.696	394.88
489.914	382.88
490.132	386.88
490.35	394.88
490.568	420.88
490.786	406.88
491.003	405.88
491.221	425.88
491.439	423.88
491.657	437.88
491.874	443.88
492.092	443.88
492.31	439.88
492.527	452.88
492.745	450.88
492.963	438.88
493.18	463.88
493.398	438.88
493.615	444.88
493.833	447.88
494.05	434.88
494.268	444.88
494.485	448.88
494.703	430.88
494.92	461.88
495.138	458.88
495.355	466.88
495.573	458.88
495.79	438.88
496.008	445.88
496.225	444.88
496.442	427.88
496.66	425.88
496.877	442.88
497.094	448.88
497.312	472.88
497.529	451.88
497.746	444.88
497.963	460.88
498.181	479.88
498.398	482.88
498.615	475.88
498.832	487.88
499.049	502.88
499.267	507.88
499.484	483.88
499.701	514.88
499.918	516.88
500.135	538.88
500.352	545.88
500.569	562.88
500.786	555.88
501.003	539.88
501.22	554.88
501.437	544.88
501.654	535.88
501.871	518.88
502.088	509.88
