Data from 1982.PennyLincolnUp.Lamp.En5.5.200Scan.071819.P1_HRD10591_16-45-57-961.txt Node
Date: Thu Jul 18 16:45:57 EDT 2019
User: cochatt
Spectrometer: HR+D1059
Trigger mode: 1
Integration Time (sec): 1.000000E-1
Scans to average: 1
Electric dark correction enabled: true
Nonlinearity correction enabled: false
Boxcar width: 0
XAxis mode: Wavelengths
Number of Pixels in Spectrum: 2048
>>>>>Begin Spectral Data<<<<<
223.165	-3.69
223.4	-3.69
223.635	-3.69
223.869	-15.69
224.104	-29.69
224.338	-7.69
224.573	-13.69
224.808	-5.69
225.042	1.31
225.277	-5.69
225.511	2.31
225.746	4.31
225.98	14.31
226.215	5.31
226.449	3.31
226.683	12.31
226.918	11.31
227.152	27.31
227.387	42.31
227.621	35.31
227.856	45.31
228.09	44.31
228.324	59.31
228.559	50.31
228.793	59.31
229.027	94.31
229.262	83.31
229.496	105.31
229.73	92.31
229.964	112.31
230.199	106.31
230.433	93.31
230.667	113.31
230.901	73.31
231.136	90.31
231.37	91.31
231.604	98.31
231.838	90.31
232.072	103.31
232.306	105.31
232.541	79.31
232.775	102.31
233.009	92.31
233.243	106.31
233.477	106.31
233.711	99.31
233.945	109.31
234.179	114.31
234.413	106.31
234.647	116.31
234.881	104.31
235.115	86.31
235.349	97.31
235.583	107.31
235.817	114.31
236.051	105.31
236.285	113.31
236.519	94.31
236.753	114.31
236.987	124.31
237.221	140.31
237.455	171.31
237.689	143.31
237.922	103.31
238.156	101.31
238.39	110.31
238.624	122.31
238.858	110.31
239.091	95.31
239.325	88.31
239.559	116.31
239.793	112.31
240.027	107.31
240.26	108.31
240.494	123.31
240.728	124.31
240.961	130.31
241.195	132.31
241.429	106.31
241.662	115.31
241.896	112.31
242.13	102.31
242.363	96.31
242.597	100.31
242.83	105.31
243.064	101.31
243.298	105.31
243.531	100.31
243.765	114.31
243.998	110.31
244.232	101.31
244.465	108.31
244.699	100.31
244.932	123.31
245.166	114.31
245.399	123.31
245.633	119.31
245.866	115.31
246.099	121.31
246.333	123.31
246.566	119.31
246.8	125.31
247.033	115.31
247.266	120.31
247.5	118.31
247.733	136.31
247.966	139.31
248.2	152.31
248.433	142.31
248.666	139.31
248.899	147.31
249.133	156.31
249.366	166.31
249.599	156.31
249.832	152.31
250.066	143.31
250.299	163.31
250.532	147.31
250.765	159.31
250.998	155.31
251.231	163.31
251.465	160.31
251.698	167.31
251.931	147.31
252.164	153.31
252.397	153.31
252.63	154.31
252.863	172.31
253.096	149.31
253.329	171.31
253.562	168.31
253.795	180.31
254.028	174.31
254.261	174.31
254.494	184.31
254.727	208.31
254.96	218.31
255.193	201.31
255.426	186.31
255.659	179.31
255.892	187.31
256.124	174.31
256.357	169.31
256.59	164.31
256.823	157.31
257.056	179.31
257.289	167.31
257.521	163.31
257.754	164.31
257.987	158.31
258.22	178.31
258.452	178.31
258.685	159.31
258.918	164.31
259.151	153.31
259.383	178.31
259.616	193.31
259.849	174.31
260.081	172.31
260.314	183.31
260.547	196.31
260.779	190.31
261.012	167.31
261.244	163.31
261.477	184.31
261.71	186.31
261.942	176.31
262.175	172.31
262.407	186.31
262.64	180.31
262.872	176.31
263.105	153.31
263.337	181.31
263.57	175.31
263.802	158.31
264.035	164.31
264.267	175.31
264.499	178.31
264.732	153.31
264.964	176.31
265.197	174.31
265.429	166.31
265.661	166.31
265.894	163.31
266.126	163.31
266.358	171.31
266.591	175.31
266.823	169.31
267.055	186.31
267.287	177.31
267.52	192.31
267.752	176.31
267.984	167.31
268.216	165.31
268.448	178.31
268.681	187.31
268.913	200.31
269.145	193.31
269.377	213.31
269.609	203.31
269.841	221.31
270.073	217.31
270.306	200.31
270.538	238.31
270.77	249.31
271.002	234.31
271.234	241.31
271.466	229.31
271.698	224.31
271.93	224.31
272.162	232.31
272.394	243.31
272.626	235.31
272.858	230.31
273.09	210.31
273.322	218.31
273.553	209.31
273.785	214.31
274.017	195.31
274.249	202.31
274.481	213.31
274.713	205.31
274.945	209.31
275.176	170.31
275.408	195.31
275.64	199.31
275.872	194.31
276.104	210.31
276.335	209.31
276.567	205.31
276.799	215.31
277.031	238.31
277.262	239.31
277.494	238.31
277.726	238.31
277.957	231.31
278.189	211.31
278.421	207.31
278.652	216.31
278.884	201.31
279.115	194.31
279.347	209.31
279.579	213.31
279.81	201.31
280.042	198.31
280.273	197.31
280.505	200.31
280.736	195.31
280.968	203.31
281.199	187.31
281.431	208.31
281.662	195.31
281.894	192.31
282.125	195.31
282.356	215.31
282.588	198.31
282.819	217.31
283.051	210.31
283.282	184.31
283.513	202.31
283.745	199.31
283.976	211.31
284.207	215.31
284.439	212.31
284.67	208.31
284.901	207.31
285.132	211.31
285.364	198.31
285.595	197.31
285.826	194.31
286.057	209.31
286.288	190.31
286.52	214.31
286.751	204.31
286.982	214.31
287.213	199.31
287.444	211.31
287.675	220.31
287.906	212.31
288.138	225.31
288.369	220.31
288.6	234.31
288.831	239.31
289.062	222.31
289.293	215.31
289.524	211.31
289.755	225.31
289.986	205.31
290.217	223.31
290.448	221.31
290.679	207.31
290.91	220.31
291.141	200.31
291.371	205.31
291.602	215.31
291.833	209.31
292.064	216.31
292.295	209.31
292.526	223.31
292.757	195.31
292.987	200.31
293.218	219.31
293.449	197.31
293.68	209.31
293.91	213.31
294.141	213.31
294.372	225.31
294.603	211.31
294.833	213.31
295.064	205.31
295.295	220.31
295.525	208.31
295.756	218.31
295.987	218.31
296.217	244.31
296.448	245.31
296.679	228.31
296.909	212.31
297.14	216.31
297.37	210.31
297.601	208.31
297.831	198.31
298.062	223.31
298.292	222.31
298.523	230.31
298.753	240.31
298.984	242.31
299.214	219.31
299.445	227.31
299.675	224.31
299.905	243.31
300.136	235.31
300.366	223.31
300.597	218.31
300.827	220.31
301.057	228.31
301.288	247.31
301.518	246.31
301.748	232.31
301.979	225.31
302.209	226.31
302.439	245.31
302.669	220.31
302.9	231.31
303.13	241.31
303.36	241.31
303.59	243.31
303.82	238.31
304.051	232.31
304.281	245.31
304.511	224.31
304.741	235.31
304.971	248.31
305.201	240.31
305.431	244.31
305.661	229.31
305.891	225.31
306.121	266.31
306.352	240.31
306.582	224.31
306.812	244.31
307.042	234.31
307.272	253.31
307.502	244.31
307.731	235.31
307.961	262.31
308.191	230.31
308.421	242.31
308.651	238.31
308.881	248.31
309.111	238.31
309.341	255.31
309.571	258.31
309.8	273.31
310.03	248.31
310.26	274.31
310.49	277.31
310.72	294.31
310.949	297.31
311.179	293.31
311.409	276.31
311.639	288.31
311.868	291.31
312.098	294.31
312.328	277.31
312.557	311.31
312.787	288.31
313.017	294.31
313.246	273.31
313.476	280.31
313.706	274.31
313.935	282.31
314.165	294.31
314.394	310.31
314.624	300.31
314.853	296.31
315.083	286.31
315.312	278.31
315.542	273.31
315.771	270.31
316.001	280.31
316.23	291.31
316.46	266.31
316.689	276.31
316.919	285.31
317.148	276.31
317.377	284.31
317.607	267.31
317.836	284.31
318.065	276.31
318.295	282.31
318.524	289.31
318.753	299.31
318.983	275.31
319.212	288.31
319.441	276.31
319.67	284.31
319.9	297.31
320.129	279.31
320.358	266.31
320.587	275.31
320.816	272.31
321.046	304.31
321.275	302.31
321.504	295.31
321.733	297.31
321.962	309.31
322.191	320.31
322.42	336.31
322.649	322.31
322.878	338.31
323.108	361.31
323.337	368.31
323.566	400.31
323.795	386.31
324.024	425.31
324.253	559.31
324.482	858.31
324.71	1247.31
324.939	1638.31
325.168	1326.31
325.397	715.31
325.626	478.31
325.855	423.31
326.084	390.31
326.313	378.31
326.542	400.31
326.77	438.31
326.999	534.31
327.228	747.31
327.457	1080.31
327.686	1158.31
327.914	762.31
328.143	551.31
328.372	452.31
328.6	444.31
328.829	403.31
329.058	434.31
329.287	432.31
329.515	396.31
329.744	372.31
329.972	388.31
330.201	388.31
330.43	416.31
330.658	425.31
330.887	463.31
331.115	440.31
331.344	375.31
331.572	366.31
331.801	354.31
332.03	355.31
332.258	330.31
332.486	338.31
332.715	325.31
332.943	340.31
333.172	332.31
333.4	324.31
333.629	341.31
333.857	327.31
334.085	353.31
334.314	342.31
334.542	368.31
334.771	396.31
334.999	350.31
335.227	328.31
335.455	323.31
335.684	332.31
335.912	321.31
336.14	308.31
336.369	330.31
336.597	335.31
336.825	311.31
337.053	320.31
337.281	314.31
337.51	316.31
337.738	315.31
337.966	317.31
338.194	318.31
338.422	313.31
338.65	296.31
338.878	314.31
339.106	287.31
339.334	300.31
339.562	313.31
339.79	307.31
340.018	306.31
340.246	320.31
340.474	309.31
340.702	306.31
340.93	307.31
341.158	303.31
341.386	314.31
341.614	315.31
341.842	323.31
342.07	309.31
342.298	291.31
342.526	290.31
342.754	282.31
342.981	288.31
343.209	314.31
343.437	292.31
343.665	310.31
343.893	302.31
344.12	300.31
344.348	312.31
344.576	301.31
344.804	320.31
345.031	306.31
345.259	320.31
345.487	323.31
345.714	316.31
345.942	306.31
346.17	309.31
346.397	306.31
346.625	290.31
346.853	310.31
347.08	287.31
347.308	316.31
347.535	310.31
347.763	299.31
347.99	314.31
348.218	307.31
348.445	313.31
348.673	305.31
348.9	307.31
349.128	279.31
349.355	269.31
349.583	281.31
349.81	278.31
350.037	292.31
350.265	306.31
350.492	294.31
350.72	286.31
350.947	288.31
351.174	281.31
351.402	310.31
351.629	279.31
351.856	297.31
352.083	284.31
352.311	297.31
352.538	314.31
352.765	324.31
352.992	288.31
353.22	293.31
353.447	294.31
353.674	291.31
353.901	270.31
354.128	271.31
354.355	267.31
354.583	278.31
354.81	274.31
355.037	271.31
355.264	270.31
355.491	272.31
355.718	283.31
355.945	274.31
356.172	264.31
356.399	283.31
356.626	267.31
356.853	264.31
357.08	251.31
357.307	265.31
357.534	280.31
357.761	290.31
357.988	295.31
358.215	270.31
358.441	271.31
358.668	249.31
358.895	270.31
359.122	285.31
359.349	280.31
359.576	295.31
359.802	306.31
360.029	326.31
360.256	338.31
360.483	328.31
360.709	284.31
360.936	287.31
361.163	298.31
361.39	290.31
361.616	313.31
361.843	274.31
362.07	281.31
362.296	301.31
362.523	290.31
362.749	285.31
362.976	299.31
363.203	291.31
363.429	265.31
363.656	278.31
363.882	281.31
364.109	267.31
364.335	282.31
364.562	262.31
364.788	286.31
365.015	273.31
365.241	267.31
365.468	279.31
365.694	288.31
365.92	278.31
366.147	268.31
366.373	272.31
366.599	265.31
366.826	264.31
367.052	262.31
367.278	261.31
367.505	280.31
367.731	267.31
367.957	256.31
368.184	269.31
368.41	281.31
368.636	272.31
368.862	288.31
369.089	284.31
369.315	268.31
369.541	268.31
369.767	270.31
369.993	288.31
370.219	245.31
370.445	276.31
370.672	274.31
370.898	272.31
371.124	268.31
371.35	265.31
371.576	263.31
371.802	264.31
372.028	268.31
372.254	265.31
372.48	269.31
372.706	270.31
372.932	267.31
373.158	270.31
373.384	283.31
373.61	266.31
373.835	264.31
374.061	258.31
374.287	259.31
374.513	272.31
374.739	287.31
374.965	267.31
375.191	256.31
375.416	277.31
375.642	259.31
375.868	277.31
376.094	265.31
376.319	260.31
376.545	266.31
376.771	261.31
376.997	262.31
377.222	251.31
377.448	274.31
377.674	264.31
377.899	280.31
378.125	262.31
378.35	249.31
378.576	266.31
378.802	241.31
379.027	260.31
379.253	253.31
379.478	266.31
379.704	279.31
379.929	261.31
380.155	257.31
380.38	259.31
380.606	268.31
380.831	254.31
381.057	271.31
381.282	251.31
381.507	276.31
381.733	262.31
381.958	277.31
382.184	248.31
382.409	268.31
382.634	263.31
382.86	248.31
383.085	256.31
383.31	251.31
383.535	247.31
383.761	261.31
383.986	270.31
384.211	260.31
384.436	247.31
384.662	269.31
384.887	287.31
385.112	272.31
385.337	265.31
385.562	268.31
385.787	289.31
386.013	258.31
386.238	276.31
386.463	274.31
386.688	258.31
386.913	274.31
387.138	287.31
387.363	285.31
387.588	262.31
387.813	267.31
388.038	256.31
388.263	284.31
388.488	266.31
388.713	258.31
388.938	277.31
389.163	276.31
389.387	272.31
389.612	278.31
389.837	275.31
390.062	247.31
390.287	260.31
390.512	266.31
390.736	271.31
390.961	273.31
391.186	276.31
391.411	269.31
391.636	280.31
391.86	263.31
392.085	296.31
392.31	270.31
392.534	267.31
392.759	267.31
392.984	277.31
393.208	285.31
393.433	258.31
393.658	269.31
393.882	259.31
394.107	265.31
394.331	261.31
394.556	274.31
394.78	264.31
395.005	282.31
395.229	276.31
395.454	283.31
395.678	280.31
395.903	287.31
396.127	288.31
396.352	287.31
396.576	265.31
396.801	275.31
397.025	282.31
397.249	286.31
397.474	284.31
397.698	290.31
397.922	283.31
398.147	303.31
398.371	309.31
398.595	302.31
398.82	304.31
399.044	313.31
399.268	324.31
399.492	313.31
399.717	335.31
399.941	338.31
400.165	357.31
400.389	366.31
400.613	321.31
400.837	313.31
401.062	320.31
401.286	302.31
401.51	316.31
401.734	308.31
401.958	304.31
402.182	292.31
402.406	304.31
402.63	305.31
402.854	296.31
403.078	318.31
403.302	314.31
403.526	307.31
403.75	315.31
403.974	308.31
404.198	310.31
404.422	303.31
404.645	314.31
404.869	338.31
405.093	358.31
405.317	350.31
405.541	368.31
405.765	358.31
405.988	347.31
406.212	353.31
406.436	359.31
406.66	346.31
406.883	340.31
407.107	355.31
407.331	364.31
407.555	395.31
407.778	395.31
408.002	362.31
408.226	350.31
408.449	333.31
408.673	343.31
408.896	353.31
409.12	396.31
409.344	356.31
409.567	342.31
409.791	314.31
410.014	303.31
410.238	292.31
410.461	326.31
410.685	320.31
410.908	325.31
411.132	332.31
411.355	386.31
411.578	340.31
411.802	304.31
412.025	299.31
412.249	312.31
412.472	320.31
412.695	346.31
412.919	356.31
413.142	330.31
413.365	326.31
413.589	291.31
413.812	274.31
414.035	296.31
414.258	286.31
414.482	304.31
414.705	291.31
414.928	283.31
415.151	302.31
415.374	296.31
415.597	281.31
415.821	292.31
416.044	292.31
416.267	264.31
416.49	296.31
416.713	282.31
416.936	307.31
417.159	294.31
417.382	306.31
417.605	311.31
417.828	286.31
418.051	306.31
418.274	298.31
418.497	308.31
418.72	288.31
418.943	302.31
419.166	293.31
419.389	308.31
419.611	321.31
419.834	312.31
420.057	296.31
420.28	307.31
420.503	301.31
420.726	297.31
420.948	297.31
421.171	347.31
421.394	369.31
421.617	318.31
421.839	308.31
422.062	311.31
422.285	338.31
422.507	335.31
422.73	388.31
422.953	371.31
423.175	346.31
423.398	345.31
423.621	319.31
423.843	336.31
424.066	347.31
424.288	344.31
424.511	359.31
424.733	372.31
424.956	410.31
425.178	411.31
425.401	393.31
425.623	410.31
425.846	363.31
426.068	339.31
426.291	331.31
426.513	345.31
426.735	345.31
426.958	362.31
427.18	408.31
427.402	486.31
427.625	521.31
427.847	490.31
428.069	423.31
428.292	376.31
428.514	346.31
428.736	311.31
428.958	333.31
429.181	298.31
429.403	309.31
429.625	315.31
429.847	361.31
430.069	380.31
430.292	378.31
430.514	323.31
430.736	302.31
430.958	327.31
431.18	319.31
431.402	282.31
431.624	294.31
431.846	294.31
432.068	298.31
432.29	300.31
432.512	299.31
432.734	298.31
432.956	306.31
433.178	304.31
433.4	286.31
433.622	295.31
433.844	301.31
434.066	298.31
434.287	291.31
434.509	290.31
434.731	308.31
434.953	317.31
435.175	345.31
435.397	340.31
435.618	326.31
435.84	388.31
436.062	420.31
436.284	460.31
436.505	388.31
436.727	344.31
436.949	322.31
437.17	315.31
437.392	318.31
437.614	341.31
437.835	361.31
438.057	406.31
438.278	459.31
438.5	464.31
438.721	517.31
438.943	472.31
439.165	404.31
439.386	361.31
439.608	373.31
439.829	346.31
440.05	371.31
440.272	396.31
440.493	357.31
440.715	338.31
440.936	331.31
441.158	326.31
441.379	328.31
441.6	338.31
441.822	355.31
442.043	367.31
442.264	420.31
442.486	431.31
442.707	378.31
442.928	359.31
443.149	355.31
443.371	374.31
443.592	414.31
443.813	465.31
444.034	457.31
444.255	406.31
444.476	341.31
444.698	369.31
444.919	337.31
445.14	416.31
445.361	390.31
445.582	373.31
445.803	427.31
446.024	466.31
446.245	502.31
446.466	428.31
446.687	367.31
446.908	339.31
447.129	336.31
447.35	311.31
447.571	310.31
447.792	316.31
448.013	314.31
448.234	337.31
448.455	368.31
448.675	454.31
448.896	481.31
449.117	417.31
449.338	404.31
449.559	450.31
449.779	526.31
450	418.31
450.221	350.31
450.442	332.31
450.662	314.31
450.883	344.31
451.104	327.31
451.324	314.31
451.545	318.31
451.766	319.31
451.986	271.31
452.207	281.31
452.428	268.31
452.648	286.31
452.869	284.31
453.089	280.31
453.31	286.31
453.53	277.31
453.751	292.31
453.971	282.31
454.192	325.31
454.412	291.31
454.633	268.31
454.853	281.31
455.073	297.31
455.294	295.31
455.514	340.31
455.734	338.31
455.955	261.31
456.175	258.31
456.395	275.31
456.616	264.31
456.836	260.31
457.056	270.31
457.276	271.31
457.497	272.31
457.717	274.31
457.937	282.31
458.157	282.31
458.377	279.31
458.598	304.31
458.818	328.31
459.038	396.31
459.258	376.31
459.478	311.31
459.698	312.31
459.918	299.31
460.138	280.31
460.358	266.31
460.578	296.31
460.798	291.31
461.018	285.31
461.238	292.31
461.458	291.31
461.678	302.31
461.898	299.31
462.118	298.31
462.338	297.31
462.558	307.31
462.777	311.31
462.997	303.31
463.217	306.31
463.437	311.31
463.657	310.31
463.876	310.31
464.096	309.31
464.316	287.31
464.536	301.31
464.755	312.31
464.975	308.31
465.195	340.31
465.414	378.31
465.634	358.31
465.854	323.31
466.073	300.31
466.293	313.31
466.512	296.31
466.732	290.31
466.951	286.31
467.171	286.31
467.391	285.31
467.61	290.31
467.829	296.31
468.049	303.31
468.268	283.31
468.488	278.31
468.707	267.31
468.927	272.31
469.146	303.31
469.365	274.31
469.585	280.31
469.804	275.31
470.023	303.31
470.243	318.31
470.462	292.31
470.681	306.31
470.901	290.31
471.12	294.31
471.339	300.31
471.558	287.31
471.777	286.31
471.997	287.31
472.216	304.31
472.435	315.31
472.654	308.31
472.873	296.31
473.092	275.31
473.311	278.31
473.53	284.31
473.749	315.31
473.968	346.31
474.187	406.31
474.406	392.31
474.625	330.31
474.844	299.31
475.063	294.31
475.282	290.31
475.501	302.31
475.72	310.31
475.939	298.31
476.158	298.31
476.377	307.31
476.596	308.31
476.814	315.31
477.033	308.31
477.252	303.31
477.471	297.31
477.69	308.31
477.908	322.31
478.127	322.31
478.346	281.31
478.564	308.31
478.783	318.31
479.002	319.31
479.22	323.31
479.439	326.31
479.658	354.31
479.876	346.31
480.095	348.31
480.313	359.31
480.532	367.31
480.751	352.31
480.969	355.31
481.188	402.31
481.406	402.31
481.624	372.31
481.843	337.31
482.061	325.31
482.28	344.31
482.498	326.31
482.717	340.31
482.935	343.31
483.153	343.31
483.372	346.31
483.59	325.31
483.808	327.31
484.027	345.31
484.245	334.31
484.463	336.31
484.681	342.31
484.9	335.31
485.118	348.31
485.336	346.31
485.554	332.31
485.772	338.31
485.99	332.31
486.209	353.31
486.427	338.31
486.645	353.31
486.863	359.31
487.081	377.31
487.299	351.31
487.517	348.31
487.735	366.31
487.953	346.31
488.171	368.31
488.389	371.31
488.607	342.31
488.825	372.31
489.043	368.31
489.261	352.31
489.479	361.31
489.696	368.31
489.914	366.31
490.132	354.31
490.35	362.31
490.568	343.31
490.786	380.31
491.003	374.31
491.221	402.31
491.439	396.31
491.657	395.31
491.874	409.31
492.092	398.31
492.31	418.31
492.527	409.31
492.745	403.31
492.963	419.31
493.18	419.31
493.398	427.31
493.615	426.31
493.833	417.31
494.05	438.31
494.268	414.31
494.485	434.31
494.703	420.31
494.92	423.31
495.138	425.31
495.355	424.31
495.573	451.31
495.79	413.31
496.008	428.31
496.225	412.31
496.442	414.31
496.66	435.31
496.877	424.31
497.094	427.31
497.312	425.31
497.529	436.31
497.746	438.31
497.963	459.31
498.181	449.31
498.398	457.31
498.615	464.31
498.832	462.31
499.049	456.31
499.267	454.31
499.484	479.31
499.701	489.31
499.918	483.31
500.135	477.31
500.352	524.31
500.569	534.31
500.786	509.31
501.003	506.31
501.22	521.31
501.437	530.31
501.654	503.31
501.871	520.31
502.088	503.31
502.305	485.31
