Data from 1982.PennyLincolnUp.Lamp.En5.5.200Scan.071819.P1_HRD10591_16-46-20-962.txt Node
Date: Thu Jul 18 16:46:20 EDT 2019
User: cochatt
Spectrometer: HR+D1059
Trigger mode: 1
Integration Time (sec): 1.000000E-1
Scans to average: 1
Electric dark correction enabled: true
Nonlinearity correction enabled: false
Boxcar width: 0
XAxis mode: Wavelengths
Number of Pixels in Spectrum: 2048
>>>>>Begin Spectral Data<<<<<
223.165	1.56
223.4	1.56
223.635	1.56
223.869	-23.44
224.104	-24.44
224.338	-22.44
224.573	-22.44
224.808	-9.44
225.042	-9.44
225.277	-2.44
225.511	-8.44
225.746	17.56
225.98	10.56
226.215	-0.44
226.449	21.56
226.683	16.56
226.918	27.56
227.152	27.56
227.387	45.56
227.621	49.56
227.856	50.56
228.09	62.56
228.324	69.56
228.559	57.56
228.793	62.56
229.027	86.56
229.262	92.56
229.496	104.56
229.73	108.56
229.964	132.56
230.199	112.56
230.433	101.56
230.667	103.56
230.901	112.56
231.136	90.56
231.37	94.56
231.604	105.56
231.838	111.56
232.072	94.56
232.306	109.56
232.541	105.56
232.775	115.56
233.009	94.56
233.243	108.56
233.477	107.56
233.711	127.56
233.945	114.56
234.179	112.56
234.413	111.56
234.647	97.56
234.881	123.56
235.115	119.56
235.349	108.56
235.583	117.56
235.817	116.56
236.051	113.56
236.285	115.56
236.519	112.56
236.753	101.56
236.987	118.56
237.221	151.56
237.455	188.56
237.689	141.56
237.922	121.56
238.156	127.56
238.39	122.56
238.624	95.56
238.858	102.56
239.091	118.56
239.325	117.56
239.559	123.56
239.793	107.56
240.027	125.56
240.26	122.56
240.494	139.56
240.728	131.56
240.961	118.56
241.195	125.56
241.429	106.56
241.662	118.56
241.896	119.56
242.13	125.56
242.363	131.56
242.597	107.56
242.83	119.56
243.064	121.56
243.298	141.56
243.531	119.56
243.765	120.56
243.998	124.56
244.232	122.56
244.465	133.56
244.699	138.56
244.932	129.56
245.166	128.56
245.399	109.56
245.633	122.56
245.866	130.56
246.099	129.56
246.333	124.56
246.566	123.56
246.8	145.56
247.033	127.56
247.266	138.56
247.5	118.56
247.733	145.56
247.966	148.56
248.2	137.56
248.433	131.56
248.666	147.56
248.899	146.56
249.133	151.56
249.366	176.56
249.599	154.56
249.832	156.56
250.066	146.56
250.299	143.56
250.532	159.56
250.765	175.56
250.998	186.56
251.231	194.56
251.465	175.56
251.698	167.56
251.931	169.56
252.164	168.56
252.397	160.56
252.63	176.56
252.863	185.56
253.096	191.56
253.329	202.56
253.562	189.56
253.795	185.56
254.028	178.56
254.261	167.56
254.494	193.56
254.727	195.56
254.96	207.56
255.193	213.56
255.426	198.56
255.659	195.56
255.892	186.56
256.124	199.56
256.357	191.56
256.59	175.56
256.823	179.56
257.056	185.56
257.289	193.56
257.521	142.56
257.754	177.56
257.987	172.56
258.22	172.56
258.452	176.56
258.685	183.56
258.918	173.56
259.151	167.56
259.383	184.56
259.616	181.56
259.849	197.56
260.081	199.56
260.314	214.56
260.547	193.56
260.779	191.56
261.012	195.56
261.244	183.56
261.477	188.56
261.71	213.56
261.942	193.56
262.175	185.56
262.407	196.56
262.64	179.56
262.872	167.56
263.105	167.56
263.337	191.56
263.57	163.56
263.802	168.56
264.035	175.56
264.267	160.56
264.499	186.56
264.732	200.56
264.964	177.56
265.197	186.56
265.429	173.56
265.661	168.56
265.894	166.56
266.126	180.56
266.358	171.56
266.591	174.56
266.823	166.56
267.055	180.56
267.287	197.56
267.52	188.56
267.752	195.56
267.984	177.56
268.216	173.56
268.448	186.56
268.681	195.56
268.913	192.56
269.145	207.56
269.377	204.56
269.609	233.56
269.841	202.56
270.073	205.56
270.306	234.56
270.538	240.56
270.77	247.56
271.002	246.56
271.234	251.56
271.466	230.56
271.698	247.56
271.93	256.56
272.162	268.56
272.394	256.56
272.626	245.56
272.858	219.56
273.09	241.56
273.322	226.56
273.553	205.56
273.785	214.56
274.017	203.56
274.249	219.56
274.481	221.56
274.713	213.56
274.945	215.56
275.176	216.56
275.408	218.56
275.64	216.56
275.872	217.56
276.104	190.56
276.335	215.56
276.567	217.56
276.799	233.56
277.031	240.56
277.262	263.56
277.494	265.56
277.726	258.56
277.957	240.56
278.189	217.56
278.421	207.56
278.652	216.56
278.884	205.56
279.115	223.56
279.347	227.56
279.579	202.56
279.81	212.56
280.042	209.56
280.273	191.56
280.505	224.56
280.736	202.56
280.968	214.56
281.199	208.56
281.431	191.56
281.662	222.56
281.894	217.56
282.125	241.56
282.356	221.56
282.588	240.56
282.819	231.56
283.051	212.56
283.282	202.56
283.513	223.56
283.745	221.56
283.976	214.56
284.207	221.56
284.439	221.56
284.67	210.56
284.901	218.56
285.132	217.56
285.364	214.56
285.595	209.56
285.826	221.56
286.057	221.56
286.288	214.56
286.52	207.56
286.751	214.56
286.982	216.56
287.213	220.56
287.444	206.56
287.675	227.56
287.906	231.56
288.138	236.56
288.369	234.56
288.6	247.56
288.831	237.56
289.062	203.56
289.293	229.56
289.524	227.56
289.755	226.56
289.986	223.56
290.217	218.56
290.448	230.56
290.679	224.56
290.91	211.56
291.141	224.56
291.371	211.56
291.602	231.56
291.833	248.56
292.064	225.56
292.295	239.56
292.526	215.56
292.757	210.56
292.987	210.56
293.218	225.56
293.449	233.56
293.68	225.56
293.91	216.56
294.141	221.56
294.372	234.56
294.603	215.56
294.833	218.56
295.064	228.56
295.295	210.56
295.525	220.56
295.756	240.56
295.987	233.56
296.217	244.56
296.448	262.56
296.679	235.56
296.909	221.56
297.14	222.56
297.37	223.56
297.601	241.56
297.831	244.56
298.062	252.56
298.292	217.56
298.523	228.56
298.753	241.56
298.984	235.56
299.214	235.56
299.445	229.56
299.675	226.56
299.905	244.56
300.136	234.56
300.366	221.56
300.597	247.56
300.827	262.56
301.057	238.56
301.288	252.56
301.518	249.56
301.748	236.56
301.979	258.56
302.209	249.56
302.439	247.56
302.669	247.56
302.9	246.56
303.13	228.56
303.36	244.56
303.59	260.56
303.82	261.56
304.051	258.56
304.281	249.56
304.511	253.56
304.741	264.56
304.971	245.56
305.201	259.56
305.431	264.56
305.661	249.56
305.891	249.56
306.121	256.56
306.352	259.56
306.582	268.56
306.812	264.56
307.042	253.56
307.272	239.56
307.502	252.56
307.731	273.56
307.961	251.56
308.191	253.56
308.421	251.56
308.651	248.56
308.881	263.56
309.111	276.56
309.341	266.56
309.571	274.56
309.8	282.56
310.03	289.56
310.26	277.56
310.49	296.56
310.72	318.56
310.949	293.56
311.179	297.56
311.409	288.56
311.639	300.56
311.868	298.56
312.098	309.56
312.328	303.56
312.557	294.56
312.787	305.56
313.017	290.56
313.246	280.56
313.476	296.56
313.706	304.56
313.935	291.56
314.165	322.56
314.394	309.56
314.624	313.56
314.853	282.56
315.083	280.56
315.312	289.56
315.542	287.56
315.771	314.56
316.001	302.56
316.23	283.56
316.46	296.56
316.689	297.56
316.919	288.56
317.148	279.56
317.377	290.56
317.607	297.56
317.836	298.56
318.065	287.56
318.295	290.56
318.524	283.56
318.753	281.56
318.983	298.56
319.212	288.56
319.441	304.56
319.67	290.56
319.9	288.56
320.129	293.56
320.358	289.56
320.587	300.56
320.816	305.56
321.046	298.56
321.275	321.56
321.504	292.56
321.733	311.56
321.962	314.56
322.191	325.56
322.42	344.56
322.649	347.56
322.878	349.56
323.108	368.56
323.337	399.56
323.566	400.56
323.795	431.56
324.024	485.56
324.253	594.56
324.482	860.56
324.71	1305.56
324.939	1727.56
325.168	1372.56
325.397	740.56
325.626	531.56
325.855	409.56
326.084	407.56
326.313	405.56
326.542	398.56
326.77	469.56
326.999	540.56
327.228	778.56
327.457	1107.56
327.686	1216.56
327.914	826.56
328.143	572.56
328.372	477.56
328.6	462.56
328.829	440.56
329.058	449.56
329.287	452.56
329.515	410.56
329.744	391.56
329.972	398.56
330.201	381.56
330.43	417.56
330.658	464.56
330.887	471.56
331.115	436.56
331.344	411.56
331.572	384.56
331.801	375.56
332.03	382.56
332.258	352.56
332.486	342.56
332.715	333.56
332.943	343.56
333.172	335.56
333.4	344.56
333.629	352.56
333.857	357.56
334.085	384.56
334.314	367.56
334.542	391.56
334.771	392.56
334.999	362.56
335.227	368.56
335.455	330.56
335.684	341.56
335.912	334.56
336.14	338.56
336.369	335.56
336.597	339.56
336.825	345.56
337.053	313.56
337.281	339.56
337.51	297.56
337.738	326.56
337.966	318.56
338.194	344.56
338.422	318.56
338.65	334.56
338.878	320.56
339.106	327.56
339.334	335.56
339.562	326.56
339.79	311.56
340.018	305.56
340.246	299.56
340.474	330.56
340.702	322.56
340.93	315.56
341.158	318.56
341.386	336.56
341.614	322.56
341.842	320.56
342.07	313.56
342.298	311.56
342.526	318.56
342.754	298.56
342.981	316.56
343.209	289.56
343.437	311.56
343.665	318.56
343.893	294.56
344.12	297.56
344.348	321.56
344.576	315.56
344.804	320.56
345.031	327.56
345.259	347.56
345.487	329.56
345.714	318.56
345.942	302.56
346.17	313.56
346.397	307.56
346.625	290.56
346.853	314.56
347.08	330.56
347.308	305.56
347.535	337.56
347.763	320.56
347.99	328.56
348.218	330.56
348.445	314.56
348.673	307.56
348.9	301.56
349.128	315.56
349.355	304.56
349.583	285.56
349.81	297.56
350.037	303.56
350.265	297.56
350.492	306.56
350.72	305.56
350.947	296.56
351.174	309.56
351.402	320.56
351.629	320.56
351.856	298.56
352.083	319.56
352.311	313.56
352.538	322.56
352.765	328.56
352.992	311.56
353.22	319.56
353.447	289.56
353.674	300.56
353.901	316.56
354.128	287.56
354.355	294.56
354.583	291.56
354.81	274.56
355.037	284.56
355.264	281.56
355.491	287.56
355.718	269.56
355.945	297.56
356.172	279.56
356.399	283.56
356.626	282.56
356.853	287.56
357.08	269.56
357.307	281.56
357.534	257.56
357.761	275.56
357.988	270.56
358.215	285.56
358.441	285.56
358.668	280.56
358.895	290.56
359.122	290.56
359.349	298.56
359.576	279.56
359.802	332.56
360.029	323.56
360.256	334.56
360.483	315.56
360.709	302.56
360.936	308.56
361.163	318.56
361.39	306.56
361.616	294.56
361.843	307.56
362.07	314.56
362.296	305.56
362.523	281.56
362.749	296.56
362.976	295.56
363.203	284.56
363.429	287.56
363.656	290.56
363.882	301.56
364.109	278.56
364.335	295.56
364.562	264.56
364.788	272.56
365.015	287.56
365.241	297.56
365.468	295.56
365.694	295.56
365.92	286.56
366.147	295.56
366.373	289.56
366.599	277.56
366.826	270.56
367.052	281.56
367.278	267.56
367.505	267.56
367.731	296.56
367.957	273.56
368.184	269.56
368.41	288.56
368.636	306.56
368.862	307.56
369.089	297.56
369.315	282.56
369.541	286.56
369.767	278.56
369.993	287.56
370.219	279.56
370.445	290.56
370.672	266.56
370.898	266.56
371.124	265.56
371.35	269.56
371.576	276.56
371.802	276.56
372.028	272.56
372.254	279.56
372.48	290.56
372.706	252.56
372.932	271.56
373.158	261.56
373.384	272.56
373.61	281.56
373.835	268.56
374.061	293.56
374.287	274.56
374.513	262.56
374.739	275.56
374.965	288.56
375.191	279.56
375.416	275.56
375.642	281.56
375.868	254.56
376.094	264.56
376.319	285.56
376.545	262.56
376.771	273.56
376.997	281.56
377.222	281.56
377.448	271.56
377.674	248.56
377.899	265.56
378.125	274.56
378.35	259.56
378.576	272.56
378.802	273.56
379.027	269.56
379.253	264.56
379.478	263.56
379.704	263.56
379.929	255.56
380.155	267.56
380.38	256.56
380.606	263.56
380.831	275.56
381.057	273.56
381.282	273.56
381.507	281.56
381.733	263.56
381.958	261.56
382.184	264.56
382.409	258.56
382.634	267.56
382.86	269.56
383.085	290.56
383.31	281.56
383.535	274.56
383.761	283.56
383.986	275.56
384.211	273.56
384.436	289.56
384.662	274.56
384.887	265.56
385.112	270.56
385.337	277.56
385.562	284.56
385.787	279.56
386.013	301.56
386.238	277.56
386.463	288.56
386.688	295.56
386.913	281.56
387.138	285.56
387.363	274.56
387.588	271.56
387.813	273.56
388.038	281.56
388.263	286.56
388.488	278.56
388.713	272.56
388.938	289.56
389.163	279.56
389.387	270.56
389.612	275.56
389.837	286.56
390.062	261.56
390.287	273.56
390.512	271.56
390.736	280.56
390.961	297.56
391.186	287.56
391.411	265.56
391.636	271.56
391.86	293.56
392.085	293.56
392.31	298.56
392.534	274.56
392.759	285.56
392.984	265.56
393.208	286.56
393.433	254.56
393.658	274.56
393.882	285.56
394.107	297.56
394.331	295.56
394.556	279.56
394.78	280.56
395.005	276.56
395.229	286.56
395.454	281.56
395.678	280.56
395.903	311.56
396.127	302.56
396.352	314.56
396.576	298.56
396.801	313.56
397.025	305.56
397.249	306.56
397.474	294.56
397.698	301.56
397.922	294.56
398.147	302.56
398.371	330.56
398.595	295.56
398.82	311.56
399.044	320.56
399.268	310.56
399.492	327.56
399.717	353.56
399.941	348.56
400.165	373.56
400.389	358.56
400.613	354.56
400.837	342.56
401.062	325.56
401.286	303.56
401.51	314.56
401.734	314.56
401.958	329.56
402.182	314.56
402.406	314.56
402.63	328.56
402.854	301.56
403.078	320.56
403.302	298.56
403.526	301.56
403.75	317.56
403.974	322.56
404.198	310.56
404.422	321.56
404.645	330.56
404.869	330.56
405.093	360.56
405.317	380.56
405.541	393.56
405.765	352.56
405.988	365.56
406.212	382.56
406.436	369.56
406.66	361.56
406.883	357.56
407.107	359.56
407.331	383.56
407.555	421.56
407.778	402.56
408.002	395.56
408.226	364.56
408.449	363.56
408.673	353.56
408.896	367.56
409.12	382.56
409.344	345.56
409.567	331.56
409.791	340.56
410.014	317.56
410.238	321.56
410.461	332.56
410.685	330.56
410.908	345.56
411.132	366.56
411.355	358.56
411.578	368.56
411.802	337.56
412.025	302.56
412.249	328.56
412.472	347.56
412.695	360.56
412.919	341.56
413.142	331.56
413.365	315.56
413.589	304.56
413.812	312.56
414.035	313.56
414.258	330.56
414.482	302.56
414.705	297.56
414.928	314.56
415.151	309.56
415.374	317.56
415.597	299.56
415.821	293.56
416.044	284.56
416.267	314.56
416.49	307.56
416.713	313.56
416.936	314.56
417.159	295.56
417.382	319.56
417.605	302.56
417.828	314.56
418.051	327.56
418.274	311.56
418.497	314.56
418.72	302.56
418.943	300.56
419.166	320.56
419.389	325.56
419.611	319.56
419.834	319.56
420.057	322.56
420.28	312.56
420.503	315.56
420.726	334.56
420.948	335.56
421.171	381.56
421.394	371.56
421.617	337.56
421.839	334.56
422.062	316.56
422.285	327.56
422.507	371.56
422.73	406.56
422.953	391.56
423.175	369.56
423.398	322.56
423.621	327.56
423.843	351.56
424.066	348.56
424.288	361.56
424.511	350.56
424.733	398.56
424.956	437.56
425.178	429.56
425.401	425.56
425.623	444.56
425.846	399.56
426.068	357.56
426.291	332.56
426.513	331.56
426.735	356.56
426.958	370.56
427.18	432.56
427.402	496.56
427.625	536.56
427.847	493.56
428.069	415.56
428.292	397.56
428.514	363.56
428.736	338.56
428.958	314.56
429.181	338.56
429.403	327.56
429.625	339.56
429.847	339.56
430.069	395.56
430.292	388.56
430.514	338.56
430.736	338.56
430.958	331.56
431.18	318.56
431.402	301.56
431.624	294.56
431.846	307.56
432.068	327.56
432.29	312.56
432.512	309.56
432.734	322.56
432.956	301.56
433.178	329.56
433.4	317.56
433.622	307.56
433.844	293.56
434.066	303.56
434.287	295.56
434.509	299.56
434.731	336.56
434.953	328.56
435.175	336.56
435.397	327.56
435.618	345.56
435.84	390.56
436.062	433.56
436.284	458.56
436.505	407.56
436.727	365.56
436.949	347.56
437.17	333.56
437.392	318.56
437.614	355.56
437.835	375.56
438.057	432.56
438.278	479.56
438.5	487.56
438.721	514.56
438.943	471.56
439.165	383.56
439.386	346.56
439.608	360.56
439.829	357.56
440.05	391.56
440.272	405.56
440.493	386.56
440.715	339.56
440.936	344.56
441.158	327.56
441.379	330.56
441.6	334.56
441.822	364.56
442.043	360.56
442.264	422.56
442.486	445.56
442.707	379.56
442.928	358.56
443.149	377.56
443.371	389.56
443.592	408.56
443.813	439.56
444.034	477.56
444.255	398.56
444.476	369.56
444.698	357.56
444.919	332.56
445.14	434.56
445.361	405.56
445.582	380.56
445.803	438.56
446.024	492.56
446.245	498.56
446.466	458.56
446.687	374.56
446.908	347.56
447.129	323.56
447.35	319.56
447.571	330.56
447.792	322.56
448.013	359.56
448.234	342.56
448.455	375.56
448.675	449.56
448.896	486.56
449.117	439.56
449.338	411.56
449.559	462.56
449.779	503.56
450	418.56
450.221	362.56
450.442	355.56
450.662	333.56
450.883	328.56
451.104	334.56
451.324	318.56
451.545	334.56
451.766	304.56
451.986	312.56
452.207	290.56
452.428	296.56
452.648	300.56
452.869	284.56
453.089	297.56
453.31	313.56
453.53	303.56
453.751	306.56
453.971	315.56
454.192	321.56
454.412	312.56
454.633	292.56
454.853	294.56
455.073	301.56
455.294	311.56
455.514	366.56
455.734	333.56
455.955	287.56
456.175	290.56
456.395	267.56
456.616	278.56
456.836	294.56
457.056	292.56
457.276	268.56
457.497	256.56
457.717	266.56
457.937	303.56
458.157	281.56
458.377	299.56
458.598	312.56
458.818	333.56
459.038	422.56
459.258	391.56
459.478	336.56
459.698	305.56
459.918	313.56
460.138	297.56
460.358	302.56
460.578	300.56
460.798	316.56
461.018	302.56
461.238	293.56
461.458	279.56
461.678	301.56
461.898	305.56
462.118	307.56
462.338	303.56
462.558	315.56
462.777	304.56
462.997	304.56
463.217	322.56
463.437	309.56
463.657	336.56
463.876	330.56
464.096	309.56
464.316	306.56
464.536	329.56
464.755	313.56
464.975	333.56
465.195	350.56
465.414	411.56
465.634	365.56
465.854	341.56
466.073	315.56
466.293	306.56
466.512	279.56
466.732	316.56
466.951	304.56
467.171	289.56
467.391	301.56
467.61	318.56
467.829	328.56
468.049	311.56
468.268	326.56
468.488	306.56
468.707	311.56
468.927	300.56
469.146	295.56
469.365	285.56
469.585	295.56
469.804	305.56
470.023	303.56
470.243	300.56
470.462	319.56
470.681	318.56
470.901	299.56
471.12	317.56
471.339	297.56
471.558	307.56
471.777	295.56
471.997	292.56
472.216	309.56
472.435	322.56
472.654	317.56
472.873	306.56
473.092	300.56
473.311	320.56
473.53	315.56
473.749	323.56
473.968	346.56
474.187	401.56
474.406	403.56
474.625	343.56
474.844	319.56
475.063	292.56
475.282	309.56
475.501	306.56
475.72	318.56
475.939	296.56
476.158	311.56
476.377	315.56
476.596	319.56
476.814	299.56
477.033	321.56
477.252	323.56
477.471	318.56
477.69	331.56
477.908	320.56
478.127	334.56
478.346	318.56
478.564	333.56
478.783	348.56
479.002	324.56
479.22	343.56
479.439	338.56
479.658	365.56
479.876	349.56
480.095	367.56
480.313	383.56
480.532	362.56
480.751	370.56
480.969	389.56
481.188	413.56
481.406	403.56
481.624	380.56
481.843	353.56
482.061	341.56
482.28	345.56
482.498	337.56
482.717	351.56
482.935	350.56
483.153	352.56
483.372	336.56
483.59	349.56
483.808	352.56
484.027	352.56
484.245	346.56
484.463	343.56
484.681	358.56
484.9	342.56
485.118	357.56
485.336	348.56
485.554	361.56
485.772	355.56
485.99	352.56
486.209	375.56
486.427	370.56
486.645	363.56
486.863	366.56
487.081	388.56
487.299	377.56
487.517	380.56
487.735	373.56
487.953	374.56
488.171	390.56
488.389	370.56
488.607	389.56
488.825	383.56
489.043	374.56
489.261	366.56
489.479	380.56
489.696	391.56
489.914	376.56
490.132	382.56
490.35	379.56
490.568	355.56
490.786	409.56
491.003	391.56
491.221	401.56
491.439	411.56
491.657	407.56
491.874	408.56
492.092	418.56
492.31	414.56
492.527	419.56
492.745	430.56
492.963	422.56
493.18	414.56
493.398	432.56
493.615	427.56
493.833	424.56
494.05	440.56
494.268	417.56
494.485	434.56
494.703	416.56
494.92	436.56
495.138	424.56
495.355	459.56
495.573	427.56
495.79	444.56
496.008	433.56
496.225	448.56
496.442	443.56
496.66	428.56
496.877	447.56
497.094	459.56
497.312	445.56
497.529	464.56
497.746	463.56
497.963	462.56
498.181	490.56
498.398	460.56
498.615	474.56
498.832	463.56
499.049	464.56
499.267	469.56
499.484	485.56
499.701	478.56
499.918	507.56
500.135	501.56
500.352	513.56
500.569	543.56
500.786	546.56
501.003	538.56
501.22	539.56
501.437	540.56
501.654	507.56
501.871	533.56
502.088	491.56
