Data from 1982.PennyLincolnUp.Lamp.En5.5.200Scan.071819.P1_HRD10591_16-47-23-962.txt Node
Date: Thu Jul 18 16:47:23 EDT 2019
User: cochatt
Spectrometer: HR+D1059
Trigger mode: 1
Integration Time (sec): 1.000000E-1
Scans to average: 1
Electric dark correction enabled: true
Nonlinearity correction enabled: false
Boxcar width: 0
XAxis mode: Wavelengths
Number of Pixels in Spectrum: 2048
>>>>>Begin Spectral Data<<<<<
223.165	-22.25
223.4	-22.25
223.635	-22.25
223.869	-23.25
224.104	-34.25
224.338	-4.25
224.573	-5.25
224.808	-10.25
225.042	1.75
225.277	-2.25
225.511	-2.25
225.746	6.75
225.98	12.75
226.215	12.75
226.449	10.75
226.683	12.75
226.918	13.75
227.152	32.75
227.387	38.75
227.621	20.75
227.856	47.75
228.09	37.75
228.324	52.75
228.559	57.75
228.793	59.75
229.027	85.75
229.262	92.75
229.496	96.75
229.73	106.75
229.964	134.75
230.199	118.75
230.433	97.75
230.667	86.75
230.901	121.75
231.136	111.75
231.37	93.75
231.604	91.75
231.838	112.75
232.072	95.75
232.306	94.75
232.541	106.75
232.775	99.75
233.009	98.75
233.243	104.75
233.477	100.75
233.711	103.75
233.945	92.75
234.179	117.75
234.413	109.75
234.647	97.75
234.881	96.75
235.115	108.75
235.349	114.75
235.583	113.75
235.817	98.75
236.051	121.75
236.285	104.75
236.519	103.75
236.753	117.75
236.987	129.75
237.221	145.75
237.455	200.75
237.689	153.75
237.922	109.75
238.156	115.75
238.39	113.75
238.624	108.75
238.858	101.75
239.091	105.75
239.325	115.75
239.559	125.75
239.793	103.75
240.027	116.75
240.26	123.75
240.494	133.75
240.728	130.75
240.961	136.75
241.195	116.75
241.429	120.75
241.662	116.75
241.896	118.75
242.13	119.75
242.363	131.75
242.597	117.75
242.83	117.75
243.064	127.75
243.298	127.75
243.531	129.75
243.765	112.75
243.998	111.75
244.232	129.75
244.465	117.75
244.699	106.75
244.932	125.75
245.166	128.75
245.399	139.75
245.633	128.75
245.866	124.75
246.099	118.75
246.333	129.75
246.566	122.75
246.8	119.75
247.033	123.75
247.266	134.75
247.5	132.75
247.733	153.75
247.966	137.75
248.2	139.75
248.433	146.75
248.666	139.75
248.899	151.75
249.133	164.75
249.366	159.75
249.599	165.75
249.832	147.75
250.066	147.75
250.299	149.75
250.532	160.75
250.765	181.75
250.998	197.75
251.231	184.75
251.465	178.75
251.698	163.75
251.931	152.75
252.164	169.75
252.397	169.75
252.63	164.75
252.863	151.75
253.096	186.75
253.329	174.75
253.562	169.75
253.795	175.75
254.028	175.75
254.261	172.75
254.494	186.75
254.727	212.75
254.96	240.75
255.193	221.75
255.426	202.75
255.659	172.75
255.892	207.75
256.124	168.75
256.357	205.75
256.59	185.75
256.823	179.75
257.056	175.75
257.289	184.75
257.521	190.75
257.754	172.75
257.987	176.75
258.22	161.75
258.452	161.75
258.685	180.75
258.918	170.75
259.151	175.75
259.383	191.75
259.616	189.75
259.849	202.75
260.081	183.75
260.314	203.75
260.547	210.75
260.779	181.75
261.012	180.75
261.244	181.75
261.477	163.75
261.71	188.75
261.942	179.75
262.175	205.75
262.407	187.75
262.64	193.75
262.872	175.75
263.105	181.75
263.337	184.75
263.57	174.75
263.802	192.75
264.035	179.75
264.267	150.75
264.499	183.75
264.732	179.75
264.964	193.75
265.197	186.75
265.429	185.75
265.661	183.75
265.894	181.75
266.126	181.75
266.358	173.75
266.591	169.75
266.823	184.75
267.055	205.75
267.287	193.75
267.52	173.75
267.752	177.75
267.984	200.75
268.216	185.75
268.448	189.75
268.681	201.75
268.913	212.75
269.145	221.75
269.377	221.75
269.609	235.75
269.841	203.75
270.073	219.75
270.306	228.75
270.538	268.75
270.77	242.75
271.002	264.75
271.234	225.75
271.466	256.75
271.698	263.75
271.93	249.75
272.162	263.75
272.394	262.75
272.626	244.75
272.858	228.75
273.09	238.75
273.322	216.75
273.553	223.75
273.785	238.75
274.017	208.75
274.249	224.75
274.481	217.75
274.713	208.75
274.945	228.75
275.176	228.75
275.408	221.75
275.64	221.75
275.872	212.75
276.104	201.75
276.335	224.75
276.567	222.75
276.799	245.75
277.031	261.75
277.262	273.75
277.494	264.75
277.726	228.75
277.957	253.75
278.189	246.75
278.421	214.75
278.652	235.75
278.884	203.75
279.115	221.75
279.347	216.75
279.579	231.75
279.81	202.75
280.042	226.75
280.273	212.75
280.505	217.75
280.736	221.75
280.968	222.75
281.199	219.75
281.431	210.75
281.662	217.75
281.894	224.75
282.125	220.75
282.356	234.75
282.588	240.75
282.819	234.75
283.051	246.75
283.282	224.75
283.513	221.75
283.745	221.75
283.976	231.75
284.207	216.75
284.439	205.75
284.67	216.75
284.901	219.75
285.132	217.75
285.364	205.75
285.595	229.75
285.826	221.75
286.057	228.75
286.288	239.75
286.52	204.75
286.751	216.75
286.982	213.75
287.213	219.75
287.444	224.75
287.675	228.75
287.906	231.75
288.138	243.75
288.369	227.75
288.6	236.75
288.831	242.75
289.062	247.75
289.293	238.75
289.524	230.75
289.755	236.75
289.986	235.75
290.217	218.75
290.448	221.75
290.679	214.75
290.91	229.75
291.141	233.75
291.371	228.75
291.602	217.75
291.833	228.75
292.064	232.75
292.295	221.75
292.526	225.75
292.757	228.75
292.987	222.75
293.218	221.75
293.449	227.75
293.68	226.75
293.91	224.75
294.141	255.75
294.372	253.75
294.603	220.75
294.833	216.75
295.064	235.75
295.295	230.75
295.525	222.75
295.756	241.75
295.987	234.75
296.217	251.75
296.448	267.75
296.679	231.75
296.909	224.75
297.14	226.75
297.37	219.75
297.601	213.75
297.831	239.75
298.062	235.75
298.292	239.75
298.523	226.75
298.753	261.75
298.984	227.75
299.214	256.75
299.445	242.75
299.675	246.75
299.905	246.75
300.136	249.75
300.366	235.75
300.597	242.75
300.827	269.75
301.057	256.75
301.288	261.75
301.518	265.75
301.748	265.75
301.979	246.75
302.209	241.75
302.439	252.75
302.669	263.75
302.9	252.75
303.13	270.75
303.36	265.75
303.59	255.75
303.82	266.75
304.051	249.75
304.281	244.75
304.511	236.75
304.741	240.75
304.971	249.75
305.201	243.75
305.431	268.75
305.661	250.75
305.891	240.75
306.121	255.75
306.352	257.75
306.582	248.75
306.812	258.75
307.042	249.75
307.272	260.75
307.502	265.75
307.731	268.75
307.961	260.75
308.191	263.75
308.421	255.75
308.651	263.75
308.881	285.75
309.111	274.75
309.341	266.75
309.571	282.75
309.8	287.75
310.03	276.75
310.26	291.75
310.49	296.75
310.72	305.75
310.949	323.75
311.179	309.75
311.409	320.75
311.639	283.75
311.868	285.75
312.098	310.75
312.328	307.75
312.557	323.75
312.787	323.75
313.017	308.75
313.246	303.75
313.476	312.75
313.706	298.75
313.935	307.75
314.165	316.75
314.394	341.75
314.624	314.75
314.853	305.75
315.083	295.75
315.312	303.75
315.542	315.75
315.771	277.75
316.001	285.75
316.23	299.75
316.46	307.75
316.689	290.75
316.919	311.75
317.148	288.75
317.377	325.75
317.607	311.75
317.836	292.75
318.065	294.75
318.295	299.75
318.524	278.75
318.753	290.75
318.983	315.75
319.212	300.75
319.441	331.75
319.67	309.75
319.9	299.75
320.129	307.75
320.358	322.75
320.587	324.75
320.816	319.75
321.046	328.75
321.275	328.75
321.504	329.75
321.733	351.75
321.962	339.75
322.191	339.75
322.42	350.75
322.649	360.75
322.878	374.75
323.108	360.75
323.337	390.75
323.566	441.75
323.795	444.75
324.024	505.75
324.253	636.75
324.482	992.75
324.71	1441.75
324.939	1842.75
325.168	1505.75
325.397	805.75
325.626	547.75
325.855	450.75
326.084	423.75
326.313	414.75
326.542	426.75
326.77	473.75
326.999	586.75
327.228	825.75
327.457	1203.75
327.686	1323.75
327.914	874.75
328.143	615.75
328.372	515.75
328.6	498.75
328.829	468.75
329.058	488.75
329.287	484.75
329.515	439.75
329.744	422.75
329.972	409.75
330.201	441.75
330.43	456.75
330.658	497.75
330.887	481.75
331.115	493.75
331.344	417.75
331.572	398.75
331.801	411.75
332.03	392.75
332.258	367.75
332.486	373.75
332.715	360.75
332.943	370.75
333.172	348.75
333.4	363.75
333.629	355.75
333.857	364.75
334.085	354.75
334.314	396.75
334.542	415.75
334.771	431.75
334.999	372.75
335.227	361.75
335.455	346.75
335.684	358.75
335.912	342.75
336.14	342.75
336.369	357.75
336.597	336.75
336.825	356.75
337.053	333.75
337.281	353.75
337.51	318.75
337.738	332.75
337.966	337.75
338.194	328.75
338.422	362.75
338.65	332.75
338.878	327.75
339.106	319.75
339.334	329.75
339.562	310.75
339.79	326.75
340.018	331.75
340.246	314.75
340.474	323.75
340.702	331.75
340.93	329.75
341.158	316.75
341.386	305.75
341.614	331.75
341.842	347.75
342.07	311.75
342.298	303.75
342.526	321.75
342.754	314.75
342.981	305.75
343.209	311.75
343.437	310.75
343.665	304.75
343.893	320.75
344.12	324.75
344.348	320.75
344.576	322.75
344.804	324.75
345.031	338.75
345.259	343.75
345.487	345.75
345.714	321.75
345.942	313.75
346.17	313.75
346.397	319.75
346.625	328.75
346.853	306.75
347.08	320.75
347.308	332.75
347.535	336.75
347.763	338.75
347.99	326.75
348.218	343.75
348.445	340.75
348.673	320.75
348.9	319.75
349.128	336.75
349.355	296.75
349.583	310.75
349.81	285.75
350.037	296.75
350.265	299.75
350.492	332.75
350.72	317.75
350.947	299.75
351.174	318.75
351.402	335.75
351.629	333.75
351.856	316.75
352.083	311.75
352.311	344.75
352.538	355.75
352.765	332.75
352.992	327.75
353.22	334.75
353.447	337.75
353.674	314.75
353.901	291.75
354.128	296.75
354.355	314.75
354.583	288.75
354.81	289.75
355.037	277.75
355.264	301.75
355.491	290.75
355.718	295.75
355.945	288.75
356.172	289.75
356.399	293.75
356.626	262.75
356.853	283.75
357.08	290.75
357.307	301.75
357.534	298.75
357.761	280.75
357.988	290.75
358.215	270.75
358.441	281.75
358.668	306.75
358.895	299.75
359.122	295.75
359.349	297.75
359.576	324.75
359.802	326.75
360.029	313.75
360.256	344.75
360.483	328.75
360.709	311.75
360.936	320.75
361.163	307.75
361.39	294.75
361.616	300.75
361.843	300.75
362.07	298.75
362.296	312.75
362.523	322.75
362.749	321.75
362.976	291.75
363.203	296.75
363.429	299.75
363.656	304.75
363.882	297.75
364.109	282.75
364.335	306.75
364.562	299.75
364.788	304.75
365.015	280.75
365.241	298.75
365.468	292.75
365.694	295.75
365.92	319.75
366.147	308.75
366.373	283.75
366.599	296.75
366.826	281.75
367.052	285.75
367.278	295.75
367.505	295.75
367.731	290.75
367.957	283.75
368.184	283.75
368.41	279.75
368.636	296.75
368.862	313.75
369.089	273.75
369.315	289.75
369.541	287.75
369.767	286.75
369.993	291.75
370.219	273.75
370.445	284.75
370.672	276.75
370.898	271.75
371.124	275.75
371.35	295.75
371.576	292.75
371.802	292.75
372.028	288.75
372.254	279.75
372.48	268.75
372.706	277.75
372.932	292.75
373.158	283.75
373.384	289.75
373.61	280.75
373.835	281.75
374.061	289.75
374.287	292.75
374.513	293.75
374.739	280.75
374.965	292.75
375.191	290.75
375.416	287.75
375.642	299.75
375.868	288.75
376.094	288.75
376.319	267.75
376.545	258.75
376.771	266.75
376.997	266.75
377.222	262.75
377.448	260.75
377.674	284.75
377.899	271.75
378.125	281.75
378.35	274.75
378.576	284.75
378.802	261.75
379.027	280.75
379.253	265.75
379.478	299.75
379.704	289.75
379.929	291.75
380.155	267.75
380.38	266.75
380.606	258.75
380.831	286.75
381.057	274.75
381.282	268.75
381.507	273.75
381.733	267.75
381.958	277.75
382.184	273.75
382.409	261.75
382.634	279.75
382.86	278.75
383.085	269.75
383.31	289.75
383.535	281.75
383.761	296.75
383.986	287.75
384.211	285.75
384.436	302.75
384.662	297.75
384.887	273.75
385.112	275.75
385.337	284.75
385.562	269.75
385.787	289.75
386.013	299.75
386.238	291.75
386.463	282.75
386.688	303.75
386.913	290.75
387.138	307.75
387.363	287.75
387.588	297.75
387.813	287.75
388.038	280.75
388.263	304.75
388.488	293.75
388.713	273.75
388.938	290.75
389.163	301.75
389.387	285.75
389.612	280.75
389.837	290.75
390.062	292.75
390.287	276.75
390.512	290.75
390.736	281.75
390.961	298.75
391.186	276.75
391.411	278.75
391.636	285.75
391.86	298.75
392.085	296.75
392.31	282.75
392.534	291.75
392.759	290.75
392.984	296.75
393.208	289.75
393.433	295.75
393.658	279.75
393.882	295.75
394.107	281.75
394.331	290.75
394.556	289.75
394.78	284.75
395.005	283.75
395.229	299.75
395.454	298.75
395.678	282.75
395.903	293.75
396.127	320.75
396.352	323.75
396.576	307.75
396.801	296.75
397.025	292.75
397.249	287.75
397.474	307.75
397.698	306.75
397.922	307.75
398.147	318.75
398.371	306.75
398.595	315.75
398.82	317.75
399.044	326.75
399.268	329.75
399.492	348.75
399.717	351.75
399.941	365.75
400.165	391.75
400.389	396.75
400.613	353.75
400.837	328.75
401.062	335.75
401.286	320.75
401.51	311.75
401.734	304.75
401.958	318.75
402.182	320.75
402.406	329.75
402.63	330.75
402.854	325.75
403.078	329.75
403.302	316.75
403.526	317.75
403.75	344.75
403.974	332.75
404.198	335.75
404.422	343.75
404.645	363.75
404.869	341.75
405.093	353.75
405.317	379.75
405.541	388.75
405.765	370.75
405.988	347.75
406.212	361.75
406.436	376.75
406.66	367.75
406.883	366.75
407.107	378.75
407.331	401.75
407.555	436.75
407.778	433.75
408.002	396.75
408.226	363.75
408.449	346.75
408.673	353.75
408.896	363.75
409.12	411.75
409.344	385.75
409.567	328.75
409.791	353.75
410.014	329.75
410.238	323.75
410.461	336.75
410.685	339.75
410.908	358.75
411.132	373.75
411.355	387.75
411.578	382.75
411.802	323.75
412.025	307.75
412.249	340.75
412.472	351.75
412.695	379.75
412.919	381.75
413.142	341.75
413.365	318.75
413.589	312.75
413.812	325.75
414.035	317.75
414.258	321.75
414.482	324.75
414.705	312.75
414.928	308.75
415.151	299.75
415.374	311.75
415.597	306.75
415.821	311.75
416.044	306.75
416.267	315.75
416.49	313.75
416.713	307.75
416.936	298.75
417.159	307.75
417.382	338.75
417.605	317.75
417.828	313.75
418.051	337.75
418.274	331.75
418.497	291.75
418.72	317.75
418.943	322.75
419.166	308.75
419.389	347.75
419.611	330.75
419.834	323.75
420.057	332.75
420.28	330.75
420.503	325.75
420.726	324.75
420.948	328.75
421.171	368.75
421.394	396.75
421.617	328.75
421.839	331.75
422.062	344.75
422.285	328.75
422.507	400.75
422.73	420.75
422.953	407.75
423.175	375.75
423.398	344.75
423.621	333.75
423.843	369.75
424.066	360.75
424.288	360.75
424.511	371.75
424.733	397.75
424.956	472.75
425.178	443.75
425.401	431.75
425.623	423.75
425.846	389.75
426.068	359.75
426.291	363.75
426.513	351.75
426.735	386.75
426.958	419.75
427.18	448.75
427.402	539.75
427.625	610.75
427.847	516.75
428.069	437.75
428.292	418.75
428.514	351.75
428.736	346.75
428.958	354.75
429.181	338.75
429.403	329.75
429.625	338.75
429.847	363.75
430.069	403.75
430.292	387.75
430.514	354.75
430.736	299.75
430.958	345.75
431.18	323.75
431.402	315.75
431.624	321.75
431.846	306.75
432.068	314.75
432.29	315.75
432.512	315.75
432.734	344.75
432.956	326.75
433.178	322.75
433.4	337.75
433.622	295.75
433.844	297.75
434.066	329.75
434.287	321.75
434.509	318.75
434.731	331.75
434.953	314.75
435.175	328.75
435.397	347.75
435.618	377.75
435.84	385.75
436.062	461.75
436.284	493.75
436.505	411.75
436.727	390.75
436.949	377.75
437.17	361.75
437.392	349.75
437.614	340.75
437.835	394.75
438.057	447.75
438.278	500.75
438.5	519.75
438.721	545.75
438.943	513.75
439.165	404.75
439.386	376.75
439.608	373.75
439.829	383.75
440.05	399.75
440.272	436.75
440.493	397.75
440.715	357.75
440.936	346.75
441.158	326.75
441.379	337.75
441.6	357.75
441.822	346.75
442.043	398.75
442.264	449.75
442.486	415.75
442.707	377.75
442.928	380.75
443.149	385.75
443.371	396.75
443.592	441.75
443.813	470.75
444.034	495.75
444.255	418.75
444.476	374.75
444.698	355.75
444.919	332.75
445.14	437.75
445.361	429.75
445.582	403.75
445.803	461.75
446.024	514.75
446.245	531.75
446.466	478.75
446.687	412.75
446.908	374.75
447.129	343.75
447.35	331.75
447.571	356.75
447.792	342.75
448.013	348.75
448.234	369.75
448.455	409.75
448.675	476.75
448.896	541.75
449.117	452.75
449.338	444.75
449.559	519.75
449.779	545.75
450	437.75
450.221	377.75
450.442	319.75
450.662	333.75
450.883	348.75
451.104	355.75
451.324	359.75
451.545	301.75
451.766	312.75
451.986	315.75
452.207	307.75
452.428	305.75
452.648	315.75
452.869	293.75
453.089	320.75
453.31	318.75
453.53	311.75
453.751	300.75
453.971	300.75
454.192	313.75
454.412	329.75
454.633	315.75
454.853	313.75
455.073	306.75
455.294	318.75
455.514	377.75
455.734	364.75
455.955	298.75
456.175	304.75
456.395	282.75
456.616	282.75
456.836	289.75
457.056	277.75
457.276	270.75
457.497	298.75
457.717	278.75
457.937	287.75
458.157	293.75
458.377	296.75
458.598	321.75
458.818	360.75
459.038	415.75
459.258	409.75
459.478	345.75
459.698	325.75
459.918	309.75
460.138	321.75
460.358	304.75
460.578	313.75
460.798	334.75
461.018	318.75
461.238	313.75
461.458	323.75
461.678	308.75
461.898	289.75
462.118	317.75
462.338	311.75
462.558	311.75
462.777	306.75
462.997	328.75
463.217	348.75
463.437	322.75
463.657	324.75
463.876	321.75
464.096	309.75
464.316	313.75
464.536	345.75
464.755	344.75
464.975	328.75
465.195	368.75
465.414	420.75
465.634	369.75
465.854	338.75
466.073	330.75
466.293	314.75
466.512	310.75
466.732	320.75
466.951	287.75
467.171	325.75
467.391	320.75
467.61	327.75
467.829	317.75
468.049	323.75
468.268	317.75
468.488	307.75
468.707	311.75
468.927	296.75
469.146	275.75
469.365	290.75
469.585	287.75
469.804	301.75
470.023	301.75
470.243	304.75
470.462	305.75
470.681	322.75
470.901	315.75
471.12	306.75
471.339	324.75
471.558	310.75
471.777	303.75
471.997	313.75
472.216	319.75
472.435	359.75
472.654	329.75
472.873	301.75
473.092	310.75
473.311	297.75
473.53	316.75
473.749	341.75
473.968	371.75
474.187	432.75
474.406	427.75
474.625	337.75
474.844	327.75
475.063	299.75
475.282	323.75
475.501	300.75
475.72	333.75
475.939	298.75
476.158	327.75
476.377	309.75
476.596	315.75
476.814	329.75
477.033	335.75
477.252	307.75
477.471	322.75
477.69	332.75
477.908	337.75
478.127	328.75
478.346	326.75
478.564	323.75
478.783	330.75
479.002	354.75
479.22	336.75
479.439	355.75
479.658	365.75
479.876	369.75
480.095	359.75
480.313	394.75
480.532	375.75
480.751	368.75
480.969	355.75
481.188	433.75
481.406	456.75
481.624	408.75
481.843	372.75
482.061	375.75
482.28	345.75
482.498	360.75
482.717	345.75
482.935	370.75
483.153	363.75
483.372	355.75
483.59	345.75
483.808	355.75
484.027	340.75
484.245	362.75
484.463	361.75
484.681	344.75
484.9	350.75
485.118	372.75
485.336	366.75
485.554	360.75
485.772	369.75
485.99	377.75
486.209	380.75
486.427	383.75
486.645	379.75
486.863	382.75
487.081	393.75
487.299	391.75
487.517	382.75
487.735	380.75
487.953	378.75
488.171	382.75
488.389	384.75
488.607	390.75
488.825	376.75
489.043	394.75
489.261	372.75
489.479	411.75
489.696	393.75
489.914	381.75
490.132	380.75
490.35	386.75
490.568	384.75
490.786	413.75
491.003	405.75
491.221	405.75
491.439	437.75
491.657	426.75
491.874	431.75
492.092	439.75
492.31	458.75
492.527	447.75
492.745	443.75
492.963	444.75
493.18	443.75
493.398	442.75
493.615	462.75
493.833	447.75
494.05	451.75
494.268	444.75
494.485	444.75
494.703	414.75
494.92	469.75
495.138	443.75
495.355	453.75
495.573	460.75
495.79	431.75
496.008	483.75
496.225	470.75
496.442	464.75
496.66	461.75
496.877	447.75
497.094	436.75
497.312	470.75
497.529	453.75
497.746	484.75
497.963	488.75
498.181	481.75
498.398	477.75
498.615	503.75
498.832	491.75
499.049	480.75
499.267	491.75
499.484	499.75
499.701	503.75
499.918	524.75
500.135	532.75
500.352	542.75
500.569	561.75
500.786	580.75
501.003	549.75
501.22	529.75
501.437	532.75
501.654	533.75
501.871	556.75
502.088	531.75
