Data from 1982.PennyLincolnUp.Lamp.En5.5.200Scan.071819.P1_HRD10591_16-45-17-961.txt Node
Date: Thu Jul 18 16:45:17 EDT 2019
User: cochatt
Spectrometer: HR+D1059
Trigger mode: 1
Integration Time (sec): 1.000000E-1
Scans to average: 1
Electric dark correction enabled: true
Nonlinearity correction enabled: false
Boxcar width: 0
XAxis mode: Wavelengths
Number of Pixels in Spectrum: 2048
>>>>>Begin Spectral Data<<<<<
223.165	-6.56
223.4	-6.56
223.635	-6.56
223.869	-22.56
224.104	-6.56
224.338	-14.56
224.573	-14.56
224.808	-22.56
225.042	-5.56
225.277	-8.56
225.511	-6.56
225.746	4.44
225.98	6.44
226.215	20.44
226.449	2.44
226.683	15.44
226.918	32.44
227.152	26.44
227.387	26.44
227.621	54.44
227.856	30.44
228.09	57.44
228.324	47.44
228.559	54.44
228.793	63.44
229.027	79.44
229.262	90.44
229.496	89.44
229.73	112.44
229.964	133.44
230.199	109.44
230.433	96.44
230.667	96.44
230.901	101.44
231.136	103.44
231.37	109.44
231.604	96.44
231.838	104.44
232.072	91.44
232.306	105.44
232.541	111.44
232.775	103.44
233.009	103.44
233.243	109.44
233.477	101.44
233.711	117.44
233.945	97.44
234.179	100.44
234.413	107.44
234.647	121.44
234.881	100.44
235.115	100.44
235.349	114.44
235.583	108.44
235.817	108.44
236.051	109.44
236.285	98.44
236.519	112.44
236.753	103.44
236.987	121.44
237.221	145.44
237.455	158.44
237.689	136.44
237.922	114.44
238.156	119.44
238.39	112.44
238.624	98.44
238.858	97.44
239.091	110.44
239.325	94.44
239.559	119.44
239.793	102.44
240.027	116.44
240.26	110.44
240.494	115.44
240.728	114.44
240.961	107.44
241.195	132.44
241.429	97.44
241.662	114.44
241.896	117.44
242.13	92.44
242.363	108.44
242.597	102.44
242.83	104.44
243.064	110.44
243.298	112.44
243.531	120.44
243.765	119.44
243.998	121.44
244.232	110.44
244.465	112.44
244.699	117.44
244.932	118.44
245.166	118.44
245.399	108.44
245.633	132.44
245.866	137.44
246.099	131.44
246.333	119.44
246.566	123.44
246.8	127.44
247.033	129.44
247.266	135.44
247.5	121.44
247.733	135.44
247.966	113.44
248.2	128.44
248.433	127.44
248.666	147.44
248.899	150.44
249.133	156.44
249.366	158.44
249.599	156.44
249.832	147.44
250.066	140.44
250.299	144.44
250.532	150.44
250.765	170.44
250.998	161.44
251.231	166.44
251.465	166.44
251.698	153.44
251.931	150.44
252.164	141.44
252.397	156.44
252.63	155.44
252.863	155.44
253.096	164.44
253.329	174.44
253.562	173.44
253.795	160.44
254.028	186.44
254.261	183.44
254.494	182.44
254.727	175.44
254.96	204.44
255.193	201.44
255.426	182.44
255.659	188.44
255.892	160.44
256.124	164.44
256.357	161.44
256.59	160.44
256.823	170.44
257.056	177.44
257.289	150.44
257.521	152.44
257.754	162.44
257.987	171.44
258.22	172.44
258.452	162.44
258.685	165.44
258.918	182.44
259.151	180.44
259.383	168.44
259.616	160.44
259.849	178.44
260.081	169.44
260.314	189.44
260.547	196.44
260.779	183.44
261.012	166.44
261.244	169.44
261.477	197.44
261.71	187.44
261.942	182.44
262.175	183.44
262.407	181.44
262.64	167.44
262.872	155.44
263.105	162.44
263.337	167.44
263.57	162.44
263.802	145.44
264.035	167.44
264.267	158.44
264.499	164.44
264.732	169.44
264.964	173.44
265.197	163.44
265.429	168.44
265.661	160.44
265.894	174.44
266.126	167.44
266.358	167.44
266.591	162.44
266.823	173.44
267.055	172.44
267.287	149.44
267.52	151.44
267.752	169.44
267.984	164.44
268.216	169.44
268.448	194.44
268.681	177.44
268.913	193.44
269.145	191.44
269.377	186.44
269.609	180.44
269.841	203.44
270.073	199.44
270.306	214.44
270.538	215.44
270.77	222.44
271.002	229.44
271.234	221.44
271.466	220.44
271.698	218.44
271.93	226.44
272.162	222.44
272.394	225.44
272.626	220.44
272.858	216.44
273.09	202.44
273.322	206.44
273.553	198.44
273.785	197.44
274.017	176.44
274.249	186.44
274.481	206.44
274.713	207.44
274.945	182.44
275.176	188.44
275.408	192.44
275.64	203.44
275.872	193.44
276.104	196.44
276.335	196.44
276.567	213.44
276.799	207.44
277.031	212.44
277.262	226.44
277.494	229.44
277.726	216.44
277.957	213.44
278.189	210.44
278.421	206.44
278.652	185.44
278.884	197.44
279.115	186.44
279.347	204.44
279.579	201.44
279.81	180.44
280.042	198.44
280.273	203.44
280.505	196.44
280.736	192.44
280.968	192.44
281.199	207.44
281.431	190.44
281.662	206.44
281.894	203.44
282.125	183.44
282.356	203.44
282.588	215.44
282.819	221.44
283.051	203.44
283.282	205.44
283.513	214.44
283.745	212.44
283.976	205.44
284.207	204.44
284.439	196.44
284.67	214.44
284.901	210.44
285.132	215.44
285.364	200.44
285.595	201.44
285.826	197.44
286.057	212.44
286.288	210.44
286.52	203.44
286.751	217.44
286.982	201.44
287.213	215.44
287.444	194.44
287.675	206.44
287.906	217.44
288.138	235.44
288.369	231.44
288.6	220.44
288.831	217.44
289.062	214.44
289.293	212.44
289.524	228.44
289.755	223.44
289.986	210.44
290.217	218.44
290.448	202.44
290.679	196.44
290.91	227.44
291.141	208.44
291.371	193.44
291.602	212.44
291.833	218.44
292.064	207.44
292.295	218.44
292.526	213.44
292.757	209.44
292.987	224.44
293.218	211.44
293.449	200.44
293.68	210.44
293.91	209.44
294.141	215.44
294.372	214.44
294.603	204.44
294.833	218.44
295.064	210.44
295.295	225.44
295.525	217.44
295.756	227.44
295.987	218.44
296.217	240.44
296.448	233.44
296.679	258.44
296.909	220.44
297.14	215.44
297.37	217.44
297.601	229.44
297.831	226.44
298.062	225.44
298.292	222.44
298.523	225.44
298.753	230.44
298.984	210.44
299.214	233.44
299.445	219.44
299.675	229.44
299.905	206.44
300.136	223.44
300.366	239.44
300.597	224.44
300.827	253.44
301.057	220.44
301.288	226.44
301.518	224.44
301.748	228.44
301.979	215.44
302.209	235.44
302.439	216.44
302.669	233.44
302.9	229.44
303.13	227.44
303.36	229.44
303.59	250.44
303.82	239.44
304.051	240.44
304.281	230.44
304.511	219.44
304.741	240.44
304.971	234.44
305.201	240.44
305.431	239.44
305.661	221.44
305.891	236.44
306.121	240.44
306.352	221.44
306.582	244.44
306.812	227.44
307.042	246.44
307.272	249.44
307.502	240.44
307.731	250.44
307.961	248.44
308.191	231.44
308.421	239.44
308.651	228.44
308.881	252.44
309.111	245.44
309.341	240.44
309.571	252.44
309.8	262.44
310.03	273.44
310.26	283.44
310.49	261.44
310.72	260.44
310.949	285.44
311.179	289.44
311.409	269.44
311.639	275.44
311.868	264.44
312.098	279.44
312.328	279.44
312.557	270.44
312.787	282.44
313.017	285.44
313.246	269.44
313.476	262.44
313.706	279.44
313.935	270.44
314.165	268.44
314.394	276.44
314.624	298.44
314.853	261.44
315.083	261.44
315.312	256.44
315.542	270.44
315.771	264.44
316.001	268.44
316.23	269.44
316.46	264.44
316.689	284.44
316.919	262.44
317.148	265.44
317.377	258.44
317.607	272.44
317.836	281.44
318.065	287.44
318.295	277.44
318.524	272.44
318.753	264.44
318.983	268.44
319.212	263.44
319.441	263.44
319.67	273.44
319.9	270.44
320.129	266.44
320.358	286.44
320.587	273.44
320.816	272.44
321.046	308.44
321.275	296.44
321.504	289.44
321.733	286.44
321.962	293.44
322.191	288.44
322.42	303.44
322.649	321.44
322.878	333.44
323.108	320.44
323.337	329.44
323.566	365.44
323.795	393.44
324.024	415.44
324.253	531.44
324.482	788.44
324.71	1116.44
324.939	1462.44
325.168	1171.44
325.397	650.44
325.626	461.44
325.855	407.44
326.084	357.44
326.313	350.44
326.542	362.44
326.77	401.44
326.999	483.44
327.228	693.44
327.457	943.44
327.686	1062.44
327.914	710.44
328.143	492.44
328.372	429.44
328.6	421.44
328.829	392.44
329.058	423.44
329.287	405.44
329.515	360.44
329.744	365.44
329.972	338.44
330.201	372.44
330.43	402.44
330.658	389.44
330.887	422.44
331.115	429.44
331.344	373.44
331.572	346.44
331.801	352.44
332.03	345.44
332.258	329.44
332.486	330.44
332.715	309.44
332.943	311.44
333.172	326.44
333.4	318.44
333.629	322.44
333.857	320.44
334.085	330.44
334.314	345.44
334.542	362.44
334.771	340.44
334.999	342.44
335.227	314.44
335.455	308.44
335.684	309.44
335.912	301.44
336.14	313.44
336.369	323.44
336.597	300.44
336.825	289.44
337.053	307.44
337.281	298.44
337.51	298.44
337.738	292.44
337.966	308.44
338.194	289.44
338.422	328.44
338.65	294.44
338.878	294.44
339.106	304.44
339.334	298.44
339.562	300.44
339.79	284.44
340.018	293.44
340.246	289.44
340.474	294.44
340.702	293.44
340.93	294.44
341.158	304.44
341.386	283.44
341.614	304.44
341.842	292.44
342.07	300.44
342.298	295.44
342.526	291.44
342.754	266.44
342.981	273.44
343.209	288.44
343.437	289.44
343.665	282.44
343.893	294.44
344.12	308.44
344.348	295.44
344.576	290.44
344.804	299.44
345.031	322.44
345.259	306.44
345.487	328.44
345.714	286.44
345.942	270.44
346.17	297.44
346.397	292.44
346.625	296.44
346.853	279.44
347.08	297.44
347.308	290.44
347.535	304.44
347.763	301.44
347.99	316.44
348.218	290.44
348.445	288.44
348.673	296.44
348.9	294.44
349.128	280.44
349.355	305.44
349.583	310.44
349.81	281.44
350.037	270.44
350.265	292.44
350.492	286.44
350.72	287.44
350.947	268.44
351.174	288.44
351.402	295.44
351.629	279.44
351.856	278.44
352.083	292.44
352.311	299.44
352.538	289.44
352.765	312.44
352.992	296.44
353.22	299.44
353.447	286.44
353.674	282.44
353.901	274.44
354.128	273.44
354.355	270.44
354.583	281.44
354.81	288.44
355.037	270.44
355.264	281.44
355.491	264.44
355.718	278.44
355.945	269.44
356.172	255.44
356.399	264.44
356.626	245.44
356.853	271.44
357.08	253.44
357.307	273.44
357.534	271.44
357.761	257.44
357.988	270.44
358.215	256.44
358.441	281.44
358.668	267.44
358.895	280.44
359.122	275.44
359.349	284.44
359.576	287.44
359.802	310.44
360.029	302.44
360.256	326.44
360.483	311.44
360.709	291.44
360.936	283.44
361.163	276.44
361.39	279.44
361.616	290.44
361.843	283.44
362.07	280.44
362.296	274.44
362.523	271.44
362.749	267.44
362.976	272.44
363.203	297.44
363.429	271.44
363.656	265.44
363.882	264.44
364.109	265.44
364.335	279.44
364.562	277.44
364.788	275.44
365.015	281.44
365.241	270.44
365.468	269.44
365.694	289.44
365.92	276.44
366.147	268.44
366.373	248.44
366.599	264.44
366.826	279.44
367.052	272.44
367.278	273.44
367.505	272.44
367.731	281.44
367.957	276.44
368.184	273.44
368.41	275.44
368.636	271.44
368.862	284.44
369.089	269.44
369.315	279.44
369.541	264.44
369.767	261.44
369.993	281.44
370.219	264.44
370.445	265.44
370.672	260.44
370.898	262.44
371.124	273.44
371.35	255.44
371.576	270.44
371.802	268.44
372.028	247.44
372.254	260.44
372.48	266.44
372.706	268.44
372.932	270.44
373.158	269.44
373.384	268.44
373.61	281.44
373.835	253.44
374.061	250.44
374.287	260.44
374.513	271.44
374.739	251.44
374.965	271.44
375.191	279.44
375.416	262.44
375.642	268.44
375.868	273.44
376.094	230.44
376.319	264.44
376.545	279.44
376.771	264.44
376.997	280.44
377.222	258.44
377.448	261.44
377.674	288.44
377.899	254.44
378.125	252.44
378.35	239.44
378.576	246.44
378.802	252.44
379.027	261.44
379.253	247.44
379.478	251.44
379.704	258.44
379.929	262.44
380.155	257.44
380.38	260.44
380.606	260.44
380.831	253.44
381.057	267.44
381.282	256.44
381.507	264.44
381.733	266.44
381.958	254.44
382.184	268.44
382.409	264.44
382.634	255.44
382.86	257.44
383.085	271.44
383.31	260.44
383.535	256.44
383.761	256.44
383.986	263.44
384.211	265.44
384.436	280.44
384.662	280.44
384.887	269.44
385.112	264.44
385.337	279.44
385.562	273.44
385.787	284.44
386.013	282.44
386.238	287.44
386.463	296.44
386.688	267.44
386.913	245.44
387.138	267.44
387.363	274.44
387.588	281.44
387.813	266.44
388.038	277.44
388.263	273.44
388.488	274.44
388.713	255.44
388.938	283.44
389.163	269.44
389.387	278.44
389.612	269.44
389.837	267.44
390.062	272.44
390.287	279.44
390.512	250.44
390.736	257.44
390.961	286.44
391.186	282.44
391.411	282.44
391.636	272.44
391.86	263.44
392.085	279.44
392.31	278.44
392.534	275.44
392.759	285.44
392.984	268.44
393.208	281.44
393.433	278.44
393.658	263.44
393.882	264.44
394.107	274.44
394.331	273.44
394.556	285.44
394.78	267.44
395.005	264.44
395.229	255.44
395.454	261.44
395.678	276.44
395.903	284.44
396.127	310.44
396.352	281.44
396.576	273.44
396.801	295.44
397.025	287.44
397.249	278.44
397.474	277.44
397.698	299.44
397.922	286.44
398.147	291.44
398.371	301.44
398.595	309.44
398.82	301.44
399.044	289.44
399.268	310.44
399.492	315.44
399.717	333.44
399.941	326.44
400.165	349.44
400.389	363.44
400.613	340.44
400.837	325.44
401.062	306.44
401.286	311.44
401.51	287.44
401.734	310.44
401.958	309.44
402.182	316.44
402.406	302.44
402.63	312.44
402.854	284.44
403.078	316.44
403.302	308.44
403.526	304.44
403.75	301.44
403.974	310.44
404.198	303.44
404.422	310.44
404.645	302.44
404.869	324.44
405.093	324.44
405.317	346.44
405.541	383.44
405.765	358.44
405.988	308.44
406.212	330.44
406.436	333.44
406.66	367.44
406.883	357.44
407.107	351.44
407.331	360.44
407.555	399.44
407.778	398.44
408.002	345.44
408.226	343.44
408.449	341.44
408.673	353.44
408.896	355.44
409.12	373.44
409.344	352.44
409.567	312.44
409.791	312.44
410.014	312.44
410.238	305.44
410.461	324.44
410.685	333.44
410.908	335.44
411.132	347.44
411.355	338.44
411.578	346.44
411.802	316.44
412.025	292.44
412.249	309.44
412.472	344.44
412.695	348.44
412.919	332.44
413.142	319.44
413.365	299.44
413.589	293.44
413.812	291.44
414.035	326.44
414.258	283.44
414.482	272.44
414.705	288.44
414.928	285.44
415.151	293.44
415.374	299.44
415.597	288.44
415.821	297.44
416.044	286.44
416.267	297.44
416.49	295.44
416.713	314.44
416.936	280.44
417.159	290.44
417.382	291.44
417.605	300.44
417.828	305.44
418.051	285.44
418.274	284.44
418.497	302.44
418.72	285.44
418.943	306.44
419.166	307.44
419.389	308.44
419.611	308.44
419.834	310.44
420.057	308.44
420.28	301.44
420.503	301.44
420.726	315.44
420.948	316.44
421.171	356.44
421.394	345.44
421.617	306.44
421.839	308.44
422.062	306.44
422.285	311.44
422.507	346.44
422.73	392.44
422.953	367.44
423.175	340.44
423.398	329.44
423.621	330.44
423.843	328.44
424.066	320.44
424.288	337.44
424.511	336.44
424.733	382.44
424.956	416.44
425.178	409.44
425.401	405.44
425.623	398.44
425.846	337.44
426.068	332.44
426.291	321.44
426.513	337.44
426.735	339.44
426.958	380.44
427.18	423.44
427.402	474.44
427.625	490.44
427.847	468.44
428.069	410.44
428.292	381.44
428.514	325.44
428.736	318.44
428.958	309.44
429.181	310.44
429.403	327.44
429.625	311.44
429.847	330.44
430.069	374.44
430.292	362.44
430.514	312.44
430.736	314.44
430.958	298.44
431.18	299.44
431.402	289.44
431.624	290.44
431.846	294.44
432.068	288.44
432.29	281.44
432.512	276.44
432.734	291.44
432.956	288.44
433.178	309.44
433.4	314.44
433.622	292.44
433.844	295.44
434.066	288.44
434.287	295.44
434.509	280.44
434.731	312.44
434.953	304.44
435.175	321.44
435.397	306.44
435.618	351.44
435.84	383.44
436.062	413.44
436.284	437.44
436.505	369.44
436.727	366.44
436.949	313.44
437.17	309.44
437.392	311.44
437.614	312.44
437.835	343.44
438.057	380.44
438.278	446.44
438.5	441.44
438.721	471.44
438.943	466.44
439.165	381.44
439.386	356.44
439.608	358.44
439.829	346.44
440.05	353.44
440.272	376.44
440.493	348.44
440.715	317.44
440.936	312.44
441.158	316.44
441.379	301.44
441.6	330.44
441.822	328.44
442.043	351.44
442.264	394.44
442.486	398.44
442.707	345.44
442.928	338.44
443.149	357.44
443.371	372.44
443.592	380.44
443.813	427.44
444.034	444.44
444.255	402.44
444.476	346.44
444.698	328.44
444.919	330.44
445.14	413.44
445.361	359.44
445.582	349.44
445.803	402.44
446.024	453.44
446.245	449.44
446.466	407.44
446.687	363.44
446.908	346.44
447.129	335.44
447.35	326.44
447.571	300.44
447.792	308.44
448.013	306.44
448.234	304.44
448.455	359.44
448.675	410.44
448.896	470.44
449.117	404.44
449.338	392.44
449.559	446.44
449.779	502.44
450	409.44
450.221	336.44
450.442	321.44
450.662	306.44
450.883	304.44
451.104	318.44
451.324	306.44
451.545	282.44
451.766	280.44
451.986	292.44
452.207	278.44
452.428	290.44
452.648	280.44
452.869	281.44
453.089	297.44
453.31	280.44
453.53	284.44
453.751	277.44
453.971	275.44
454.192	290.44
454.412	296.44
454.633	287.44
454.853	269.44
455.073	272.44
455.294	306.44
455.514	331.44
455.734	320.44
455.955	288.44
456.175	277.44
456.395	268.44
456.616	271.44
456.836	264.44
457.056	263.44
457.276	261.44
457.497	253.44
457.717	257.44
457.937	252.44
458.157	271.44
458.377	275.44
458.598	275.44
458.818	313.44
459.038	367.44
459.258	368.44
459.478	337.44
459.698	298.44
459.918	304.44
460.138	280.44
460.358	278.44
460.578	286.44
460.798	296.44
461.018	274.44
461.238	286.44
461.458	293.44
461.678	293.44
461.898	288.44
462.118	266.44
462.338	312.44
462.558	309.44
462.777	298.44
462.997	311.44
463.217	298.44
463.437	305.44
463.657	305.44
463.876	317.44
464.096	293.44
464.316	303.44
464.536	312.44
464.755	292.44
464.975	310.44
465.195	326.44
465.414	373.44
465.634	338.44
465.854	312.44
466.073	299.44
466.293	267.44
466.512	270.44
466.732	269.44
466.951	259.44
467.171	278.44
467.391	300.44
467.61	290.44
467.829	284.44
468.049	279.44
468.268	288.44
468.488	282.44
468.707	268.44
468.927	278.44
469.146	267.44
469.365	278.44
469.585	293.44
469.804	305.44
470.023	280.44
470.243	280.44
470.462	300.44
470.681	322.44
470.901	291.44
471.12	281.44
471.339	293.44
471.558	285.44
471.777	278.44
471.997	292.44
472.216	271.44
472.435	326.44
472.654	294.44
472.873	281.44
473.092	296.44
473.311	292.44
473.53	270.44
473.749	286.44
473.968	344.44
474.187	380.44
474.406	382.44
474.625	319.44
474.844	303.44
475.063	273.44
475.282	272.44
475.501	291.44
475.72	280.44
475.939	290.44
476.158	294.44
476.377	317.44
476.596	294.44
476.814	282.44
477.033	303.44
477.252	298.44
477.471	288.44
477.69	302.44
477.908	300.44
478.127	306.44
478.346	316.44
478.564	317.44
478.783	311.44
479.002	321.44
479.22	322.44
479.439	326.44
479.658	340.44
479.876	344.44
480.095	336.44
480.313	349.44
480.532	347.44
480.751	336.44
480.969	362.44
481.188	366.44
481.406	382.44
481.624	340.44
481.843	345.44
482.061	343.44
482.28	326.44
482.498	331.44
482.717	313.44
482.935	323.44
483.153	336.44
483.372	322.44
483.59	338.44
483.808	324.44
484.027	310.44
484.245	336.44
484.463	330.44
484.681	337.44
484.9	333.44
485.118	329.44
485.336	332.44
485.554	332.44
485.772	344.44
485.99	344.44
486.209	337.44
486.427	334.44
486.645	351.44
486.863	348.44
487.081	374.44
487.299	360.44
487.517	359.44
487.735	360.44
487.953	345.44
488.171	354.44
488.389	356.44
488.607	361.44
488.825	338.44
489.043	356.44
489.261	358.44
489.479	377.44
489.696	359.44
489.914	357.44
490.132	359.44
490.35	356.44
490.568	378.44
490.786	359.44
491.003	382.44
491.221	386.44
491.439	388.44
491.657	392.44
491.874	390.44
492.092	398.44
492.31	398.44
492.527	382.44
492.745	387.44
492.963	410.44
493.18	401.44
493.398	401.44
493.615	394.44
493.833	402.44
494.05	397.44
494.268	411.44
494.485	402.44
494.703	401.44
494.92	424.44
495.138	410.44
495.355	401.44
495.573	420.44
495.79	398.44
496.008	425.44
496.225	421.44
496.442	411.44
496.66	410.44
496.877	420.44
497.094	421.44
497.312	420.44
497.529	433.44
497.746	428.44
497.963	430.44
498.181	427.44
498.398	449.44
498.615	436.44
498.832	456.44
499.049	451.44
499.267	452.44
499.484	469.44
499.701	463.44
499.918	494.44
500.135	492.44
500.352	502.44
500.569	507.44
500.786	527.44
501.003	522.44
501.22	510.44
501.437	482.44
501.654	495.44
501.871	490.44
502.088	472.44
502.305	482.44
