Data from 1982.PennyLincolnUp.Lamp.En5.5.200Scan.071819.P1_HRD10591_16-46-55-962.txt Node
Date: Thu Jul 18 16:46:55 EDT 2019
User: cochatt
Spectrometer: HR+D1059
Trigger mode: 1
Integration Time (sec): 1.000000E-1
Scans to average: 1
Electric dark correction enabled: true
Nonlinearity correction enabled: false
Boxcar width: 0
XAxis mode: Wavelengths
Number of Pixels in Spectrum: 2048
>>>>>Begin Spectral Data<<<<<
223.165	4.88
223.4	4.88
223.635	4.88
223.869	-15.12
224.104	-12.12
224.338	-22.12
224.573	-4.12
224.808	-9.12
225.042	-15.12
225.277	-10.12
225.511	-16.12
225.746	-2.12
225.98	1.88
226.215	12.88
226.449	5.88
226.683	6.88
226.918	33.88
227.152	39.88
227.387	37.88
227.621	29.88
227.856	38.88
228.09	26.88
228.324	46.88
228.559	56.88
228.793	65.88
229.027	82.88
229.262	91.88
229.496	98.88
229.73	115.88
229.964	125.88
230.199	116.88
230.433	101.88
230.667	98.88
230.901	100.88
231.136	99.88
231.37	103.88
231.604	91.88
231.838	91.88
232.072	99.88
232.306	105.88
232.541	97.88
232.775	106.88
233.009	91.88
233.243	89.88
233.477	88.88
233.711	101.88
233.945	95.88
234.179	101.88
234.413	107.88
234.647	90.88
234.881	112.88
235.115	105.88
235.349	91.88
235.583	104.88
235.817	115.88
236.051	104.88
236.285	109.88
236.519	115.88
236.753	121.88
236.987	116.88
237.221	150.88
237.455	173.88
237.689	146.88
237.922	97.88
238.156	117.88
238.39	127.88
238.624	119.88
238.858	97.88
239.091	101.88
239.325	106.88
239.559	105.88
239.793	107.88
240.027	116.88
240.26	122.88
240.494	126.88
240.728	121.88
240.961	124.88
241.195	135.88
241.429	119.88
241.662	123.88
241.896	124.88
242.13	130.88
242.363	101.88
242.597	110.88
242.83	114.88
243.064	130.88
243.298	125.88
243.531	115.88
243.765	117.88
243.998	100.88
244.232	114.88
244.465	124.88
244.699	114.88
244.932	116.88
245.166	130.88
245.399	136.88
245.633	125.88
245.866	136.88
246.099	122.88
246.333	124.88
246.566	130.88
246.8	117.88
247.033	136.88
247.266	138.88
247.5	129.88
247.733	148.88
247.966	156.88
248.2	134.88
248.433	143.88
248.666	129.88
248.899	137.88
249.133	164.88
249.366	163.88
249.599	163.88
249.832	154.88
250.066	142.88
250.299	160.88
250.532	161.88
250.765	179.88
250.998	156.88
251.231	168.88
251.465	173.88
251.698	171.88
251.931	157.88
252.164	173.88
252.397	169.88
252.63	151.88
252.863	166.88
253.096	177.88
253.329	172.88
253.562	169.88
253.795	171.88
254.028	174.88
254.261	181.88
254.494	180.88
254.727	211.88
254.96	217.88
255.193	210.88
255.426	202.88
255.659	188.88
255.892	177.88
256.124	192.88
256.357	200.88
256.59	172.88
256.823	170.88
257.056	160.88
257.289	171.88
257.521	164.88
257.754	173.88
257.987	171.88
258.22	183.88
258.452	174.88
258.685	178.88
258.918	176.88
259.151	160.88
259.383	197.88
259.616	185.88
259.849	174.88
260.081	191.88
260.314	208.88
260.547	197.88
260.779	182.88
261.012	193.88
261.244	173.88
261.477	188.88
261.71	184.88
261.942	200.88
262.175	207.88
262.407	182.88
262.64	176.88
262.872	168.88
263.105	190.88
263.337	183.88
263.57	180.88
263.802	172.88
264.035	170.88
264.267	157.88
264.499	170.88
264.732	181.88
264.964	176.88
265.197	180.88
265.429	181.88
265.661	180.88
265.894	179.88
266.126	162.88
266.358	157.88
266.591	170.88
266.823	182.88
267.055	186.88
267.287	185.88
267.52	201.88
267.752	202.88
267.984	197.88
268.216	174.88
268.448	185.88
268.681	198.88
268.913	169.88
269.145	199.88
269.377	194.88
269.609	219.88
269.841	212.88
270.073	217.88
270.306	260.88
270.538	250.88
270.77	256.88
271.002	245.88
271.234	252.88
271.466	221.88
271.698	237.88
271.93	235.88
272.162	250.88
272.394	232.88
272.626	220.88
272.858	220.88
273.09	224.88
273.322	228.88
273.553	209.88
273.785	207.88
274.017	218.88
274.249	212.88
274.481	213.88
274.713	214.88
274.945	210.88
275.176	215.88
275.408	196.88
275.64	213.88
275.872	202.88
276.104	206.88
276.335	210.88
276.567	226.88
276.799	236.88
277.031	234.88
277.262	256.88
277.494	240.88
277.726	236.88
277.957	213.88
278.189	218.88
278.421	213.88
278.652	220.88
278.884	205.88
279.115	210.88
279.347	198.88
279.579	218.88
279.81	214.88
280.042	212.88
280.273	211.88
280.505	201.88
280.736	199.88
280.968	200.88
281.199	202.88
281.431	224.88
281.662	207.88
281.894	216.88
282.125	210.88
282.356	230.88
282.588	234.88
282.819	228.88
283.051	221.88
283.282	212.88
283.513	207.88
283.745	194.88
283.976	216.88
284.207	235.88
284.439	219.88
284.67	221.88
284.901	210.88
285.132	228.88
285.364	195.88
285.595	225.88
285.826	227.88
286.057	222.88
286.288	219.88
286.52	219.88
286.751	218.88
286.982	220.88
287.213	223.88
287.444	212.88
287.675	227.88
287.906	214.88
288.138	221.88
288.369	231.88
288.6	222.88
288.831	226.88
289.062	209.88
289.293	230.88
289.524	226.88
289.755	209.88
289.986	209.88
290.217	216.88
290.448	221.88
290.679	225.88
290.91	238.88
291.141	212.88
291.371	227.88
291.602	223.88
291.833	216.88
292.064	221.88
292.295	218.88
292.526	236.88
292.757	230.88
292.987	220.88
293.218	216.88
293.449	227.88
293.68	218.88
293.91	228.88
294.141	225.88
294.372	221.88
294.603	229.88
294.833	221.88
295.064	200.88
295.295	207.88
295.525	232.88
295.756	231.88
295.987	232.88
296.217	265.88
296.448	240.88
296.679	250.88
296.909	221.88
297.14	231.88
297.37	218.88
297.601	218.88
297.831	240.88
298.062	235.88
298.292	225.88
298.523	242.88
298.753	238.88
298.984	232.88
299.214	202.88
299.445	238.88
299.675	259.88
299.905	224.88
300.136	237.88
300.366	242.88
300.597	225.88
300.827	250.88
301.057	241.88
301.288	244.88
301.518	256.88
301.748	244.88
301.979	251.88
302.209	237.88
302.439	233.88
302.669	243.88
302.9	254.88
303.13	264.88
303.36	268.88
303.59	254.88
303.82	240.88
304.051	245.88
304.281	250.88
304.511	240.88
304.741	280.88
304.971	248.88
305.201	232.88
305.431	239.88
305.661	236.88
305.891	252.88
306.121	250.88
306.352	265.88
306.582	274.88
306.812	264.88
307.042	260.88
307.272	243.88
307.502	263.88
307.731	252.88
307.961	257.88
308.191	233.88
308.421	263.88
308.651	265.88
308.881	276.88
309.111	270.88
309.341	264.88
309.571	283.88
309.8	292.88
310.03	302.88
310.26	284.88
310.49	288.88
310.72	287.88
310.949	303.88
311.179	320.88
311.409	299.88
311.639	298.88
311.868	293.88
312.098	298.88
312.328	304.88
312.557	309.88
312.787	294.88
313.017	297.88
313.246	288.88
313.476	289.88
313.706	296.88
313.935	320.88
314.165	324.88
314.394	304.88
314.624	313.88
314.853	306.88
315.083	306.88
315.312	301.88
315.542	284.88
315.771	280.88
316.001	304.88
316.23	286.88
316.46	288.88
316.689	292.88
316.919	291.88
317.148	288.88
317.377	288.88
317.607	296.88
317.836	290.88
318.065	299.88
318.295	295.88
318.524	286.88
318.753	292.88
318.983	292.88
319.212	297.88
319.441	300.88
319.67	284.88
319.9	286.88
320.129	282.88
320.358	274.88
320.587	299.88
320.816	304.88
321.046	308.88
321.275	300.88
321.504	310.88
321.733	308.88
321.962	320.88
322.191	327.88
322.42	342.88
322.649	332.88
322.878	363.88
323.108	367.88
323.337	394.88
323.566	421.88
323.795	427.88
324.024	487.88
324.253	618.88
324.482	888.88
324.71	1296.88
324.939	1668.88
325.168	1401.88
325.397	753.88
325.626	509.88
325.855	426.88
326.084	407.88
326.313	397.88
326.542	413.88
326.77	464.88
326.999	585.88
327.228	791.88
327.457	1119.88
327.686	1218.88
327.914	823.88
328.143	556.88
328.372	482.88
328.6	469.88
328.829	449.88
329.058	451.88
329.287	436.88
329.515	418.88
329.744	400.88
329.972	421.88
330.201	407.88
330.43	439.88
330.658	452.88
330.887	470.88
331.115	435.88
331.344	390.88
331.572	375.88
331.801	372.88
332.03	378.88
332.258	361.88
332.486	333.88
332.715	335.88
332.943	332.88
333.172	353.88
333.4	345.88
333.629	362.88
333.857	357.88
334.085	358.88
334.314	374.88
334.542	406.88
334.771	406.88
334.999	365.88
335.227	344.88
335.455	329.88
335.684	342.88
335.912	320.88
336.14	333.88
336.369	309.88
336.597	325.88
336.825	333.88
337.053	330.88
337.281	317.88
337.51	326.88
337.738	327.88
337.966	332.88
338.194	339.88
338.422	326.88
338.65	328.88
338.878	326.88
339.106	306.88
339.334	316.88
339.562	332.88
339.79	314.88
340.018	297.88
340.246	323.88
340.474	322.88
340.702	323.88
340.93	327.88
341.158	308.88
341.386	307.88
341.614	314.88
341.842	342.88
342.07	330.88
342.298	302.88
342.526	313.88
342.754	293.88
342.981	301.88
343.209	294.88
343.437	310.88
343.665	318.88
343.893	306.88
344.12	316.88
344.348	308.88
344.576	317.88
344.804	341.88
345.031	327.88
345.259	342.88
345.487	327.88
345.714	318.88
345.942	308.88
346.17	293.88
346.397	299.88
346.625	294.88
346.853	308.88
347.08	299.88
347.308	299.88
347.535	315.88
347.763	337.88
347.99	314.88
348.218	296.88
348.445	324.88
348.673	324.88
348.9	308.88
349.128	309.88
349.355	296.88
349.583	300.88
349.81	298.88
350.037	291.88
350.265	296.88
350.492	301.88
350.72	301.88
350.947	295.88
351.174	308.88
351.402	316.88
351.629	308.88
351.856	309.88
352.083	318.88
352.311	309.88
352.538	318.88
352.765	342.88
352.992	321.88
353.22	314.88
353.447	291.88
353.674	283.88
353.901	285.88
354.128	269.88
354.355	285.88
354.583	283.88
354.81	286.88
355.037	285.88
355.264	279.88
355.491	266.88
355.718	279.88
355.945	257.88
356.172	274.88
356.399	275.88
356.626	268.88
356.853	293.88
357.08	294.88
357.307	277.88
357.534	272.88
357.761	276.88
357.988	279.88
358.215	291.88
358.441	281.88
358.668	278.88
358.895	287.88
359.122	309.88
359.349	285.88
359.576	311.88
359.802	329.88
360.029	333.88
360.256	335.88
360.483	324.88
360.709	309.88
360.936	309.88
361.163	309.88
361.39	298.88
361.616	303.88
361.843	296.88
362.07	295.88
362.296	283.88
362.523	300.88
362.749	286.88
362.976	283.88
363.203	296.88
363.429	293.88
363.656	296.88
363.882	290.88
364.109	305.88
364.335	288.88
364.562	284.88
364.788	288.88
365.015	307.88
365.241	294.88
365.468	297.88
365.694	305.88
365.92	280.88
366.147	285.88
366.373	285.88
366.599	273.88
366.826	283.88
367.052	292.88
367.278	279.88
367.505	292.88
367.731	281.88
367.957	285.88
368.184	294.88
368.41	306.88
368.636	291.88
368.862	288.88
369.089	281.88
369.315	268.88
369.541	276.88
369.767	274.88
369.993	278.88
370.219	285.88
370.445	286.88
370.672	286.88
370.898	274.88
371.124	285.88
371.35	280.88
371.576	284.88
371.802	285.88
372.028	277.88
372.254	272.88
372.48	277.88
372.706	286.88
372.932	272.88
373.158	289.88
373.384	290.88
373.61	271.88
373.835	292.88
374.061	264.88
374.287	282.88
374.513	264.88
374.739	268.88
374.965	268.88
375.191	292.88
375.416	262.88
375.642	262.88
375.868	281.88
376.094	294.88
376.319	274.88
376.545	272.88
376.771	274.88
376.997	265.88
377.222	272.88
377.448	280.88
377.674	272.88
377.899	275.88
378.125	266.88
378.35	260.88
378.576	269.88
378.802	271.88
379.027	278.88
379.253	265.88
379.478	271.88
379.704	254.88
379.929	275.88
380.155	270.88
380.38	266.88
380.606	251.88
380.831	276.88
381.057	266.88
381.282	294.88
381.507	271.88
381.733	274.88
381.958	280.88
382.184	264.88
382.409	272.88
382.634	285.88
382.86	282.88
383.085	273.88
383.31	277.88
383.535	296.88
383.761	293.88
383.986	273.88
384.211	281.88
384.436	292.88
384.662	270.88
384.887	280.88
385.112	292.88
385.337	278.88
385.562	292.88
385.787	280.88
386.013	291.88
386.238	298.88
386.463	288.88
386.688	278.88
386.913	284.88
387.138	284.88
387.363	281.88
387.588	276.88
387.813	299.88
388.038	284.88
388.263	269.88
388.488	280.88
388.713	286.88
388.938	292.88
389.163	314.88
389.387	286.88
389.612	290.88
389.837	297.88
390.062	292.88
390.287	293.88
390.512	289.88
390.736	274.88
390.961	287.88
391.186	267.88
391.411	300.88
391.636	281.88
391.86	274.88
392.085	287.88
392.31	292.88
392.534	282.88
392.759	276.88
392.984	282.88
393.208	279.88
393.433	262.88
393.658	258.88
393.882	282.88
394.107	272.88
394.331	280.88
394.556	287.88
394.78	256.88
395.005	276.88
395.229	285.88
395.454	290.88
395.678	318.88
395.903	291.88
396.127	297.88
396.352	313.88
396.576	297.88
396.801	297.88
397.025	284.88
397.249	291.88
397.474	304.88
397.698	304.88
397.922	318.88
398.147	301.88
398.371	297.88
398.595	312.88
398.82	312.88
399.044	311.88
399.268	334.88
399.492	323.88
399.717	334.88
399.941	349.88
400.165	380.88
400.389	371.88
400.613	349.88
400.837	340.88
401.062	309.88
401.286	308.88
401.51	313.88
401.734	308.88
401.958	323.88
402.182	323.88
402.406	334.88
402.63	311.88
402.854	321.88
403.078	316.88
403.302	321.88
403.526	312.88
403.75	324.88
403.974	328.88
404.198	319.88
404.422	326.88
404.645	315.88
404.869	322.88
405.093	338.88
405.317	378.88
405.541	381.88
405.765	353.88
405.988	338.88
406.212	358.88
406.436	387.88
406.66	368.88
406.883	342.88
407.107	371.88
407.331	395.88
407.555	429.88
407.778	423.88
408.002	376.88
408.226	358.88
408.449	369.88
408.673	352.88
408.896	374.88
409.12	404.88
409.344	369.88
409.567	348.88
409.791	332.88
410.014	326.88
410.238	310.88
410.461	322.88
410.685	335.88
410.908	339.88
411.132	357.88
411.355	366.88
411.578	367.88
411.802	314.88
412.025	320.88
412.249	331.88
412.472	333.88
412.695	363.88
412.919	348.88
413.142	319.88
413.365	308.88
413.589	308.88
413.812	283.88
414.035	315.88
414.258	304.88
414.482	310.88
414.705	296.88
414.928	309.88
415.151	299.88
415.374	293.88
415.597	303.88
415.821	308.88
416.044	312.88
416.267	298.88
416.49	323.88
416.713	290.88
416.936	312.88
417.159	284.88
417.382	304.88
417.605	308.88
417.828	310.88
418.051	324.88
418.274	313.88
418.497	287.88
418.72	309.88
418.943	325.88
419.166	312.88
419.389	334.88
419.611	334.88
419.834	331.88
420.057	314.88
420.28	304.88
420.503	314.88
420.726	333.88
420.948	333.88
421.171	353.88
421.394	377.88
421.617	338.88
421.839	321.88
422.062	323.88
422.285	352.88
422.507	358.88
422.73	409.88
422.953	389.88
423.175	342.88
423.398	334.88
423.621	345.88
423.843	341.88
424.066	344.88
424.288	349.88
424.511	376.88
424.733	390.88
424.956	442.88
425.178	425.88
425.401	406.88
425.623	448.88
425.846	365.88
426.068	344.88
426.291	368.88
426.513	343.88
426.735	355.88
426.958	380.88
427.18	447.88
427.402	525.88
427.625	565.88
427.847	516.88
428.069	438.88
428.292	391.88
428.514	344.88
428.736	325.88
428.958	334.88
429.181	349.88
429.403	331.88
429.625	339.88
429.847	362.88
430.069	398.88
430.292	380.88
430.514	331.88
430.736	312.88
430.958	312.88
431.18	314.88
431.402	298.88
431.624	306.88
431.846	300.88
432.068	290.88
432.29	308.88
432.512	300.88
432.734	293.88
432.956	297.88
433.178	318.88
433.4	307.88
433.622	304.88
433.844	308.88
434.066	299.88
434.287	299.88
434.509	300.88
434.731	321.88
434.953	332.88
435.175	341.88
435.397	346.88
435.618	356.88
435.84	384.88
436.062	439.88
436.284	462.88
436.505	380.88
436.727	370.88
436.949	346.88
437.17	321.88
437.392	323.88
437.614	331.88
437.835	360.88
438.057	436.88
438.278	480.88
438.5	481.88
438.721	536.88
438.943	482.88
439.165	386.88
439.386	357.88
439.608	370.88
439.829	340.88
440.05	386.88
440.272	410.88
440.493	397.88
440.715	348.88
440.936	334.88
441.158	343.88
441.379	329.88
441.6	341.88
441.822	361.88
442.043	382.88
442.264	436.88
442.486	440.88
442.707	375.88
442.928	364.88
443.149	398.88
443.371	377.88
443.592	416.88
443.813	456.88
444.034	492.88
444.255	399.88
444.476	361.88
444.698	352.88
444.919	342.88
445.14	436.88
445.361	384.88
445.582	382.88
445.803	445.88
446.024	504.88
446.245	472.88
446.466	442.88
446.687	380.88
446.908	360.88
447.129	342.88
447.35	337.88
447.571	321.88
447.792	330.88
448.013	360.88
448.234	331.88
448.455	382.88
448.675	446.88
448.896	499.88
449.117	440.88
449.338	405.88
449.559	502.88
449.779	542.88
450	424.88
450.221	358.88
450.442	332.88
450.662	339.88
450.883	338.88
451.104	335.88
451.324	317.88
451.545	307.88
451.766	300.88
451.986	298.88
452.207	299.88
452.428	290.88
452.648	293.88
452.869	288.88
453.089	311.88
453.31	310.88
453.53	308.88
453.751	312.88
453.971	310.88
454.192	319.88
454.412	314.88
454.633	316.88
454.853	302.88
455.073	294.88
455.294	308.88
455.514	354.88
455.734	338.88
455.955	298.88
456.175	298.88
456.395	297.88
456.616	277.88
456.836	269.88
457.056	259.88
457.276	267.88
457.497	282.88
457.717	284.88
457.937	276.88
458.157	300.88
458.377	300.88
458.598	320.88
458.818	346.88
459.038	386.88
459.258	390.88
459.478	337.88
459.698	304.88
459.918	301.88
460.138	310.88
460.358	304.88
460.578	316.88
460.798	306.88
461.018	310.88
461.238	309.88
461.458	316.88
461.678	296.88
461.898	282.88
462.118	296.88
462.338	306.88
462.558	289.88
462.777	318.88
462.997	309.88
463.217	309.88
463.437	322.88
463.657	312.88
463.876	302.88
464.096	318.88
464.316	292.88
464.536	325.88
464.755	315.88
464.975	320.88
465.195	362.88
465.414	400.88
465.634	360.88
465.854	333.88
466.073	312.88
466.293	298.88
466.512	312.88
466.732	289.88
466.951	292.88
467.171	294.88
467.391	305.88
467.61	292.88
467.829	309.88
468.049	304.88
468.268	310.88
468.488	285.88
468.707	284.88
468.927	297.88
469.146	305.88
469.365	301.88
469.585	278.88
469.804	295.88
470.023	320.88
470.243	310.88
470.462	297.88
470.681	314.88
470.901	307.88
471.12	325.88
471.339	310.88
471.558	292.88
471.777	316.88
471.997	309.88
472.216	316.88
472.435	327.88
472.654	308.88
472.873	315.88
473.092	301.88
473.311	294.88
473.53	287.88
473.749	310.88
473.968	334.88
474.187	411.88
474.406	425.88
474.625	332.88
474.844	344.88
475.063	302.88
475.282	299.88
475.501	302.88
475.72	300.88
475.939	301.88
476.158	328.88
476.377	315.88
476.596	337.88
476.814	312.88
477.033	312.88
477.252	312.88
477.471	328.88
477.69	329.88
477.908	316.88
478.127	339.88
478.346	324.88
478.564	341.88
478.783	333.88
479.002	321.88
479.22	334.88
479.439	340.88
479.658	354.88
479.876	382.88
480.095	365.88
480.313	384.88
480.532	376.88
480.751	376.88
480.969	384.88
481.188	407.88
481.406	450.88
481.624	388.88
481.843	371.88
482.061	356.88
482.28	366.88
482.498	341.88
482.717	340.88
482.935	332.88
483.153	351.88
483.372	348.88
483.59	370.88
483.808	354.88
484.027	362.88
484.245	373.88
484.463	360.88
484.681	368.88
484.9	358.88
485.118	355.88
485.336	349.88
485.554	345.88
485.772	367.88
485.99	360.88
486.209	340.88
486.427	374.88
486.645	377.88
486.863	388.88
487.081	384.88
487.299	390.88
487.517	376.88
487.735	357.88
487.953	368.88
488.171	371.88
488.389	373.88
488.607	398.88
488.825	378.88
489.043	373.88
489.261	380.88
489.479	390.88
489.696	388.88
489.914	364.88
490.132	388.88
490.35	378.88
490.568	397.88
490.786	388.88
491.003	419.88
491.221	412.88
491.439	428.88
491.657	421.88
491.874	421.88
492.092	425.88
492.31	427.88
492.527	412.88
492.745	427.88
492.963	440.88
493.18	447.88
493.398	427.88
493.615	428.88
493.833	428.88
494.05	438.88
494.268	425.88
494.485	436.88
494.703	440.88
494.92	436.88
495.138	440.88
495.355	423.88
495.573	426.88
495.79	430.88
496.008	442.88
496.225	427.88
496.442	415.88
496.66	452.88
496.877	436.88
497.094	426.88
497.312	458.88
497.529	446.88
497.746	448.88
497.963	453.88
498.181	472.88
498.398	473.88
498.615	482.88
498.832	486.88
499.049	465.88
499.267	483.88
499.484	482.88
499.701	527.88
499.918	497.88
500.135	526.88
500.352	544.88
500.569	545.88
500.786	548.88
501.003	531.88
501.22	537.88
501.437	536.88
501.654	526.88
501.871	538.88
502.088	513.88
502.305	509.88
