Data from 1982.PennyLincolnUp.Lamp.En5.5.200Scan.071819.P1_HRD10591_16-46-47-963.txt Node
Date: Thu Jul 18 16:46:47 EDT 2019
User: cochatt
Spectrometer: HR+D1059
Trigger mode: 1
Integration Time (sec): 1.000000E-1
Scans to average: 1
Electric dark correction enabled: true
Nonlinearity correction enabled: false
Boxcar width: 0
XAxis mode: Wavelengths
Number of Pixels in Spectrum: 2048
>>>>>Begin Spectral Data<<<<<
223.165	1.56
223.4	1.56
223.635	1.56
223.869	-19.44
224.104	-14.44
224.338	-21.44
224.573	-7.44
224.808	-11.44
225.042	-4.44
225.277	-14.44
225.511	-15.44
225.746	5.56
225.98	16.56
226.215	10.56
226.449	10.56
226.683	18.56
226.918	24.56
227.152	20.56
227.387	20.56
227.621	39.56
227.856	37.56
228.09	37.56
228.324	68.56
228.559	47.56
228.793	65.56
229.027	78.56
229.262	91.56
229.496	102.56
229.73	111.56
229.964	131.56
230.199	119.56
230.433	107.56
230.667	108.56
230.901	105.56
231.136	98.56
231.37	111.56
231.604	95.56
231.838	93.56
232.072	98.56
232.306	107.56
232.541	109.56
232.775	109.56
233.009	109.56
233.243	96.56
233.477	100.56
233.711	110.56
233.945	98.56
234.179	109.56
234.413	111.56
234.647	98.56
234.881	94.56
235.115	98.56
235.349	103.56
235.583	96.56
235.817	106.56
236.051	117.56
236.285	124.56
236.519	120.56
236.753	104.56
236.987	130.56
237.221	145.56
237.455	165.56
237.689	158.56
237.922	124.56
238.156	111.56
238.39	109.56
238.624	104.56
238.858	109.56
239.091	103.56
239.325	117.56
239.559	115.56
239.793	112.56
240.027	123.56
240.26	136.56
240.494	127.56
240.728	121.56
240.961	128.56
241.195	132.56
241.429	123.56
241.662	125.56
241.896	110.56
242.13	122.56
242.363	104.56
242.597	120.56
242.83	135.56
243.064	114.56
243.298	106.56
243.531	126.56
243.765	127.56
243.998	95.56
244.232	116.56
244.465	121.56
244.699	107.56
244.932	115.56
245.166	124.56
245.399	137.56
245.633	136.56
245.866	139.56
246.099	116.56
246.333	136.56
246.566	120.56
246.8	131.56
247.033	121.56
247.266	123.56
247.5	150.56
247.733	164.56
247.966	155.56
248.2	152.56
248.433	132.56
248.666	146.56
248.899	166.56
249.133	172.56
249.366	170.56
249.599	156.56
249.832	156.56
250.066	141.56
250.299	156.56
250.532	144.56
250.765	161.56
250.998	182.56
251.231	196.56
251.465	179.56
251.698	170.56
251.931	172.56
252.164	150.56
252.397	138.56
252.63	167.56
252.863	163.56
253.096	166.56
253.329	176.56
253.562	202.56
253.795	179.56
254.028	162.56
254.261	181.56
254.494	189.56
254.727	191.56
254.96	226.56
255.193	217.56
255.426	188.56
255.659	174.56
255.892	188.56
256.124	196.56
256.357	196.56
256.59	190.56
256.823	198.56
257.056	179.56
257.289	154.56
257.521	160.56
257.754	172.56
257.987	175.56
258.22	176.56
258.452	181.56
258.685	169.56
258.918	176.56
259.151	173.56
259.383	181.56
259.616	181.56
259.849	190.56
260.081	200.56
260.314	213.56
260.547	207.56
260.779	196.56
261.012	187.56
261.244	188.56
261.477	174.56
261.71	184.56
261.942	196.56
262.175	178.56
262.407	194.56
262.64	174.56
262.872	185.56
263.105	174.56
263.337	178.56
263.57	186.56
263.802	165.56
264.035	171.56
264.267	164.56
264.499	180.56
264.732	171.56
264.964	175.56
265.197	180.56
265.429	166.56
265.661	170.56
265.894	177.56
266.126	172.56
266.358	170.56
266.591	179.56
266.823	182.56
267.055	178.56
267.287	181.56
267.52	178.56
267.752	180.56
267.984	175.56
268.216	180.56
268.448	184.56
268.681	179.56
268.913	202.56
269.145	209.56
269.377	218.56
269.609	212.56
269.841	207.56
270.073	223.56
270.306	251.56
270.538	256.56
270.77	251.56
271.002	255.56
271.234	245.56
271.466	226.56
271.698	245.56
271.93	246.56
272.162	259.56
272.394	253.56
272.626	249.56
272.858	231.56
273.09	229.56
273.322	227.56
273.553	220.56
273.785	212.56
274.017	196.56
274.249	209.56
274.481	208.56
274.713	218.56
274.945	210.56
275.176	206.56
275.408	220.56
275.64	220.56
275.872	211.56
276.104	200.56
276.335	214.56
276.567	216.56
276.799	230.56
277.031	244.56
277.262	234.56
277.494	248.56
277.726	252.56
277.957	243.56
278.189	207.56
278.421	214.56
278.652	224.56
278.884	206.56
279.115	220.56
279.347	210.56
279.579	212.56
279.81	216.56
280.042	207.56
280.273	212.56
280.505	233.56
280.736	208.56
280.968	197.56
281.199	205.56
281.431	206.56
281.662	201.56
281.894	215.56
282.125	212.56
282.356	227.56
282.588	246.56
282.819	234.56
283.051	227.56
283.282	215.56
283.513	227.56
283.745	236.56
283.976	197.56
284.207	214.56
284.439	214.56
284.67	220.56
284.901	227.56
285.132	204.56
285.364	201.56
285.595	205.56
285.826	212.56
286.057	216.56
286.288	221.56
286.52	221.56
286.751	217.56
286.982	223.56
287.213	234.56
287.444	207.56
287.675	226.56
287.906	234.56
288.138	256.56
288.369	238.56
288.6	245.56
288.831	230.56
289.062	233.56
289.293	223.56
289.524	232.56
289.755	222.56
289.986	208.56
290.217	209.56
290.448	226.56
290.679	214.56
290.91	228.56
291.141	226.56
291.371	213.56
291.602	231.56
291.833	211.56
292.064	216.56
292.295	223.56
292.526	222.56
292.757	222.56
292.987	221.56
293.218	222.56
293.449	229.56
293.68	221.56
293.91	239.56
294.141	225.56
294.372	227.56
294.603	208.56
294.833	222.56
295.064	222.56
295.295	220.56
295.525	229.56
295.756	230.56
295.987	234.56
296.217	246.56
296.448	251.56
296.679	234.56
296.909	227.56
297.14	227.56
297.37	228.56
297.601	226.56
297.831	236.56
298.062	247.56
298.292	220.56
298.523	227.56
298.753	226.56
298.984	230.56
299.214	224.56
299.445	238.56
299.675	232.56
299.905	247.56
300.136	230.56
300.366	242.56
300.597	223.56
300.827	241.56
301.057	248.56
301.288	239.56
301.518	245.56
301.748	228.56
301.979	239.56
302.209	250.56
302.439	242.56
302.669	254.56
302.9	253.56
303.13	256.56
303.36	250.56
303.59	252.56
303.82	259.56
304.051	263.56
304.281	262.56
304.511	256.56
304.741	250.56
304.971	262.56
305.201	239.56
305.431	237.56
305.661	244.56
305.891	252.56
306.121	240.56
306.352	273.56
306.582	252.56
306.812	262.56
307.042	256.56
307.272	257.56
307.502	268.56
307.731	256.56
307.961	254.56
308.191	269.56
308.421	256.56
308.651	254.56
308.881	261.56
309.111	262.56
309.341	259.56
309.571	279.56
309.8	259.56
310.03	279.56
310.26	303.56
310.49	290.56
310.72	302.56
310.949	303.56
311.179	325.56
311.409	298.56
311.639	298.56
311.868	293.56
312.098	302.56
312.328	304.56
312.557	306.56
312.787	311.56
313.017	320.56
313.246	311.56
313.476	289.56
313.706	293.56
313.935	314.56
314.165	315.56
314.394	303.56
314.624	322.56
314.853	308.56
315.083	288.56
315.312	296.56
315.542	295.56
315.771	272.56
316.001	290.56
316.23	286.56
316.46	284.56
316.689	308.56
316.919	287.56
317.148	286.56
317.377	302.56
317.607	296.56
317.836	286.56
318.065	283.56
318.295	301.56
318.524	286.56
318.753	300.56
318.983	310.56
319.212	293.56
319.441	298.56
319.67	293.56
319.9	293.56
320.129	280.56
320.358	286.56
320.587	303.56
320.816	313.56
321.046	314.56
321.275	327.56
321.504	317.56
321.733	311.56
321.962	312.56
322.191	342.56
322.42	348.56
322.649	355.56
322.878	370.56
323.108	388.56
323.337	395.56
323.566	405.56
323.795	436.56
324.024	476.56
324.253	609.56
324.482	908.56
324.71	1377.56
324.939	1758.56
325.168	1426.56
325.397	775.56
325.626	522.56
325.855	449.56
326.084	418.56
326.313	389.56
326.542	427.56
326.77	471.56
326.999	597.56
327.228	781.56
327.457	1152.56
327.686	1267.56
327.914	850.56
328.143	580.56
328.372	486.56
328.6	484.56
328.829	431.56
329.058	447.56
329.287	450.56
329.515	422.56
329.744	396.56
329.972	394.56
330.201	427.56
330.43	454.56
330.658	483.56
330.887	499.56
331.115	457.56
331.344	408.56
331.572	388.56
331.801	383.56
332.03	382.56
332.258	369.56
332.486	352.56
332.715	331.56
332.943	348.56
333.172	348.56
333.4	342.56
333.629	343.56
333.857	363.56
334.085	363.56
334.314	379.56
334.542	404.56
334.771	381.56
334.999	382.56
335.227	346.56
335.455	336.56
335.684	335.56
335.912	326.56
336.14	345.56
336.369	331.56
336.597	333.56
336.825	354.56
337.053	322.56
337.281	348.56
337.51	315.56
337.738	338.56
337.966	344.56
338.194	331.56
338.422	331.56
338.65	320.56
338.878	319.56
339.106	314.56
339.334	319.56
339.562	319.56
339.79	333.56
340.018	327.56
340.246	325.56
340.474	304.56
340.702	325.56
340.93	317.56
341.158	330.56
341.386	330.56
341.614	331.56
341.842	319.56
342.07	299.56
342.298	297.56
342.526	293.56
342.754	314.56
342.981	310.56
343.209	308.56
343.437	314.56
343.665	331.56
343.893	294.56
344.12	319.56
344.348	305.56
344.576	320.56
344.804	319.56
345.031	318.56
345.259	334.56
345.487	341.56
345.714	331.56
345.942	309.56
346.17	322.56
346.397	311.56
346.625	314.56
346.853	310.56
347.08	319.56
347.308	312.56
347.535	314.56
347.763	326.56
347.99	311.56
348.218	323.56
348.445	329.56
348.673	318.56
348.9	317.56
349.128	298.56
349.355	302.56
349.583	302.56
349.81	296.56
350.037	306.56
350.265	290.56
350.492	302.56
350.72	304.56
350.947	314.56
351.174	318.56
351.402	327.56
351.629	314.56
351.856	318.56
352.083	331.56
352.311	323.56
352.538	341.56
352.765	310.56
352.992	323.56
353.22	301.56
353.447	301.56
353.674	294.56
353.901	291.56
354.128	296.56
354.355	291.56
354.583	299.56
354.81	283.56
355.037	284.56
355.264	283.56
355.491	290.56
355.718	264.56
355.945	286.56
356.172	291.56
356.399	274.56
356.626	279.56
356.853	283.56
357.08	295.56
357.307	288.56
357.534	291.56
357.761	298.56
357.988	284.56
358.215	299.56
358.441	303.56
358.668	290.56
358.895	296.56
359.122	291.56
359.349	294.56
359.576	299.56
359.802	325.56
360.029	351.56
360.256	347.56
360.483	322.56
360.709	319.56
360.936	294.56
361.163	303.56
361.39	320.56
361.616	299.56
361.843	325.56
362.07	313.56
362.296	299.56
362.523	304.56
362.749	320.56
362.976	288.56
363.203	302.56
363.429	289.56
363.656	296.56
363.882	291.56
364.109	291.56
364.335	293.56
364.562	287.56
364.788	275.56
365.015	272.56
365.241	274.56
365.468	310.56
365.694	284.56
365.92	301.56
366.147	272.56
366.373	265.56
366.599	290.56
366.826	292.56
367.052	304.56
367.278	276.56
367.505	299.56
367.731	281.56
367.957	271.56
368.184	260.56
368.41	300.56
368.636	294.56
368.862	292.56
369.089	284.56
369.315	260.56
369.541	277.56
369.767	268.56
369.993	272.56
370.219	268.56
370.445	292.56
370.672	282.56
370.898	266.56
371.124	269.56
371.35	282.56
371.576	274.56
371.802	273.56
372.028	276.56
372.254	270.56
372.48	268.56
372.706	272.56
372.932	279.56
373.158	264.56
373.384	295.56
373.61	265.56
373.835	300.56
374.061	271.56
374.287	272.56
374.513	276.56
374.739	266.56
374.965	271.56
375.191	277.56
375.416	269.56
375.642	276.56
375.868	278.56
376.094	280.56
376.319	266.56
376.545	287.56
376.771	275.56
376.997	261.56
377.222	260.56
377.448	273.56
377.674	262.56
377.899	266.56
378.125	277.56
378.35	274.56
378.576	270.56
378.802	265.56
379.027	270.56
379.253	267.56
379.478	269.56
379.704	294.56
379.929	275.56
380.155	286.56
380.38	273.56
380.606	269.56
380.831	265.56
381.057	260.56
381.282	277.56
381.507	284.56
381.733	269.56
381.958	282.56
382.184	285.56
382.409	294.56
382.634	284.56
382.86	286.56
383.085	278.56
383.31	273.56
383.535	282.56
383.761	264.56
383.986	301.56
384.211	270.56
384.436	275.56
384.662	269.56
384.887	281.56
385.112	308.56
385.337	283.56
385.562	282.56
385.787	299.56
386.013	321.56
386.238	289.56
386.463	292.56
386.688	285.56
386.913	274.56
387.138	281.56
387.363	301.56
387.588	286.56
387.813	270.56
388.038	290.56
388.263	303.56
388.488	278.56
388.713	294.56
388.938	283.56
389.163	283.56
389.387	312.56
389.612	278.56
389.837	292.56
390.062	282.56
390.287	287.56
390.512	293.56
390.736	266.56
390.961	286.56
391.186	286.56
391.411	281.56
391.636	283.56
391.86	284.56
392.085	294.56
392.31	295.56
392.534	290.56
392.759	284.56
392.984	267.56
393.208	270.56
393.433	290.56
393.658	289.56
393.882	282.56
394.107	283.56
394.331	295.56
394.556	282.56
394.78	292.56
395.005	297.56
395.229	280.56
395.454	281.56
395.678	299.56
395.903	274.56
396.127	297.56
396.352	317.56
396.576	285.56
396.801	293.56
397.025	276.56
397.249	294.56
397.474	306.56
397.698	288.56
397.922	303.56
398.147	297.56
398.371	304.56
398.595	307.56
398.82	304.56
399.044	308.56
399.268	331.56
399.492	349.56
399.717	351.56
399.941	341.56
400.165	384.56
400.389	383.56
400.613	352.56
400.837	329.56
401.062	325.56
401.286	333.56
401.51	319.56
401.734	303.56
401.958	317.56
402.182	335.56
402.406	310.56
402.63	334.56
402.854	329.56
403.078	324.56
403.302	305.56
403.526	336.56
403.75	326.56
403.974	311.56
404.198	312.56
404.422	345.56
404.645	326.56
404.869	347.56
405.093	364.56
405.317	392.56
405.541	406.56
405.765	378.56
405.988	347.56
406.212	351.56
406.436	364.56
406.66	360.56
406.883	361.56
407.107	360.56
407.331	403.56
407.555	440.56
407.778	396.56
408.002	381.56
408.226	349.56
408.449	355.56
408.673	373.56
408.896	378.56
409.12	407.56
409.344	372.56
409.567	342.56
409.791	314.56
410.014	322.56
410.238	327.56
410.461	309.56
410.685	320.56
410.908	339.56
411.132	362.56
411.355	384.56
411.578	358.56
411.802	329.56
412.025	340.56
412.249	334.56
412.472	343.56
412.695	352.56
412.919	355.56
413.142	325.56
413.365	334.56
413.589	304.56
413.812	315.56
414.035	303.56
414.258	290.56
414.482	295.56
414.705	293.56
414.928	300.56
415.151	314.56
415.374	308.56
415.597	288.56
415.821	288.56
416.044	317.56
416.267	294.56
416.49	300.56
416.713	298.56
416.936	289.56
417.159	306.56
417.382	322.56
417.605	308.56
417.828	318.56
418.051	329.56
418.274	325.56
418.497	318.56
418.72	312.56
418.943	306.56
419.166	314.56
419.389	330.56
419.611	303.56
419.834	310.56
420.057	322.56
420.28	324.56
420.503	315.56
420.726	313.56
420.948	352.56
421.171	358.56
421.394	377.56
421.617	332.56
421.839	329.56
422.062	334.56
422.285	354.56
422.507	347.56
422.73	398.56
422.953	398.56
423.175	348.56
423.398	340.56
423.621	334.56
423.843	362.56
424.066	356.56
424.288	359.56
424.511	350.56
424.733	395.56
424.956	440.56
425.178	418.56
425.401	427.56
425.623	434.56
425.846	362.56
426.068	340.56
426.291	347.56
426.513	347.56
426.735	362.56
426.958	397.56
427.18	450.56
427.402	529.56
427.625	576.56
427.847	493.56
428.069	442.56
428.292	389.56
428.514	332.56
428.736	334.56
428.958	335.56
429.181	339.56
429.403	332.56
429.625	336.56
429.847	351.56
430.069	380.56
430.292	413.56
430.514	371.56
430.736	322.56
430.958	299.56
431.18	297.56
431.402	291.56
431.624	316.56
431.846	296.56
432.068	314.56
432.29	308.56
432.512	314.56
432.734	320.56
432.956	297.56
433.178	332.56
433.4	307.56
433.622	301.56
433.844	294.56
434.066	302.56
434.287	315.56
434.509	306.56
434.731	314.56
434.953	327.56
435.175	335.56
435.397	345.56
435.618	365.56
435.84	381.56
436.062	442.56
436.284	474.56
436.505	410.56
436.727	339.56
436.949	330.56
437.17	351.56
437.392	333.56
437.614	357.56
437.835	363.56
438.057	434.56
438.278	482.56
438.5	484.56
438.721	502.56
438.943	498.56
439.165	425.56
439.386	368.56
439.608	347.56
439.829	364.56
440.05	375.56
440.272	418.56
440.493	378.56
440.715	348.56
440.936	350.56
441.158	345.56
441.379	321.56
441.6	349.56
441.822	350.56
442.043	386.56
442.264	430.56
442.486	457.56
442.707	372.56
442.928	378.56
443.149	372.56
443.371	396.56
443.592	395.56
443.813	446.56
444.034	482.56
444.255	415.56
444.476	366.56
444.698	346.56
444.919	354.56
445.14	442.56
445.361	410.56
445.582	382.56
445.803	424.56
446.024	499.56
446.245	495.56
446.466	465.56
446.687	380.56
446.908	373.56
447.129	344.56
447.35	316.56
447.571	329.56
447.792	330.56
448.013	343.56
448.234	344.56
448.455	384.56
448.675	440.56
448.896	523.56
449.117	461.56
449.338	430.56
449.559	488.56
449.779	520.56
450	434.56
450.221	362.56
450.442	334.56
450.662	334.56
450.883	351.56
451.104	350.56
451.324	335.56
451.545	308.56
451.766	302.56
451.986	316.56
452.207	285.56
452.428	280.56
452.648	295.56
452.869	312.56
453.089	310.56
453.31	300.56
453.53	303.56
453.751	290.56
453.971	296.56
454.192	313.56
454.412	309.56
454.633	307.56
454.853	290.56
455.073	274.56
455.294	317.56
455.514	365.56
455.734	353.56
455.955	294.56
456.175	291.56
456.395	270.56
456.616	282.56
456.836	261.56
457.056	286.56
457.276	279.56
457.497	287.56
457.717	279.56
457.937	269.56
458.157	276.56
458.377	306.56
458.598	298.56
458.818	362.56
459.038	399.56
459.258	405.56
459.478	349.56
459.698	294.56
459.918	297.56
460.138	323.56
460.358	306.56
460.578	299.56
460.798	316.56
461.018	305.56
461.238	284.56
461.458	293.56
461.678	295.56
461.898	306.56
462.118	288.56
462.338	316.56
462.558	303.56
462.777	303.56
462.997	302.56
463.217	318.56
463.437	327.56
463.657	304.56
463.876	301.56
464.096	318.56
464.316	308.56
464.536	330.56
464.755	320.56
464.975	327.56
465.195	352.56
465.414	415.56
465.634	354.56
465.854	321.56
466.073	319.56
466.293	314.56
466.512	304.56
466.732	292.56
466.951	314.56
467.171	293.56
467.391	298.56
467.61	321.56
467.829	313.56
468.049	306.56
468.268	316.56
468.488	287.56
468.707	285.56
468.927	290.56
469.146	288.56
469.365	298.56
469.585	291.56
469.804	284.56
470.023	302.56
470.243	302.56
470.462	316.56
470.681	318.56
470.901	304.56
471.12	299.56
471.339	310.56
471.558	303.56
471.777	300.56
471.997	311.56
472.216	315.56
472.435	340.56
472.654	310.56
472.873	308.56
473.092	299.56
473.311	300.56
473.53	315.56
473.749	320.56
473.968	336.56
474.187	423.56
474.406	428.56
474.625	335.56
474.844	330.56
475.063	319.56
475.282	307.56
475.501	321.56
475.72	315.56
475.939	310.56
476.158	310.56
476.377	316.56
476.596	308.56
476.814	314.56
477.033	347.56
477.252	330.56
477.471	326.56
477.69	320.56
477.908	302.56
478.127	332.56
478.346	329.56
478.564	322.56
478.783	321.56
479.002	337.56
479.22	324.56
479.439	329.56
479.658	356.56
479.876	343.56
480.095	374.56
480.313	370.56
480.532	378.56
480.751	370.56
480.969	364.56
481.188	427.56
481.406	426.56
481.624	401.56
481.843	354.56
482.061	370.56
482.28	358.56
482.498	333.56
482.717	341.56
482.935	362.56
483.153	341.56
483.372	359.56
483.59	343.56
483.808	336.56
484.027	350.56
484.245	347.56
484.463	349.56
484.681	374.56
484.9	365.56
485.118	352.56
485.336	359.56
485.554	355.56
485.772	371.56
485.99	332.56
486.209	370.56
486.427	353.56
486.645	351.56
486.863	392.56
487.081	378.56
487.299	382.56
487.517	365.56
487.735	363.56
487.953	361.56
488.171	387.56
488.389	374.56
488.607	373.56
488.825	377.56
489.043	383.56
489.261	395.56
489.479	383.56
489.696	389.56
489.914	380.56
490.132	383.56
490.35	403.56
490.568	402.56
490.786	402.56
491.003	398.56
491.221	417.56
491.439	400.56
491.657	402.56
491.874	443.56
492.092	412.56
492.31	416.56
492.527	430.56
492.745	422.56
492.963	424.56
493.18	429.56
493.398	456.56
493.615	436.56
493.833	446.56
494.05	441.56
494.268	411.56
494.485	450.56
494.703	445.56
494.92	438.56
495.138	430.56
495.355	422.56
495.573	454.56
495.79	436.56
496.008	422.56
496.225	465.56
496.442	443.56
496.66	428.56
496.877	447.56
497.094	452.56
497.312	449.56
497.529	437.56
497.746	483.56
497.963	481.56
498.181	491.56
498.398	481.56
498.615	469.56
498.832	476.56
499.049	475.56
499.267	470.56
499.484	488.56
499.701	489.56
499.918	517.56
500.135	550.56
500.352	549.56
500.569	555.56
500.786	534.56
501.003	539.56
501.22	541.56
501.437	541.56
501.654	534.56
501.871	522.56
502.088	514.56
