Data from 1982.PennyLincolnUp.Lamp.En5.5.200Scan.071819.P1_HRD10591_16-44-43-961.txt Node
Date: Thu Jul 18 16:44:43 EDT 2019
User: cochatt
Spectrometer: HR+D1059
Trigger mode: 1
Integration Time (sec): 1.000000E-1
Scans to average: 1
Electric dark correction enabled: true
Nonlinearity correction enabled: false
Boxcar width: 0
XAxis mode: Wavelengths
Number of Pixels in Spectrum: 2048
>>>>>Begin Spectral Data<<<<<
223.165	-22.06
223.4	-22.06
223.635	-22.06
223.869	-20.06
224.104	-23.06
224.338	-22.06
224.573	-4.06
224.808	-15.06
225.042	-12.06
225.277	-3.06
225.511	2.94
225.746	-0.06
225.98	7.94
226.215	13.94
226.449	18.94
226.683	15.94
226.918	31.94
227.152	29.94
227.387	23.94
227.621	28.94
227.856	44.94
228.09	39.94
228.324	46.94
228.559	59.94
228.793	42.94
229.027	69.94
229.262	87.94
229.496	79.94
229.73	88.94
229.964	91.94
230.199	95.94
230.433	83.94
230.667	85.94
230.901	91.94
231.136	74.94
231.37	86.94
231.604	83.94
231.838	105.94
232.072	95.94
232.306	99.94
232.541	82.94
232.775	83.94
233.009	100.94
233.243	98.94
233.477	90.94
233.711	96.94
233.945	88.94
234.179	113.94
234.413	99.94
234.647	89.94
234.881	86.94
235.115	94.94
235.349	109.94
235.583	101.94
235.817	91.94
236.051	88.94
236.285	84.94
236.519	97.94
236.753	108.94
236.987	118.94
237.221	101.94
237.455	133.94
237.689	116.94
237.922	99.94
238.156	98.94
238.39	99.94
238.624	96.94
238.858	90.94
239.091	78.94
239.325	86.94
239.559	93.94
239.793	92.94
240.027	100.94
240.26	96.94
240.494	114.94
240.728	102.94
240.961	105.94
241.195	109.94
241.429	107.94
241.662	97.94
241.896	89.94
242.13	95.94
242.363	90.94
242.597	107.94
242.83	108.94
243.064	94.94
243.298	111.94
243.531	98.94
243.765	106.94
243.998	105.94
244.232	114.94
244.465	103.94
244.699	98.94
244.932	107.94
245.166	106.94
245.399	107.94
245.633	93.94
245.866	108.94
246.099	104.94
246.333	101.94
246.566	116.94
246.8	118.94
247.033	123.94
247.266	129.94
247.5	114.94
247.733	128.94
247.966	121.94
248.2	116.94
248.433	128.94
248.666	124.94
248.899	131.94
249.133	139.94
249.366	135.94
249.599	138.94
249.832	128.94
250.066	131.94
250.299	129.94
250.532	126.94
250.765	131.94
250.998	148.94
251.231	142.94
251.465	148.94
251.698	140.94
251.931	131.94
252.164	137.94
252.397	143.94
252.63	125.94
252.863	127.94
253.096	132.94
253.329	161.94
253.562	138.94
253.795	133.94
254.028	142.94
254.261	141.94
254.494	130.94
254.727	155.94
254.96	175.94
255.193	170.94
255.426	155.94
255.659	148.94
255.892	136.94
256.124	140.94
256.357	137.94
256.59	141.94
256.823	154.94
257.056	150.94
257.289	139.94
257.521	139.94
257.754	138.94
257.987	135.94
258.22	127.94
258.452	139.94
258.685	133.94
258.918	132.94
259.151	150.94
259.383	149.94
259.616	153.94
259.849	142.94
260.081	165.94
260.314	158.94
260.547	164.94
260.779	165.94
261.012	161.94
261.244	159.94
261.477	138.94
261.71	139.94
261.942	149.94
262.175	138.94
262.407	156.94
262.64	125.94
262.872	132.94
263.105	138.94
263.337	138.94
263.57	153.94
263.802	140.94
264.035	131.94
264.267	149.94
264.499	133.94
264.732	130.94
264.964	129.94
265.197	141.94
265.429	138.94
265.661	152.94
265.894	138.94
266.126	151.94
266.358	145.94
266.591	155.94
266.823	142.94
267.055	161.94
267.287	159.94
267.52	149.94
267.752	154.94
267.984	146.94
268.216	167.94
268.448	154.94
268.681	140.94
268.913	166.94
269.145	165.94
269.377	162.94
269.609	170.94
269.841	179.94
270.073	165.94
270.306	168.94
270.538	184.94
270.77	190.94
271.002	193.94
271.234	185.94
271.466	179.94
271.698	187.94
271.93	193.94
272.162	195.94
272.394	198.94
272.626	189.94
272.858	171.94
273.09	162.94
273.322	173.94
273.553	161.94
273.785	153.94
274.017	153.94
274.249	163.94
274.481	171.94
274.713	154.94
274.945	179.94
275.176	168.94
275.408	168.94
275.64	165.94
275.872	163.94
276.104	171.94
276.335	177.94
276.567	148.94
276.799	178.94
277.031	183.94
277.262	205.94
277.494	184.94
277.726	184.94
277.957	171.94
278.189	167.94
278.421	167.94
278.652	164.94
278.884	166.94
279.115	164.94
279.347	186.94
279.579	166.94
279.81	191.94
280.042	163.94
280.273	180.94
280.505	175.94
280.736	179.94
280.968	183.94
281.199	165.94
281.431	196.94
281.662	159.94
281.894	184.94
282.125	163.94
282.356	179.94
282.588	177.94
282.819	183.94
283.051	165.94
283.282	187.94
283.513	163.94
283.745	164.94
283.976	172.94
284.207	182.94
284.439	175.94
284.67	180.94
284.901	172.94
285.132	185.94
285.364	171.94
285.595	183.94
285.826	189.94
286.057	177.94
286.288	170.94
286.52	167.94
286.751	162.94
286.982	166.94
287.213	176.94
287.444	165.94
287.675	175.94
287.906	189.94
288.138	175.94
288.369	186.94
288.6	184.94
288.831	179.94
289.062	185.94
289.293	181.94
289.524	188.94
289.755	179.94
289.986	177.94
290.217	171.94
290.448	166.94
290.679	158.94
290.91	195.94
291.141	167.94
291.371	180.94
291.602	183.94
291.833	183.94
292.064	165.94
292.295	178.94
292.526	185.94
292.757	177.94
292.987	173.94
293.218	178.94
293.449	170.94
293.68	172.94
293.91	175.94
294.141	183.94
294.372	177.94
294.603	175.94
294.833	181.94
295.064	171.94
295.295	181.94
295.525	179.94
295.756	168.94
295.987	189.94
296.217	185.94
296.448	181.94
296.679	204.94
296.909	182.94
297.14	188.94
297.37	196.94
297.601	192.94
297.831	187.94
298.062	189.94
298.292	192.94
298.523	186.94
298.753	183.94
298.984	188.94
299.214	178.94
299.445	191.94
299.675	210.94
299.905	210.94
300.136	192.94
300.366	194.94
300.597	198.94
300.827	184.94
301.057	201.94
301.288	204.94
301.518	190.94
301.748	193.94
301.979	188.94
302.209	216.94
302.439	203.94
302.669	178.94
302.9	202.94
303.13	209.94
303.36	195.94
303.59	203.94
303.82	208.94
304.051	209.94
304.281	179.94
304.511	199.94
304.741	188.94
304.971	201.94
305.201	183.94
305.431	205.94
305.661	191.94
305.891	192.94
306.121	202.94
306.352	197.94
306.582	210.94
306.812	208.94
307.042	185.94
307.272	180.94
307.502	195.94
307.731	202.94
307.961	207.94
308.191	214.94
308.421	209.94
308.651	208.94
308.881	212.94
309.111	228.94
309.341	200.94
309.571	211.94
309.8	226.94
310.03	220.94
310.26	212.94
310.49	218.94
310.72	218.94
310.949	229.94
311.179	217.94
311.409	217.94
311.639	210.94
311.868	216.94
312.098	212.94
312.328	209.94
312.557	231.94
312.787	229.94
313.017	237.94
313.246	236.94
313.476	213.94
313.706	234.94
313.935	206.94
314.165	245.94
314.394	235.94
314.624	233.94
314.853	219.94
315.083	226.94
315.312	213.94
315.542	223.94
315.771	213.94
316.001	219.94
316.23	224.94
316.46	204.94
316.689	232.94
316.919	226.94
317.148	230.94
317.377	224.94
317.607	225.94
317.836	232.94
318.065	225.94
318.295	229.94
318.524	208.94
318.753	237.94
318.983	223.94
319.212	219.94
319.441	230.94
319.67	251.94
319.9	231.94
320.129	236.94
320.358	227.94
320.587	212.94
320.816	223.94
321.046	256.94
321.275	247.94
321.504	235.94
321.733	242.94
321.962	232.94
322.191	220.94
322.42	245.94
322.649	240.94
322.878	249.94
323.108	243.94
323.337	276.94
323.566	272.94
323.795	277.94
324.024	304.94
324.253	369.94
324.482	510.94
324.71	717.94
324.939	937.94
325.168	773.94
325.397	428.94
325.626	332.94
325.855	298.94
326.084	291.94
326.313	287.94
326.542	281.94
326.77	287.94
326.999	332.94
327.228	481.94
327.457	653.94
327.686	705.94
327.914	483.94
328.143	360.94
328.372	325.94
328.6	315.94
328.829	293.94
329.058	289.94
329.287	305.94
329.515	292.94
329.744	271.94
329.972	270.94
330.201	275.94
330.43	280.94
330.658	285.94
330.887	321.94
331.115	290.94
331.344	265.94
331.572	258.94
331.801	275.94
332.03	256.94
332.258	271.94
332.486	256.94
332.715	243.94
332.943	275.94
333.172	244.94
333.4	258.94
333.629	243.94
333.857	264.94
334.085	273.94
334.314	276.94
334.542	267.94
334.771	290.94
334.999	265.94
335.227	234.94
335.455	263.94
335.684	277.94
335.912	257.94
336.14	244.94
336.369	238.94
336.597	269.94
336.825	249.94
337.053	247.94
337.281	257.94
337.51	248.94
337.738	263.94
337.966	259.94
338.194	261.94
338.422	255.94
338.65	261.94
338.878	263.94
339.106	259.94
339.334	253.94
339.562	225.94
339.79	242.94
340.018	234.94
340.246	245.94
340.474	241.94
340.702	255.94
340.93	240.94
341.158	240.94
341.386	232.94
341.614	244.94
341.842	250.94
342.07	235.94
342.298	239.94
342.526	253.94
342.754	259.94
342.981	241.94
343.209	253.94
343.437	267.94
343.665	244.94
343.893	255.94
344.12	266.94
344.348	261.94
344.576	249.94
344.804	266.94
345.031	257.94
345.259	249.94
345.487	242.94
345.714	251.94
345.942	244.94
346.17	224.94
346.397	235.94
346.625	228.94
346.853	228.94
347.08	246.94
347.308	226.94
347.535	240.94
347.763	242.94
347.99	219.94
348.218	244.94
348.445	239.94
348.673	239.94
348.9	246.94
349.128	230.94
349.355	242.94
349.583	220.94
349.81	251.94
350.037	240.94
350.265	230.94
350.492	225.94
350.72	234.94
350.947	256.94
351.174	235.94
351.402	240.94
351.629	243.94
351.856	228.94
352.083	232.94
352.311	254.94
352.538	245.94
352.765	224.94
352.992	234.94
353.22	243.94
353.447	221.94
353.674	231.94
353.901	236.94
354.128	232.94
354.355	220.94
354.583	206.94
354.81	220.94
355.037	234.94
355.264	208.94
355.491	212.94
355.718	233.94
355.945	218.94
356.172	212.94
356.399	214.94
356.626	218.94
356.853	224.94
357.08	232.94
357.307	225.94
357.534	231.94
357.761	208.94
357.988	232.94
358.215	226.94
358.441	225.94
358.668	238.94
358.895	218.94
359.122	214.94
359.349	217.94
359.576	237.94
359.802	250.94
360.029	271.94
360.256	249.94
360.483	241.94
360.709	234.94
360.936	232.94
361.163	236.94
361.39	242.94
361.616	235.94
361.843	224.94
362.07	243.94
362.296	244.94
362.523	229.94
362.749	235.94
362.976	231.94
363.203	235.94
363.429	219.94
363.656	209.94
363.882	241.94
364.109	234.94
364.335	215.94
364.562	236.94
364.788	241.94
365.015	236.94
365.241	231.94
365.468	222.94
365.694	217.94
365.92	232.94
366.147	221.94
366.373	216.94
366.599	233.94
366.826	241.94
367.052	226.94
367.278	229.94
367.505	224.94
367.731	238.94
367.957	239.94
368.184	230.94
368.41	239.94
368.636	233.94
368.862	221.94
369.089	228.94
369.315	230.94
369.541	228.94
369.767	217.94
369.993	225.94
370.219	214.94
370.445	224.94
370.672	206.94
370.898	236.94
371.124	219.94
371.35	209.94
371.576	222.94
371.802	231.94
372.028	238.94
372.254	233.94
372.48	224.94
372.706	243.94
372.932	224.94
373.158	217.94
373.384	227.94
373.61	223.94
373.835	226.94
374.061	202.94
374.287	225.94
374.513	234.94
374.739	231.94
374.965	243.94
375.191	228.94
375.416	236.94
375.642	234.94
375.868	235.94
376.094	240.94
376.319	234.94
376.545	223.94
376.771	226.94
376.997	220.94
377.222	225.94
377.448	220.94
377.674	224.94
377.899	210.94
378.125	211.94
378.35	213.94
378.576	234.94
378.802	219.94
379.027	234.94
379.253	203.94
379.478	217.94
379.704	214.94
379.929	219.94
380.155	221.94
380.38	215.94
380.606	204.94
380.831	233.94
381.057	224.94
381.282	231.94
381.507	232.94
381.733	231.94
381.958	227.94
382.184	227.94
382.409	241.94
382.634	224.94
382.86	229.94
383.085	225.94
383.31	246.94
383.535	229.94
383.761	208.94
383.986	231.94
384.211	235.94
384.436	213.94
384.662	224.94
384.887	217.94
385.112	227.94
385.337	235.94
385.562	247.94
385.787	251.94
386.013	248.94
386.238	231.94
386.463	241.94
386.688	239.94
386.913	235.94
387.138	231.94
387.363	233.94
387.588	231.94
387.813	225.94
388.038	225.94
388.263	239.94
388.488	217.94
388.713	244.94
388.938	246.94
389.163	235.94
389.387	218.94
389.612	252.94
389.837	235.94
390.062	255.94
390.287	215.94
390.512	247.94
390.736	245.94
390.961	239.94
391.186	219.94
391.411	245.94
391.636	234.94
391.86	251.94
392.085	229.94
392.31	244.94
392.534	235.94
392.759	239.94
392.984	251.94
393.208	235.94
393.433	251.94
393.658	262.94
393.882	264.94
394.107	234.94
394.331	232.94
394.556	224.94
394.78	234.94
395.005	234.94
395.229	220.94
395.454	250.94
395.678	260.94
395.903	242.94
396.127	265.94
396.352	267.94
396.576	273.94
396.801	247.94
397.025	251.94
397.249	244.94
397.474	257.94
397.698	228.94
397.922	246.94
398.147	270.94
398.371	267.94
398.595	264.94
398.82	257.94
399.044	264.94
399.268	273.94
399.492	280.94
399.717	298.94
399.941	294.94
400.165	317.94
400.389	315.94
400.613	289.94
400.837	284.94
401.062	278.94
401.286	256.94
401.51	259.94
401.734	257.94
401.958	260.94
402.182	270.94
402.406	266.94
402.63	252.94
402.854	251.94
403.078	276.94
403.302	255.94
403.526	269.94
403.75	277.94
403.974	276.94
404.198	259.94
404.422	277.94
404.645	267.94
404.869	273.94
405.093	289.94
405.317	286.94
405.541	295.94
405.765	270.94
405.988	289.94
406.212	263.94
406.436	288.94
406.66	296.94
406.883	283.94
407.107	296.94
407.331	312.94
407.555	341.94
407.778	315.94
408.002	298.94
408.226	295.94
408.449	288.94
408.673	292.94
408.896	304.94
409.12	313.94
409.344	309.94
409.567	287.94
409.791	283.94
410.014	270.94
410.238	251.94
410.461	259.94
410.685	269.94
410.908	285.94
411.132	286.94
411.355	301.94
411.578	278.94
411.802	287.94
412.025	266.94
412.249	283.94
412.472	283.94
412.695	266.94
412.919	265.94
413.142	264.94
413.365	256.94
413.589	263.94
413.812	260.94
414.035	259.94
414.258	262.94
414.482	244.94
414.705	243.94
414.928	257.94
415.151	260.94
415.374	253.94
415.597	253.94
415.821	252.94
416.044	256.94
416.267	258.94
416.49	273.94
416.713	259.94
416.936	259.94
417.159	259.94
417.382	249.94
417.605	243.94
417.828	250.94
418.051	266.94
418.274	261.94
418.497	263.94
418.72	259.94
418.943	259.94
419.166	272.94
419.389	255.94
419.611	271.94
419.834	256.94
420.057	275.94
420.28	267.94
420.503	266.94
420.726	268.94
420.948	260.94
421.171	300.94
421.394	296.94
421.617	274.94
421.839	267.94
422.062	247.94
422.285	263.94
422.507	300.94
422.73	324.94
422.953	310.94
423.175	282.94
423.398	277.94
423.621	280.94
423.843	263.94
424.066	260.94
424.288	269.94
424.511	294.94
424.733	324.94
424.956	355.94
425.178	347.94
425.401	333.94
425.623	339.94
425.846	303.94
426.068	267.94
426.291	275.94
426.513	292.94
426.735	275.94
426.958	296.94
427.18	355.94
427.402	387.94
427.625	411.94
427.847	360.94
428.069	313.94
428.292	293.94
428.514	276.94
428.736	275.94
428.958	262.94
429.181	253.94
429.403	248.94
429.625	277.94
429.847	277.94
430.069	291.94
430.292	317.94
430.514	258.94
430.736	264.94
430.958	267.94
431.18	264.94
431.402	250.94
431.624	262.94
431.846	240.94
432.068	239.94
432.29	243.94
432.512	242.94
432.734	267.94
432.956	259.94
433.178	256.94
433.4	237.94
433.622	255.94
433.844	261.94
434.066	249.94
434.287	235.94
434.509	255.94
434.731	259.94
434.953	242.94
435.175	272.94
435.397	279.94
435.618	292.94
435.84	290.94
436.062	356.94
436.284	363.94
436.505	295.94
436.727	273.94
436.949	268.94
437.17	269.94
437.392	251.94
437.614	264.94
437.835	294.94
438.057	343.94
438.278	363.94
438.5	355.94
438.721	401.94
438.943	387.94
439.165	311.94
439.386	297.94
439.608	291.94
439.829	288.94
440.05	316.94
440.272	310.94
440.493	313.94
440.715	265.94
440.936	262.94
441.158	266.94
441.379	266.94
441.6	278.94
441.822	258.94
442.043	289.94
442.264	309.94
442.486	345.94
442.707	310.94
442.928	292.94
443.149	267.94
443.371	288.94
443.592	325.94
443.813	357.94
444.034	387.94
444.255	327.94
444.476	277.94
444.698	272.94
444.919	283.94
445.14	342.94
445.361	315.94
445.582	314.94
445.803	328.94
446.024	361.94
446.245	363.94
446.466	335.94
446.687	297.94
446.908	291.94
447.129	267.94
447.35	246.94
447.571	257.94
447.792	241.94
448.013	266.94
448.234	257.94
448.455	292.94
448.675	337.94
448.896	403.94
449.117	329.94
449.338	325.94
449.559	379.94
449.779	409.94
450	323.94
450.221	288.94
450.442	249.94
450.662	255.94
450.883	252.94
451.104	263.94
451.324	261.94
451.545	245.94
451.766	235.94
451.986	219.94
452.207	228.94
452.428	227.94
452.648	215.94
452.869	218.94
453.089	236.94
453.31	236.94
453.53	233.94
453.751	239.94
453.971	230.94
454.192	261.94
454.412	243.94
454.633	232.94
454.853	225.94
455.073	224.94
455.294	238.94
455.514	269.94
455.734	279.94
455.955	223.94
456.175	210.94
456.395	241.94
456.616	235.94
456.836	239.94
457.056	243.94
457.276	221.94
457.497	218.94
457.717	205.94
457.937	245.94
458.157	224.94
458.377	231.94
458.598	239.94
458.818	253.94
459.038	304.94
459.258	286.94
459.478	254.94
459.698	261.94
459.918	228.94
460.138	251.94
460.358	262.94
460.578	239.94
460.798	241.94
461.018	228.94
461.238	236.94
461.458	230.94
461.678	231.94
461.898	251.94
462.118	243.94
462.338	247.94
462.558	256.94
462.777	269.94
462.997	277.94
463.217	264.94
463.437	281.94
463.657	259.94
463.876	249.94
464.096	264.94
464.316	249.94
464.536	273.94
464.755	244.94
464.975	280.94
465.195	267.94
465.414	286.94
465.634	268.94
465.854	256.94
466.073	245.94
466.293	254.94
466.512	235.94
466.732	263.94
466.951	232.94
467.171	254.94
467.391	235.94
467.61	249.94
467.829	264.94
468.049	235.94
468.268	241.94
468.488	233.94
468.707	240.94
468.927	220.94
469.146	255.94
469.365	231.94
469.585	243.94
469.804	257.94
470.023	242.94
470.243	253.94
470.462	261.94
470.681	246.94
470.901	247.94
471.12	248.94
471.339	249.94
471.558	234.94
471.777	241.94
471.997	254.94
472.216	241.94
472.435	252.94
472.654	235.94
472.873	239.94
473.092	251.94
473.311	253.94
473.53	221.94
473.749	248.94
473.968	288.94
474.187	314.94
474.406	308.94
474.625	277.94
474.844	265.94
475.063	246.94
475.282	263.94
475.501	249.94
475.72	262.94
475.939	251.94
476.158	256.94
476.377	236.94
476.596	259.94
476.814	242.94
477.033	275.94
477.252	282.94
477.471	259.94
477.69	270.94
477.908	267.94
478.127	259.94
478.346	263.94
478.564	259.94
478.783	256.94
479.002	292.94
479.22	283.94
479.439	269.94
479.658	289.94
479.876	261.94
480.095	278.94
480.313	291.94
480.532	291.94
480.751	284.94
480.969	293.94
481.188	300.94
481.406	300.94
481.624	299.94
481.843	277.94
482.061	293.94
482.28	279.94
482.498	252.94
482.717	261.94
482.935	300.94
483.153	276.94
483.372	289.94
483.59	279.94
483.808	275.94
484.027	270.94
484.245	275.94
484.463	282.94
484.681	287.94
484.9	284.94
485.118	286.94
485.336	294.94
485.554	282.94
485.772	276.94
485.99	289.94
486.209	299.94
486.427	296.94
486.645	306.94
486.863	311.94
487.081	299.94
487.299	292.94
487.517	329.94
487.735	305.94
487.953	299.94
488.171	291.94
488.389	301.94
488.607	285.94
488.825	313.94
489.043	301.94
489.261	289.94
489.479	309.94
489.696	320.94
489.914	311.94
490.132	315.94
490.35	310.94
490.568	323.94
490.786	326.94
491.003	320.94
491.221	320.94
491.439	329.94
491.657	330.94
491.874	313.94
492.092	335.94
492.31	328.94
492.527	318.94
492.745	319.94
492.963	337.94
493.18	331.94
493.398	330.94
493.615	335.94
493.833	339.94
494.05	348.94
494.268	332.94
494.485	336.94
494.703	334.94
494.92	320.94
495.138	341.94
495.355	341.94
495.573	346.94
495.79	349.94
496.008	359.94
496.225	345.94
496.442	327.94
496.66	364.94
496.877	344.94
497.094	348.94
497.312	355.94
497.529	357.94
497.746	349.94
497.963	379.94
498.181	381.94
498.398	360.94
498.615	393.94
498.832	373.94
499.049	394.94
499.267	389.94
499.484	414.94
499.701	419.94
499.918	426.94
500.135	447.94
500.352	435.94
500.569	464.94
500.786	465.94
501.003	444.94
501.22	438.94
501.437	427.94
501.654	424.94
501.871	426.94
502.088	416.94
502.305	415.94
502.522	398.94
