Data from 1982.PennyLincolnUp.Lamp.En5.5.200Scan.071819.P1_HRD10591_16-46-19-962.txt Node
Date: Thu Jul 18 16:46:19 EDT 2019
User: cochatt
Spectrometer: HR+D1059
Trigger mode: 1
Integration Time (sec): 1.000000E-1
Scans to average: 1
Electric dark correction enabled: true
Nonlinearity correction enabled: false
Boxcar width: 0
XAxis mode: Wavelengths
Number of Pixels in Spectrum: 2048
>>>>>Begin Spectral Data<<<<<
223.165	-5.25
223.4	-5.25
223.635	-5.25
223.869	-20.25
224.104	-18.25
224.338	-9.25
224.573	-12.25
224.808	-5.25
225.042	-21.25
225.277	-14.25
225.511	-6.25
225.746	9.75
225.98	6.75
226.215	12.75
226.449	11.75
226.683	7.75
226.918	32.75
227.152	30.75
227.387	31.75
227.621	23.75
227.856	39.75
228.09	39.75
228.324	50.75
228.559	49.75
228.793	69.75
229.027	68.75
229.262	89.75
229.496	100.75
229.73	111.75
229.964	113.75
230.199	108.75
230.433	85.75
230.667	101.75
230.901	101.75
231.136	98.75
231.37	96.75
231.604	100.75
231.838	96.75
232.072	93.75
232.306	90.75
232.541	116.75
232.775	105.75
233.009	95.75
233.243	91.75
233.477	94.75
233.711	105.75
233.945	97.75
234.179	93.75
234.413	99.75
234.647	109.75
234.881	103.75
235.115	101.75
235.349	96.75
235.583	113.75
235.817	106.75
236.051	98.75
236.285	112.75
236.519	99.75
236.753	115.75
236.987	132.75
237.221	148.75
237.455	171.75
237.689	147.75
237.922	132.75
238.156	117.75
238.39	104.75
238.624	102.75
238.858	119.75
239.091	104.75
239.325	95.75
239.559	95.75
239.793	118.75
240.027	112.75
240.26	119.75
240.494	121.75
240.728	104.75
240.961	121.75
241.195	118.75
241.429	107.75
241.662	99.75
241.896	88.75
242.13	121.75
242.363	99.75
242.597	111.75
242.83	114.75
243.064	118.75
243.298	103.75
243.531	102.75
243.765	100.75
243.998	125.75
244.232	115.75
244.465	115.75
244.699	118.75
244.932	114.75
245.166	122.75
245.399	125.75
245.633	111.75
245.866	106.75
246.099	121.75
246.333	102.75
246.566	114.75
246.8	123.75
247.033	140.75
247.266	117.75
247.5	120.75
247.733	122.75
247.966	136.75
248.2	120.75
248.433	139.75
248.666	124.75
248.899	146.75
249.133	155.75
249.366	157.75
249.599	167.75
249.832	156.75
250.066	146.75
250.299	130.75
250.532	134.75
250.765	141.75
250.998	159.75
251.231	165.75
251.465	179.75
251.698	166.75
251.931	159.75
252.164	147.75
252.397	156.75
252.63	158.75
252.863	154.75
253.096	156.75
253.329	171.75
253.562	163.75
253.795	175.75
254.028	161.75
254.261	168.75
254.494	180.75
254.727	205.75
254.96	203.75
255.193	208.75
255.426	182.75
255.659	158.75
255.892	169.75
256.124	181.75
256.357	184.75
256.59	179.75
256.823	163.75
257.056	177.75
257.289	175.75
257.521	170.75
257.754	158.75
257.987	168.75
258.22	158.75
258.452	180.75
258.685	160.75
258.918	167.75
259.151	179.75
259.383	182.75
259.616	177.75
259.849	175.75
260.081	172.75
260.314	191.75
260.547	194.75
260.779	188.75
261.012	174.75
261.244	168.75
261.477	189.75
261.71	176.75
261.942	175.75
262.175	185.75
262.407	187.75
262.64	183.75
262.872	177.75
263.105	179.75
263.337	170.75
263.57	187.75
263.802	155.75
264.035	164.75
264.267	165.75
264.499	162.75
264.732	173.75
264.964	186.75
265.197	171.75
265.429	162.75
265.661	161.75
265.894	150.75
266.126	161.75
266.358	155.75
266.591	162.75
266.823	173.75
267.055	167.75
267.287	178.75
267.52	170.75
267.752	175.75
267.984	162.75
268.216	184.75
268.448	182.75
268.681	179.75
268.913	182.75
269.145	201.75
269.377	207.75
269.609	184.75
269.841	206.75
270.073	206.75
270.306	218.75
270.538	263.75
270.77	234.75
271.002	217.75
271.234	211.75
271.466	218.75
271.698	232.75
271.93	236.75
272.162	241.75
272.394	245.75
272.626	227.75
272.858	239.75
273.09	216.75
273.322	213.75
273.553	203.75
273.785	202.75
274.017	200.75
274.249	214.75
274.481	202.75
274.713	214.75
274.945	206.75
275.176	199.75
275.408	205.75
275.64	195.75
275.872	202.75
276.104	185.75
276.335	200.75
276.567	198.75
276.799	224.75
277.031	237.75
277.262	226.75
277.494	227.75
277.726	230.75
277.957	206.75
278.189	217.75
278.421	202.75
278.652	188.75
278.884	193.75
279.115	193.75
279.347	213.75
279.579	198.75
279.81	197.75
280.042	197.75
280.273	216.75
280.505	204.75
280.736	197.75
280.968	215.75
281.199	196.75
281.431	197.75
281.662	190.75
281.894	195.75
282.125	198.75
282.356	206.75
282.588	244.75
282.819	221.75
283.051	209.75
283.282	188.75
283.513	190.75
283.745	199.75
283.976	215.75
284.207	203.75
284.439	209.75
284.67	194.75
284.901	203.75
285.132	202.75
285.364	218.75
285.595	196.75
285.826	195.75
286.057	212.75
286.288	209.75
286.52	195.75
286.751	197.75
286.982	206.75
287.213	207.75
287.444	219.75
287.675	208.75
287.906	208.75
288.138	222.75
288.369	212.75
288.6	216.75
288.831	213.75
289.062	211.75
289.293	226.75
289.524	216.75
289.755	213.75
289.986	212.75
290.217	200.75
290.448	200.75
290.679	210.75
290.91	207.75
291.141	201.75
291.371	205.75
291.602	205.75
291.833	204.75
292.064	218.75
292.295	215.75
292.526	216.75
292.757	213.75
292.987	203.75
293.218	223.75
293.449	210.75
293.68	214.75
293.91	215.75
294.141	222.75
294.372	201.75
294.603	215.75
294.833	216.75
295.064	217.75
295.295	210.75
295.525	218.75
295.756	224.75
295.987	207.75
296.217	231.75
296.448	228.75
296.679	220.75
296.909	218.75
297.14	214.75
297.37	208.75
297.601	222.75
297.831	226.75
298.062	214.75
298.292	214.75
298.523	224.75
298.753	223.75
298.984	223.75
299.214	219.75
299.445	228.75
299.675	227.75
299.905	230.75
300.136	237.75
300.366	227.75
300.597	210.75
300.827	228.75
301.057	234.75
301.288	235.75
301.518	233.75
301.748	232.75
301.979	243.75
302.209	241.75
302.439	229.75
302.669	249.75
302.9	242.75
303.13	231.75
303.36	242.75
303.59	239.75
303.82	229.75
304.051	224.75
304.281	242.75
304.511	238.75
304.741	215.75
304.971	222.75
305.201	248.75
305.431	241.75
305.661	223.75
305.891	230.75
306.121	238.75
306.352	245.75
306.582	266.75
306.812	239.75
307.042	257.75
307.272	254.75
307.502	267.75
307.731	254.75
307.961	243.75
308.191	229.75
308.421	250.75
308.651	257.75
308.881	243.75
309.111	258.75
309.341	256.75
309.571	259.75
309.8	276.75
310.03	274.75
310.26	274.75
310.49	265.75
310.72	280.75
310.949	288.75
311.179	279.75
311.409	275.75
311.639	294.75
311.868	289.75
312.098	278.75
312.328	297.75
312.557	290.75
312.787	286.75
313.017	312.75
313.246	285.75
313.476	277.75
313.706	289.75
313.935	296.75
314.165	303.75
314.394	307.75
314.624	312.75
314.853	263.75
315.083	281.75
315.312	271.75
315.542	286.75
315.771	288.75
316.001	272.75
316.23	271.75
316.46	266.75
316.689	289.75
316.919	281.75
317.148	291.75
317.377	272.75
317.607	257.75
317.836	275.75
318.065	271.75
318.295	280.75
318.524	261.75
318.753	291.75
318.983	263.75
319.212	271.75
319.441	269.75
319.67	287.75
319.9	269.75
320.129	298.75
320.358	273.75
320.587	295.75
320.816	291.75
321.046	297.75
321.275	286.75
321.504	290.75
321.733	291.75
321.962	312.75
322.191	315.75
322.42	313.75
322.649	337.75
322.878	340.75
323.108	370.75
323.337	369.75
323.566	369.75
323.795	400.75
324.024	466.75
324.253	592.75
324.482	856.75
324.71	1269.75
324.939	1608.75
325.168	1338.75
325.397	714.75
325.626	499.75
325.855	417.75
326.084	377.75
326.313	375.75
326.542	377.75
326.77	438.75
326.999	533.75
327.228	763.75
327.457	1088.75
327.686	1196.75
327.914	813.75
328.143	553.75
328.372	459.75
328.6	441.75
328.829	426.75
329.058	436.75
329.287	430.75
329.515	414.75
329.744	385.75
329.972	395.75
330.201	367.75
330.43	405.75
330.658	429.75
330.887	481.75
331.115	443.75
331.344	373.75
331.572	349.75
331.801	375.75
332.03	355.75
332.258	337.75
332.486	322.75
332.715	327.75
332.943	318.75
333.172	336.75
333.4	319.75
333.629	323.75
333.857	342.75
334.085	360.75
334.314	355.75
334.542	370.75
334.771	390.75
334.999	344.75
335.227	336.75
335.455	324.75
335.684	312.75
335.912	293.75
336.14	312.75
336.369	288.75
336.597	322.75
336.825	326.75
337.053	318.75
337.281	306.75
337.51	304.75
337.738	311.75
337.966	304.75
338.194	304.75
338.422	302.75
338.65	302.75
338.878	310.75
339.106	303.75
339.334	302.75
339.562	302.75
339.79	298.75
340.018	308.75
340.246	309.75
340.474	311.75
340.702	296.75
340.93	294.75
341.158	293.75
341.386	289.75
341.614	301.75
341.842	282.75
342.07	310.75
342.298	277.75
342.526	302.75
342.754	295.75
342.981	283.75
343.209	304.75
343.437	290.75
343.665	299.75
343.893	301.75
344.12	314.75
344.348	289.75
344.576	302.75
344.804	289.75
345.031	321.75
345.259	320.75
345.487	303.75
345.714	287.75
345.942	289.75
346.17	289.75
346.397	301.75
346.625	296.75
346.853	297.75
347.08	296.75
347.308	290.75
347.535	294.75
347.763	292.75
347.99	307.75
348.218	311.75
348.445	302.75
348.673	299.75
348.9	288.75
349.128	298.75
349.355	289.75
349.583	294.75
349.81	291.75
350.037	302.75
350.265	283.75
350.492	277.75
350.72	284.75
350.947	289.75
351.174	303.75
351.402	319.75
351.629	302.75
351.856	299.75
352.083	302.75
352.311	324.75
352.538	295.75
352.765	281.75
352.992	296.75
353.22	294.75
353.447	287.75
353.674	282.75
353.901	289.75
354.128	271.75
354.355	269.75
354.583	262.75
354.81	279.75
355.037	273.75
355.264	277.75
355.491	270.75
355.718	261.75
355.945	261.75
356.172	262.75
356.399	248.75
356.626	260.75
356.853	258.75
357.08	260.75
357.307	259.75
357.534	275.75
357.761	267.75
357.988	269.75
358.215	278.75
358.441	278.75
358.668	273.75
358.895	283.75
359.122	287.75
359.349	282.75
359.576	317.75
359.802	307.75
360.029	335.75
360.256	333.75
360.483	309.75
360.709	294.75
360.936	301.75
361.163	279.75
361.39	281.75
361.616	295.75
361.843	265.75
362.07	287.75
362.296	307.75
362.523	267.75
362.749	274.75
362.976	283.75
363.203	285.75
363.429	275.75
363.656	287.75
363.882	290.75
364.109	272.75
364.335	276.75
364.562	265.75
364.788	261.75
365.015	277.75
365.241	292.75
365.468	276.75
365.694	278.75
365.92	287.75
366.147	280.75
366.373	278.75
366.599	267.75
366.826	265.75
367.052	269.75
367.278	273.75
367.505	287.75
367.731	266.75
367.957	270.75
368.184	259.75
368.41	268.75
368.636	262.75
368.862	287.75
369.089	273.75
369.315	259.75
369.541	263.75
369.767	278.75
369.993	277.75
370.219	266.75
370.445	261.75
370.672	287.75
370.898	274.75
371.124	294.75
371.35	274.75
371.576	279.75
371.802	273.75
372.028	253.75
372.254	261.75
372.48	257.75
372.706	261.75
372.932	268.75
373.158	271.75
373.384	272.75
373.61	268.75
373.835	265.75
374.061	256.75
374.287	272.75
374.513	264.75
374.739	254.75
374.965	267.75
375.191	264.75
375.416	273.75
375.642	272.75
375.868	277.75
376.094	255.75
376.319	259.75
376.545	257.75
376.771	272.75
376.997	239.75
377.222	257.75
377.448	260.75
377.674	257.75
377.899	253.75
378.125	246.75
378.35	257.75
378.576	259.75
378.802	280.75
379.027	257.75
379.253	245.75
379.478	269.75
379.704	255.75
379.929	260.75
380.155	255.75
380.38	262.75
380.606	277.75
380.831	263.75
381.057	258.75
381.282	256.75
381.507	254.75
381.733	279.75
381.958	277.75
382.184	254.75
382.409	262.75
382.634	277.75
382.86	273.75
383.085	273.75
383.31	264.75
383.535	271.75
383.761	279.75
383.986	259.75
384.211	279.75
384.436	261.75
384.662	276.75
384.887	282.75
385.112	276.75
385.337	264.75
385.562	271.75
385.787	282.75
386.013	265.75
386.238	269.75
386.463	272.75
386.688	276.75
386.913	263.75
387.138	258.75
387.363	280.75
387.588	274.75
387.813	276.75
388.038	270.75
388.263	262.75
388.488	257.75
388.713	261.75
388.938	274.75
389.163	266.75
389.387	254.75
389.612	254.75
389.837	271.75
390.062	273.75
390.287	270.75
390.512	269.75
390.736	267.75
390.961	256.75
391.186	257.75
391.411	255.75
391.636	287.75
391.86	272.75
392.085	278.75
392.31	292.75
392.534	265.75
392.759	261.75
392.984	255.75
393.208	266.75
393.433	255.75
393.658	274.75
393.882	266.75
394.107	271.75
394.331	271.75
394.556	268.75
394.78	257.75
395.005	272.75
395.229	274.75
395.454	265.75
395.678	273.75
395.903	292.75
396.127	281.75
396.352	285.75
396.576	270.75
396.801	259.75
397.025	279.75
397.249	276.75
397.474	292.75
397.698	289.75
397.922	282.75
398.147	315.75
398.371	306.75
398.595	300.75
398.82	290.75
399.044	301.75
399.268	310.75
399.492	324.75
399.717	319.75
399.941	345.75
400.165	363.75
400.389	351.75
400.613	326.75
400.837	327.75
401.062	306.75
401.286	289.75
401.51	319.75
401.734	288.75
401.958	301.75
402.182	316.75
402.406	305.75
402.63	297.75
402.854	301.75
403.078	319.75
403.302	310.75
403.526	303.75
403.75	320.75
403.974	294.75
404.198	317.75
404.422	321.75
404.645	313.75
404.869	316.75
405.093	321.75
405.317	343.75
405.541	353.75
405.765	320.75
405.988	329.75
406.212	342.75
406.436	340.75
406.66	361.75
406.883	320.75
407.107	343.75
407.331	361.75
407.555	394.75
407.778	408.75
408.002	371.75
408.226	358.75
408.449	352.75
408.673	344.75
408.896	372.75
409.12	377.75
409.344	371.75
409.567	312.75
409.791	312.75
410.014	315.75
410.238	303.75
410.461	308.75
410.685	306.75
410.908	337.75
411.132	339.75
411.355	357.75
411.578	369.75
411.802	314.75
412.025	328.75
412.249	324.75
412.472	333.75
412.695	343.75
412.919	350.75
413.142	308.75
413.365	307.75
413.589	285.75
413.812	283.75
414.035	279.75
414.258	296.75
414.482	283.75
414.705	292.75
414.928	286.75
415.151	296.75
415.374	282.75
415.597	277.75
415.821	293.75
416.044	322.75
416.267	293.75
416.49	309.75
416.713	293.75
416.936	298.75
417.159	285.75
417.382	304.75
417.605	303.75
417.828	301.75
418.051	308.75
418.274	294.75
418.497	285.75
418.72	301.75
418.943	308.75
419.166	287.75
419.389	317.75
419.611	303.75
419.834	314.75
420.057	305.75
420.28	303.75
420.503	306.75
420.726	329.75
420.948	322.75
421.171	357.75
421.394	358.75
421.617	319.75
421.839	291.75
422.062	291.75
422.285	328.75
422.507	345.75
422.73	411.75
422.953	368.75
423.175	328.75
423.398	328.75
423.621	311.75
423.843	329.75
424.066	330.75
424.288	326.75
424.511	330.75
424.733	375.75
424.956	417.75
425.178	408.75
425.401	408.75
425.623	411.75
425.846	355.75
426.068	346.75
426.291	321.75
426.513	341.75
426.735	343.75
426.958	359.75
427.18	431.75
427.402	495.75
427.625	543.75
427.847	502.75
428.069	388.75
428.292	362.75
428.514	323.75
428.736	318.75
428.958	309.75
429.181	311.75
429.403	299.75
429.625	337.75
429.847	339.75
430.069	361.75
430.292	366.75
430.514	337.75
430.736	303.75
430.958	332.75
431.18	289.75
431.402	294.75
431.624	286.75
431.846	294.75
432.068	308.75
432.29	279.75
432.512	294.75
432.734	290.75
432.956	310.75
433.178	295.75
433.4	296.75
433.622	301.75
433.844	280.75
434.066	287.75
434.287	300.75
434.509	296.75
434.731	299.75
434.953	295.75
435.175	321.75
435.397	333.75
435.618	346.75
435.84	363.75
436.062	418.75
436.284	450.75
436.505	391.75
436.727	344.75
436.949	325.75
437.17	309.75
437.392	329.75
437.614	336.75
437.835	360.75
438.057	397.75
438.278	479.75
438.5	474.75
438.721	525.75
438.943	478.75
439.165	389.75
439.386	342.75
439.608	353.75
439.829	354.75
440.05	370.75
440.272	392.75
440.493	386.75
440.715	319.75
440.936	312.75
441.158	303.75
441.379	326.75
441.6	330.75
441.822	344.75
442.043	374.75
442.264	401.75
442.486	422.75
442.707	371.75
442.928	351.75
443.149	357.75
443.371	368.75
443.592	401.75
443.813	439.75
444.034	482.75
444.255	391.75
444.476	365.75
444.698	328.75
444.919	327.75
445.14	433.75
445.361	381.75
445.582	359.75
445.803	417.75
446.024	490.75
446.245	470.75
446.466	439.75
446.687	354.75
446.908	349.75
447.129	313.75
447.35	326.75
447.571	317.75
447.792	318.75
448.013	321.75
448.234	338.75
448.455	360.75
448.675	422.75
448.896	495.75
449.117	409.75
449.338	431.75
449.559	471.75
449.779	509.75
450	393.75
450.221	338.75
450.442	336.75
450.662	318.75
450.883	307.75
451.104	328.75
451.324	325.75
451.545	314.75
451.766	308.75
451.986	277.75
452.207	268.75
452.428	284.75
452.648	298.75
452.869	271.75
453.089	285.75
453.31	297.75
453.53	296.75
453.751	292.75
453.971	271.75
454.192	305.75
454.412	287.75
454.633	278.75
454.853	291.75
455.073	293.75
455.294	312.75
455.514	321.75
455.734	330.75
455.955	285.75
456.175	274.75
456.395	281.75
456.616	280.75
456.836	260.75
457.056	263.75
457.276	273.75
457.497	265.75
457.717	247.75
457.937	274.75
458.157	283.75
458.377	274.75
458.598	290.75
458.818	323.75
459.038	385.75
459.258	372.75
459.478	331.75
459.698	309.75
459.918	283.75
460.138	289.75
460.358	289.75
460.578	303.75
460.798	305.75
461.018	289.75
461.238	287.75
461.458	282.75
461.678	286.75
461.898	296.75
462.118	293.75
462.338	298.75
462.558	292.75
462.777	301.75
462.997	307.75
463.217	303.75
463.437	317.75
463.657	296.75
463.876	312.75
464.096	311.75
464.316	313.75
464.536	286.75
464.755	312.75
464.975	313.75
465.195	339.75
465.414	383.75
465.634	343.75
465.854	313.75
466.073	312.75
466.293	286.75
466.512	288.75
466.732	267.75
466.951	274.75
467.171	278.75
467.391	287.75
467.61	292.75
467.829	292.75
468.049	292.75
468.268	298.75
468.488	292.75
468.707	273.75
468.927	272.75
469.146	283.75
469.365	274.75
469.585	288.75
469.804	294.75
470.023	282.75
470.243	297.75
470.462	309.75
470.681	293.75
470.901	301.75
471.12	276.75
471.339	290.75
471.558	278.75
471.777	311.75
471.997	284.75
472.216	277.75
472.435	311.75
472.654	310.75
472.873	282.75
473.092	302.75
473.311	287.75
473.53	302.75
473.749	309.75
473.968	315.75
474.187	391.75
474.406	410.75
474.625	327.75
474.844	314.75
475.063	292.75
475.282	288.75
475.501	297.75
475.72	311.75
475.939	310.75
476.158	303.75
476.377	306.75
476.596	301.75
476.814	308.75
477.033	306.75
477.252	286.75
477.471	291.75
477.69	291.75
477.908	305.75
478.127	314.75
478.346	316.75
478.564	318.75
478.783	309.75
479.002	322.75
479.22	317.75
479.439	328.75
479.658	330.75
479.876	334.75
480.095	347.75
480.313	375.75
480.532	345.75
480.751	337.75
480.969	360.75
481.188	375.75
481.406	404.75
481.624	367.75
481.843	338.75
482.061	341.75
482.28	347.75
482.498	354.75
482.717	314.75
482.935	331.75
483.153	346.75
483.372	319.75
483.59	341.75
483.808	306.75
484.027	336.75
484.245	334.75
484.463	330.75
484.681	328.75
484.9	344.75
485.118	322.75
485.336	329.75
485.554	354.75
485.772	350.75
485.99	331.75
486.209	337.75
486.427	344.75
486.645	340.75
486.863	353.75
487.081	346.75
487.299	356.75
487.517	356.75
487.735	366.75
487.953	352.75
488.171	360.75
488.389	369.75
488.607	349.75
488.825	369.75
489.043	372.75
489.261	359.75
489.479	371.75
489.696	381.75
489.914	373.75
490.132	375.75
490.35	378.75
490.568	380.75
490.786	395.75
491.003	366.75
491.221	395.75
491.439	392.75
491.657	397.75
491.874	397.75
492.092	393.75
492.31	397.75
492.527	376.75
492.745	395.75
492.963	407.75
493.18	434.75
493.398	418.75
493.615	430.75
493.833	410.75
494.05	401.75
494.268	419.75
494.485	410.75
494.703	408.75
494.92	418.75
495.138	422.75
495.355	432.75
495.573	401.75
495.79	448.75
496.008	433.75
496.225	418.75
496.442	414.75
496.66	425.75
496.877	439.75
497.094	426.75
497.312	414.75
497.529	418.75
497.746	430.75
497.963	432.75
498.181	471.75
498.398	460.75
498.615	451.75
498.832	456.75
499.049	463.75
499.267	454.75
499.484	471.75
499.701	478.75
499.918	493.75
500.135	511.75
500.352	504.75
500.569	507.75
500.786	535.75
501.003	519.75
501.22	527.75
501.437	487.75
501.654	495.75
501.871	516.75
502.088	507.75
502.305	466.75
