Data from 1982.PennyLincolnUp.Lamp.En5.5.200Scan.071819.P1_HRD10591_16-47-50-962.txt Node
Date: Thu Jul 18 16:47:50 EDT 2019
User: cochatt
Spectrometer: HR+D1059
Trigger mode: 1
Integration Time (sec): 1.000000E-1
Scans to average: 1
Electric dark correction enabled: true
Nonlinearity correction enabled: false
Boxcar width: 0
XAxis mode: Wavelengths
Number of Pixels in Spectrum: 2048
>>>>>Begin Spectral Data<<<<<
223.165	-22.94
223.4	-22.94
223.635	-22.94
223.869	-8.94
224.104	-22.94
224.338	-11.94
224.573	-21.94
224.808	-9.94
225.042	-5.94
225.277	-13.94
225.511	-11.94
225.746	5.06
225.98	10.06
226.215	14.06
226.449	17.06
226.683	19.06
226.918	28.06
227.152	37.06
227.387	19.06
227.621	44.06
227.856	42.06
228.09	59.06
228.324	53.06
228.559	44.06
228.793	62.06
229.027	84.06
229.262	94.06
229.496	100.06
229.73	107.06
229.964	138.06
230.199	120.06
230.433	95.06
230.667	118.06
230.901	109.06
231.136	111.06
231.37	91.06
231.604	111.06
231.838	104.06
232.072	109.06
232.306	114.06
232.541	98.06
232.775	109.06
233.009	106.06
233.243	104.06
233.477	104.06
233.711	113.06
233.945	104.06
234.179	126.06
234.413	121.06
234.647	104.06
234.881	106.06
235.115	98.06
235.349	106.06
235.583	95.06
235.817	121.06
236.051	109.06
236.285	119.06
236.519	104.06
236.753	119.06
236.987	136.06
237.221	136.06
237.455	189.06
237.689	158.06
237.922	111.06
238.156	114.06
238.39	112.06
238.624	118.06
238.858	118.06
239.091	107.06
239.325	123.06
239.559	118.06
239.793	122.06
240.027	115.06
240.26	130.06
240.494	126.06
240.728	135.06
240.961	115.06
241.195	133.06
241.429	118.06
241.662	123.06
241.896	105.06
242.13	122.06
242.363	120.06
242.597	118.06
242.83	125.06
243.064	105.06
243.298	128.06
243.531	108.06
243.765	114.06
243.998	122.06
244.232	126.06
244.465	121.06
244.699	123.06
244.932	125.06
245.166	119.06
245.399	112.06
245.633	108.06
245.866	123.06
246.099	130.06
246.333	128.06
246.566	122.06
246.8	134.06
247.033	129.06
247.266	143.06
247.5	146.06
247.733	147.06
247.966	152.06
248.2	151.06
248.433	127.06
248.666	146.06
248.899	169.06
249.133	174.06
249.366	175.06
249.599	173.06
249.832	164.06
250.066	146.06
250.299	146.06
250.532	171.06
250.765	164.06
250.998	203.06
251.231	186.06
251.465	168.06
251.698	176.06
251.931	173.06
252.164	184.06
252.397	178.06
252.63	155.06
252.863	167.06
253.096	193.06
253.329	194.06
253.562	189.06
253.795	179.06
254.028	166.06
254.261	179.06
254.494	192.06
254.727	218.06
254.96	222.06
255.193	199.06
255.426	211.06
255.659	212.06
255.892	202.06
256.124	203.06
256.357	208.06
256.59	182.06
256.823	173.06
257.056	172.06
257.289	164.06
257.521	162.06
257.754	174.06
257.987	155.06
258.22	148.06
258.452	167.06
258.685	179.06
258.918	164.06
259.151	181.06
259.383	178.06
259.616	171.06
259.849	184.06
260.081	201.06
260.314	194.06
260.547	215.06
260.779	200.06
261.012	206.06
261.244	199.06
261.477	193.06
261.71	189.06
261.942	190.06
262.175	189.06
262.407	193.06
262.64	191.06
262.872	190.06
263.105	178.06
263.337	172.06
263.57	186.06
263.802	165.06
264.035	162.06
264.267	190.06
264.499	166.06
264.732	175.06
264.964	168.06
265.197	156.06
265.429	165.06
265.661	182.06
265.894	183.06
266.126	184.06
266.358	171.06
266.591	189.06
266.823	184.06
267.055	201.06
267.287	168.06
267.52	183.06
267.752	163.06
267.984	200.06
268.216	196.06
268.448	194.06
268.681	192.06
268.913	200.06
269.145	209.06
269.377	225.06
269.609	233.06
269.841	226.06
270.073	201.06
270.306	230.06
270.538	232.06
270.77	263.06
271.002	240.06
271.234	242.06
271.466	245.06
271.698	260.06
271.93	270.06
272.162	258.06
272.394	258.06
272.626	246.06
272.858	242.06
273.09	222.06
273.322	212.06
273.553	224.06
273.785	215.06
274.017	198.06
274.249	222.06
274.481	202.06
274.713	226.06
274.945	218.06
275.176	205.06
275.408	210.06
275.64	214.06
275.872	205.06
276.104	218.06
276.335	223.06
276.567	201.06
276.799	221.06
277.031	256.06
277.262	254.06
277.494	256.06
277.726	239.06
277.957	226.06
278.189	223.06
278.421	219.06
278.652	226.06
278.884	216.06
279.115	222.06
279.347	207.06
279.579	223.06
279.81	211.06
280.042	223.06
280.273	216.06
280.505	207.06
280.736	212.06
280.968	217.06
281.199	220.06
281.431	194.06
281.662	227.06
281.894	219.06
282.125	206.06
282.356	235.06
282.588	235.06
282.819	239.06
283.051	217.06
283.282	190.06
283.513	207.06
283.745	210.06
283.976	225.06
284.207	236.06
284.439	221.06
284.67	232.06
284.901	218.06
285.132	218.06
285.364	202.06
285.595	214.06
285.826	216.06
286.057	219.06
286.288	196.06
286.52	218.06
286.751	231.06
286.982	222.06
287.213	208.06
287.444	217.06
287.675	230.06
287.906	260.06
288.138	254.06
288.369	226.06
288.6	230.06
288.831	243.06
289.062	228.06
289.293	222.06
289.524	211.06
289.755	215.06
289.986	225.06
290.217	215.06
290.448	208.06
290.679	225.06
290.91	217.06
291.141	239.06
291.371	245.06
291.602	205.06
291.833	215.06
292.064	210.06
292.295	221.06
292.526	230.06
292.757	233.06
292.987	222.06
293.218	214.06
293.449	222.06
293.68	232.06
293.91	234.06
294.141	232.06
294.372	244.06
294.603	220.06
294.833	227.06
295.064	228.06
295.295	215.06
295.525	231.06
295.756	236.06
295.987	234.06
296.217	260.06
296.448	250.06
296.679	240.06
296.909	223.06
297.14	200.06
297.37	220.06
297.601	233.06
297.831	237.06
298.062	229.06
298.292	244.06
298.523	244.06
298.753	242.06
298.984	237.06
299.214	242.06
299.445	245.06
299.675	246.06
299.905	242.06
300.136	259.06
300.366	232.06
300.597	224.06
300.827	242.06
301.057	245.06
301.288	259.06
301.518	262.06
301.748	239.06
301.979	248.06
302.209	257.06
302.439	256.06
302.669	260.06
302.9	249.06
303.13	238.06
303.36	246.06
303.59	262.06
303.82	263.06
304.051	254.06
304.281	251.06
304.511	246.06
304.741	253.06
304.971	255.06
305.201	261.06
305.431	262.06
305.661	264.06
305.891	272.06
306.121	254.06
306.352	263.06
306.582	263.06
306.812	267.06
307.042	261.06
307.272	242.06
307.502	258.06
307.731	266.06
307.961	267.06
308.191	246.06
308.421	248.06
308.651	264.06
308.881	282.06
309.111	263.06
309.341	278.06
309.571	284.06
309.8	279.06
310.03	291.06
310.26	287.06
310.49	298.06
310.72	316.06
310.949	304.06
311.179	316.06
311.409	312.06
311.639	307.06
311.868	305.06
312.098	307.06
312.328	296.06
312.557	317.06
312.787	326.06
313.017	305.06
313.246	312.06
313.476	284.06
313.706	308.06
313.935	303.06
314.165	312.06
314.394	312.06
314.624	316.06
314.853	301.06
315.083	306.06
315.312	278.06
315.542	293.06
315.771	282.06
316.001	284.06
316.23	291.06
316.46	268.06
316.689	304.06
316.919	302.06
317.148	299.06
317.377	302.06
317.607	286.06
317.836	301.06
318.065	276.06
318.295	297.06
318.524	289.06
318.753	300.06
318.983	283.06
319.212	284.06
319.441	306.06
319.67	279.06
319.9	295.06
320.129	293.06
320.358	298.06
320.587	323.06
320.816	318.06
321.046	296.06
321.275	328.06
321.504	322.06
321.733	300.06
321.962	346.06
322.191	329.06
322.42	351.06
322.649	377.06
322.878	371.06
323.108	382.06
323.337	390.06
323.566	414.06
323.795	440.06
324.024	502.06
324.253	626.06
324.482	915.06
324.71	1408.06
324.939	1775.06
325.168	1470.06
325.397	794.06
325.626	541.06
325.855	458.06
326.084	404.06
326.313	434.06
326.542	436.06
326.77	463.06
326.999	591.06
327.228	790.06
327.457	1142.06
327.686	1273.06
327.914	878.06
328.143	608.06
328.372	534.06
328.6	475.06
328.829	467.06
329.058	466.06
329.287	471.06
329.515	446.06
329.744	425.06
329.972	424.06
330.201	448.06
330.43	469.06
330.658	476.06
330.887	498.06
331.115	467.06
331.344	406.06
331.572	397.06
331.801	382.06
332.03	394.06
332.258	367.06
332.486	343.06
332.715	346.06
332.943	335.06
333.172	355.06
333.4	323.06
333.629	346.06
333.857	355.06
334.085	371.06
334.314	382.06
334.542	400.06
334.771	413.06
334.999	382.06
335.227	373.06
335.455	358.06
335.684	340.06
335.912	341.06
336.14	322.06
336.369	325.06
336.597	332.06
336.825	352.06
337.053	337.06
337.281	306.06
337.51	333.06
337.738	350.06
337.966	349.06
338.194	323.06
338.422	314.06
338.65	319.06
338.878	304.06
339.106	332.06
339.334	326.06
339.562	317.06
339.79	321.06
340.018	316.06
340.246	334.06
340.474	324.06
340.702	340.06
340.93	322.06
341.158	330.06
341.386	317.06
341.614	322.06
341.842	317.06
342.07	324.06
342.298	291.06
342.526	310.06
342.754	320.06
342.981	318.06
343.209	334.06
343.437	306.06
343.665	310.06
343.893	325.06
344.12	311.06
344.348	327.06
344.576	312.06
344.804	320.06
345.031	331.06
345.259	328.06
345.487	352.06
345.714	335.06
345.942	314.06
346.17	316.06
346.397	296.06
346.625	332.06
346.853	310.06
347.08	328.06
347.308	320.06
347.535	330.06
347.763	323.06
347.99	320.06
348.218	331.06
348.445	317.06
348.673	317.06
348.9	325.06
349.128	306.06
349.355	288.06
349.583	301.06
349.81	305.06
350.037	317.06
350.265	311.06
350.492	315.06
350.72	298.06
350.947	316.06
351.174	298.06
351.402	308.06
351.629	320.06
351.856	319.06
352.083	330.06
352.311	318.06
352.538	312.06
352.765	310.06
352.992	324.06
353.22	320.06
353.447	299.06
353.674	293.06
353.901	307.06
354.128	288.06
354.355	281.06
354.583	288.06
354.81	276.06
355.037	287.06
355.264	301.06
355.491	278.06
355.718	295.06
355.945	247.06
356.172	284.06
356.399	282.06
356.626	265.06
356.853	276.06
357.08	284.06
357.307	273.06
357.534	283.06
357.761	280.06
357.988	286.06
358.215	278.06
358.441	293.06
358.668	265.06
358.895	286.06
359.122	297.06
359.349	283.06
359.576	312.06
359.802	337.06
360.029	347.06
360.256	357.06
360.483	345.06
360.709	306.06
360.936	310.06
361.163	305.06
361.39	307.06
361.616	296.06
361.843	299.06
362.07	306.06
362.296	306.06
362.523	290.06
362.749	292.06
362.976	302.06
363.203	293.06
363.429	282.06
363.656	301.06
363.882	298.06
364.109	289.06
364.335	287.06
364.562	264.06
364.788	275.06
365.015	282.06
365.241	279.06
365.468	282.06
365.694	285.06
365.92	299.06
366.147	290.06
366.373	288.06
366.599	270.06
366.826	284.06
367.052	295.06
367.278	291.06
367.505	288.06
367.731	284.06
367.957	290.06
368.184	285.06
368.41	278.06
368.636	284.06
368.862	286.06
369.089	275.06
369.315	289.06
369.541	272.06
369.767	275.06
369.993	283.06
370.219	285.06
370.445	285.06
370.672	278.06
370.898	270.06
371.124	276.06
371.35	286.06
371.576	273.06
371.802	276.06
372.028	294.06
372.254	259.06
372.48	287.06
372.706	289.06
372.932	285.06
373.158	279.06
373.384	283.06
373.61	280.06
373.835	279.06
374.061	262.06
374.287	266.06
374.513	279.06
374.739	270.06
374.965	279.06
375.191	278.06
375.416	270.06
375.642	282.06
375.868	283.06
376.094	281.06
376.319	259.06
376.545	262.06
376.771	262.06
376.997	287.06
377.222	263.06
377.448	288.06
377.674	273.06
377.899	266.06
378.125	281.06
378.35	261.06
378.576	256.06
378.802	268.06
379.027	275.06
379.253	246.06
379.478	264.06
379.704	294.06
379.929	283.06
380.155	263.06
380.38	295.06
380.606	276.06
380.831	284.06
381.057	283.06
381.282	287.06
381.507	275.06
381.733	294.06
381.958	277.06
382.184	282.06
382.409	287.06
382.634	290.06
382.86	278.06
383.085	287.06
383.31	274.06
383.535	283.06
383.761	297.06
383.986	275.06
384.211	284.06
384.436	285.06
384.662	293.06
384.887	284.06
385.112	275.06
385.337	287.06
385.562	291.06
385.787	278.06
386.013	296.06
386.238	297.06
386.463	286.06
386.688	262.06
386.913	277.06
387.138	282.06
387.363	274.06
387.588	283.06
387.813	268.06
388.038	284.06
388.263	270.06
388.488	295.06
388.713	303.06
388.938	277.06
389.163	276.06
389.387	284.06
389.612	278.06
389.837	290.06
390.062	288.06
390.287	280.06
390.512	286.06
390.736	286.06
390.961	286.06
391.186	263.06
391.411	268.06
391.636	272.06
391.86	260.06
392.085	294.06
392.31	291.06
392.534	287.06
392.759	297.06
392.984	294.06
393.208	284.06
393.433	290.06
393.658	294.06
393.882	275.06
394.107	262.06
394.331	278.06
394.556	280.06
394.78	273.06
395.005	286.06
395.229	286.06
395.454	299.06
395.678	290.06
395.903	287.06
396.127	320.06
396.352	292.06
396.576	288.06
396.801	286.06
397.025	273.06
397.249	312.06
397.474	308.06
397.698	299.06
397.922	323.06
398.147	317.06
398.371	306.06
398.595	292.06
398.82	292.06
399.044	312.06
399.268	330.06
399.492	329.06
399.717	335.06
399.941	359.06
400.165	371.06
400.389	388.06
400.613	345.06
400.837	326.06
401.062	300.06
401.286	316.06
401.51	327.06
401.734	317.06
401.958	313.06
402.182	311.06
402.406	310.06
402.63	286.06
402.854	321.06
403.078	327.06
403.302	318.06
403.526	336.06
403.75	323.06
403.974	332.06
404.198	307.06
404.422	353.06
404.645	319.06
404.869	328.06
405.093	365.06
405.317	380.06
405.541	384.06
405.765	352.06
405.988	362.06
406.212	348.06
406.436	387.06
406.66	388.06
406.883	366.06
407.107	338.06
407.331	388.06
407.555	429.06
407.778	404.06
408.002	396.06
408.226	365.06
408.449	346.06
408.673	350.06
408.896	393.06
409.12	390.06
409.344	379.06
409.567	348.06
409.791	303.06
410.014	316.06
410.238	312.06
410.461	321.06
410.685	332.06
410.908	340.06
411.132	343.06
411.355	366.06
411.578	354.06
411.802	322.06
412.025	321.06
412.249	334.06
412.472	336.06
412.695	363.06
412.919	371.06
413.142	343.06
413.365	335.06
413.589	318.06
413.812	298.06
414.035	318.06
414.258	311.06
414.482	300.06
414.705	297.06
414.928	310.06
415.151	298.06
415.374	281.06
415.597	299.06
415.821	301.06
416.044	332.06
416.267	303.06
416.49	310.06
416.713	306.06
416.936	312.06
417.159	301.06
417.382	314.06
417.605	321.06
417.828	318.06
418.051	324.06
418.274	310.06
418.497	296.06
418.72	309.06
418.943	316.06
419.166	322.06
419.389	331.06
419.611	318.06
419.834	319.06
420.057	325.06
420.28	327.06
420.503	324.06
420.726	325.06
420.948	324.06
421.171	350.06
421.394	377.06
421.617	354.06
421.839	320.06
422.062	326.06
422.285	347.06
422.507	368.06
422.73	400.06
422.953	397.06
423.175	350.06
423.398	340.06
423.621	346.06
423.843	351.06
424.066	341.06
424.288	339.06
424.511	381.06
424.733	396.06
424.956	455.06
425.178	431.06
425.401	441.06
425.623	450.06
425.846	393.06
426.068	384.06
426.291	358.06
426.513	354.06
426.735	362.06
426.958	381.06
427.18	446.06
427.402	514.06
427.625	577.06
427.847	490.06
428.069	403.06
428.292	408.06
428.514	369.06
428.736	330.06
428.958	317.06
429.181	318.06
429.403	341.06
429.625	347.06
429.847	355.06
430.069	380.06
430.292	376.06
430.514	349.06
430.736	323.06
430.958	309.06
431.18	316.06
431.402	326.06
431.624	294.06
431.846	311.06
432.068	276.06
432.29	289.06
432.512	301.06
432.734	297.06
432.956	339.06
433.178	316.06
433.4	329.06
433.622	319.06
433.844	312.06
434.066	299.06
434.287	318.06
434.509	298.06
434.731	314.06
434.953	330.06
435.175	331.06
435.397	342.06
435.618	357.06
435.84	393.06
436.062	432.06
436.284	468.06
436.505	400.06
436.727	345.06
436.949	322.06
437.17	334.06
437.392	336.06
437.614	337.06
437.835	376.06
438.057	440.06
438.278	525.06
438.5	498.06
438.721	520.06
438.943	476.06
439.165	421.06
439.386	362.06
439.608	343.06
439.829	375.06
440.05	390.06
440.272	423.06
440.493	381.06
440.715	348.06
440.936	334.06
441.158	331.06
441.379	331.06
441.6	339.06
441.822	344.06
442.043	394.06
442.264	431.06
442.486	429.06
442.707	411.06
442.928	375.06
443.149	367.06
443.371	384.06
443.592	422.06
443.813	470.06
444.034	498.06
444.255	400.06
444.476	379.06
444.698	350.06
444.919	333.06
445.14	455.06
445.361	426.06
445.582	394.06
445.803	432.06
446.024	494.06
446.245	496.06
446.466	457.06
446.687	374.06
446.908	356.06
447.129	354.06
447.35	332.06
447.571	296.06
447.792	320.06
448.013	336.06
448.234	367.06
448.455	382.06
448.675	460.06
448.896	516.06
449.117	445.06
449.338	419.06
449.559	501.06
449.779	542.06
450	438.06
450.221	372.06
450.442	340.06
450.662	346.06
450.883	348.06
451.104	345.06
451.324	325.06
451.545	314.06
451.766	313.06
451.986	310.06
452.207	321.06
452.428	298.06
452.648	307.06
452.869	308.06
453.089	293.06
453.31	317.06
453.53	309.06
453.751	310.06
453.971	291.06
454.192	314.06
454.412	307.06
454.633	321.06
454.853	279.06
455.073	283.06
455.294	334.06
455.514	373.06
455.734	353.06
455.955	308.06
456.175	290.06
456.395	297.06
456.616	276.06
456.836	271.06
457.056	266.06
457.276	275.06
457.497	280.06
457.717	263.06
457.937	285.06
458.157	275.06
458.377	268.06
458.598	300.06
458.818	364.06
459.038	415.06
459.258	414.06
459.478	331.06
459.698	335.06
459.918	296.06
460.138	301.06
460.358	323.06
460.578	314.06
460.798	309.06
461.018	324.06
461.238	288.06
461.458	294.06
461.678	279.06
461.898	292.06
462.118	308.06
462.338	302.06
462.558	307.06
462.777	310.06
462.997	313.06
463.217	300.06
463.437	309.06
463.657	293.06
463.876	297.06
464.096	325.06
464.316	322.06
464.536	309.06
464.755	327.06
464.975	324.06
465.195	364.06
465.414	398.06
465.634	346.06
465.854	335.06
466.073	332.06
466.293	312.06
466.512	315.06
466.732	306.06
466.951	296.06
467.171	292.06
467.391	292.06
467.61	323.06
467.829	306.06
468.049	298.06
468.268	308.06
468.488	311.06
468.707	295.06
468.927	280.06
469.146	284.06
469.365	300.06
469.585	285.06
469.804	294.06
470.023	318.06
470.243	308.06
470.462	306.06
470.681	315.06
470.901	324.06
471.12	314.06
471.339	307.06
471.558	324.06
471.777	326.06
471.997	293.06
472.216	298.06
472.435	324.06
472.654	336.06
472.873	282.06
473.092	316.06
473.311	288.06
473.53	317.06
473.749	326.06
473.968	346.06
474.187	419.06
474.406	429.06
474.625	343.06
474.844	319.06
475.063	308.06
475.282	300.06
475.501	283.06
475.72	319.06
475.939	327.06
476.158	318.06
476.377	330.06
476.596	307.06
476.814	316.06
477.033	318.06
477.252	322.06
477.471	324.06
477.69	325.06
477.908	339.06
478.127	317.06
478.346	314.06
478.564	338.06
478.783	330.06
479.002	326.06
479.22	327.06
479.439	358.06
479.658	348.06
479.876	354.06
480.095	363.06
480.313	390.06
480.532	363.06
480.751	363.06
480.969	371.06
481.188	406.06
481.406	421.06
481.624	384.06
481.843	358.06
482.061	348.06
482.28	343.06
482.498	363.06
482.717	361.06
482.935	368.06
483.153	341.06
483.372	330.06
483.59	351.06
483.808	352.06
484.027	342.06
484.245	360.06
484.463	342.06
484.681	338.06
484.9	354.06
485.118	366.06
485.336	362.06
485.554	358.06
485.772	354.06
485.99	359.06
486.209	343.06
486.427	380.06
486.645	374.06
486.863	376.06
487.081	378.06
487.299	373.06
487.517	380.06
487.735	378.06
487.953	381.06
488.171	365.06
488.389	376.06
488.607	394.06
488.825	388.06
489.043	379.06
489.261	393.06
489.479	382.06
489.696	376.06
489.914	404.06
490.132	382.06
490.35	384.06
490.568	404.06
490.786	396.06
491.003	410.06
491.221	426.06
491.439	394.06
491.657	429.06
491.874	439.06
492.092	435.06
492.31	422.06
492.527	425.06
492.745	430.06
492.963	430.06
493.18	433.06
493.398	442.06
493.615	436.06
493.833	447.06
494.05	447.06
494.268	448.06
494.485	439.06
494.703	425.06
494.92	453.06
495.138	458.06
495.355	429.06
495.573	434.06
495.79	434.06
496.008	448.06
496.225	445.06
496.442	439.06
496.66	442.06
496.877	446.06
497.094	432.06
497.312	444.06
497.529	445.06
497.746	442.06
497.963	446.06
498.181	480.06
498.398	475.06
498.615	468.06
498.832	471.06
499.049	471.06
499.267	487.06
499.484	509.06
499.701	493.06
499.918	517.06
500.135	513.06
500.352	546.06
500.569	535.06
500.786	540.06
501.003	533.06
501.22	555.06
501.437	542.06
501.654	500.06
501.871	555.06
502.088	504.06
