Data from 1982.PennyLincolnUp.Lamp.En5.5.200Scan.071819.P1_HRD10591_16-46-29-961.txt Node
Date: Thu Jul 18 16:46:29 EDT 2019
User: cochatt
Spectrometer: HR+D1059
Trigger mode: 1
Integration Time (sec): 1.000000E-1
Scans to average: 1
Electric dark correction enabled: true
Nonlinearity correction enabled: false
Boxcar width: 0
XAxis mode: Wavelengths
Number of Pixels in Spectrum: 2048
>>>>>Begin Spectral Data<<<<<
223.165	-3.19
223.4	-3.19
223.635	-3.19
223.869	-26.19
224.104	-25.19
224.338	-4.19
224.573	-1.19
224.808	-22.19
225.042	-16.19
225.277	-10.19
225.511	10.81
225.746	-12.19
225.98	14.81
226.215	17.81
226.449	3.81
226.683	36.81
226.918	20.81
227.152	15.81
227.387	32.81
227.621	33.81
227.856	46.81
228.09	38.81
228.324	50.81
228.559	52.81
228.793	72.81
229.027	84.81
229.262	83.81
229.496	90.81
229.73	99.81
229.964	117.81
230.199	114.81
230.433	87.81
230.667	100.81
230.901	100.81
231.136	97.81
231.37	88.81
231.604	94.81
231.838	98.81
232.072	106.81
232.306	101.81
232.541	89.81
232.775	113.81
233.009	101.81
233.243	90.81
233.477	107.81
233.711	101.81
233.945	103.81
234.179	90.81
234.413	108.81
234.647	96.81
234.881	115.81
235.115	100.81
235.349	107.81
235.583	105.81
235.817	102.81
236.051	94.81
236.285	96.81
236.519	104.81
236.753	116.81
236.987	138.81
237.221	138.81
237.455	179.81
237.689	162.81
237.922	128.81
238.156	119.81
238.39	104.81
238.624	107.81
238.858	95.81
239.091	115.81
239.325	119.81
239.559	111.81
239.793	116.81
240.027	117.81
240.26	110.81
240.494	132.81
240.728	111.81
240.961	107.81
241.195	130.81
241.429	102.81
241.662	112.81
241.896	117.81
242.13	103.81
242.363	117.81
242.597	113.81
242.83	106.81
243.064	108.81
243.298	105.81
243.531	123.81
243.765	122.81
243.998	127.81
244.232	125.81
244.465	121.81
244.699	108.81
244.932	113.81
245.166	122.81
245.399	119.81
245.633	124.81
245.866	131.81
246.099	121.81
246.333	121.81
246.566	138.81
246.8	128.81
247.033	138.81
247.266	138.81
247.5	139.81
247.733	129.81
247.966	145.81
248.2	135.81
248.433	146.81
248.666	144.81
248.899	154.81
249.133	166.81
249.366	163.81
249.599	148.81
249.832	148.81
250.066	136.81
250.299	159.81
250.532	154.81
250.765	162.81
250.998	160.81
251.231	194.81
251.465	166.81
251.698	161.81
251.931	163.81
252.164	156.81
252.397	161.81
252.63	148.81
252.863	165.81
253.096	180.81
253.329	186.81
253.562	178.81
253.795	176.81
254.028	183.81
254.261	165.81
254.494	197.81
254.727	204.81
254.96	219.81
255.193	210.81
255.426	212.81
255.659	191.81
255.892	193.81
256.124	176.81
256.357	194.81
256.59	185.81
256.823	171.81
257.056	186.81
257.289	182.81
257.521	170.81
257.754	178.81
257.987	179.81
258.22	179.81
258.452	180.81
258.685	175.81
258.918	178.81
259.151	176.81
259.383	166.81
259.616	172.81
259.849	182.81
260.081	196.81
260.314	198.81
260.547	204.81
260.779	200.81
261.012	183.81
261.244	182.81
261.477	178.81
261.71	185.81
261.942	188.81
262.175	188.81
262.407	186.81
262.64	169.81
262.872	167.81
263.105	182.81
263.337	184.81
263.57	167.81
263.802	173.81
264.035	178.81
264.267	158.81
264.499	170.81
264.732	174.81
264.964	172.81
265.197	162.81
265.429	177.81
265.661	167.81
265.894	174.81
266.126	160.81
266.358	156.81
266.591	175.81
266.823	187.81
267.055	172.81
267.287	160.81
267.52	168.81
267.752	185.81
267.984	182.81
268.216	183.81
268.448	190.81
268.681	167.81
268.913	191.81
269.145	203.81
269.377	202.81
269.609	220.81
269.841	226.81
270.073	218.81
270.306	231.81
270.538	234.81
270.77	240.81
271.002	222.81
271.234	234.81
271.466	238.81
271.698	262.81
271.93	265.81
272.162	250.81
272.394	240.81
272.626	226.81
272.858	236.81
273.09	233.81
273.322	224.81
273.553	210.81
273.785	213.81
274.017	212.81
274.249	206.81
274.481	211.81
274.713	213.81
274.945	207.81
275.176	207.81
275.408	185.81
275.64	202.81
275.872	219.81
276.104	199.81
276.335	205.81
276.567	234.81
276.799	241.81
277.031	227.81
277.262	251.81
277.494	245.81
277.726	248.81
277.957	240.81
278.189	209.81
278.421	203.81
278.652	203.81
278.884	207.81
279.115	217.81
279.347	212.81
279.579	200.81
279.81	211.81
280.042	190.81
280.273	201.81
280.505	211.81
280.736	227.81
280.968	204.81
281.199	223.81
281.431	202.81
281.662	197.81
281.894	191.81
282.125	210.81
282.356	222.81
282.588	237.81
282.819	230.81
283.051	223.81
283.282	208.81
283.513	203.81
283.745	216.81
283.976	226.81
284.207	209.81
284.439	196.81
284.67	240.81
284.901	223.81
285.132	219.81
285.364	198.81
285.595	226.81
285.826	216.81
286.057	204.81
286.288	202.81
286.52	214.81
286.751	201.81
286.982	223.81
287.213	207.81
287.444	214.81
287.675	221.81
287.906	210.81
288.138	218.81
288.369	225.81
288.6	230.81
288.831	216.81
289.062	230.81
289.293	225.81
289.524	223.81
289.755	223.81
289.986	223.81
290.217	199.81
290.448	212.81
290.679	208.81
290.91	209.81
291.141	213.81
291.371	216.81
291.602	239.81
291.833	198.81
292.064	220.81
292.295	216.81
292.526	227.81
292.757	219.81
292.987	242.81
293.218	204.81
293.449	207.81
293.68	216.81
293.91	215.81
294.141	199.81
294.372	226.81
294.603	223.81
294.833	242.81
295.064	211.81
295.295	212.81
295.525	222.81
295.756	229.81
295.987	215.81
296.217	243.81
296.448	263.81
296.679	227.81
296.909	222.81
297.14	224.81
297.37	228.81
297.601	224.81
297.831	217.81
298.062	222.81
298.292	227.81
298.523	229.81
298.753	224.81
298.984	235.81
299.214	222.81
299.445	241.81
299.675	236.81
299.905	230.81
300.136	241.81
300.366	233.81
300.597	226.81
300.827	231.81
301.057	213.81
301.288	228.81
301.518	240.81
301.748	231.81
301.979	260.81
302.209	257.81
302.439	251.81
302.669	240.81
302.9	241.81
303.13	222.81
303.36	241.81
303.59	265.81
303.82	257.81
304.051	265.81
304.281	232.81
304.511	247.81
304.741	230.81
304.971	247.81
305.201	240.81
305.431	242.81
305.661	248.81
305.891	253.81
306.121	254.81
306.352	246.81
306.582	257.81
306.812	261.81
307.042	250.81
307.272	245.81
307.502	248.81
307.731	260.81
307.961	260.81
308.191	244.81
308.421	255.81
308.651	259.81
308.881	264.81
309.111	259.81
309.341	266.81
309.571	269.81
309.8	263.81
310.03	263.81
310.26	284.81
310.49	280.81
310.72	293.81
310.949	315.81
311.179	295.81
311.409	301.81
311.639	290.81
311.868	293.81
312.098	268.81
312.328	286.81
312.557	309.81
312.787	320.81
313.017	303.81
313.246	302.81
313.476	280.81
313.706	280.81
313.935	304.81
314.165	311.81
314.394	301.81
314.624	284.81
314.853	306.81
315.083	304.81
315.312	282.81
315.542	283.81
315.771	283.81
316.001	294.81
316.23	298.81
316.46	305.81
316.689	274.81
316.919	304.81
317.148	302.81
317.377	288.81
317.607	297.81
317.836	274.81
318.065	282.81
318.295	279.81
318.524	269.81
318.753	291.81
318.983	278.81
319.212	291.81
319.441	297.81
319.67	293.81
319.9	293.81
320.129	286.81
320.358	287.81
320.587	302.81
320.816	298.81
321.046	313.81
321.275	311.81
321.504	320.81
321.733	332.81
321.962	323.81
322.191	340.81
322.42	338.81
322.649	361.81
322.878	345.81
323.108	363.81
323.337	374.81
323.566	376.81
323.795	439.81
324.024	478.81
324.253	603.81
324.482	919.81
324.71	1337.81
324.939	1748.81
325.168	1407.81
325.397	753.81
325.626	495.81
325.855	454.81
326.084	404.81
326.313	401.81
326.542	421.81
326.77	451.81
326.999	539.81
327.228	794.81
327.457	1125.81
327.686	1241.81
327.914	812.81
328.143	563.81
328.372	503.81
328.6	475.81
328.829	456.81
329.058	451.81
329.287	441.81
329.515	409.81
329.744	399.81
329.972	388.81
330.201	423.81
330.43	436.81
330.658	444.81
330.887	474.81
331.115	459.81
331.344	407.81
331.572	369.81
331.801	376.81
332.03	370.81
332.258	365.81
332.486	346.81
332.715	326.81
332.943	332.81
333.172	334.81
333.4	343.81
333.629	355.81
333.857	355.81
334.085	364.81
334.314	362.81
334.542	408.81
334.771	394.81
334.999	371.81
335.227	345.81
335.455	336.81
335.684	312.81
335.912	327.81
336.14	332.81
336.369	304.81
336.597	324.81
336.825	306.81
337.053	317.81
337.281	304.81
337.51	320.81
337.738	313.81
337.966	319.81
338.194	314.81
338.422	326.81
338.65	329.81
338.878	316.81
339.106	318.81
339.334	324.81
339.562	303.81
339.79	311.81
340.018	307.81
340.246	312.81
340.474	339.81
340.702	314.81
340.93	306.81
341.158	323.81
341.386	305.81
341.614	320.81
341.842	324.81
342.07	314.81
342.298	289.81
342.526	322.81
342.754	307.81
342.981	275.81
343.209	295.81
343.437	314.81
343.665	306.81
343.893	332.81
344.12	314.81
344.348	312.81
344.576	321.81
344.804	322.81
345.031	342.81
345.259	337.81
345.487	315.81
345.714	323.81
345.942	289.81
346.17	318.81
346.397	304.81
346.625	292.81
346.853	298.81
347.08	287.81
347.308	306.81
347.535	300.81
347.763	302.81
347.99	314.81
348.218	307.81
348.445	309.81
348.673	286.81
348.9	313.81
349.128	320.81
349.355	284.81
349.583	286.81
349.81	288.81
350.037	303.81
350.265	315.81
350.492	307.81
350.72	290.81
350.947	308.81
351.174	320.81
351.402	318.81
351.629	305.81
351.856	321.81
352.083	312.81
352.311	306.81
352.538	306.81
352.765	321.81
352.992	297.81
353.22	309.81
353.447	285.81
353.674	299.81
353.901	288.81
354.128	274.81
354.355	274.81
354.583	275.81
354.81	300.81
355.037	278.81
355.264	273.81
355.491	281.81
355.718	274.81
355.945	265.81
356.172	287.81
356.399	272.81
356.626	273.81
356.853	263.81
357.08	262.81
357.307	285.81
357.534	265.81
357.761	270.81
357.988	294.81
358.215	288.81
358.441	287.81
358.668	291.81
358.895	268.81
359.122	262.81
359.349	294.81
359.576	297.81
359.802	332.81
360.029	338.81
360.256	332.81
360.483	309.81
360.709	299.81
360.936	288.81
361.163	280.81
361.39	302.81
361.616	294.81
361.843	275.81
362.07	295.81
362.296	302.81
362.523	294.81
362.749	295.81
362.976	297.81
363.203	261.81
363.429	305.81
363.656	267.81
363.882	289.81
364.109	275.81
364.335	291.81
364.562	265.81
364.788	284.81
365.015	299.81
365.241	301.81
365.468	283.81
365.694	294.81
365.92	282.81
366.147	264.81
366.373	287.81
366.599	274.81
366.826	281.81
367.052	254.81
367.278	285.81
367.505	302.81
367.731	257.81
367.957	259.81
368.184	267.81
368.41	272.81
368.636	288.81
368.862	281.81
369.089	287.81
369.315	258.81
369.541	262.81
369.767	265.81
369.993	281.81
370.219	269.81
370.445	270.81
370.672	273.81
370.898	266.81
371.124	268.81
371.35	258.81
371.576	279.81
371.802	264.81
372.028	266.81
372.254	266.81
372.48	257.81
372.706	265.81
372.932	277.81
373.158	280.81
373.384	275.81
373.61	279.81
373.835	274.81
374.061	280.81
374.287	277.81
374.513	272.81
374.739	267.81
374.965	278.81
375.191	278.81
375.416	271.81
375.642	271.81
375.868	251.81
376.094	282.81
376.319	268.81
376.545	274.81
376.771	278.81
376.997	261.81
377.222	249.81
377.448	263.81
377.674	262.81
377.899	268.81
378.125	271.81
378.35	276.81
378.576	272.81
378.802	258.81
379.027	275.81
379.253	251.81
379.478	258.81
379.704	266.81
379.929	279.81
380.155	254.81
380.38	270.81
380.606	278.81
380.831	267.81
381.057	264.81
381.282	264.81
381.507	255.81
381.733	264.81
381.958	260.81
382.184	276.81
382.409	247.81
382.634	265.81
382.86	255.81
383.085	267.81
383.31	270.81
383.535	263.81
383.761	271.81
383.986	277.81
384.211	282.81
384.436	280.81
384.662	265.81
384.887	276.81
385.112	280.81
385.337	286.81
385.562	292.81
385.787	270.81
386.013	277.81
386.238	267.81
386.463	265.81
386.688	266.81
386.913	280.81
387.138	303.81
387.363	281.81
387.588	282.81
387.813	268.81
388.038	268.81
388.263	273.81
388.488	285.81
388.713	276.81
388.938	272.81
389.163	289.81
389.387	288.81
389.612	292.81
389.837	282.81
390.062	275.81
390.287	271.81
390.512	279.81
390.736	267.81
390.961	276.81
391.186	266.81
391.411	296.81
391.636	281.81
391.86	282.81
392.085	278.81
392.31	282.81
392.534	274.81
392.759	288.81
392.984	283.81
393.208	291.81
393.433	287.81
393.658	273.81
393.882	293.81
394.107	258.81
394.331	282.81
394.556	280.81
394.78	273.81
395.005	282.81
395.229	263.81
395.454	282.81
395.678	277.81
395.903	292.81
396.127	298.81
396.352	287.81
396.576	283.81
396.801	281.81
397.025	295.81
397.249	287.81
397.474	308.81
397.698	302.81
397.922	300.81
398.147	319.81
398.371	320.81
398.595	307.81
398.82	297.81
399.044	298.81
399.268	295.81
399.492	320.81
399.717	345.81
399.941	375.81
400.165	382.81
400.389	363.81
400.613	342.81
400.837	325.81
401.062	326.81
401.286	319.81
401.51	294.81
401.734	299.81
401.958	300.81
402.182	326.81
402.406	308.81
402.63	314.81
402.854	321.81
403.078	323.81
403.302	339.81
403.526	322.81
403.75	306.81
403.974	305.81
404.198	311.81
404.422	304.81
404.645	314.81
404.869	324.81
405.093	346.81
405.317	366.81
405.541	410.81
405.765	346.81
405.988	350.81
406.212	341.81
406.436	361.81
406.66	336.81
406.883	361.81
407.107	360.81
407.331	400.81
407.555	418.81
407.778	426.81
408.002	369.81
408.226	357.81
408.449	342.81
408.673	359.81
408.896	378.81
409.12	370.81
409.344	380.81
409.567	359.81
409.791	307.81
410.014	326.81
410.238	308.81
410.461	308.81
410.685	328.81
410.908	336.81
411.132	366.81
411.355	379.81
411.578	358.81
411.802	342.81
412.025	313.81
412.249	331.81
412.472	354.81
412.695	340.81
412.919	339.81
413.142	318.81
413.365	322.81
413.589	310.81
413.812	317.81
414.035	289.81
414.258	307.81
414.482	309.81
414.705	305.81
414.928	298.81
415.151	293.81
415.374	284.81
415.597	292.81
415.821	305.81
416.044	304.81
416.267	313.81
416.49	300.81
416.713	306.81
416.936	297.81
417.159	306.81
417.382	305.81
417.605	294.81
417.828	326.81
418.051	323.81
418.274	295.81
418.497	283.81
418.72	296.81
418.943	300.81
419.166	289.81
419.389	297.81
419.611	311.81
419.834	306.81
420.057	319.81
420.28	330.81
420.503	306.81
420.726	319.81
420.948	326.81
421.171	352.81
421.394	361.81
421.617	315.81
421.839	322.81
422.062	329.81
422.285	320.81
422.507	348.81
422.73	378.81
422.953	381.81
423.175	339.81
423.398	323.81
423.621	344.81
423.843	334.81
424.066	342.81
424.288	329.81
424.511	360.81
424.733	385.81
424.956	428.81
425.178	442.81
425.401	410.81
425.623	431.81
425.846	369.81
426.068	344.81
426.291	348.81
426.513	343.81
426.735	378.81
426.958	402.81
427.18	427.81
427.402	514.81
427.625	571.81
427.847	497.81
428.069	419.81
428.292	381.81
428.514	357.81
428.736	340.81
428.958	338.81
429.181	330.81
429.403	313.81
429.625	327.81
429.847	338.81
430.069	408.81
430.292	388.81
430.514	315.81
430.736	302.81
430.958	312.81
431.18	293.81
431.402	298.81
431.624	304.81
431.846	302.81
432.068	297.81
432.29	308.81
432.512	307.81
432.734	302.81
432.956	303.81
433.178	324.81
433.4	322.81
433.622	305.81
433.844	289.81
434.066	304.81
434.287	296.81
434.509	283.81
434.731	306.81
434.953	334.81
435.175	344.81
435.397	351.81
435.618	343.81
435.84	391.81
436.062	444.81
436.284	478.81
436.505	383.81
436.727	348.81
436.949	338.81
437.17	348.81
437.392	329.81
437.614	337.81
437.835	372.81
438.057	426.81
438.278	487.81
438.5	493.81
438.721	516.81
438.943	488.81
439.165	382.81
439.386	370.81
439.608	374.81
439.829	366.81
440.05	391.81
440.272	417.81
440.493	395.81
440.715	356.81
440.936	332.81
441.158	339.81
441.379	311.81
441.6	334.81
441.822	351.81
442.043	373.81
442.264	417.81
442.486	435.81
442.707	370.81
442.928	376.81
443.149	353.81
443.371	367.81
443.592	390.81
443.813	455.81
444.034	457.81
444.255	395.81
444.476	359.81
444.698	328.81
444.919	339.81
445.14	437.81
445.361	384.81
445.582	383.81
445.803	447.81
446.024	495.81
446.245	500.81
446.466	441.81
446.687	382.81
446.908	362.81
447.129	355.81
447.35	333.81
447.571	323.81
447.792	323.81
448.013	325.81
448.234	344.81
448.455	376.81
448.675	435.81
448.896	498.81
449.117	448.81
449.338	418.81
449.559	475.81
449.779	516.81
450	424.81
450.221	347.81
450.442	326.81
450.662	297.81
450.883	320.81
451.104	321.81
451.324	309.81
451.545	308.81
451.766	318.81
451.986	293.81
452.207	270.81
452.428	294.81
452.648	306.81
452.869	302.81
453.089	309.81
453.31	311.81
453.53	311.81
453.751	294.81
453.971	290.81
454.192	303.81
454.412	318.81
454.633	307.81
454.853	282.81
455.073	278.81
455.294	307.81
455.514	361.81
455.734	349.81
455.955	312.81
456.175	282.81
456.395	273.81
456.616	278.81
456.836	261.81
457.056	263.81
457.276	276.81
457.497	286.81
457.717	273.81
457.937	260.81
458.157	278.81
458.377	290.81
458.598	299.81
458.818	342.81
459.038	395.81
459.258	402.81
459.478	340.81
459.698	306.81
459.918	310.81
460.138	280.81
460.358	294.81
460.578	284.81
460.798	298.81
461.018	304.81
461.238	294.81
461.458	304.81
461.678	289.81
461.898	277.81
462.118	307.81
462.338	301.81
462.558	307.81
462.777	292.81
462.997	314.81
463.217	299.81
463.437	299.81
463.657	306.81
463.876	322.81
464.096	323.81
464.316	311.81
464.536	309.81
464.755	324.81
464.975	329.81
465.195	353.81
465.414	384.81
465.634	370.81
465.854	339.81
466.073	320.81
466.293	320.81
466.512	303.81
466.732	298.81
466.951	286.81
467.171	289.81
467.391	288.81
467.61	302.81
467.829	297.81
468.049	317.81
468.268	296.81
468.488	306.81
468.707	284.81
468.927	278.81
469.146	291.81
469.365	276.81
469.585	283.81
469.804	304.81
470.023	306.81
470.243	311.81
470.462	305.81
470.681	310.81
470.901	293.81
471.12	287.81
471.339	295.81
471.558	303.81
471.777	300.81
471.997	304.81
472.216	304.81
472.435	327.81
472.654	319.81
472.873	302.81
473.092	296.81
473.311	317.81
473.53	314.81
473.749	302.81
473.968	326.81
474.187	414.81
474.406	412.81
474.625	332.81
474.844	320.81
475.063	298.81
475.282	304.81
475.501	315.81
475.72	313.81
475.939	305.81
476.158	298.81
476.377	314.81
476.596	292.81
476.814	300.81
477.033	318.81
477.252	306.81
477.471	311.81
477.69	314.81
477.908	330.81
478.127	310.81
478.346	311.81
478.564	322.81
478.783	324.81
479.002	352.81
479.22	331.81
479.439	366.81
479.658	329.81
479.876	351.81
480.095	347.81
480.313	369.81
480.532	376.81
480.751	352.81
480.969	375.81
481.188	396.81
481.406	426.81
481.624	380.81
481.843	353.81
482.061	356.81
482.28	337.81
482.498	340.81
482.717	356.81
482.935	348.81
483.153	353.81
483.372	342.81
483.59	341.81
483.808	347.81
484.027	346.81
484.245	339.81
484.463	356.81
484.681	374.81
484.9	339.81
485.118	352.81
485.336	364.81
485.554	364.81
485.772	353.81
485.99	338.81
486.209	339.81
486.427	352.81
486.645	363.81
486.863	371.81
487.081	388.81
487.299	376.81
487.517	371.81
487.735	360.81
487.953	359.81
488.171	379.81
488.389	379.81
488.607	386.81
488.825	374.81
489.043	361.81
489.261	355.81
489.479	388.81
489.696	371.81
489.914	378.81
490.132	372.81
490.35	394.81
490.568	370.81
490.786	394.81
491.003	380.81
491.221	397.81
491.439	406.81
491.657	392.81
491.874	409.81
492.092	425.81
492.31	432.81
492.527	407.81
492.745	427.81
492.963	430.81
493.18	423.81
493.398	419.81
493.615	437.81
493.833	433.81
494.05	427.81
494.268	439.81
494.485	440.81
494.703	425.81
494.92	436.81
495.138	429.81
495.355	426.81
495.573	426.81
495.79	434.81
496.008	439.81
496.225	417.81
496.442	422.81
496.66	426.81
496.877	430.81
497.094	432.81
497.312	433.81
497.529	440.81
497.746	442.81
497.963	452.81
498.181	441.81
498.398	476.81
498.615	466.81
498.832	476.81
499.049	480.81
499.267	473.81
499.484	478.81
499.701	482.81
499.918	518.81
500.135	524.81
500.352	528.81
500.569	549.81
500.786	536.81
501.003	537.81
501.22	519.81
501.437	520.81
501.654	539.81
501.871	539.81
502.088	505.81
