Data from 1982.PennyLincolnUp.Lamp.En5.5.200Scan.071819.P1_HRD10591_16-44-40-961.txt Node
Date: Thu Jul 18 16:44:40 EDT 2019
User: cochatt
Spectrometer: HR+D1059
Trigger mode: 1
Integration Time (sec): 1.000000E-1
Scans to average: 1
Electric dark correction enabled: true
Nonlinearity correction enabled: false
Boxcar width: 0
XAxis mode: Wavelengths
Number of Pixels in Spectrum: 2048
>>>>>Begin Spectral Data<<<<<
223.165	-24.56
223.4	-24.56
223.635	-24.56
223.869	-30.56
224.104	-16.56
224.338	-9.56
224.573	-5.56
224.808	-1.56
225.042	-4.56
225.277	-7.56
225.511	-11.56
225.746	-0.56
225.98	13.44
226.215	14.44
226.449	25.44
226.683	16.44
226.918	13.44
227.152	29.44
227.387	42.44
227.621	28.44
227.856	43.44
228.09	61.44
228.324	54.44
228.559	53.44
228.793	72.44
229.027	80.44
229.262	97.44
229.496	87.44
229.73	115.44
229.964	140.44
230.199	152.44
230.433	109.44
230.667	106.44
230.901	103.44
231.136	110.44
231.37	99.44
231.604	116.44
231.838	106.44
232.072	93.44
232.306	118.44
232.541	104.44
232.775	109.44
233.009	105.44
233.243	113.44
233.477	102.44
233.711	102.44
233.945	100.44
234.179	111.44
234.413	97.44
234.647	96.44
234.881	111.44
235.115	99.44
235.349	103.44
235.583	107.44
235.817	107.44
236.051	100.44
236.285	98.44
236.519	114.44
236.753	123.44
236.987	124.44
237.221	156.44
237.455	170.44
237.689	162.44
237.922	136.44
238.156	122.44
238.39	105.44
238.624	114.44
238.858	110.44
239.091	108.44
239.325	117.44
239.559	128.44
239.793	117.44
240.027	106.44
240.26	136.44
240.494	140.44
240.728	138.44
240.961	124.44
241.195	118.44
241.429	127.44
241.662	116.44
241.896	119.44
242.13	118.44
242.363	116.44
242.597	125.44
242.83	113.44
243.064	120.44
243.298	118.44
243.531	108.44
243.765	120.44
243.998	107.44
244.232	129.44
244.465	135.44
244.699	119.44
244.932	133.44
245.166	135.44
245.399	131.44
245.633	124.44
245.866	136.44
246.099	138.44
246.333	125.44
246.566	117.44
246.8	120.44
247.033	130.44
247.266	114.44
247.5	119.44
247.733	149.44
247.966	144.44
248.2	156.44
248.433	139.44
248.666	155.44
248.899	164.44
249.133	159.44
249.366	172.44
249.599	192.44
249.832	163.44
250.066	138.44
250.299	154.44
250.532	149.44
250.765	164.44
250.998	183.44
251.231	190.44
251.465	187.44
251.698	170.44
251.931	188.44
252.164	170.44
252.397	175.44
252.63	158.44
252.863	179.44
253.096	191.44
253.329	184.44
253.562	180.44
253.795	195.44
254.028	167.44
254.261	186.44
254.494	189.44
254.727	195.44
254.96	220.44
255.193	214.44
255.426	180.44
255.659	176.44
255.892	174.44
256.124	172.44
256.357	173.44
256.59	169.44
256.823	167.44
257.056	168.44
257.289	167.44
257.521	185.44
257.754	161.44
257.987	175.44
258.22	171.44
258.452	158.44
258.685	172.44
258.918	178.44
259.151	173.44
259.383	173.44
259.616	178.44
259.849	188.44
260.081	204.44
260.314	213.44
260.547	218.44
260.779	199.44
261.012	198.44
261.244	180.44
261.477	181.44
261.71	192.44
261.942	198.44
262.175	206.44
262.407	206.44
262.64	191.44
262.872	178.44
263.105	196.44
263.337	175.44
263.57	190.44
263.802	172.44
264.035	183.44
264.267	182.44
264.499	175.44
264.732	194.44
264.964	170.44
265.197	170.44
265.429	176.44
265.661	161.44
265.894	164.44
266.126	192.44
266.358	196.44
266.591	188.44
266.823	194.44
267.055	180.44
267.287	191.44
267.52	177.44
267.752	183.44
267.984	188.44
268.216	185.44
268.448	190.44
268.681	191.44
268.913	202.44
269.145	206.44
269.377	223.44
269.609	228.44
269.841	219.44
270.073	216.44
270.306	230.44
270.538	260.44
270.77	254.44
271.002	243.44
271.234	237.44
271.466	231.44
271.698	234.44
271.93	266.44
272.162	268.44
272.394	283.44
272.626	236.44
272.858	235.44
273.09	224.44
273.322	226.44
273.553	209.44
273.785	217.44
274.017	225.44
274.249	232.44
274.481	222.44
274.713	231.44
274.945	238.44
275.176	230.44
275.408	223.44
275.64	236.44
275.872	228.44
276.104	235.44
276.335	217.44
276.567	235.44
276.799	263.44
277.031	272.44
277.262	265.44
277.494	270.44
277.726	259.44
277.957	252.44
278.189	254.44
278.421	242.44
278.652	256.44
278.884	253.44
279.115	289.44
279.347	373.44
279.579	474.44
279.81	587.44
280.042	524.44
280.273	450.44
280.505	435.44
280.736	386.44
280.968	276.44
281.199	253.44
281.431	228.44
281.662	243.44
281.894	236.44
282.125	234.44
282.356	247.44
282.588	278.44
282.819	282.44
283.051	230.44
283.282	226.44
283.513	220.44
283.745	230.44
283.976	245.44
284.207	239.44
284.439	220.44
284.67	240.44
284.901	248.44
285.132	259.44
285.364	282.44
285.595	286.44
285.826	239.44
286.057	228.44
286.288	220.44
286.52	225.44
286.751	220.44
286.982	224.44
287.213	226.44
287.444	210.44
287.675	243.44
287.906	235.44
288.138	262.44
288.369	274.44
288.6	260.44
288.831	264.44
289.062	225.44
289.293	232.44
289.524	231.44
289.755	229.44
289.986	240.44
290.217	225.44
290.448	214.44
290.679	240.44
290.91	223.44
291.141	232.44
291.371	219.44
291.602	234.44
291.833	239.44
292.064	232.44
292.295	235.44
292.526	237.44
292.757	231.44
292.987	239.44
293.218	222.44
293.449	232.44
293.68	247.44
293.91	243.44
294.141	263.44
294.372	258.44
294.603	235.44
294.833	239.44
295.064	242.44
295.295	235.44
295.525	252.44
295.756	266.44
295.987	267.44
296.217	283.44
296.448	290.44
296.679	250.44
296.909	264.44
297.14	242.44
297.37	236.44
297.601	242.44
297.831	237.44
298.062	230.44
298.292	251.44
298.523	253.44
298.753	253.44
298.984	229.44
299.214	244.44
299.445	246.44
299.675	259.44
299.905	255.44
300.136	249.44
300.366	264.44
300.597	250.44
300.827	265.44
301.057	275.44
301.288	287.44
301.518	270.44
301.748	269.44
301.979	272.44
302.209	300.44
302.439	289.44
302.669	275.44
302.9	272.44
303.13	260.44
303.36	272.44
303.59	280.44
303.82	295.44
304.051	270.44
304.281	265.44
304.511	268.44
304.741	261.44
304.971	261.44
305.201	263.44
305.431	257.44
305.661	266.44
305.891	260.44
306.121	268.44
306.352	284.44
306.582	285.44
306.812	278.44
307.042	266.44
307.272	273.44
307.502	275.44
307.731	281.44
307.961	271.44
308.191	292.44
308.421	278.44
308.651	275.44
308.881	286.44
309.111	303.44
309.341	309.44
309.571	319.44
309.8	334.44
310.03	334.44
310.26	351.44
310.49	347.44
310.72	324.44
310.949	362.44
311.179	375.44
311.409	341.44
311.639	334.44
311.868	343.44
312.098	346.44
312.328	367.44
312.557	375.44
312.787	391.44
313.017	376.44
313.246	333.44
313.476	329.44
313.706	318.44
313.935	342.44
314.165	380.44
314.394	367.44
314.624	360.44
314.853	343.44
315.083	326.44
315.312	320.44
315.542	328.44
315.771	317.44
316.001	321.44
316.23	319.44
316.46	340.44
316.689	324.44
316.919	332.44
317.148	337.44
317.377	360.44
317.607	364.44
317.836	362.44
318.065	357.44
318.295	349.44
318.524	335.44
318.753	325.44
318.983	340.44
319.212	334.44
319.441	353.44
319.67	340.44
319.9	332.44
320.129	327.44
320.358	336.44
320.587	334.44
320.816	341.44
321.046	334.44
321.275	354.44
321.504	350.44
321.733	358.44
321.962	360.44
322.191	398.44
322.42	410.44
322.649	443.44
322.878	448.44
323.108	482.44
323.337	520.44
323.566	536.44
323.795	615.44
324.024	719.44
324.253	946.44
324.482	1440.44
324.71	2095.44
324.939	2640.44
325.168	2062.44
325.397	1042.44
325.626	692.44
325.855	582.44
326.084	534.44
326.313	523.44
326.542	522.44
326.77	631.44
326.999	822.44
327.228	1240.44
327.457	1812.44
327.686	1922.44
327.914	1168.44
328.143	807.44
328.372	700.44
328.6	627.44
328.829	615.44
329.058	639.44
329.287	596.44
329.515	559.44
329.744	502.44
329.972	471.44
330.201	498.44
330.43	549.44
330.658	590.44
330.887	644.44
331.115	606.44
331.344	511.44
331.572	457.44
331.801	446.44
332.03	420.44
332.258	428.44
332.486	395.44
332.715	363.44
332.943	365.44
333.172	380.44
333.4	365.44
333.629	386.44
333.857	408.44
334.085	392.44
334.314	416.44
334.542	420.44
334.771	436.44
334.999	410.44
335.227	416.44
335.455	380.44
335.684	357.44
335.912	354.44
336.14	370.44
336.369	380.44
336.597	379.44
336.825	380.44
337.053	379.44
337.281	371.44
337.51	355.44
337.738	355.44
337.966	365.44
338.194	387.44
338.422	396.44
338.65	358.44
338.878	354.44
339.106	336.44
339.334	345.44
339.562	349.44
339.79	349.44
340.018	351.44
340.246	334.44
340.474	367.44
340.702	372.44
340.93	354.44
341.158	352.44
341.386	356.44
341.614	388.44
341.842	347.44
342.07	339.44
342.298	335.44
342.526	329.44
342.754	331.44
342.981	346.44
343.209	313.44
343.437	314.44
343.665	317.44
343.893	336.44
344.12	362.44
344.348	328.44
344.576	357.44
344.804	363.44
345.031	373.44
345.259	378.44
345.487	381.44
345.714	351.44
345.942	332.44
346.17	361.44
346.397	370.44
346.625	361.44
346.853	343.44
347.08	340.44
347.308	360.44
347.535	365.44
347.763	376.44
347.99	364.44
348.218	370.44
348.445	362.44
348.673	374.44
348.9	356.44
349.128	327.44
349.355	326.44
349.583	326.44
349.81	320.44
350.037	322.44
350.265	343.44
350.492	326.44
350.72	334.44
350.947	341.44
351.174	357.44
351.402	364.44
351.629	367.44
351.856	364.44
352.083	346.44
352.311	381.44
352.538	382.44
352.765	382.44
352.992	361.44
353.22	356.44
353.447	359.44
353.674	338.44
353.901	304.44
354.128	326.44
354.355	297.44
354.583	314.44
354.81	296.44
355.037	286.44
355.264	294.44
355.491	295.44
355.718	291.44
355.945	295.44
356.172	285.44
356.399	283.44
356.626	300.44
356.853	327.44
357.08	307.44
357.307	308.44
357.534	286.44
357.761	300.44
357.988	308.44
358.215	303.44
358.441	309.44
358.668	306.44
358.895	326.44
359.122	318.44
359.349	317.44
359.576	351.44
359.802	390.44
360.029	450.44
360.256	422.44
360.483	407.44
360.709	363.44
360.936	351.44
361.163	379.44
361.39	355.44
361.616	330.44
361.843	339.44
362.07	325.44
362.296	343.44
362.523	352.44
362.749	332.44
362.976	306.44
363.203	324.44
363.429	315.44
363.656	319.44
363.882	329.44
364.109	303.44
364.335	330.44
364.562	321.44
364.788	306.44
365.015	307.44
365.241	324.44
365.468	318.44
365.694	342.44
365.92	316.44
366.147	316.44
366.373	297.44
366.599	292.44
366.826	293.44
367.052	303.44
367.278	308.44
367.505	301.44
367.731	302.44
367.957	300.44
368.184	293.44
368.41	317.44
368.636	327.44
368.862	319.44
369.089	313.44
369.315	278.44
369.541	287.44
369.767	289.44
369.993	304.44
370.219	301.44
370.445	277.44
370.672	293.44
370.898	293.44
371.124	289.44
371.35	293.44
371.576	288.44
371.802	278.44
372.028	277.44
372.254	289.44
372.48	286.44
372.706	294.44
372.932	284.44
373.158	299.44
373.384	302.44
373.61	309.44
373.835	318.44
374.061	291.44
374.287	297.44
374.513	303.44
374.739	299.44
374.965	316.44
375.191	294.44
375.416	290.44
375.642	294.44
375.868	275.44
376.094	290.44
376.319	299.44
376.545	287.44
376.771	275.44
376.997	277.44
377.222	299.44
377.448	291.44
377.674	279.44
377.899	268.44
378.125	279.44
378.35	273.44
378.576	270.44
378.802	272.44
379.027	279.44
379.253	282.44
379.478	270.44
379.704	271.44
379.929	270.44
380.155	272.44
380.38	270.44
380.606	296.44
380.831	281.44
381.057	290.44
381.282	285.44
381.507	281.44
381.733	285.44
381.958	295.44
382.184	286.44
382.409	296.44
382.634	297.44
382.86	293.44
383.085	293.44
383.31	315.44
383.535	317.44
383.761	295.44
383.986	318.44
384.211	308.44
384.436	294.44
384.662	294.44
384.887	303.44
385.112	289.44
385.337	298.44
385.562	293.44
385.787	301.44
386.013	332.44
386.238	333.44
386.463	318.44
386.688	313.44
386.913	298.44
387.138	293.44
387.363	304.44
387.588	290.44
387.813	291.44
388.038	299.44
388.263	312.44
388.488	285.44
388.713	282.44
388.938	297.44
389.163	279.44
389.387	294.44
389.612	287.44
389.837	267.44
390.062	285.44
390.287	294.44
390.512	279.44
390.736	304.44
390.961	285.44
391.186	291.44
391.411	275.44
391.636	293.44
391.86	303.44
392.085	314.44
392.31	316.44
392.534	296.44
392.759	344.44
392.984	388.44
393.208	524.44
393.433	723.44
393.658	687.44
393.882	414.44
394.107	324.44
394.331	320.44
394.556	314.44
394.78	308.44
395.005	302.44
395.229	299.44
395.454	282.44
395.678	315.44
395.903	317.44
396.127	350.44
396.352	395.44
396.576	398.44
396.801	477.44
397.025	568.44
397.249	454.44
397.474	337.44
397.698	310.44
397.922	315.44
398.147	315.44
398.371	321.44
398.595	301.44
398.82	308.44
399.044	303.44
399.268	307.44
399.492	332.44
399.717	345.44
399.941	336.44
400.165	392.44
400.389	379.44
400.613	371.44
400.837	354.44
401.062	321.44
401.286	344.44
401.51	314.44
401.734	324.44
401.958	345.44
402.182	326.44
402.406	347.44
402.63	341.44
402.854	346.44
403.078	329.44
403.302	351.44
403.526	326.44
403.75	348.44
403.974	320.44
404.198	328.44
404.422	337.44
404.645	336.44
404.869	338.44
405.093	349.44
405.317	369.44
405.541	389.44
405.765	364.44
405.988	359.44
406.212	378.44
406.436	390.44
406.66	414.44
406.883	389.44
407.107	380.44
407.331	386.44
407.555	439.44
407.778	434.44
408.002	384.44
408.226	374.44
408.449	361.44
408.673	343.44
408.896	372.44
409.12	388.44
409.344	366.44
409.567	361.44
409.791	342.44
410.014	335.44
410.238	319.44
410.461	314.44
410.685	322.44
410.908	335.44
411.132	352.44
411.355	381.44
411.578	342.44
411.802	326.44
412.025	324.44
412.249	344.44
412.472	355.44
412.695	331.44
412.919	329.44
413.142	318.44
413.365	311.44
413.589	321.44
413.812	309.44
414.035	294.44
414.258	309.44
414.482	314.44
414.705	307.44
414.928	297.44
415.151	294.44
415.374	295.44
415.597	291.44
415.821	296.44
416.044	302.44
416.267	306.44
416.49	294.44
416.713	314.44
416.936	301.44
417.159	290.44
417.382	293.44
417.605	303.44
417.828	315.44
418.051	338.44
418.274	324.44
418.497	318.44
418.72	316.44
418.943	296.44
419.166	299.44
419.389	308.44
419.611	315.44
419.834	320.44
420.057	301.44
420.28	310.44
420.503	312.44
420.726	334.44
420.948	320.44
421.171	371.44
421.394	360.44
421.617	324.44
421.839	326.44
422.062	322.44
422.285	349.44
422.507	408.44
422.73	464.44
422.953	456.44
423.175	370.44
423.398	343.44
423.621	349.44
423.843	332.44
424.066	340.44
424.288	367.44
424.511	356.44
424.733	390.44
424.956	434.44
425.178	456.44
425.401	431.44
425.623	434.44
425.846	381.44
426.068	374.44
426.291	365.44
426.513	345.44
426.735	358.44
426.958	404.44
427.18	458.44
427.402	574.44
427.625	630.44
427.847	568.44
428.069	469.44
428.292	379.44
428.514	345.44
428.736	339.44
428.958	333.44
429.181	347.44
429.403	314.44
429.625	324.44
429.847	338.44
430.069	409.44
430.292	414.44
430.514	346.44
430.736	328.44
430.958	326.44
431.18	320.44
431.402	306.44
431.624	287.44
431.846	308.44
432.068	289.44
432.29	292.44
432.512	302.44
432.734	326.44
432.956	327.44
433.178	319.44
433.4	332.44
433.622	312.44
433.844	327.44
434.066	312.44
434.287	301.44
434.509	302.44
434.731	309.44
434.953	293.44
435.175	327.44
435.397	344.44
435.618	343.44
435.84	381.44
436.062	470.44
436.284	477.44
436.505	400.44
436.727	380.44
436.949	331.44
437.17	342.44
437.392	327.44
437.614	349.44
437.835	384.44
438.057	458.44
438.278	520.44
438.5	500.44
438.721	523.44
438.943	510.44
439.165	401.44
439.386	371.44
439.608	382.44
439.829	378.44
440.05	424.44
440.272	450.44
440.493	431.44
440.715	372.44
440.936	347.44
441.158	335.44
441.379	344.44
441.6	355.44
441.822	367.44
442.043	391.44
442.264	434.44
442.486	468.44
442.707	410.44
442.928	394.44
443.149	395.44
443.371	412.44
443.592	412.44
443.813	476.44
444.034	479.44
444.255	419.44
444.476	379.44
444.698	363.44
444.919	346.44
445.14	461.44
445.361	400.44
445.582	413.44
445.803	452.44
446.024	529.44
446.245	512.44
446.466	466.44
446.687	406.44
446.908	393.44
447.129	360.44
447.35	346.44
447.571	340.44
447.792	318.44
448.013	352.44
448.234	356.44
448.455	415.44
448.675	454.44
448.896	514.44
449.117	437.44
449.338	414.44
449.559	476.44
449.779	535.44
450	452.44
450.221	377.44
450.442	347.44
450.662	360.44
450.883	376.44
451.104	396.44
451.324	378.44
451.545	338.44
451.766	329.44
451.986	318.44
452.207	306.44
452.428	319.44
452.648	302.44
452.869	325.44
453.089	338.44
453.31	338.44
453.53	346.44
453.751	332.44
453.971	343.44
454.192	364.44
454.412	348.44
454.633	350.44
454.853	313.44
455.073	318.44
455.294	316.44
455.514	368.44
455.734	356.44
455.955	303.44
456.175	309.44
456.395	296.44
456.616	282.44
456.836	278.44
457.056	278.44
457.276	280.44
457.497	294.44
457.717	280.44
457.937	284.44
458.157	285.44
458.377	303.44
458.598	331.44
458.818	417.44
459.038	525.44
459.258	450.44
459.478	374.44
459.698	350.44
459.918	332.44
460.138	323.44
460.358	311.44
460.578	311.44
460.798	320.44
461.018	304.44
461.238	307.44
461.458	301.44
461.678	304.44
461.898	324.44
462.118	285.44
462.338	298.44
462.558	304.44
462.777	292.44
462.997	288.44
463.217	316.44
463.437	318.44
463.657	318.44
463.876	324.44
464.096	310.44
464.316	318.44
464.536	341.44
464.755	342.44
464.975	370.44
465.195	451.44
465.414	562.44
465.634	446.44
465.854	399.44
466.073	332.44
466.293	338.44
466.512	318.44
466.732	283.44
466.951	302.44
467.171	316.44
467.391	306.44
467.61	352.44
467.829	332.44
468.049	318.44
468.268	306.44
468.488	299.44
468.707	296.44
468.927	326.44
469.146	301.44
469.365	308.44
469.585	316.44
469.804	324.44
470.023	337.44
470.243	320.44
470.462	324.44
470.681	352.44
470.901	356.44
471.12	330.44
471.339	319.44
471.558	307.44
471.777	324.44
471.997	299.44
472.216	312.44
472.435	336.44
472.654	316.44
472.873	310.44
473.092	310.44
473.311	303.44
473.53	297.44
473.749	313.44
473.968	376.44
474.187	404.44
474.406	426.44
474.625	339.44
474.844	326.44
475.063	318.44
475.282	311.44
475.501	295.44
475.72	308.44
475.939	308.44
476.158	315.44
476.377	311.44
476.596	294.44
476.814	341.44
477.033	336.44
477.252	347.44
477.471	328.44
477.69	327.44
477.908	336.44
478.127	334.44
478.346	330.44
478.564	321.44
478.783	344.44
479.002	358.44
479.22	360.44
479.439	384.44
479.658	402.44
479.876	381.44
480.095	390.44
480.313	379.44
480.532	390.44
480.751	376.44
480.969	374.44
481.188	429.44
481.406	443.44
481.624	381.44
481.843	379.44
482.061	364.44
482.28	348.44
482.498	355.44
482.717	338.44
482.935	384.44
483.153	356.44
483.372	364.44
483.59	348.44
483.808	358.44
484.027	352.44
484.245	361.44
484.463	364.44
484.681	376.44
484.9	379.44
485.118	368.44
485.336	358.44
485.554	372.44
485.772	386.44
485.99	399.44
486.209	366.44
486.427	364.44
486.645	390.44
486.863	415.44
487.081	419.44
487.299	418.44
487.517	405.44
487.735	408.44
487.953	390.44
488.171	385.44
488.389	396.44
488.607	395.44
488.825	403.44
489.043	377.44
489.261	375.44
489.479	374.44
489.696	368.44
489.914	380.44
490.132	396.44
490.35	394.44
490.568	397.44
490.786	401.44
491.003	389.44
491.221	419.44
491.439	418.44
491.657	422.44
491.874	407.44
492.092	391.44
492.31	416.44
492.527	428.44
492.745	441.44
492.963	423.44
493.18	427.44
493.398	432.44
493.615	435.44
493.833	415.44
494.05	425.44
494.268	436.44
494.485	436.44
494.703	436.44
494.92	447.44
495.138	424.44
495.355	408.44
495.573	454.44
495.79	422.44
496.008	429.44
496.225	439.44
496.442	408.44
496.66	452.44
496.877	439.44
497.094	436.44
497.312	431.44
497.529	422.44
497.746	420.44
497.963	460.44
498.181	467.44
498.398	463.44
498.615	462.44
498.832	489.44
499.049	459.44
499.267	507.44
499.484	492.44
499.701	473.44
499.918	515.44
500.135	490.44
500.352	530.44
500.569	530.44
500.786	527.44
501.003	538.44
501.22	511.44
501.437	520.44
501.654	537.44
501.871	557.44
502.088	495.44
