Data from 1982.PennyLincolnUp.Lamp.En5.5.200Scan.071819.P1_HRD10591_16-46-28-961.txt Node
Date: Thu Jul 18 16:46:28 EDT 2019
User: cochatt
Spectrometer: HR+D1059
Trigger mode: 1
Integration Time (sec): 1.000000E-1
Scans to average: 1
Electric dark correction enabled: true
Nonlinearity correction enabled: false
Boxcar width: 0
XAxis mode: Wavelengths
Number of Pixels in Spectrum: 2048
>>>>>Begin Spectral Data<<<<<
223.165	-12.75
223.4	-12.75
223.635	-12.75
223.869	-28.75
224.104	-7.75
224.338	-16.75
224.573	-12.75
224.808	-8.75
225.042	-4.75
225.277	-10.75
225.511	-7.75
225.746	4.25
225.98	-4.75
226.215	18.25
226.449	21.25
226.683	24.25
226.918	20.25
227.152	27.25
227.387	29.25
227.621	43.25
227.856	35.25
228.09	41.25
228.324	52.25
228.559	47.25
228.793	75.25
229.027	83.25
229.262	96.25
229.496	96.25
229.73	105.25
229.964	113.25
230.199	109.25
230.433	108.25
230.667	107.25
230.901	99.25
231.136	96.25
231.37	87.25
231.604	100.25
231.838	113.25
232.072	104.25
232.306	92.25
232.541	106.25
232.775	107.25
233.009	116.25
233.243	111.25
233.477	109.25
233.711	109.25
233.945	107.25
234.179	104.25
234.413	113.25
234.647	97.25
234.881	108.25
235.115	107.25
235.349	102.25
235.583	109.25
235.817	111.25
236.051	106.25
236.285	106.25
236.519	109.25
236.753	122.25
236.987	130.25
237.221	162.25
237.455	187.25
237.689	151.25
237.922	123.25
238.156	128.25
238.39	116.25
238.624	109.25
238.858	117.25
239.091	115.25
239.325	108.25
239.559	92.25
239.793	99.25
240.027	116.25
240.26	116.25
240.494	127.25
240.728	120.25
240.961	119.25
241.195	127.25
241.429	111.25
241.662	105.25
241.896	107.25
242.13	130.25
242.363	106.25
242.597	115.25
242.83	113.25
243.064	106.25
243.298	125.25
243.531	116.25
243.765	127.25
243.998	118.25
244.232	122.25
244.465	131.25
244.699	122.25
244.932	119.25
245.166	115.25
245.399	111.25
245.633	103.25
245.866	111.25
246.099	120.25
246.333	118.25
246.566	124.25
246.8	116.25
247.033	117.25
247.266	132.25
247.5	136.25
247.733	136.25
247.966	135.25
248.2	152.25
248.433	136.25
248.666	136.25
248.899	147.25
249.133	160.25
249.366	170.25
249.599	167.25
249.832	170.25
250.066	151.25
250.299	141.25
250.532	159.25
250.765	160.25
250.998	169.25
251.231	191.25
251.465	159.25
251.698	159.25
251.931	157.25
252.164	142.25
252.397	161.25
252.63	155.25
252.863	168.25
253.096	164.25
253.329	186.25
253.562	192.25
253.795	196.25
254.028	164.25
254.261	176.25
254.494	178.25
254.727	203.25
254.96	211.25
255.193	212.25
255.426	196.25
255.659	188.25
255.892	194.25
256.124	198.25
256.357	172.25
256.59	182.25
256.823	188.25
257.056	165.25
257.289	165.25
257.521	168.25
257.754	172.25
257.987	183.25
258.22	147.25
258.452	178.25
258.685	168.25
258.918	175.25
259.151	162.25
259.383	181.25
259.616	179.25
259.849	197.25
260.081	190.25
260.314	180.25
260.547	210.25
260.779	195.25
261.012	199.25
261.244	179.25
261.477	177.25
261.71	168.25
261.942	179.25
262.175	182.25
262.407	189.25
262.64	175.25
262.872	167.25
263.105	171.25
263.337	184.25
263.57	173.25
263.802	181.25
264.035	162.25
264.267	177.25
264.499	179.25
264.732	156.25
264.964	173.25
265.197	168.25
265.429	164.25
265.661	165.25
265.894	161.25
266.126	148.25
266.358	178.25
266.591	156.25
266.823	192.25
267.055	173.25
267.287	190.25
267.52	195.25
267.752	192.25
267.984	196.25
268.216	171.25
268.448	192.25
268.681	201.25
268.913	208.25
269.145	216.25
269.377	223.25
269.609	204.25
269.841	223.25
270.073	223.25
270.306	246.25
270.538	235.25
270.77	249.25
271.002	238.25
271.234	227.25
271.466	245.25
271.698	243.25
271.93	236.25
272.162	259.25
272.394	225.25
272.626	237.25
272.858	231.25
273.09	204.25
273.322	218.25
273.553	209.25
273.785	219.25
274.017	208.25
274.249	203.25
274.481	224.25
274.713	198.25
274.945	235.25
275.176	218.25
275.408	197.25
275.64	197.25
275.872	199.25
276.104	220.25
276.335	210.25
276.567	207.25
276.799	228.25
277.031	247.25
277.262	223.25
277.494	259.25
277.726	229.25
277.957	222.25
278.189	225.25
278.421	217.25
278.652	196.25
278.884	213.25
279.115	203.25
279.347	226.25
279.579	214.25
279.81	212.25
280.042	213.25
280.273	199.25
280.505	200.25
280.736	198.25
280.968	224.25
281.199	208.25
281.431	199.25
281.662	214.25
281.894	213.25
282.125	222.25
282.356	235.25
282.588	236.25
282.819	226.25
283.051	217.25
283.282	202.25
283.513	210.25
283.745	206.25
283.976	219.25
284.207	202.25
284.439	211.25
284.67	223.25
284.901	218.25
285.132	224.25
285.364	199.25
285.595	218.25
285.826	208.25
286.057	217.25
286.288	216.25
286.52	214.25
286.751	211.25
286.982	221.25
287.213	219.25
287.444	220.25
287.675	233.25
287.906	229.25
288.138	227.25
288.369	219.25
288.6	223.25
288.831	223.25
289.062	221.25
289.293	234.25
289.524	218.25
289.755	224.25
289.986	222.25
290.217	224.25
290.448	216.25
290.679	220.25
290.91	235.25
291.141	208.25
291.371	219.25
291.602	216.25
291.833	222.25
292.064	209.25
292.295	208.25
292.526	219.25
292.757	240.25
292.987	207.25
293.218	218.25
293.449	232.25
293.68	221.25
293.91	204.25
294.141	217.25
294.372	224.25
294.603	221.25
294.833	233.25
295.064	235.25
295.295	224.25
295.525	232.25
295.756	223.25
295.987	232.25
296.217	240.25
296.448	262.25
296.679	224.25
296.909	224.25
297.14	234.25
297.37	242.25
297.601	229.25
297.831	229.25
298.062	243.25
298.292	244.25
298.523	257.25
298.753	239.25
298.984	224.25
299.214	233.25
299.445	234.25
299.675	228.25
299.905	232.25
300.136	239.25
300.366	221.25
300.597	242.25
300.827	239.25
301.057	237.25
301.288	258.25
301.518	255.25
301.748	240.25
301.979	242.25
302.209	272.25
302.439	251.25
302.669	246.25
302.9	256.25
303.13	246.25
303.36	225.25
303.59	252.25
303.82	249.25
304.051	255.25
304.281	243.25
304.511	250.25
304.741	255.25
304.971	245.25
305.201	224.25
305.431	253.25
305.661	245.25
305.891	243.25
306.121	242.25
306.352	243.25
306.582	256.25
306.812	252.25
307.042	231.25
307.272	244.25
307.502	228.25
307.731	242.25
307.961	243.25
308.191	238.25
308.421	267.25
308.651	252.25
308.881	257.25
309.111	273.25
309.341	262.25
309.571	256.25
309.8	286.25
310.03	277.25
310.26	292.25
310.49	292.25
310.72	286.25
310.949	300.25
311.179	317.25
311.409	278.25
311.639	295.25
311.868	276.25
312.098	287.25
312.328	307.25
312.557	326.25
312.787	332.25
313.017	320.25
313.246	300.25
313.476	299.25
313.706	300.25
313.935	303.25
314.165	313.25
314.394	307.25
314.624	295.25
314.853	299.25
315.083	290.25
315.312	268.25
315.542	272.25
315.771	294.25
316.001	292.25
316.23	282.25
316.46	274.25
316.689	297.25
316.919	276.25
317.148	308.25
317.377	279.25
317.607	282.25
317.836	285.25
318.065	292.25
318.295	292.25
318.524	299.25
318.753	295.25
318.983	289.25
319.212	312.25
319.441	295.25
319.67	295.25
319.9	288.25
320.129	297.25
320.358	296.25
320.587	299.25
320.816	292.25
321.046	301.25
321.275	319.25
321.504	323.25
321.733	301.25
321.962	320.25
322.191	331.25
322.42	353.25
322.649	349.25
322.878	371.25
323.108	353.25
323.337	385.25
323.566	405.25
323.795	405.25
324.024	465.25
324.253	588.25
324.482	904.25
324.71	1343.25
324.939	1784.25
325.168	1451.25
325.397	747.25
325.626	505.25
325.855	428.25
326.084	407.25
326.313	420.25
326.542	402.25
326.77	438.25
326.999	565.25
327.228	787.25
327.457	1110.25
327.686	1255.25
327.914	831.25
328.143	567.25
328.372	495.25
328.6	438.25
328.829	454.25
329.058	441.25
329.287	460.25
329.515	415.25
329.744	423.25
329.972	401.25
330.201	411.25
330.43	449.25
330.658	456.25
330.887	467.25
331.115	448.25
331.344	402.25
331.572	389.25
331.801	383.25
332.03	356.25
332.258	357.25
332.486	340.25
332.715	333.25
332.943	339.25
333.172	352.25
333.4	327.25
333.629	338.25
333.857	370.25
334.085	363.25
334.314	375.25
334.542	393.25
334.771	400.25
334.999	378.25
335.227	342.25
335.455	328.25
335.684	355.25
335.912	327.25
336.14	323.25
336.369	350.25
336.597	333.25
336.825	328.25
337.053	327.25
337.281	341.25
337.51	342.25
337.738	311.25
337.966	330.25
338.194	322.25
338.422	345.25
338.65	329.25
338.878	319.25
339.106	306.25
339.334	325.25
339.562	321.25
339.79	327.25
340.018	314.25
340.246	315.25
340.474	299.25
340.702	315.25
340.93	312.25
341.158	310.25
341.386	300.25
341.614	317.25
341.842	324.25
342.07	316.25
342.298	292.25
342.526	296.25
342.754	308.25
342.981	310.25
343.209	300.25
343.437	311.25
343.665	313.25
343.893	319.25
344.12	340.25
344.348	315.25
344.576	321.25
344.804	330.25
345.031	323.25
345.259	338.25
345.487	324.25
345.714	323.25
345.942	311.25
346.17	333.25
346.397	307.25
346.625	317.25
346.853	313.25
347.08	298.25
347.308	330.25
347.535	311.25
347.763	317.25
347.99	298.25
348.218	315.25
348.445	307.25
348.673	322.25
348.9	309.25
349.128	317.25
349.355	297.25
349.583	295.25
349.81	284.25
350.037	282.25
350.265	295.25
350.492	282.25
350.72	283.25
350.947	292.25
351.174	294.25
351.402	314.25
351.629	328.25
351.856	304.25
352.083	310.25
352.311	309.25
352.538	307.25
352.765	332.25
352.992	314.25
353.22	317.25
353.447	313.25
353.674	304.25
353.901	297.25
354.128	286.25
354.355	306.25
354.583	296.25
354.81	283.25
355.037	259.25
355.264	272.25
355.491	265.25
355.718	277.25
355.945	287.25
356.172	270.25
356.399	267.25
356.626	285.25
356.853	269.25
357.08	286.25
357.307	272.25
357.534	285.25
357.761	291.25
357.988	289.25
358.215	274.25
358.441	271.25
358.668	294.25
358.895	279.25
359.122	303.25
359.349	291.25
359.576	316.25
359.802	343.25
360.029	339.25
360.256	349.25
360.483	324.25
360.709	320.25
360.936	300.25
361.163	306.25
361.39	312.25
361.616	308.25
361.843	290.25
362.07	303.25
362.296	305.25
362.523	320.25
362.749	273.25
362.976	308.25
363.203	288.25
363.429	292.25
363.656	292.25
363.882	293.25
364.109	282.25
364.335	301.25
364.562	287.25
364.788	285.25
365.015	288.25
365.241	281.25
365.468	283.25
365.694	297.25
365.92	289.25
366.147	276.25
366.373	283.25
366.599	271.25
366.826	265.25
367.052	277.25
367.278	268.25
367.505	288.25
367.731	276.25
367.957	280.25
368.184	289.25
368.41	297.25
368.636	285.25
368.862	304.25
369.089	295.25
369.315	297.25
369.541	291.25
369.767	283.25
369.993	273.25
370.219	280.25
370.445	270.25
370.672	275.25
370.898	279.25
371.124	277.25
371.35	275.25
371.576	292.25
371.802	292.25
372.028	289.25
372.254	268.25
372.48	274.25
372.706	277.25
372.932	266.25
373.158	261.25
373.384	287.25
373.61	266.25
373.835	291.25
374.061	270.25
374.287	300.25
374.513	276.25
374.739	278.25
374.965	281.25
375.191	275.25
375.416	296.25
375.642	279.25
375.868	281.25
376.094	265.25
376.319	260.25
376.545	258.25
376.771	266.25
376.997	275.25
377.222	268.25
377.448	275.25
377.674	272.25
377.899	273.25
378.125	258.25
378.35	263.25
378.576	270.25
378.802	282.25
379.027	281.25
379.253	277.25
379.478	260.25
379.704	279.25
379.929	280.25
380.155	273.25
380.38	276.25
380.606	277.25
380.831	264.25
381.057	259.25
381.282	267.25
381.507	256.25
381.733	275.25
381.958	273.25
382.184	270.25
382.409	275.25
382.634	267.25
382.86	271.25
383.085	276.25
383.31	279.25
383.535	281.25
383.761	286.25
383.986	272.25
384.211	287.25
384.436	288.25
384.662	285.25
384.887	257.25
385.112	283.25
385.337	283.25
385.562	284.25
385.787	284.25
386.013	287.25
386.238	317.25
386.463	293.25
386.688	279.25
386.913	293.25
387.138	268.25
387.363	272.25
387.588	278.25
387.813	278.25
388.038	283.25
388.263	284.25
388.488	265.25
388.713	284.25
388.938	273.25
389.163	282.25
389.387	307.25
389.612	300.25
389.837	277.25
390.062	279.25
390.287	271.25
390.512	262.25
390.736	299.25
390.961	285.25
391.186	272.25
391.411	281.25
391.636	283.25
391.86	303.25
392.085	300.25
392.31	284.25
392.534	300.25
392.759	274.25
392.984	279.25
393.208	275.25
393.433	276.25
393.658	287.25
393.882	280.25
394.107	289.25
394.331	281.25
394.556	282.25
394.78	297.25
395.005	286.25
395.229	279.25
395.454	285.25
395.678	299.25
395.903	280.25
396.127	304.25
396.352	316.25
396.576	299.25
396.801	281.25
397.025	282.25
397.249	298.25
397.474	300.25
397.698	303.25
397.922	297.25
398.147	323.25
398.371	309.25
398.595	294.25
398.82	297.25
399.044	326.25
399.268	311.25
399.492	314.25
399.717	344.25
399.941	355.25
400.165	371.25
400.389	384.25
400.613	353.25
400.837	316.25
401.062	331.25
401.286	324.25
401.51	319.25
401.734	307.25
401.958	314.25
402.182	323.25
402.406	313.25
402.63	318.25
402.854	324.25
403.078	333.25
403.302	322.25
403.526	345.25
403.75	309.25
403.974	327.25
404.198	325.25
404.422	344.25
404.645	349.25
404.869	333.25
405.093	338.25
405.317	394.25
405.541	390.25
405.765	346.25
405.988	348.25
406.212	379.25
406.436	349.25
406.66	352.25
406.883	351.25
407.107	370.25
407.331	376.25
407.555	426.25
407.778	415.25
408.002	381.25
408.226	367.25
408.449	356.25
408.673	340.25
408.896	373.25
409.12	406.25
409.344	373.25
409.567	338.25
409.791	331.25
410.014	317.25
410.238	328.25
410.461	336.25
410.685	317.25
410.908	353.25
411.132	358.25
411.355	387.25
411.578	349.25
411.802	330.25
412.025	329.25
412.249	343.25
412.472	332.25
412.695	365.25
412.919	352.25
413.142	319.25
413.365	317.25
413.589	315.25
413.812	300.25
414.035	314.25
414.258	320.25
414.482	315.25
414.705	308.25
414.928	319.25
415.151	296.25
415.374	300.25
415.597	309.25
415.821	305.25
416.044	311.25
416.267	313.25
416.49	313.25
416.713	298.25
416.936	287.25
417.159	314.25
417.382	311.25
417.605	320.25
417.828	321.25
418.051	331.25
418.274	327.25
418.497	286.25
418.72	308.25
418.943	306.25
419.166	310.25
419.389	340.25
419.611	339.25
419.834	339.25
420.057	327.25
420.28	321.25
420.503	313.25
420.726	328.25
420.948	334.25
421.171	359.25
421.394	367.25
421.617	341.25
421.839	328.25
422.062	303.25
422.285	337.25
422.507	385.25
422.73	410.25
422.953	385.25
423.175	361.25
423.398	321.25
423.621	330.25
423.843	344.25
424.066	332.25
424.288	348.25
424.511	340.25
424.733	389.25
424.956	432.25
425.178	415.25
425.401	418.25
425.623	434.25
425.846	385.25
426.068	363.25
426.291	352.25
426.513	349.25
426.735	373.25
426.958	378.25
427.18	442.25
427.402	539.25
427.625	571.25
427.847	519.25
428.069	432.25
428.292	383.25
428.514	371.25
428.736	347.25
428.958	334.25
429.181	333.25
429.403	317.25
429.625	343.25
429.847	365.25
430.069	388.25
430.292	386.25
430.514	349.25
430.736	327.25
430.958	319.25
431.18	287.25
431.402	309.25
431.624	315.25
431.846	334.25
432.068	316.25
432.29	301.25
432.512	315.25
432.734	311.25
432.956	315.25
433.178	332.25
433.4	311.25
433.622	312.25
433.844	305.25
434.066	292.25
434.287	293.25
434.509	300.25
434.731	311.25
434.953	313.25
435.175	314.25
435.397	346.25
435.618	357.25
435.84	364.25
436.062	423.25
436.284	480.25
436.505	393.25
436.727	391.25
436.949	342.25
437.17	343.25
437.392	304.25
437.614	322.25
437.835	373.25
438.057	426.25
438.278	482.25
438.5	490.25
438.721	503.25
438.943	473.25
439.165	393.25
439.386	362.25
439.608	377.25
439.829	384.25
440.05	396.25
440.272	404.25
440.493	392.25
440.715	374.25
440.936	328.25
441.158	305.25
441.379	301.25
441.6	332.25
441.822	358.25
442.043	385.25
442.264	437.25
442.486	447.25
442.707	383.25
442.928	357.25
443.149	370.25
443.371	372.25
443.592	385.25
443.813	466.25
444.034	494.25
444.255	392.25
444.476	361.25
444.698	359.25
444.919	332.25
445.14	444.25
445.361	405.25
445.582	382.25
445.803	457.25
446.024	503.25
446.245	503.25
446.466	421.25
446.687	372.25
446.908	375.25
447.129	346.25
447.35	316.25
447.571	331.25
447.792	327.25
448.013	320.25
448.234	351.25
448.455	379.25
448.675	439.25
448.896	518.25
449.117	443.25
449.338	438.25
449.559	478.25
449.779	525.25
450	409.25
450.221	367.25
450.442	351.25
450.662	326.25
450.883	331.25
451.104	345.25
451.324	338.25
451.545	319.25
451.766	312.25
451.986	293.25
452.207	305.25
452.428	282.25
452.648	301.25
452.869	293.25
453.089	299.25
453.31	286.25
453.53	303.25
453.751	304.25
453.971	294.25
454.192	325.25
454.412	308.25
454.633	305.25
454.853	289.25
455.073	279.25
455.294	314.25
455.514	353.25
455.734	349.25
455.955	307.25
456.175	283.25
456.395	276.25
456.616	268.25
456.836	268.25
457.056	277.25
457.276	280.25
457.497	282.25
457.717	287.25
457.937	276.25
458.157	291.25
458.377	287.25
458.598	291.25
458.818	339.25
459.038	397.25
459.258	409.25
459.478	327.25
459.698	314.25
459.918	323.25
460.138	311.25
460.358	306.25
460.578	304.25
460.798	327.25
461.018	305.25
461.238	305.25
461.458	313.25
461.678	315.25
461.898	304.25
462.118	279.25
462.338	306.25
462.558	305.25
462.777	294.25
462.997	304.25
463.217	325.25
463.437	308.25
463.657	321.25
463.876	298.25
464.096	305.25
464.316	314.25
464.536	308.25
464.755	321.25
464.975	333.25
465.195	363.25
465.414	404.25
465.634	364.25
465.854	330.25
466.073	318.25
466.293	292.25
466.512	305.25
466.732	304.25
466.951	287.25
467.171	286.25
467.391	299.25
467.61	306.25
467.829	303.25
468.049	305.25
468.268	316.25
468.488	301.25
468.707	288.25
468.927	271.25
469.146	289.25
469.365	293.25
469.585	277.25
469.804	296.25
470.023	309.25
470.243	291.25
470.462	316.25
470.681	330.25
470.901	323.25
471.12	304.25
471.339	294.25
471.558	313.25
471.777	316.25
471.997	312.25
472.216	307.25
472.435	332.25
472.654	313.25
472.873	295.25
473.092	302.25
473.311	313.25
473.53	297.25
473.749	304.25
473.968	350.25
474.187	420.25
474.406	422.25
474.625	349.25
474.844	317.25
475.063	321.25
475.282	312.25
475.501	306.25
475.72	325.25
475.939	316.25
476.158	297.25
476.377	306.25
476.596	304.25
476.814	342.25
477.033	312.25
477.252	332.25
477.471	337.25
477.69	313.25
477.908	336.25
478.127	330.25
478.346	326.25
478.564	320.25
478.783	322.25
479.002	330.25
479.22	330.25
479.439	335.25
479.658	356.25
479.876	373.25
480.095	383.25
480.313	383.25
480.532	363.25
480.751	374.25
480.969	355.25
481.188	417.25
481.406	428.25
481.624	399.25
481.843	361.25
482.061	353.25
482.28	362.25
482.498	333.25
482.717	340.25
482.935	351.25
483.153	357.25
483.372	363.25
483.59	354.25
483.808	334.25
484.027	346.25
484.245	350.25
484.463	359.25
484.681	349.25
484.9	351.25
485.118	356.25
485.336	350.25
485.554	367.25
485.772	356.25
485.99	365.25
486.209	377.25
486.427	379.25
486.645	369.25
486.863	371.25
487.081	371.25
487.299	378.25
487.517	379.25
487.735	363.25
487.953	381.25
488.171	378.25
488.389	372.25
488.607	362.25
488.825	383.25
489.043	354.25
489.261	387.25
489.479	387.25
489.696	380.25
489.914	398.25
490.132	400.25
490.35	388.25
490.568	380.25
490.786	408.25
491.003	406.25
491.221	425.25
491.439	407.25
491.657	413.25
491.874	414.25
492.092	417.25
492.31	444.25
492.527	436.25
492.745	422.25
492.963	427.25
493.18	450.25
493.398	442.25
493.615	422.25
493.833	412.25
494.05	447.25
494.268	447.25
494.485	447.25
494.703	427.25
494.92	445.25
495.138	429.25
495.355	436.25
495.573	458.25
495.79	434.25
496.008	440.25
496.225	427.25
496.442	439.25
496.66	429.25
496.877	447.25
497.094	439.25
497.312	454.25
497.529	450.25
497.746	453.25
497.963	438.25
498.181	484.25
498.398	473.25
498.615	477.25
498.832	480.25
499.049	472.25
499.267	490.25
499.484	497.25
499.701	490.25
499.918	517.25
500.135	522.25
500.352	527.25
500.569	549.25
500.786	521.25
501.003	545.25
501.22	552.25
501.437	539.25
501.654	542.25
501.871	503.25
502.088	500.25
