Data from 1982.PennyLincolnUp.Lamp.En5.5.200Scan.071819.P1_HRD10591_16-47-47-963.txt Node
Date: Thu Jul 18 16:47:47 EDT 2019
User: cochatt
Spectrometer: HR+D1059
Trigger mode: 1
Integration Time (sec): 1.000000E-1
Scans to average: 1
Electric dark correction enabled: true
Nonlinearity correction enabled: false
Boxcar width: 0
XAxis mode: Wavelengths
Number of Pixels in Spectrum: 2048
>>>>>Begin Spectral Data<<<<<
223.165	-13.75
223.4	-13.75
223.635	-13.75
223.869	-5.75
224.104	-17.75
224.338	-23.75
224.573	-10.75
224.808	1.25
225.042	1.25
225.277	-13.75
225.511	-18.75
225.746	27.25
225.98	2.25
226.215	7.25
226.449	10.25
226.683	5.25
226.918	26.25
227.152	23.25
227.387	37.25
227.621	28.25
227.856	41.25
228.09	39.25
228.324	49.25
228.559	49.25
228.793	63.25
229.027	71.25
229.262	96.25
229.496	102.25
229.73	129.25
229.964	130.25
230.199	115.25
230.433	108.25
230.667	105.25
230.901	92.25
231.136	99.25
231.37	111.25
231.604	111.25
231.838	100.25
232.072	103.25
232.306	97.25
232.541	98.25
232.775	104.25
233.009	105.25
233.243	104.25
233.477	102.25
233.711	96.25
233.945	126.25
234.179	107.25
234.413	98.25
234.647	86.25
234.881	105.25
235.115	110.25
235.349	117.25
235.583	99.25
235.817	109.25
236.051	110.25
236.285	115.25
236.519	112.25
236.753	121.25
236.987	130.25
237.221	149.25
237.455	198.25
237.689	137.25
237.922	115.25
238.156	118.25
238.39	110.25
238.624	110.25
238.858	102.25
239.091	103.25
239.325	103.25
239.559	119.25
239.793	108.25
240.027	121.25
240.26	119.25
240.494	144.25
240.728	134.25
240.961	122.25
241.195	140.25
241.429	135.25
241.662	113.25
241.896	119.25
242.13	117.25
242.363	117.25
242.597	116.25
242.83	113.25
243.064	115.25
243.298	122.25
243.531	136.25
243.765	129.25
243.998	115.25
244.232	115.25
244.465	130.25
244.699	137.25
244.932	121.25
245.166	123.25
245.399	129.25
245.633	141.25
245.866	130.25
246.099	127.25
246.333	120.25
246.566	131.25
246.8	133.25
247.033	142.25
247.266	137.25
247.5	147.25
247.733	133.25
247.966	141.25
248.2	134.25
248.433	144.25
248.666	151.25
248.899	166.25
249.133	164.25
249.366	179.25
249.599	161.25
249.832	166.25
250.066	154.25
250.299	157.25
250.532	169.25
250.765	171.25
250.998	195.25
251.231	198.25
251.465	178.25
251.698	183.25
251.931	169.25
252.164	157.25
252.397	163.25
252.63	163.25
252.863	162.25
253.096	184.25
253.329	193.25
253.562	187.25
253.795	181.25
254.028	178.25
254.261	192.25
254.494	189.25
254.727	212.25
254.96	212.25
255.193	217.25
255.426	209.25
255.659	172.25
255.892	214.25
256.124	197.25
256.357	195.25
256.59	175.25
256.823	184.25
257.056	181.25
257.289	170.25
257.521	171.25
257.754	172.25
257.987	159.25
258.22	180.25
258.452	178.25
258.685	174.25
258.918	169.25
259.151	177.25
259.383	168.25
259.616	182.25
259.849	184.25
260.081	186.25
260.314	202.25
260.547	204.25
260.779	177.25
261.012	190.25
261.244	197.25
261.477	179.25
261.71	191.25
261.942	195.25
262.175	191.25
262.407	196.25
262.64	183.25
262.872	177.25
263.105	177.25
263.337	183.25
263.57	189.25
263.802	173.25
264.035	193.25
264.267	170.25
264.499	175.25
264.732	179.25
264.964	171.25
265.197	174.25
265.429	166.25
265.661	167.25
265.894	181.25
266.126	187.25
266.358	170.25
266.591	177.25
266.823	178.25
267.055	183.25
267.287	189.25
267.52	194.25
267.752	204.25
267.984	193.25
268.216	190.25
268.448	185.25
268.681	190.25
268.913	197.25
269.145	208.25
269.377	230.25
269.609	207.25
269.841	214.25
270.073	227.25
270.306	234.25
270.538	271.25
270.77	246.25
271.002	251.25
271.234	248.25
271.466	245.25
271.698	237.25
271.93	253.25
272.162	244.25
272.394	258.25
272.626	258.25
272.858	242.25
273.09	221.25
273.322	232.25
273.553	215.25
273.785	225.25
274.017	203.25
274.249	220.25
274.481	223.25
274.713	206.25
274.945	204.25
275.176	215.25
275.408	229.25
275.64	233.25
275.872	228.25
276.104	234.25
276.335	204.25
276.567	229.25
276.799	228.25
277.031	250.25
277.262	249.25
277.494	262.25
277.726	241.25
277.957	227.25
278.189	232.25
278.421	225.25
278.652	237.25
278.884	204.25
279.115	205.25
279.347	212.25
279.579	212.25
279.81	227.25
280.042	203.25
280.273	223.25
280.505	212.25
280.736	220.25
280.968	213.25
281.199	211.25
281.431	205.25
281.662	211.25
281.894	219.25
282.125	215.25
282.356	230.25
282.588	260.25
282.819	242.25
283.051	225.25
283.282	207.25
283.513	219.25
283.745	214.25
283.976	225.25
284.207	217.25
284.439	237.25
284.67	223.25
284.901	218.25
285.132	230.25
285.364	216.25
285.595	226.25
285.826	227.25
286.057	215.25
286.288	223.25
286.52	230.25
286.751	214.25
286.982	226.25
287.213	247.25
287.444	236.25
287.675	230.25
287.906	225.25
288.138	246.25
288.369	237.25
288.6	227.25
288.831	232.25
289.062	230.25
289.293	216.25
289.524	230.25
289.755	251.25
289.986	227.25
290.217	234.25
290.448	234.25
290.679	227.25
290.91	225.25
291.141	227.25
291.371	232.25
291.602	229.25
291.833	224.25
292.064	223.25
292.295	238.25
292.526	226.25
292.757	233.25
292.987	229.25
293.218	224.25
293.449	228.25
293.68	218.25
293.91	219.25
294.141	218.25
294.372	222.25
294.603	232.25
294.833	227.25
295.064	236.25
295.295	233.25
295.525	228.25
295.756	248.25
295.987	238.25
296.217	255.25
296.448	277.25
296.679	244.25
296.909	234.25
297.14	243.25
297.37	224.25
297.601	233.25
297.831	241.25
298.062	250.25
298.292	221.25
298.523	243.25
298.753	245.25
298.984	241.25
299.214	242.25
299.445	241.25
299.675	246.25
299.905	262.25
300.136	234.25
300.366	259.25
300.597	235.25
300.827	252.25
301.057	263.25
301.288	255.25
301.518	259.25
301.748	250.25
301.979	244.25
302.209	268.25
302.439	243.25
302.669	257.25
302.9	256.25
303.13	263.25
303.36	261.25
303.59	271.25
303.82	277.25
304.051	257.25
304.281	277.25
304.511	255.25
304.741	276.25
304.971	238.25
305.201	261.25
305.431	234.25
305.661	255.25
305.891	269.25
306.121	257.25
306.352	261.25
306.582	266.25
306.812	257.25
307.042	286.25
307.272	249.25
307.502	283.25
307.731	263.25
307.961	247.25
308.191	261.25
308.421	270.25
308.651	273.25
308.881	277.25
309.111	266.25
309.341	279.25
309.571	282.25
309.8	314.25
310.03	287.25
310.26	290.25
310.49	288.25
310.72	304.25
310.949	313.25
311.179	309.25
311.409	299.25
311.639	292.25
311.868	282.25
312.098	318.25
312.328	306.25
312.557	323.25
312.787	329.25
313.017	321.25
313.246	335.25
313.476	301.25
313.706	315.25
313.935	314.25
314.165	307.25
314.394	327.25
314.624	314.25
314.853	316.25
315.083	296.25
315.312	283.25
315.542	292.25
315.771	279.25
316.001	282.25
316.23	298.25
316.46	304.25
316.689	322.25
316.919	319.25
317.148	313.25
317.377	306.25
317.607	313.25
317.836	323.25
318.065	314.25
318.295	319.25
318.524	315.25
318.753	308.25
318.983	286.25
319.212	297.25
319.441	310.25
319.67	323.25
319.9	292.25
320.129	321.25
320.358	293.25
320.587	311.25
320.816	308.25
321.046	310.25
321.275	330.25
321.504	309.25
321.733	317.25
321.962	346.25
322.191	359.25
322.42	359.25
322.649	353.25
322.878	359.25
323.108	389.25
323.337	417.25
323.566	418.25
323.795	458.25
324.024	526.25
324.253	645.25
324.482	971.25
324.71	1459.25
324.939	1866.25
325.168	1528.25
325.397	841.25
325.626	567.25
325.855	461.25
326.084	450.25
326.313	414.25
326.542	431.25
326.77	479.25
326.999	604.25
327.228	874.25
327.457	1260.25
327.686	1370.25
327.914	911.25
328.143	597.25
328.372	539.25
328.6	515.25
328.829	466.25
329.058	464.25
329.287	494.25
329.515	439.25
329.744	426.25
329.972	425.25
330.201	453.25
330.43	478.25
330.658	505.25
330.887	526.25
331.115	486.25
331.344	433.25
331.572	397.25
331.801	403.25
332.03	399.25
332.258	388.25
332.486	362.25
332.715	350.25
332.943	360.25
333.172	344.25
333.4	363.25
333.629	350.25
333.857	373.25
334.085	371.25
334.314	409.25
334.542	421.25
334.771	425.25
334.999	387.25
335.227	349.25
335.455	347.25
335.684	340.25
335.912	362.25
336.14	322.25
336.369	353.25
336.597	354.25
336.825	356.25
337.053	362.25
337.281	327.25
337.51	355.25
337.738	343.25
337.966	353.25
338.194	348.25
338.422	348.25
338.65	334.25
338.878	330.25
339.106	345.25
339.334	336.25
339.562	329.25
339.79	341.25
340.018	331.25
340.246	338.25
340.474	349.25
340.702	346.25
340.93	333.25
341.158	321.25
341.386	331.25
341.614	327.25
341.842	340.25
342.07	329.25
342.298	323.25
342.526	315.25
342.754	317.25
342.981	326.25
343.209	315.25
343.437	311.25
343.665	316.25
343.893	335.25
344.12	318.25
344.348	327.25
344.576	327.25
344.804	312.25
345.031	335.25
345.259	337.25
345.487	326.25
345.714	326.25
345.942	332.25
346.17	329.25
346.397	328.25
346.625	325.25
346.853	322.25
347.08	311.25
347.308	325.25
347.535	322.25
347.763	325.25
347.99	345.25
348.218	308.25
348.445	326.25
348.673	344.25
348.9	335.25
349.128	309.25
349.355	314.25
349.583	316.25
349.81	332.25
350.037	298.25
350.265	316.25
350.492	319.25
350.72	312.25
350.947	324.25
351.174	328.25
351.402	327.25
351.629	312.25
351.856	315.25
352.083	335.25
352.311	338.25
352.538	337.25
352.765	333.25
352.992	328.25
353.22	320.25
353.447	316.25
353.674	311.25
353.901	307.25
354.128	295.25
354.355	291.25
354.583	283.25
354.81	289.25
355.037	291.25
355.264	281.25
355.491	296.25
355.718	276.25
355.945	277.25
356.172	289.25
356.399	303.25
356.626	305.25
356.853	290.25
357.08	286.25
357.307	310.25
357.534	285.25
357.761	294.25
357.988	270.25
358.215	286.25
358.441	282.25
358.668	286.25
358.895	292.25
359.122	295.25
359.349	306.25
359.576	315.25
359.802	327.25
360.029	353.25
360.256	358.25
360.483	340.25
360.709	301.25
360.936	300.25
361.163	325.25
361.39	302.25
361.616	325.25
361.843	323.25
362.07	308.25
362.296	306.25
362.523	325.25
362.749	303.25
362.976	326.25
363.203	325.25
363.429	294.25
363.656	289.25
363.882	273.25
364.109	302.25
364.335	285.25
364.562	300.25
364.788	306.25
365.015	297.25
365.241	295.25
365.468	291.25
365.694	281.25
365.92	297.25
366.147	282.25
366.373	301.25
366.599	303.25
366.826	297.25
367.052	289.25
367.278	295.25
367.505	303.25
367.731	301.25
367.957	292.25
368.184	285.25
368.41	298.25
368.636	313.25
368.862	319.25
369.089	306.25
369.315	277.25
369.541	277.25
369.767	266.25
369.993	299.25
370.219	277.25
370.445	287.25
370.672	279.25
370.898	283.25
371.124	285.25
371.35	284.25
371.576	290.25
371.802	287.25
372.028	287.25
372.254	266.25
372.48	291.25
372.706	295.25
372.932	300.25
373.158	298.25
373.384	279.25
373.61	311.25
373.835	289.25
374.061	290.25
374.287	289.25
374.513	281.25
374.739	275.25
374.965	277.25
375.191	290.25
375.416	293.25
375.642	279.25
375.868	279.25
376.094	292.25
376.319	281.25
376.545	279.25
376.771	279.25
376.997	278.25
377.222	271.25
377.448	294.25
377.674	283.25
377.899	271.25
378.125	271.25
378.35	260.25
378.576	287.25
378.802	284.25
379.027	283.25
379.253	275.25
379.478	269.25
379.704	286.25
379.929	273.25
380.155	282.25
380.38	281.25
380.606	288.25
380.831	288.25
381.057	286.25
381.282	272.25
381.507	263.25
381.733	269.25
381.958	275.25
382.184	285.25
382.409	287.25
382.634	285.25
382.86	278.25
383.085	280.25
383.31	293.25
383.535	293.25
383.761	282.25
383.986	281.25
384.211	285.25
384.436	288.25
384.662	277.25
384.887	300.25
385.112	282.25
385.337	285.25
385.562	281.25
385.787	282.25
386.013	293.25
386.238	293.25
386.463	287.25
386.688	293.25
386.913	295.25
387.138	285.25
387.363	259.25
387.588	287.25
387.813	287.25
388.038	282.25
388.263	280.25
388.488	282.25
388.713	301.25
388.938	294.25
389.163	286.25
389.387	287.25
389.612	279.25
389.837	285.25
390.062	286.25
390.287	290.25
390.512	285.25
390.736	292.25
390.961	291.25
391.186	285.25
391.411	304.25
391.636	289.25
391.86	299.25
392.085	305.25
392.31	307.25
392.534	295.25
392.759	278.25
392.984	286.25
393.208	291.25
393.433	287.25
393.658	287.25
393.882	286.25
394.107	301.25
394.331	298.25
394.556	274.25
394.78	281.25
395.005	286.25
395.229	293.25
395.454	295.25
395.678	292.25
395.903	312.25
396.127	314.25
396.352	333.25
396.576	313.25
396.801	291.25
397.025	311.25
397.249	281.25
397.474	291.25
397.698	313.25
397.922	298.25
398.147	307.25
398.371	340.25
398.595	313.25
398.82	313.25
399.044	333.25
399.268	333.25
399.492	332.25
399.717	360.25
399.941	380.25
400.165	373.25
400.389	391.25
400.613	365.25
400.837	328.25
401.062	316.25
401.286	331.25
401.51	332.25
401.734	294.25
401.958	312.25
402.182	327.25
402.406	348.25
402.63	330.25
402.854	332.25
403.078	330.25
403.302	345.25
403.526	316.25
403.75	346.25
403.974	337.25
404.198	324.25
404.422	314.25
404.645	335.25
404.869	345.25
405.093	370.25
405.317	403.25
405.541	412.25
405.765	372.25
405.988	376.25
406.212	356.25
406.436	383.25
406.66	391.25
406.883	377.25
407.107	397.25
407.331	396.25
407.555	443.25
407.778	446.25
408.002	391.25
408.226	372.25
408.449	369.25
408.673	397.25
408.896	395.25
409.12	402.25
409.344	387.25
409.567	334.25
409.791	349.25
410.014	350.25
410.238	333.25
410.461	338.25
410.685	324.25
410.908	321.25
411.132	350.25
411.355	393.25
411.578	374.25
411.802	344.25
412.025	331.25
412.249	338.25
412.472	352.25
412.695	389.25
412.919	369.25
413.142	345.25
413.365	298.25
413.589	321.25
413.812	327.25
414.035	325.25
414.258	308.25
414.482	302.25
414.705	321.25
414.928	309.25
415.151	325.25
415.374	333.25
415.597	311.25
415.821	302.25
416.044	319.25
416.267	290.25
416.49	300.25
416.713	302.25
416.936	331.25
417.159	316.25
417.382	299.25
417.605	313.25
417.828	348.25
418.051	323.25
418.274	345.25
418.497	323.25
418.72	314.25
418.943	329.25
419.166	336.25
419.389	346.25
419.611	331.25
419.834	333.25
420.057	345.25
420.28	334.25
420.503	322.25
420.726	324.25
420.948	348.25
421.171	371.25
421.394	390.25
421.617	350.25
421.839	342.25
422.062	350.25
422.285	356.25
422.507	379.25
422.73	418.25
422.953	388.25
423.175	353.25
423.398	334.25
423.621	362.25
423.843	349.25
424.066	377.25
424.288	345.25
424.511	396.25
424.733	396.25
424.956	461.25
425.178	434.25
425.401	447.25
425.623	454.25
425.846	397.25
426.068	363.25
426.291	347.25
426.513	365.25
426.735	378.25
426.958	415.25
427.18	462.25
427.402	536.25
427.625	591.25
427.847	508.25
428.069	455.25
428.292	403.25
428.514	369.25
428.736	356.25
428.958	353.25
429.181	357.25
429.403	339.25
429.625	346.25
429.847	357.25
430.069	408.25
430.292	402.25
430.514	361.25
430.736	329.25
430.958	312.25
431.18	310.25
431.402	302.25
431.624	303.25
431.846	310.25
432.068	325.25
432.29	312.25
432.512	323.25
432.734	322.25
432.956	338.25
433.178	333.25
433.4	325.25
433.622	327.25
433.844	323.25
434.066	309.25
434.287	311.25
434.509	317.25
434.731	332.25
434.953	333.25
435.175	332.25
435.397	355.25
435.618	356.25
435.84	391.25
436.062	453.25
436.284	492.25
436.505	421.25
436.727	402.25
436.949	351.25
437.17	339.25
437.392	345.25
437.614	358.25
437.835	374.25
438.057	437.25
438.278	523.25
438.5	526.25
438.721	529.25
438.943	519.25
439.165	431.25
439.386	390.25
439.608	370.25
439.829	391.25
440.05	421.25
440.272	446.25
440.493	396.25
440.715	365.25
440.936	356.25
441.158	343.25
441.379	349.25
441.6	347.25
441.822	375.25
442.043	388.25
442.264	451.25
442.486	473.25
442.707	387.25
442.928	379.25
443.149	396.25
443.371	404.25
443.592	426.25
443.813	477.25
444.034	511.25
444.255	441.25
444.476	378.25
444.698	356.25
444.919	357.25
445.14	474.25
445.361	423.25
445.582	399.25
445.803	467.25
446.024	515.25
446.245	532.25
446.466	474.25
446.687	399.25
446.908	370.25
447.129	344.25
447.35	353.25
447.571	339.25
447.792	351.25
448.013	361.25
448.234	361.25
448.455	410.25
448.675	486.25
448.896	535.25
449.117	472.25
449.338	452.25
449.559	499.25
449.779	562.25
450	443.25
450.221	366.25
450.442	362.25
450.662	365.25
450.883	358.25
451.104	344.25
451.324	345.25
451.545	334.25
451.766	316.25
451.986	290.25
452.207	302.25
452.428	309.25
452.648	297.25
452.869	314.25
453.089	318.25
453.31	333.25
453.53	319.25
453.751	330.25
453.971	317.25
454.192	329.25
454.412	299.25
454.633	316.25
454.853	293.25
455.073	310.25
455.294	332.25
455.514	371.25
455.734	363.25
455.955	310.25
456.175	288.25
456.395	292.25
456.616	287.25
456.836	276.25
457.056	266.25
457.276	274.25
457.497	306.25
457.717	283.25
457.937	278.25
458.157	287.25
458.377	298.25
458.598	316.25
458.818	351.25
459.038	420.25
459.258	421.25
459.478	358.25
459.698	321.25
459.918	335.25
460.138	324.25
460.358	317.25
460.578	322.25
460.798	335.25
461.018	327.25
461.238	308.25
461.458	315.25
461.678	303.25
461.898	313.25
462.118	318.25
462.338	325.25
462.558	302.25
462.777	327.25
462.997	307.25
463.217	322.25
463.437	310.25
463.657	310.25
463.876	332.25
464.096	312.25
464.316	326.25
464.536	333.25
464.755	341.25
464.975	324.25
465.195	400.25
465.414	405.25
465.634	371.25
465.854	356.25
466.073	354.25
466.293	316.25
466.512	297.25
466.732	299.25
466.951	307.25
467.171	302.25
467.391	325.25
467.61	323.25
467.829	345.25
468.049	323.25
468.268	333.25
468.488	321.25
468.707	300.25
468.927	305.25
469.146	291.25
469.365	285.25
469.585	299.25
469.804	301.25
470.023	322.25
470.243	319.25
470.462	322.25
470.681	320.25
470.901	323.25
471.12	316.25
471.339	332.25
471.558	307.25
471.777	306.25
471.997	324.25
472.216	312.25
472.435	345.25
472.654	325.25
472.873	317.25
473.092	306.25
473.311	315.25
473.53	310.25
473.749	310.25
473.968	366.25
474.187	421.25
474.406	430.25
474.625	356.25
474.844	335.25
475.063	306.25
475.282	329.25
475.501	321.25
475.72	307.25
475.939	319.25
476.158	306.25
476.377	344.25
476.596	326.25
476.814	321.25
477.033	338.25
477.252	323.25
477.471	318.25
477.69	335.25
477.908	347.25
478.127	328.25
478.346	333.25
478.564	327.25
478.783	343.25
479.002	341.25
479.22	338.25
479.439	366.25
479.658	353.25
479.876	349.25
480.095	379.25
480.313	401.25
480.532	380.25
480.751	399.25
480.969	392.25
481.188	458.25
481.406	462.25
481.624	417.25
481.843	373.25
482.061	364.25
482.28	385.25
482.498	377.25
482.717	370.25
482.935	363.25
483.153	346.25
483.372	366.25
483.59	367.25
483.808	363.25
484.027	350.25
484.245	354.25
484.463	355.25
484.681	373.25
484.9	381.25
485.118	367.25
485.336	384.25
485.554	360.25
485.772	368.25
485.99	365.25
486.209	366.25
486.427	377.25
486.645	395.25
486.863	403.25
487.081	383.25
487.299	386.25
487.517	394.25
487.735	398.25
487.953	390.25
488.171	383.25
488.389	385.25
488.607	391.25
488.825	372.25
489.043	398.25
489.261	390.25
489.479	383.25
489.696	381.25
489.914	390.25
490.132	393.25
490.35	400.25
490.568	405.25
490.786	413.25
491.003	426.25
491.221	417.25
491.439	440.25
491.657	437.25
491.874	430.25
492.092	438.25
492.31	452.25
492.527	436.25
492.745	459.25
492.963	454.25
493.18	434.25
493.398	455.25
493.615	460.25
493.833	449.25
494.05	476.25
494.268	449.25
494.485	435.25
494.703	452.25
494.92	457.25
495.138	452.25
495.355	469.25
495.573	433.25
495.79	443.25
496.008	457.25
496.225	443.25
496.442	463.25
496.66	439.25
496.877	460.25
497.094	453.25
497.312	488.25
497.529	458.25
497.746	463.25
497.963	472.25
498.181	504.25
498.398	508.25
498.615	486.25
498.832	491.25
499.049	495.25
499.267	492.25
499.484	519.25
499.701	516.25
499.918	521.25
500.135	545.25
500.352	563.25
500.569	541.25
500.786	588.25
501.003	558.25
501.22	547.25
501.437	543.25
501.654	568.25
501.871	523.25
502.088	523.25
