Data from 1982.PennyLincolnUp.Lamp.En5.5.200Scan.071819.P1_HRD10591_16-44-59-960.txt Node
Date: Thu Jul 18 16:44:59 EDT 2019
User: cochatt
Spectrometer: HR+D1059
Trigger mode: 1
Integration Time (sec): 1.000000E-1
Scans to average: 1
Electric dark correction enabled: true
Nonlinearity correction enabled: false
Boxcar width: 0
XAxis mode: Wavelengths
Number of Pixels in Spectrum: 2048
>>>>>Begin Spectral Data<<<<<
223.165	-11.81
223.4	-11.81
223.635	-11.81
223.869	-20.81
224.104	-14.81
224.338	-25.81
224.573	-9.81
224.808	-11.81
225.042	-9.81
225.277	-28.81
225.511	16.19
225.746	21.19
225.98	12.19
226.215	4.19
226.449	4.19
226.683	13.19
226.918	27.19
227.152	35.19
227.387	39.19
227.621	42.19
227.856	43.19
228.09	45.19
228.324	38.19
228.559	53.19
228.793	50.19
229.027	79.19
229.262	98.19
229.496	100.19
229.73	92.19
229.964	121.19
230.199	101.19
230.433	88.19
230.667	90.19
230.901	81.19
231.136	100.19
231.37	106.19
231.604	87.19
231.838	109.19
232.072	85.19
232.306	101.19
232.541	104.19
232.775	87.19
233.009	89.19
233.243	102.19
233.477	106.19
233.711	109.19
233.945	86.19
234.179	102.19
234.413	105.19
234.647	92.19
234.881	100.19
235.115	93.19
235.349	100.19
235.583	104.19
235.817	94.19
236.051	98.19
236.285	108.19
236.519	118.19
236.753	114.19
236.987	121.19
237.221	137.19
237.455	152.19
237.689	155.19
237.922	103.19
238.156	100.19
238.39	102.19
238.624	98.19
238.858	104.19
239.091	97.19
239.325	104.19
239.559	102.19
239.793	109.19
240.027	112.19
240.26	122.19
240.494	114.19
240.728	105.19
240.961	108.19
241.195	114.19
241.429	106.19
241.662	102.19
241.896	98.19
242.13	113.19
242.363	108.19
242.597	119.19
242.83	102.19
243.064	100.19
243.298	100.19
243.531	113.19
243.765	124.19
243.998	115.19
244.232	96.19
244.465	117.19
244.699	110.19
244.932	115.19
245.166	109.19
245.399	118.19
245.633	137.19
245.866	116.19
246.099	104.19
246.333	118.19
246.566	109.19
246.8	110.19
247.033	115.19
247.266	128.19
247.5	128.19
247.733	133.19
247.966	136.19
248.2	118.19
248.433	146.19
248.666	136.19
248.899	136.19
249.133	151.19
249.366	136.19
249.599	152.19
249.832	133.19
250.066	138.19
250.299	133.19
250.532	139.19
250.765	139.19
250.998	151.19
251.231	155.19
251.465	151.19
251.698	145.19
251.931	150.19
252.164	148.19
252.397	141.19
252.63	164.19
252.863	166.19
253.096	147.19
253.329	162.19
253.562	152.19
253.795	159.19
254.028	155.19
254.261	146.19
254.494	146.19
254.727	173.19
254.96	185.19
255.193	182.19
255.426	168.19
255.659	164.19
255.892	159.19
256.124	159.19
256.357	177.19
256.59	169.19
256.823	177.19
257.056	156.19
257.289	162.19
257.521	161.19
257.754	148.19
257.987	152.19
258.22	151.19
258.452	154.19
258.685	144.19
258.918	156.19
259.151	153.19
259.383	162.19
259.616	164.19
259.849	140.19
260.081	171.19
260.314	184.19
260.547	167.19
260.779	169.19
261.012	162.19
261.244	168.19
261.477	171.19
261.71	163.19
261.942	178.19
262.175	168.19
262.407	154.19
262.64	155.19
262.872	156.19
263.105	136.19
263.337	163.19
263.57	162.19
263.802	161.19
264.035	145.19
264.267	137.19
264.499	153.19
264.732	157.19
264.964	154.19
265.197	149.19
265.429	136.19
265.661	168.19
265.894	154.19
266.126	161.19
266.358	157.19
266.591	155.19
266.823	160.19
267.055	159.19
267.287	177.19
267.52	150.19
267.752	157.19
267.984	176.19
268.216	149.19
268.448	173.19
268.681	178.19
268.913	164.19
269.145	181.19
269.377	184.19
269.609	196.19
269.841	182.19
270.073	178.19
270.306	189.19
270.538	215.19
270.77	204.19
271.002	205.19
271.234	202.19
271.466	212.19
271.698	227.19
271.93	204.19
272.162	207.19
272.394	221.19
272.626	218.19
272.858	200.19
273.09	194.19
273.322	196.19
273.553	167.19
273.785	194.19
274.017	193.19
274.249	178.19
274.481	193.19
274.713	189.19
274.945	176.19
275.176	181.19
275.408	190.19
275.64	193.19
275.872	183.19
276.104	180.19
276.335	188.19
276.567	208.19
276.799	199.19
277.031	212.19
277.262	217.19
277.494	203.19
277.726	214.19
277.957	196.19
278.189	188.19
278.421	193.19
278.652	194.19
278.884	205.19
279.115	188.19
279.347	180.19
279.579	192.19
279.81	173.19
280.042	193.19
280.273	178.19
280.505	187.19
280.736	179.19
280.968	181.19
281.199	184.19
281.431	187.19
281.662	192.19
281.894	204.19
282.125	186.19
282.356	198.19
282.588	213.19
282.819	210.19
283.051	186.19
283.282	194.19
283.513	196.19
283.745	190.19
283.976	201.19
284.207	190.19
284.439	186.19
284.67	204.19
284.901	190.19
285.132	202.19
285.364	187.19
285.595	187.19
285.826	192.19
286.057	188.19
286.288	183.19
286.52	190.19
286.751	205.19
286.982	209.19
287.213	180.19
287.444	189.19
287.675	198.19
287.906	193.19
288.138	204.19
288.369	214.19
288.6	203.19
288.831	201.19
289.062	196.19
289.293	210.19
289.524	196.19
289.755	187.19
289.986	198.19
290.217	200.19
290.448	217.19
290.679	203.19
290.91	180.19
291.141	191.19
291.371	185.19
291.602	189.19
291.833	176.19
292.064	193.19
292.295	185.19
292.526	202.19
292.757	203.19
292.987	203.19
293.218	188.19
293.449	197.19
293.68	204.19
293.91	204.19
294.141	206.19
294.372	206.19
294.603	193.19
294.833	196.19
295.064	205.19
295.295	216.19
295.525	221.19
295.756	215.19
295.987	209.19
296.217	228.19
296.448	224.19
296.679	205.19
296.909	213.19
297.14	227.19
297.37	189.19
297.601	212.19
297.831	202.19
298.062	208.19
298.292	212.19
298.523	199.19
298.753	213.19
298.984	214.19
299.214	202.19
299.445	207.19
299.675	213.19
299.905	211.19
300.136	213.19
300.366	220.19
300.597	213.19
300.827	227.19
301.057	205.19
301.288	213.19
301.518	225.19
301.748	206.19
301.979	210.19
302.209	215.19
302.439	217.19
302.669	228.19
302.9	220.19
303.13	229.19
303.36	221.19
303.59	218.19
303.82	223.19
304.051	232.19
304.281	226.19
304.511	226.19
304.741	217.19
304.971	212.19
305.201	224.19
305.431	218.19
305.661	210.19
305.891	227.19
306.121	224.19
306.352	214.19
306.582	226.19
306.812	226.19
307.042	220.19
307.272	226.19
307.502	230.19
307.731	232.19
307.961	214.19
308.191	218.19
308.421	246.19
308.651	235.19
308.881	239.19
309.111	214.19
309.341	224.19
309.571	232.19
309.8	245.19
310.03	242.19
310.26	234.19
310.49	245.19
310.72	238.19
310.949	274.19
311.179	262.19
311.409	264.19
311.639	244.19
311.868	253.19
312.098	268.19
312.328	258.19
312.557	260.19
312.787	265.19
313.017	260.19
313.246	249.19
313.476	240.19
313.706	233.19
313.935	236.19
314.165	257.19
314.394	266.19
314.624	291.19
314.853	259.19
315.083	260.19
315.312	255.19
315.542	237.19
315.771	235.19
316.001	249.19
316.23	267.19
316.46	252.19
316.689	262.19
316.919	267.19
317.148	250.19
317.377	278.19
317.607	270.19
317.836	264.19
318.065	248.19
318.295	265.19
318.524	250.19
318.753	242.19
318.983	258.19
319.212	257.19
319.441	242.19
319.67	271.19
319.9	265.19
320.129	254.19
320.358	252.19
320.587	269.19
320.816	280.19
321.046	268.19
321.275	269.19
321.504	284.19
321.733	260.19
321.962	279.19
322.191	286.19
322.42	282.19
322.649	289.19
322.878	288.19
323.108	321.19
323.337	318.19
323.566	331.19
323.795	332.19
324.024	381.19
324.253	476.19
324.482	666.19
324.71	962.19
324.939	1240.19
325.168	1023.19
325.397	566.19
325.626	391.19
325.855	355.19
326.084	347.19
326.313	338.19
326.542	326.19
326.77	350.19
326.999	420.19
327.228	592.19
327.457	865.19
327.686	944.19
327.914	636.19
328.143	439.19
328.372	384.19
328.6	376.19
328.829	342.19
329.058	332.19
329.287	363.19
329.515	346.19
329.744	311.19
329.972	336.19
330.201	344.19
330.43	356.19
330.658	357.19
330.887	380.19
331.115	392.19
331.344	331.19
331.572	318.19
331.801	317.19
332.03	312.19
332.258	322.19
332.486	296.19
332.715	284.19
332.943	292.19
333.172	290.19
333.4	306.19
333.629	305.19
333.857	299.19
334.085	295.19
334.314	306.19
334.542	312.19
334.771	316.19
334.999	307.19
335.227	297.19
335.455	282.19
335.684	305.19
335.912	289.19
336.14	280.19
336.369	274.19
336.597	281.19
336.825	290.19
337.053	304.19
337.281	281.19
337.51	303.19
337.738	289.19
337.966	286.19
338.194	277.19
338.422	284.19
338.65	280.19
338.878	293.19
339.106	274.19
339.334	277.19
339.562	281.19
339.79	286.19
340.018	284.19
340.246	278.19
340.474	276.19
340.702	291.19
340.93	277.19
341.158	262.19
341.386	296.19
341.614	280.19
341.842	277.19
342.07	281.19
342.298	271.19
342.526	276.19
342.754	253.19
342.981	276.19
343.209	266.19
343.437	284.19
343.665	276.19
343.893	273.19
344.12	295.19
344.348	286.19
344.576	292.19
344.804	282.19
345.031	291.19
345.259	288.19
345.487	297.19
345.714	322.19
345.942	277.19
346.17	276.19
346.397	287.19
346.625	281.19
346.853	282.19
347.08	266.19
347.308	259.19
347.535	264.19
347.763	256.19
347.99	288.19
348.218	282.19
348.445	284.19
348.673	264.19
348.9	277.19
349.128	266.19
349.355	278.19
349.583	280.19
349.81	242.19
350.037	261.19
350.265	265.19
350.492	265.19
350.72	269.19
350.947	268.19
351.174	273.19
351.402	278.19
351.629	271.19
351.856	272.19
352.083	274.19
352.311	288.19
352.538	262.19
352.765	281.19
352.992	282.19
353.22	278.19
353.447	256.19
353.674	260.19
353.901	255.19
354.128	265.19
354.355	257.19
354.583	249.19
354.81	247.19
355.037	242.19
355.264	252.19
355.491	264.19
355.718	249.19
355.945	244.19
356.172	257.19
356.399	252.19
356.626	258.19
356.853	250.19
357.08	232.19
357.307	257.19
357.534	258.19
357.761	233.19
357.988	259.19
358.215	258.19
358.441	248.19
358.668	253.19
358.895	262.19
359.122	256.19
359.349	263.19
359.576	266.19
359.802	275.19
360.029	297.19
360.256	287.19
360.483	267.19
360.709	277.19
360.936	274.19
361.163	288.19
361.39	264.19
361.616	257.19
361.843	259.19
362.07	237.19
362.296	267.19
362.523	257.19
362.749	254.19
362.976	278.19
363.203	257.19
363.429	252.19
363.656	260.19
363.882	251.19
364.109	245.19
364.335	258.19
364.562	240.19
364.788	269.19
365.015	266.19
365.241	253.19
365.468	237.19
365.694	243.19
365.92	259.19
366.147	247.19
366.373	237.19
366.599	254.19
366.826	250.19
367.052	243.19
367.278	250.19
367.505	240.19
367.731	247.19
367.957	261.19
368.184	258.19
368.41	261.19
368.636	270.19
368.862	246.19
369.089	262.19
369.315	255.19
369.541	256.19
369.767	248.19
369.993	242.19
370.219	251.19
370.445	251.19
370.672	246.19
370.898	260.19
371.124	254.19
371.35	261.19
371.576	251.19
371.802	243.19
372.028	258.19
372.254	267.19
372.48	260.19
372.706	268.19
372.932	263.19
373.158	234.19
373.384	256.19
373.61	254.19
373.835	246.19
374.061	247.19
374.287	252.19
374.513	240.19
374.739	249.19
374.965	238.19
375.191	267.19
375.416	245.19
375.642	256.19
375.868	271.19
376.094	268.19
376.319	232.19
376.545	241.19
376.771	248.19
376.997	253.19
377.222	260.19
377.448	257.19
377.674	248.19
377.899	243.19
378.125	233.19
378.35	240.19
378.576	242.19
378.802	242.19
379.027	252.19
379.253	238.19
379.478	244.19
379.704	243.19
379.929	247.19
380.155	256.19
380.38	245.19
380.606	254.19
380.831	256.19
381.057	249.19
381.282	251.19
381.507	243.19
381.733	235.19
381.958	258.19
382.184	248.19
382.409	251.19
382.634	258.19
382.86	255.19
383.085	247.19
383.31	267.19
383.535	265.19
383.761	229.19
383.986	250.19
384.211	258.19
384.436	262.19
384.662	246.19
384.887	268.19
385.112	251.19
385.337	244.19
385.562	261.19
385.787	273.19
386.013	263.19
386.238	268.19
386.463	270.19
386.688	250.19
386.913	277.19
387.138	261.19
387.363	268.19
387.588	253.19
387.813	274.19
388.038	247.19
388.263	260.19
388.488	274.19
388.713	281.19
388.938	272.19
389.163	258.19
389.387	252.19
389.612	265.19
389.837	259.19
390.062	265.19
390.287	258.19
390.512	289.19
390.736	248.19
390.961	258.19
391.186	268.19
391.411	244.19
391.636	257.19
391.86	256.19
392.085	256.19
392.31	262.19
392.534	271.19
392.759	268.19
392.984	265.19
393.208	276.19
393.433	261.19
393.658	276.19
393.882	259.19
394.107	260.19
394.331	277.19
394.556	278.19
394.78	275.19
395.005	262.19
395.229	270.19
395.454	271.19
395.678	269.19
395.903	293.19
396.127	286.19
396.352	297.19
396.576	266.19
396.801	260.19
397.025	253.19
397.249	268.19
397.474	270.19
397.698	282.19
397.922	288.19
398.147	280.19
398.371	282.19
398.595	278.19
398.82	290.19
399.044	286.19
399.268	301.19
399.492	315.19
399.717	312.19
399.941	339.19
400.165	329.19
400.389	321.19
400.613	318.19
400.837	304.19
401.062	289.19
401.286	282.19
401.51	291.19
401.734	298.19
401.958	296.19
402.182	269.19
402.406	295.19
402.63	308.19
402.854	297.19
403.078	295.19
403.302	297.19
403.526	298.19
403.75	298.19
403.974	291.19
404.198	283.19
404.422	272.19
404.645	314.19
404.869	288.19
405.093	321.19
405.317	334.19
405.541	347.19
405.765	317.19
405.988	320.19
406.212	305.19
406.436	327.19
406.66	331.19
406.883	316.19
407.107	336.19
407.331	343.19
407.555	346.19
407.778	380.19
408.002	358.19
408.226	341.19
408.449	325.19
408.673	324.19
408.896	330.19
409.12	346.19
409.344	344.19
409.567	281.19
409.791	298.19
410.014	294.19
410.238	292.19
410.461	300.19
410.685	305.19
410.908	316.19
411.132	319.19
411.355	320.19
411.578	331.19
411.802	296.19
412.025	286.19
412.249	304.19
412.472	298.19
412.695	320.19
412.919	318.19
413.142	279.19
413.365	284.19
413.589	282.19
413.812	282.19
414.035	272.19
414.258	282.19
414.482	278.19
414.705	293.19
414.928	285.19
415.151	275.19
415.374	276.19
415.597	277.19
415.821	287.19
416.044	285.19
416.267	268.19
416.49	274.19
416.713	269.19
416.936	278.19
417.159	274.19
417.382	277.19
417.605	274.19
417.828	280.19
418.051	273.19
418.274	286.19
418.497	284.19
418.72	281.19
418.943	281.19
419.166	271.19
419.389	291.19
419.611	296.19
419.834	286.19
420.057	309.19
420.28	289.19
420.503	294.19
420.726	276.19
420.948	311.19
421.171	312.19
421.394	316.19
421.617	308.19
421.839	305.19
422.062	288.19
422.285	299.19
422.507	332.19
422.73	368.19
422.953	350.19
423.175	324.19
423.398	286.19
423.621	299.19
423.843	313.19
424.066	324.19
424.288	288.19
424.511	328.19
424.733	336.19
424.956	390.19
425.178	368.19
425.401	376.19
425.623	371.19
425.846	319.19
426.068	306.19
426.291	308.19
426.513	309.19
426.735	327.19
426.958	349.19
427.18	380.19
427.402	440.19
427.625	482.19
427.847	432.19
428.069	383.19
428.292	343.19
428.514	319.19
428.736	288.19
428.958	293.19
429.181	284.19
429.403	284.19
429.625	300.19
429.847	295.19
430.069	349.19
430.292	344.19
430.514	302.19
430.736	278.19
430.958	294.19
431.18	278.19
431.402	277.19
431.624	265.19
431.846	269.19
432.068	272.19
432.29	276.19
432.512	305.19
432.734	274.19
432.956	291.19
433.178	274.19
433.4	274.19
433.622	276.19
433.844	273.19
434.066	284.19
434.287	264.19
434.509	291.19
434.731	268.19
434.953	283.19
435.175	292.19
435.397	289.19
435.618	305.19
435.84	328.19
436.062	376.19
436.284	430.19
436.505	356.19
436.727	307.19
436.949	317.19
437.17	327.19
437.392	298.19
437.614	316.19
437.835	329.19
438.057	358.19
438.278	424.19
438.5	426.19
438.721	442.19
438.943	412.19
439.165	370.19
439.386	339.19
439.608	317.19
439.829	329.19
440.05	319.19
440.272	350.19
440.493	338.19
440.715	305.19
440.936	310.19
441.158	298.19
441.379	296.19
441.6	306.19
441.822	308.19
442.043	323.19
442.264	374.19
442.486	404.19
442.707	317.19
442.928	332.19
443.149	314.19
443.371	344.19
443.592	363.19
443.813	408.19
444.034	428.19
444.255	372.19
444.476	334.19
444.698	322.19
444.919	324.19
445.14	397.19
445.361	370.19
445.582	332.19
445.803	368.19
446.024	419.19
446.245	436.19
446.466	384.19
446.687	349.19
446.908	316.19
447.129	286.19
447.35	300.19
447.571	266.19
447.792	282.19
448.013	294.19
448.234	309.19
448.455	349.19
448.675	407.19
448.896	446.19
449.117	368.19
449.338	380.19
449.559	411.19
449.779	459.19
450	382.19
450.221	314.19
450.442	308.19
450.662	294.19
450.883	304.19
451.104	318.19
451.324	281.19
451.545	285.19
451.766	283.19
451.986	263.19
452.207	279.19
452.428	277.19
452.648	268.19
452.869	266.19
453.089	265.19
453.31	278.19
453.53	270.19
453.751	270.19
453.971	264.19
454.192	277.19
454.412	280.19
454.633	250.19
454.853	269.19
455.073	262.19
455.294	284.19
455.514	324.19
455.734	278.19
455.955	266.19
456.175	263.19
456.395	235.19
456.616	255.19
456.836	252.19
457.056	251.19
457.276	252.19
457.497	247.19
457.717	247.19
457.937	232.19
458.157	245.19
458.377	260.19
458.598	271.19
458.818	308.19
459.038	341.19
459.258	344.19
459.478	311.19
459.698	277.19
459.918	277.19
460.138	267.19
460.358	262.19
460.578	266.19
460.798	273.19
461.018	284.19
461.238	272.19
461.458	279.19
461.678	260.19
461.898	271.19
462.118	278.19
462.338	274.19
462.558	289.19
462.777	274.19
462.997	300.19
463.217	308.19
463.437	289.19
463.657	295.19
463.876	275.19
464.096	294.19
464.316	286.19
464.536	300.19
464.755	307.19
464.975	299.19
465.195	327.19
465.414	338.19
465.634	338.19
465.854	281.19
466.073	291.19
466.293	284.19
466.512	247.19
466.732	276.19
466.951	279.19
467.171	275.19
467.391	296.19
467.61	284.19
467.829	268.19
468.049	274.19
468.268	282.19
468.488	269.19
468.707	260.19
468.927	282.19
469.146	260.19
469.365	279.19
469.585	270.19
469.804	281.19
470.023	274.19
470.243	286.19
470.462	263.19
470.681	275.19
470.901	266.19
471.12	274.19
471.339	266.19
471.558	266.19
471.777	260.19
471.997	280.19
472.216	276.19
472.435	282.19
472.654	278.19
472.873	281.19
473.092	272.19
473.311	254.19
473.53	281.19
473.749	285.19
473.968	318.19
474.187	359.19
474.406	346.19
474.625	287.19
474.844	309.19
475.063	297.19
475.282	288.19
475.501	280.19
475.72	298.19
475.939	288.19
476.158	282.19
476.377	281.19
476.596	286.19
476.814	283.19
477.033	282.19
477.252	311.19
477.471	284.19
477.69	290.19
477.908	306.19
478.127	304.19
478.346	273.19
478.564	298.19
478.783	309.19
479.002	294.19
479.22	296.19
479.439	310.19
479.658	325.19
479.876	311.19
480.095	323.19
480.313	335.19
480.532	326.19
480.751	322.19
480.969	333.19
481.188	364.19
481.406	363.19
481.624	335.19
481.843	314.19
482.061	331.19
482.28	305.19
482.498	317.19
482.717	324.19
482.935	319.19
483.153	307.19
483.372	313.19
483.59	315.19
483.808	301.19
484.027	312.19
484.245	323.19
484.463	320.19
484.681	342.19
484.9	290.19
485.118	323.19
485.336	300.19
485.554	304.19
485.772	311.19
485.99	306.19
486.209	334.19
486.427	314.19
486.645	326.19
486.863	335.19
487.081	320.19
487.299	340.19
487.517	343.19
487.735	353.19
487.953	334.19
488.171	346.19
488.389	333.19
488.607	332.19
488.825	333.19
489.043	329.19
489.261	329.19
489.479	328.19
489.696	341.19
489.914	344.19
490.132	354.19
490.35	357.19
490.568	342.19
490.786	346.19
491.003	365.19
491.221	376.19
491.439	374.19
491.657	361.19
491.874	365.19
492.092	368.19
492.31	356.19
492.527	374.19
492.745	375.19
492.963	377.19
493.18	372.19
493.398	380.19
493.615	379.19
493.833	371.19
494.05	387.19
494.268	377.19
494.485	380.19
494.703	369.19
494.92	378.19
495.138	392.19
495.355	380.19
495.573	392.19
495.79	382.19
496.008	408.19
496.225	409.19
496.442	382.19
496.66	398.19
496.877	382.19
497.094	378.19
497.312	398.19
497.529	409.19
497.746	402.19
497.963	416.19
498.181	422.19
498.398	421.19
498.615	425.19
498.832	426.19
499.049	418.19
499.267	439.19
499.484	450.19
499.701	470.19
499.918	466.19
500.135	477.19
500.352	507.19
500.569	488.19
500.786	520.19
501.003	493.19
501.22	489.19
501.437	510.19
501.654	472.19
501.871	459.19
502.088	446.19
502.305	444.19
