Data from 1982.PennyLincolnUp.Lamp.En5.5.200Scan.071819.P1_HRD10591_16-44-57-963.txt Node
Date: Thu Jul 18 16:44:57 EDT 2019
User: cochatt
Spectrometer: HR+D1059
Trigger mode: 1
Integration Time (sec): 1.000000E-1
Scans to average: 1
Electric dark correction enabled: true
Nonlinearity correction enabled: false
Boxcar width: 0
XAxis mode: Wavelengths
Number of Pixels in Spectrum: 2048
>>>>>Begin Spectral Data<<<<<
223.165	-17.75
223.4	-17.75
223.635	-17.75
223.869	-22.75
224.104	-18.75
224.338	-9.75
224.573	-5.75
224.808	-9.75
225.042	-10.75
225.277	1.25
225.511	-9.75
225.746	10.25
225.98	-6.75
226.215	18.25
226.449	19.25
226.683	16.25
226.918	18.25
227.152	28.25
227.387	44.25
227.621	42.25
227.856	43.25
228.09	52.25
228.324	55.25
228.559	63.25
228.793	57.25
229.027	71.25
229.262	95.25
229.496	88.25
229.73	97.25
229.964	114.25
230.199	100.25
230.433	98.25
230.667	96.25
230.901	91.25
231.136	95.25
231.37	87.25
231.604	94.25
231.838	98.25
232.072	82.25
232.306	104.25
232.541	94.25
232.775	102.25
233.009	102.25
233.243	96.25
233.477	108.25
233.711	89.25
233.945	117.25
234.179	91.25
234.413	101.25
234.647	107.25
234.881	86.25
235.115	100.25
235.349	104.25
235.583	100.25
235.817	103.25
236.051	114.25
236.285	102.25
236.519	101.25
236.753	112.25
236.987	119.25
237.221	128.25
237.455	166.25
237.689	120.25
237.922	120.25
238.156	96.25
238.39	82.25
238.624	112.25
238.858	95.25
239.091	105.25
239.325	98.25
239.559	91.25
239.793	119.25
240.027	102.25
240.26	107.25
240.494	115.25
240.728	125.25
240.961	108.25
241.195	110.25
241.429	98.25
241.662	107.25
241.896	120.25
242.13	107.25
242.363	97.25
242.597	122.25
242.83	102.25
243.064	100.25
243.298	124.25
243.531	106.25
243.765	106.25
243.998	100.25
244.232	110.25
244.465	121.25
244.699	102.25
244.932	115.25
245.166	108.25
245.399	117.25
245.633	107.25
245.866	104.25
246.099	119.25
246.333	125.25
246.566	99.25
246.8	121.25
247.033	122.25
247.266	122.25
247.5	121.25
247.733	133.25
247.966	126.25
248.2	125.25
248.433	133.25
248.666	127.25
248.899	134.25
249.133	139.25
249.366	148.25
249.599	134.25
249.832	138.25
250.066	123.25
250.299	127.25
250.532	147.25
250.765	130.25
250.998	136.25
251.231	144.25
251.465	152.25
251.698	145.25
251.931	157.25
252.164	141.25
252.397	149.25
252.63	155.25
252.863	164.25
253.096	164.25
253.329	157.25
253.562	150.25
253.795	169.25
254.028	158.25
254.261	162.25
254.494	152.25
254.727	171.25
254.96	180.25
255.193	184.25
255.426	175.25
255.659	156.25
255.892	166.25
256.124	148.25
256.357	150.25
256.59	140.25
256.823	150.25
257.056	161.25
257.289	148.25
257.521	152.25
257.754	164.25
257.987	169.25
258.22	144.25
258.452	162.25
258.685	146.25
258.918	140.25
259.151	151.25
259.383	174.25
259.616	159.25
259.849	146.25
260.081	163.25
260.314	168.25
260.547	150.25
260.779	167.25
261.012	162.25
261.244	171.25
261.477	158.25
261.71	149.25
261.942	172.25
262.175	173.25
262.407	170.25
262.64	143.25
262.872	145.25
263.105	158.25
263.337	169.25
263.57	146.25
263.802	158.25
264.035	170.25
264.267	158.25
264.499	155.25
264.732	150.25
264.964	154.25
265.197	142.25
265.429	144.25
265.661	141.25
265.894	147.25
266.126	159.25
266.358	170.25
266.591	140.25
266.823	160.25
267.055	175.25
267.287	166.25
267.52	138.25
267.752	149.25
267.984	158.25
268.216	161.25
268.448	162.25
268.681	155.25
268.913	167.25
269.145	191.25
269.377	186.25
269.609	184.25
269.841	178.25
270.073	175.25
270.306	194.25
270.538	213.25
270.77	200.25
271.002	194.25
271.234	190.25
271.466	188.25
271.698	203.25
271.93	199.25
272.162	197.25
272.394	204.25
272.626	194.25
272.858	202.25
273.09	190.25
273.322	175.25
273.553	184.25
273.785	176.25
274.017	183.25
274.249	178.25
274.481	194.25
274.713	185.25
274.945	188.25
275.176	174.25
275.408	182.25
275.64	176.25
275.872	167.25
276.104	177.25
276.335	178.25
276.567	184.25
276.799	191.25
277.031	217.25
277.262	205.25
277.494	198.25
277.726	203.25
277.957	193.25
278.189	186.25
278.421	172.25
278.652	167.25
278.884	187.25
279.115	192.25
279.347	197.25
279.579	193.25
279.81	198.25
280.042	169.25
280.273	184.25
280.505	176.25
280.736	194.25
280.968	190.25
281.199	187.25
281.431	165.25
281.662	171.25
281.894	186.25
282.125	196.25
282.356	182.25
282.588	198.25
282.819	197.25
283.051	191.25
283.282	171.25
283.513	189.25
283.745	186.25
283.976	181.25
284.207	182.25
284.439	170.25
284.67	186.25
284.901	188.25
285.132	202.25
285.364	182.25
285.595	188.25
285.826	187.25
286.057	195.25
286.288	190.25
286.52	192.25
286.751	167.25
286.982	204.25
287.213	187.25
287.444	198.25
287.675	199.25
287.906	189.25
288.138	190.25
288.369	197.25
288.6	199.25
288.831	207.25
289.062	179.25
289.293	196.25
289.524	182.25
289.755	208.25
289.986	190.25
290.217	203.25
290.448	198.25
290.679	183.25
290.91	191.25
291.141	178.25
291.371	197.25
291.602	199.25
291.833	179.25
292.064	177.25
292.295	195.25
292.526	187.25
292.757	200.25
292.987	194.25
293.218	190.25
293.449	191.25
293.68	194.25
293.91	197.25
294.141	205.25
294.372	205.25
294.603	187.25
294.833	203.25
295.064	197.25
295.295	197.25
295.525	193.25
295.756	209.25
295.987	202.25
296.217	222.25
296.448	234.25
296.679	194.25
296.909	189.25
297.14	193.25
297.37	189.25
297.601	201.25
297.831	193.25
298.062	184.25
298.292	201.25
298.523	207.25
298.753	190.25
298.984	193.25
299.214	201.25
299.445	201.25
299.675	201.25
299.905	218.25
300.136	201.25
300.366	207.25
300.597	203.25
300.827	218.25
301.057	224.25
301.288	215.25
301.518	224.25
301.748	218.25
301.979	218.25
302.209	224.25
302.439	212.25
302.669	219.25
302.9	212.25
303.13	228.25
303.36	214.25
303.59	220.25
303.82	226.25
304.051	211.25
304.281	214.25
304.511	214.25
304.741	228.25
304.971	217.25
305.201	211.25
305.431	225.25
305.661	227.25
305.891	213.25
306.121	218.25
306.352	226.25
306.582	198.25
306.812	227.25
307.042	234.25
307.272	209.25
307.502	212.25
307.731	208.25
307.961	226.25
308.191	219.25
308.421	233.25
308.651	215.25
308.881	232.25
309.111	238.25
309.341	225.25
309.571	236.25
309.8	228.25
310.03	248.25
310.26	249.25
310.49	219.25
310.72	254.25
310.949	268.25
311.179	254.25
311.409	245.25
311.639	248.25
311.868	243.25
312.098	245.25
312.328	267.25
312.557	270.25
312.787	274.25
313.017	278.25
313.246	262.25
313.476	244.25
313.706	248.25
313.935	246.25
314.165	255.25
314.394	244.25
314.624	236.25
314.853	239.25
315.083	243.25
315.312	234.25
315.542	244.25
315.771	218.25
316.001	247.25
316.23	255.25
316.46	242.25
316.689	270.25
316.919	243.25
317.148	248.25
317.377	251.25
317.607	237.25
317.836	240.25
318.065	256.25
318.295	249.25
318.524	244.25
318.753	242.25
318.983	237.25
319.212	250.25
319.441	239.25
319.67	236.25
319.9	254.25
320.129	246.25
320.358	237.25
320.587	258.25
320.816	264.25
321.046	267.25
321.275	260.25
321.504	246.25
321.733	254.25
321.962	281.25
322.191	284.25
322.42	272.25
322.649	290.25
322.878	296.25
323.108	302.25
323.337	307.25
323.566	322.25
323.795	338.25
324.024	366.25
324.253	440.25
324.482	640.25
324.71	907.25
324.939	1188.25
325.168	1000.25
325.397	548.25
325.626	382.25
325.855	341.25
326.084	326.25
326.313	315.25
326.542	331.25
326.77	365.25
326.999	434.25
327.228	582.25
327.457	792.25
327.686	879.25
327.914	611.25
328.143	424.25
328.372	379.25
328.6	376.25
328.829	343.25
329.058	347.25
329.287	351.25
329.515	341.25
329.744	313.25
329.972	326.25
330.201	318.25
330.43	341.25
330.658	343.25
330.887	348.25
331.115	336.25
331.344	317.25
331.572	304.25
331.801	312.25
332.03	298.25
332.258	286.25
332.486	283.25
332.715	291.25
332.943	272.25
333.172	285.25
333.4	274.25
333.629	293.25
333.857	308.25
334.085	302.25
334.314	299.25
334.542	313.25
334.771	323.25
334.999	278.25
335.227	280.25
335.455	284.25
335.684	275.25
335.912	292.25
336.14	268.25
336.369	278.25
336.597	294.25
336.825	294.25
337.053	281.25
337.281	277.25
337.51	269.25
337.738	289.25
337.966	256.25
338.194	282.25
338.422	267.25
338.65	280.25
338.878	280.25
339.106	281.25
339.334	277.25
339.562	270.25
339.79	260.25
340.018	279.25
340.246	259.25
340.474	291.25
340.702	264.25
340.93	267.25
341.158	254.25
341.386	278.25
341.614	266.25
341.842	267.25
342.07	263.25
342.298	273.25
342.526	277.25
342.754	261.25
342.981	249.25
343.209	245.25
343.437	265.25
343.665	266.25
343.893	262.25
344.12	260.25
344.348	282.25
344.576	270.25
344.804	273.25
345.031	258.25
345.259	280.25
345.487	272.25
345.714	250.25
345.942	273.25
346.17	263.25
346.397	249.25
346.625	272.25
346.853	264.25
347.08	253.25
347.308	266.25
347.535	274.25
347.763	251.25
347.99	276.25
348.218	268.25
348.445	280.25
348.673	246.25
348.9	277.25
349.128	264.25
349.355	252.25
349.583	257.25
349.81	246.25
350.037	249.25
350.265	252.25
350.492	255.25
350.72	272.25
350.947	270.25
351.174	255.25
351.402	266.25
351.629	243.25
351.856	254.25
352.083	257.25
352.311	267.25
352.538	275.25
352.765	256.25
352.992	276.25
353.22	266.25
353.447	243.25
353.674	249.25
353.901	247.25
354.128	256.25
354.355	228.25
354.583	227.25
354.81	250.25
355.037	248.25
355.264	238.25
355.491	245.25
355.718	246.25
355.945	258.25
356.172	230.25
356.399	254.25
356.626	242.25
356.853	247.25
357.08	252.25
357.307	246.25
357.534	218.25
357.761	243.25
357.988	247.25
358.215	250.25
358.441	251.25
358.668	249.25
358.895	247.25
359.122	238.25
359.349	247.25
359.576	264.25
359.802	262.25
360.029	277.25
360.256	283.25
360.483	280.25
360.709	249.25
360.936	269.25
361.163	268.25
361.39	276.25
361.616	263.25
361.843	266.25
362.07	249.25
362.296	263.25
362.523	258.25
362.749	260.25
362.976	251.25
363.203	250.25
363.429	237.25
363.656	259.25
363.882	260.25
364.109	253.25
364.335	255.25
364.562	259.25
364.788	244.25
365.015	256.25
365.241	249.25
365.468	239.25
365.694	248.25
365.92	245.25
366.147	239.25
366.373	244.25
366.599	239.25
366.826	239.25
367.052	253.25
367.278	230.25
367.505	240.25
367.731	246.25
367.957	246.25
368.184	258.25
368.41	253.25
368.636	258.25
368.862	257.25
369.089	247.25
369.315	248.25
369.541	256.25
369.767	245.25
369.993	248.25
370.219	237.25
370.445	234.25
370.672	249.25
370.898	236.25
371.124	249.25
371.35	247.25
371.576	261.25
371.802	252.25
372.028	237.25
372.254	242.25
372.48	252.25
372.706	243.25
372.932	251.25
373.158	247.25
373.384	251.25
373.61	249.25
373.835	242.25
374.061	252.25
374.287	242.25
374.513	254.25
374.739	252.25
374.965	238.25
375.191	263.25
375.416	254.25
375.642	249.25
375.868	244.25
376.094	237.25
376.319	254.25
376.545	228.25
376.771	246.25
376.997	256.25
377.222	232.25
377.448	256.25
377.674	242.25
377.899	249.25
378.125	251.25
378.35	223.25
378.576	245.25
378.802	226.25
379.027	237.25
379.253	242.25
379.478	241.25
379.704	243.25
379.929	246.25
380.155	250.25
380.38	236.25
380.606	249.25
380.831	231.25
381.057	240.25
381.282	236.25
381.507	256.25
381.733	253.25
381.958	234.25
382.184	223.25
382.409	244.25
382.634	249.25
382.86	231.25
383.085	262.25
383.31	256.25
383.535	229.25
383.761	227.25
383.986	235.25
384.211	250.25
384.436	252.25
384.662	274.25
384.887	234.25
385.112	249.25
385.337	264.25
385.562	228.25
385.787	248.25
386.013	266.25
386.238	246.25
386.463	262.25
386.688	258.25
386.913	246.25
387.138	277.25
387.363	250.25
387.588	237.25
387.813	270.25
388.038	244.25
388.263	251.25
388.488	244.25
388.713	246.25
388.938	258.25
389.163	266.25
389.387	261.25
389.612	252.25
389.837	266.25
390.062	244.25
390.287	251.25
390.512	252.25
390.736	255.25
390.961	258.25
391.186	272.25
391.411	247.25
391.636	246.25
391.86	259.25
392.085	260.25
392.31	239.25
392.534	260.25
392.759	251.25
392.984	263.25
393.208	255.25
393.433	255.25
393.658	247.25
393.882	239.25
394.107	249.25
394.331	260.25
394.556	251.25
394.78	254.25
395.005	255.25
395.229	263.25
395.454	276.25
395.678	261.25
395.903	288.25
396.127	261.25
396.352	280.25
396.576	272.25
396.801	256.25
397.025	268.25
397.249	259.25
397.474	245.25
397.698	275.25
397.922	273.25
398.147	273.25
398.371	266.25
398.595	274.25
398.82	275.25
399.044	274.25
399.268	294.25
399.492	300.25
399.717	324.25
399.941	332.25
400.165	349.25
400.389	328.25
400.613	295.25
400.837	286.25
401.062	297.25
401.286	306.25
401.51	286.25
401.734	282.25
401.958	283.25
402.182	284.25
402.406	297.25
402.63	272.25
402.854	282.25
403.078	304.25
403.302	270.25
403.526	276.25
403.75	287.25
403.974	275.25
404.198	273.25
404.422	284.25
404.645	288.25
404.869	288.25
405.093	302.25
405.317	322.25
405.541	340.25
405.765	299.25
405.988	279.25
406.212	321.25
406.436	302.25
406.66	316.25
406.883	289.25
407.107	330.25
407.331	338.25
407.555	362.25
407.778	371.25
408.002	316.25
408.226	308.25
408.449	304.25
408.673	292.25
408.896	322.25
409.12	352.25
409.344	343.25
409.567	309.25
409.791	280.25
410.014	280.25
410.238	290.25
410.461	298.25
410.685	270.25
410.908	304.25
411.132	313.25
411.355	336.25
411.578	325.25
411.802	296.25
412.025	285.25
412.249	292.25
412.472	302.25
412.695	310.25
412.919	305.25
413.142	298.25
413.365	278.25
413.589	280.25
413.812	266.25
414.035	281.25
414.258	261.25
414.482	274.25
414.705	295.25
414.928	267.25
415.151	283.25
415.374	283.25
415.597	260.25
415.821	278.25
416.044	272.25
416.267	260.25
416.49	254.25
416.713	270.25
416.936	267.25
417.159	273.25
417.382	280.25
417.605	276.25
417.828	272.25
418.051	302.25
418.274	275.25
418.497	260.25
418.72	270.25
418.943	272.25
419.166	297.25
419.389	288.25
419.611	276.25
419.834	281.25
420.057	283.25
420.28	298.25
420.503	266.25
420.726	280.25
420.948	282.25
421.171	311.25
421.394	310.25
421.617	307.25
421.839	278.25
422.062	270.25
422.285	298.25
422.507	331.25
422.73	348.25
422.953	340.25
423.175	314.25
423.398	283.25
423.621	300.25
423.843	310.25
424.066	300.25
424.288	306.25
424.511	323.25
424.733	346.25
424.956	382.25
425.178	366.25
425.401	359.25
425.623	363.25
425.846	326.25
426.068	314.25
426.291	304.25
426.513	310.25
426.735	320.25
426.958	316.25
427.18	388.25
427.402	444.25
427.625	475.25
427.847	408.25
428.069	360.25
428.292	312.25
428.514	308.25
428.736	308.25
428.958	302.25
429.181	279.25
429.403	300.25
429.625	300.25
429.847	302.25
430.069	350.25
430.292	326.25
430.514	287.25
430.736	299.25
430.958	298.25
431.18	281.25
431.402	284.25
431.624	269.25
431.846	277.25
432.068	268.25
432.29	260.25
432.512	273.25
432.734	282.25
432.956	291.25
433.178	277.25
433.4	273.25
433.622	275.25
433.844	277.25
434.066	284.25
434.287	277.25
434.509	257.25
434.731	267.25
434.953	276.25
435.175	282.25
435.397	278.25
435.618	299.25
435.84	321.25
436.062	359.25
436.284	404.25
436.505	323.25
436.727	297.25
436.949	287.25
437.17	273.25
437.392	265.25
437.614	284.25
437.835	280.25
438.057	357.25
438.278	410.25
438.5	416.25
438.721	430.25
438.943	430.25
439.165	335.25
439.386	321.25
439.608	314.25
439.829	294.25
440.05	329.25
440.272	354.25
440.493	323.25
440.715	297.25
440.936	292.25
441.158	289.25
441.379	284.25
441.6	298.25
441.822	313.25
442.043	333.25
442.264	361.25
442.486	394.25
442.707	335.25
442.928	326.25
443.149	303.25
443.371	334.25
443.592	330.25
443.813	394.25
444.034	429.25
444.255	358.25
444.476	325.25
444.698	308.25
444.919	309.25
445.14	401.25
445.361	349.25
445.582	333.25
445.803	357.25
446.024	420.25
446.245	408.25
446.466	357.25
446.687	339.25
446.908	320.25
447.129	278.25
447.35	283.25
447.571	268.25
447.792	274.25
448.013	289.25
448.234	294.25
448.455	320.25
448.675	381.25
448.896	429.25
449.117	370.25
449.338	359.25
449.559	394.25
449.779	454.25
450	364.25
450.221	316.25
450.442	293.25
450.662	285.25
450.883	288.25
451.104	303.25
451.324	294.25
451.545	271.25
451.766	269.25
451.986	247.25
452.207	256.25
452.428	252.25
452.648	246.25
452.869	281.25
453.089	266.25
453.31	260.25
453.53	246.25
453.751	251.25
453.971	244.25
454.192	261.25
454.412	275.25
454.633	258.25
454.853	247.25
455.073	262.25
455.294	288.25
455.514	312.25
455.734	294.25
455.955	274.25
456.175	261.25
456.395	232.25
456.616	245.25
456.836	238.25
457.056	242.25
457.276	252.25
457.497	238.25
457.717	247.25
457.937	248.25
458.157	251.25
458.377	257.25
458.598	270.25
458.818	300.25
459.038	331.25
459.258	328.25
459.478	282.25
459.698	250.25
459.918	282.25
460.138	254.25
460.358	273.25
460.578	262.25
460.798	268.25
461.018	256.25
461.238	249.25
461.458	271.25
461.678	262.25
461.898	265.25
462.118	277.25
462.338	266.25
462.558	266.25
462.777	260.25
462.997	291.25
463.217	295.25
463.437	296.25
463.657	293.25
463.876	287.25
464.096	291.25
464.316	275.25
464.536	310.25
464.755	272.25
464.975	296.25
465.195	301.25
465.414	345.25
465.634	278.25
465.854	290.25
466.073	279.25
466.293	271.25
466.512	265.25
466.732	271.25
466.951	263.25
467.171	271.25
467.391	277.25
467.61	250.25
467.829	263.25
468.049	280.25
468.268	277.25
468.488	254.25
468.707	260.25
468.927	264.25
469.146	245.25
469.365	260.25
469.585	270.25
469.804	252.25
470.023	269.25
470.243	245.25
470.462	264.25
470.681	285.25
470.901	290.25
471.12	266.25
471.339	275.25
471.558	258.25
471.777	260.25
471.997	293.25
472.216	256.25
472.435	269.25
472.654	276.25
472.873	269.25
473.092	267.25
473.311	256.25
473.53	260.25
473.749	278.25
473.968	285.25
474.187	328.25
474.406	353.25
474.625	284.25
474.844	286.25
475.063	255.25
475.282	285.25
475.501	284.25
475.72	270.25
475.939	262.25
476.158	267.25
476.377	290.25
476.596	268.25
476.814	279.25
477.033	269.25
477.252	286.25
477.471	280.25
477.69	260.25
477.908	275.25
478.127	283.25
478.346	280.25
478.564	301.25
478.783	278.25
479.002	289.25
479.22	277.25
479.439	313.25
479.658	313.25
479.876	301.25
480.095	322.25
480.313	317.25
480.532	313.25
480.751	313.25
480.969	297.25
481.188	312.25
481.406	338.25
481.624	302.25
481.843	289.25
482.061	309.25
482.28	296.25
482.498	302.25
482.717	299.25
482.935	306.25
483.153	294.25
483.372	292.25
483.59	299.25
483.808	323.25
484.027	308.25
484.245	304.25
484.463	305.25
484.681	316.25
484.9	307.25
485.118	317.25
485.336	313.25
485.554	311.25
485.772	308.25
485.99	309.25
486.209	325.25
486.427	322.25
486.645	322.25
486.863	328.25
487.081	333.25
487.299	326.25
487.517	327.25
487.735	301.25
487.953	320.25
488.171	329.25
488.389	324.25
488.607	332.25
488.825	338.25
489.043	317.25
489.261	333.25
489.479	319.25
489.696	343.25
489.914	317.25
490.132	332.25
490.35	343.25
490.568	335.25
490.786	362.25
491.003	334.25
491.221	351.25
491.439	367.25
491.657	355.25
491.874	366.25
492.092	378.25
492.31	375.25
492.527	381.25
492.745	370.25
492.963	359.25
493.18	390.25
493.398	384.25
493.615	383.25
493.833	372.25
494.05	363.25
494.268	386.25
494.485	377.25
494.703	372.25
494.92	373.25
495.138	361.25
495.355	404.25
495.573	384.25
495.79	364.25
496.008	390.25
496.225	386.25
496.442	377.25
496.66	382.25
496.877	373.25
497.094	378.25
497.312	386.25
497.529	378.25
497.746	385.25
497.963	403.25
498.181	402.25
498.398	394.25
498.615	414.25
498.832	400.25
499.049	403.25
499.267	440.25
499.484	427.25
499.701	442.25
499.918	441.25
500.135	470.25
500.352	476.25
500.569	448.25
500.786	488.25
501.003	485.25
501.22	475.25
501.437	466.25
501.654	453.25
501.871	443.25
502.088	445.25
502.305	440.25
