Data from 1982.PennyLincolnUp.Lamp.En5.5.200Scan.071819.P1_HRD10591_16-45-29-960.txt Node
Date: Thu Jul 18 16:45:29 EDT 2019
User: cochatt
Spectrometer: HR+D1059
Trigger mode: 1
Integration Time (sec): 1.000000E-1
Scans to average: 1
Electric dark correction enabled: true
Nonlinearity correction enabled: false
Boxcar width: 0
XAxis mode: Wavelengths
Number of Pixels in Spectrum: 2048
>>>>>Begin Spectral Data<<<<<
223.165	-3.88
223.4	-3.88
223.635	-3.88
223.869	-12.88
224.104	-28.88
224.338	-24.88
224.573	-5.88
224.808	-12.88
225.042	-9.88
225.277	-10.88
225.511	-11.88
225.746	11.12
225.98	8.12
226.215	7.12
226.449	18.12
226.683	23.12
226.918	24.12
227.152	30.12
227.387	38.12
227.621	34.12
227.856	39.12
228.09	48.12
228.324	40.12
228.559	41.12
228.793	55.12
229.027	84.12
229.262	95.12
229.496	89.12
229.73	103.12
229.964	125.12
230.199	92.12
230.433	94.12
230.667	111.12
230.901	115.12
231.136	87.12
231.37	105.12
231.604	119.12
231.838	109.12
232.072	99.12
232.306	118.12
232.541	99.12
232.775	95.12
233.009	104.12
233.243	109.12
233.477	105.12
233.711	107.12
233.945	94.12
234.179	104.12
234.413	101.12
234.647	99.12
234.881	98.12
235.115	103.12
235.349	107.12
235.583	92.12
235.817	118.12
236.051	104.12
236.285	106.12
236.519	105.12
236.753	100.12
236.987	131.12
237.221	141.12
237.455	158.12
237.689	138.12
237.922	116.12
238.156	105.12
238.39	118.12
238.624	95.12
238.858	111.12
239.091	114.12
239.325	126.12
239.559	108.12
239.793	107.12
240.027	114.12
240.26	108.12
240.494	131.12
240.728	112.12
240.961	126.12
241.195	118.12
241.429	109.12
241.662	116.12
241.896	122.12
242.13	123.12
242.363	108.12
242.597	113.12
242.83	96.12
243.064	98.12
243.298	112.12
243.531	118.12
243.765	126.12
243.998	120.12
244.232	123.12
244.465	115.12
244.699	128.12
244.932	118.12
245.166	120.12
245.399	114.12
245.633	121.12
245.866	110.12
246.099	124.12
246.333	128.12
246.566	132.12
246.8	129.12
247.033	133.12
247.266	132.12
247.5	130.12
247.733	140.12
247.966	134.12
248.2	135.12
248.433	139.12
248.666	134.12
248.899	132.12
249.133	144.12
249.366	152.12
249.599	151.12
249.832	159.12
250.066	150.12
250.299	134.12
250.532	153.12
250.765	149.12
250.998	173.12
251.231	172.12
251.465	167.12
251.698	163.12
251.931	160.12
252.164	137.12
252.397	156.12
252.63	164.12
252.863	162.12
253.096	167.12
253.329	195.12
253.562	174.12
253.795	166.12
254.028	141.12
254.261	163.12
254.494	179.12
254.727	197.12
254.96	224.12
255.193	203.12
255.426	182.12
255.659	184.12
255.892	160.12
256.124	178.12
256.357	152.12
256.59	178.12
256.823	163.12
257.056	178.12
257.289	154.12
257.521	161.12
257.754	158.12
257.987	152.12
258.22	177.12
258.452	167.12
258.685	159.12
258.918	156.12
259.151	157.12
259.383	167.12
259.616	170.12
259.849	169.12
260.081	182.12
260.314	194.12
260.547	196.12
260.779	208.12
261.012	174.12
261.244	187.12
261.477	182.12
261.71	171.12
261.942	182.12
262.175	180.12
262.407	186.12
262.64	176.12
262.872	161.12
263.105	172.12
263.337	183.12
263.57	170.12
263.802	169.12
264.035	158.12
264.267	164.12
264.499	166.12
264.732	165.12
264.964	163.12
265.197	160.12
265.429	161.12
265.661	159.12
265.894	152.12
266.126	171.12
266.358	175.12
266.591	172.12
266.823	162.12
267.055	161.12
267.287	168.12
267.52	182.12
267.752	178.12
267.984	172.12
268.216	180.12
268.448	170.12
268.681	176.12
268.913	178.12
269.145	205.12
269.377	196.12
269.609	199.12
269.841	196.12
270.073	209.12
270.306	217.12
270.538	232.12
270.77	232.12
271.002	220.12
271.234	208.12
271.466	224.12
271.698	236.12
271.93	220.12
272.162	217.12
272.394	245.12
272.626	224.12
272.858	197.12
273.09	200.12
273.322	198.12
273.553	199.12
273.785	190.12
274.017	192.12
274.249	207.12
274.481	201.12
274.713	190.12
274.945	197.12
275.176	206.12
275.408	187.12
275.64	203.12
275.872	195.12
276.104	186.12
276.335	185.12
276.567	200.12
276.799	211.12
277.031	245.12
277.262	229.12
277.494	203.12
277.726	215.12
277.957	212.12
278.189	192.12
278.421	216.12
278.652	198.12
278.884	199.12
279.115	210.12
279.347	202.12
279.579	201.12
279.81	209.12
280.042	192.12
280.273	207.12
280.505	194.12
280.736	183.12
280.968	208.12
281.199	189.12
281.431	212.12
281.662	200.12
281.894	186.12
282.125	201.12
282.356	211.12
282.588	216.12
282.819	224.12
283.051	196.12
283.282	212.12
283.513	206.12
283.745	211.12
283.976	215.12
284.207	210.12
284.439	223.12
284.67	221.12
284.901	194.12
285.132	212.12
285.364	204.12
285.595	225.12
285.826	199.12
286.057	209.12
286.288	198.12
286.52	218.12
286.751	204.12
286.982	201.12
287.213	198.12
287.444	198.12
287.675	200.12
287.906	232.12
288.138	209.12
288.369	214.12
288.6	220.12
288.831	213.12
289.062	201.12
289.293	207.12
289.524	206.12
289.755	210.12
289.986	204.12
290.217	195.12
290.448	210.12
290.679	220.12
290.91	212.12
291.141	195.12
291.371	208.12
291.602	210.12
291.833	199.12
292.064	206.12
292.295	214.12
292.526	218.12
292.757	212.12
292.987	223.12
293.218	212.12
293.449	214.12
293.68	207.12
293.91	222.12
294.141	225.12
294.372	208.12
294.603	214.12
294.833	228.12
295.064	222.12
295.295	220.12
295.525	218.12
295.756	222.12
295.987	213.12
296.217	242.12
296.448	238.12
296.679	239.12
296.909	223.12
297.14	217.12
297.37	219.12
297.601	213.12
297.831	212.12
298.062	203.12
298.292	219.12
298.523	217.12
298.753	232.12
298.984	245.12
299.214	213.12
299.445	217.12
299.675	210.12
299.905	229.12
300.136	219.12
300.366	232.12
300.597	225.12
300.827	230.12
301.057	217.12
301.288	225.12
301.518	224.12
301.748	240.12
301.979	211.12
302.209	237.12
302.439	238.12
302.669	223.12
302.9	231.12
303.13	232.12
303.36	246.12
303.59	247.12
303.82	251.12
304.051	237.12
304.281	238.12
304.511	239.12
304.741	230.12
304.971	229.12
305.201	244.12
305.431	237.12
305.661	228.12
305.891	233.12
306.121	239.12
306.352	250.12
306.582	229.12
306.812	234.12
307.042	239.12
307.272	250.12
307.502	234.12
307.731	228.12
307.961	230.12
308.191	242.12
308.421	246.12
308.651	240.12
308.881	243.12
309.111	248.12
309.341	242.12
309.571	247.12
309.8	273.12
310.03	250.12
310.26	278.12
310.49	271.12
310.72	272.12
310.949	258.12
311.179	288.12
311.409	276.12
311.639	278.12
311.868	279.12
312.098	262.12
312.328	287.12
312.557	279.12
312.787	303.12
313.017	301.12
313.246	282.12
313.476	290.12
313.706	253.12
313.935	273.12
314.165	282.12
314.394	294.12
314.624	283.12
314.853	266.12
315.083	263.12
315.312	278.12
315.542	272.12
315.771	270.12
316.001	280.12
316.23	258.12
316.46	260.12
316.689	260.12
316.919	273.12
317.148	267.12
317.377	291.12
317.607	278.12
317.836	269.12
318.065	267.12
318.295	260.12
318.524	266.12
318.753	271.12
318.983	258.12
319.212	282.12
319.441	296.12
319.67	278.12
319.9	279.12
320.129	281.12
320.358	275.12
320.587	280.12
320.816	270.12
321.046	292.12
321.275	275.12
321.504	281.12
321.733	293.12
321.962	300.12
322.191	309.12
322.42	314.12
322.649	309.12
322.878	326.12
323.108	351.12
323.337	353.12
323.566	378.12
323.795	382.12
324.024	428.12
324.253	564.12
324.482	782.12
324.71	1150.12
324.939	1487.12
325.168	1198.12
325.397	654.12
325.626	464.12
325.855	392.12
326.084	370.12
326.313	356.12
326.542	374.12
326.77	408.12
326.999	502.12
327.228	680.12
327.457	967.12
327.686	1094.12
327.914	746.12
328.143	518.12
328.372	424.12
328.6	414.12
328.829	407.12
329.058	393.12
329.287	406.12
329.515	388.12
329.744	360.12
329.972	356.12
330.201	386.12
330.43	402.12
330.658	403.12
330.887	423.12
331.115	417.12
331.344	363.12
331.572	344.12
331.801	329.12
332.03	332.12
332.258	329.12
332.486	323.12
332.715	309.12
332.943	317.12
333.172	324.12
333.4	318.12
333.629	330.12
333.857	331.12
334.085	330.12
334.314	333.12
334.542	346.12
334.771	373.12
334.999	350.12
335.227	331.12
335.455	326.12
335.684	320.12
335.912	322.12
336.14	335.12
336.369	318.12
336.597	321.12
336.825	312.12
337.053	298.12
337.281	309.12
337.51	313.12
337.738	312.12
337.966	310.12
338.194	312.12
338.422	308.12
338.65	316.12
338.878	286.12
339.106	290.12
339.334	311.12
339.562	290.12
339.79	278.12
340.018	295.12
340.246	290.12
340.474	299.12
340.702	297.12
340.93	293.12
341.158	284.12
341.386	281.12
341.614	282.12
341.842	296.12
342.07	307.12
342.298	293.12
342.526	283.12
342.754	300.12
342.981	289.12
343.209	287.12
343.437	296.12
343.665	306.12
343.893	292.12
344.12	298.12
344.348	302.12
344.576	294.12
344.804	301.12
345.031	302.12
345.259	297.12
345.487	308.12
345.714	297.12
345.942	276.12
346.17	289.12
346.397	287.12
346.625	288.12
346.853	303.12
347.08	301.12
347.308	307.12
347.535	306.12
347.763	301.12
347.99	304.12
348.218	295.12
348.445	288.12
348.673	288.12
348.9	293.12
349.128	288.12
349.355	290.12
349.583	281.12
349.81	287.12
350.037	281.12
350.265	287.12
350.492	274.12
350.72	268.12
350.947	290.12
351.174	284.12
351.402	289.12
351.629	303.12
351.856	288.12
352.083	278.12
352.311	288.12
352.538	278.12
352.765	282.12
352.992	288.12
353.22	285.12
353.447	277.12
353.674	285.12
353.901	266.12
354.128	266.12
354.355	270.12
354.583	260.12
354.81	249.12
355.037	254.12
355.264	267.12
355.491	260.12
355.718	267.12
355.945	275.12
356.172	266.12
356.399	281.12
356.626	269.12
356.853	277.12
357.08	259.12
357.307	267.12
357.534	269.12
357.761	258.12
357.988	253.12
358.215	269.12
358.441	262.12
358.668	265.12
358.895	275.12
359.122	272.12
359.349	272.12
359.576	311.12
359.802	307.12
360.029	312.12
360.256	332.12
360.483	298.12
360.709	293.12
360.936	282.12
361.163	264.12
361.39	286.12
361.616	265.12
361.843	290.12
362.07	288.12
362.296	292.12
362.523	288.12
362.749	260.12
362.976	289.12
363.203	284.12
363.429	295.12
363.656	283.12
363.882	252.12
364.109	260.12
364.335	271.12
364.562	267.12
364.788	262.12
365.015	279.12
365.241	281.12
365.468	262.12
365.694	272.12
365.92	269.12
366.147	269.12
366.373	255.12
366.599	264.12
366.826	254.12
367.052	272.12
367.278	270.12
367.505	271.12
367.731	292.12
367.957	249.12
368.184	276.12
368.41	276.12
368.636	269.12
368.862	282.12
369.089	280.12
369.315	256.12
369.541	259.12
369.767	275.12
369.993	280.12
370.219	260.12
370.445	264.12
370.672	259.12
370.898	258.12
371.124	276.12
371.35	266.12
371.576	271.12
371.802	250.12
372.028	269.12
372.254	268.12
372.48	264.12
372.706	264.12
372.932	269.12
373.158	272.12
373.384	250.12
373.61	283.12
373.835	266.12
374.061	263.12
374.287	258.12
374.513	276.12
374.739	274.12
374.965	272.12
375.191	261.12
375.416	273.12
375.642	250.12
375.868	253.12
376.094	247.12
376.319	248.12
376.545	267.12
376.771	252.12
376.997	250.12
377.222	240.12
377.448	243.12
377.674	277.12
377.899	251.12
378.125	252.12
378.35	262.12
378.576	245.12
378.802	235.12
379.027	260.12
379.253	256.12
379.478	258.12
379.704	247.12
379.929	253.12
380.155	247.12
380.38	256.12
380.606	260.12
380.831	249.12
381.057	252.12
381.282	248.12
381.507	236.12
381.733	260.12
381.958	255.12
382.184	262.12
382.409	272.12
382.634	259.12
382.86	269.12
383.085	244.12
383.31	255.12
383.535	262.12
383.761	281.12
383.986	262.12
384.211	283.12
384.436	266.12
384.662	251.12
384.887	276.12
385.112	260.12
385.337	258.12
385.562	290.12
385.787	278.12
386.013	294.12
386.238	263.12
386.463	274.12
386.688	278.12
386.913	266.12
387.138	292.12
387.363	258.12
387.588	256.12
387.813	278.12
388.038	261.12
388.263	276.12
388.488	272.12
388.713	291.12
388.938	279.12
389.163	273.12
389.387	240.12
389.612	276.12
389.837	269.12
390.062	286.12
390.287	279.12
390.512	262.12
390.736	276.12
390.961	279.12
391.186	281.12
391.411	270.12
391.636	261.12
391.86	267.12
392.085	288.12
392.31	270.12
392.534	279.12
392.759	272.12
392.984	282.12
393.208	265.12
393.433	258.12
393.658	279.12
393.882	266.12
394.107	261.12
394.331	252.12
394.556	256.12
394.78	278.12
395.005	268.12
395.229	260.12
395.454	264.12
395.678	276.12
395.903	287.12
396.127	286.12
396.352	295.12
396.576	277.12
396.801	286.12
397.025	289.12
397.249	281.12
397.474	266.12
397.698	284.12
397.922	280.12
398.147	290.12
398.371	318.12
398.595	297.12
398.82	301.12
399.044	290.12
399.268	305.12
399.492	302.12
399.717	331.12
399.941	342.12
400.165	351.12
400.389	355.12
400.613	340.12
400.837	302.12
401.062	316.12
401.286	289.12
401.51	286.12
401.734	292.12
401.958	295.12
402.182	293.12
402.406	296.12
402.63	303.12
402.854	312.12
403.078	288.12
403.302	311.12
403.526	298.12
403.75	308.12
403.974	324.12
404.198	296.12
404.422	294.12
404.645	307.12
404.869	319.12
405.093	328.12
405.317	352.12
405.541	374.12
405.765	334.12
405.988	315.12
406.212	331.12
406.436	355.12
406.66	352.12
406.883	337.12
407.107	340.12
407.331	370.12
407.555	391.12
407.778	388.12
408.002	365.12
408.226	346.12
408.449	338.12
408.673	328.12
408.896	353.12
409.12	383.12
409.344	359.12
409.567	326.12
409.791	311.12
410.014	315.12
410.238	307.12
410.461	298.12
410.685	295.12
410.908	331.12
411.132	336.12
411.355	347.12
411.578	336.12
411.802	318.12
412.025	303.12
412.249	317.12
412.472	301.12
412.695	346.12
412.919	331.12
413.142	305.12
413.365	292.12
413.589	292.12
413.812	311.12
414.035	292.12
414.258	314.12
414.482	275.12
414.705	309.12
414.928	299.12
415.151	281.12
415.374	286.12
415.597	299.12
415.821	292.12
416.044	290.12
416.267	288.12
416.49	291.12
416.713	298.12
416.936	299.12
417.159	282.12
417.382	282.12
417.605	278.12
417.828	313.12
418.051	320.12
418.274	310.12
418.497	286.12
418.72	302.12
418.943	306.12
419.166	288.12
419.389	296.12
419.611	295.12
419.834	301.12
420.057	326.12
420.28	314.12
420.503	294.12
420.726	309.12
420.948	319.12
421.171	344.12
421.394	376.12
421.617	316.12
421.839	299.12
422.062	302.12
422.285	318.12
422.507	362.12
422.73	405.12
422.953	363.12
423.175	340.12
423.398	320.12
423.621	311.12
423.843	317.12
424.066	326.12
424.288	332.12
424.511	344.12
424.733	367.12
424.956	422.12
425.178	388.12
425.401	386.12
425.623	398.12
425.846	352.12
426.068	304.12
426.291	325.12
426.513	349.12
426.735	354.12
426.958	365.12
427.18	418.12
427.402	474.12
427.625	518.12
427.847	460.12
428.069	398.12
428.292	344.12
428.514	317.12
428.736	315.12
428.958	320.12
429.181	306.12
429.403	303.12
429.625	297.12
429.847	330.12
430.069	381.12
430.292	363.12
430.514	312.12
430.736	304.12
430.958	296.12
431.18	296.12
431.402	296.12
431.624	270.12
431.846	288.12
432.068	303.12
432.29	291.12
432.512	294.12
432.734	286.12
432.956	301.12
433.178	281.12
433.4	299.12
433.622	276.12
433.844	269.12
434.066	292.12
434.287	283.12
434.509	290.12
434.731	312.12
434.953	295.12
435.175	304.12
435.397	327.12
435.618	347.12
435.84	352.12
436.062	414.12
436.284	436.12
436.505	381.12
436.727	340.12
436.949	330.12
437.17	314.12
437.392	319.12
437.614	316.12
437.835	367.12
438.057	393.12
438.278	460.12
438.5	439.12
438.721	460.12
438.943	446.12
439.165	388.12
439.386	358.12
439.608	345.12
439.829	332.12
440.05	361.12
440.272	377.12
440.493	354.12
440.715	312.12
440.936	310.12
441.158	311.12
441.379	300.12
441.6	322.12
441.822	325.12
442.043	344.12
442.264	423.12
442.486	426.12
442.707	355.12
442.928	328.12
443.149	338.12
443.371	351.12
443.592	388.12
443.813	428.12
444.034	450.12
444.255	378.12
444.476	340.12
444.698	312.12
444.919	326.12
445.14	450.12
445.361	382.12
445.582	348.12
445.803	392.12
446.024	457.12
446.245	459.12
446.466	415.12
446.687	375.12
446.908	332.12
447.129	321.12
447.35	311.12
447.571	315.12
447.792	298.12
448.013	312.12
448.234	311.12
448.455	362.12
448.675	429.12
448.896	482.12
449.117	400.12
449.338	395.12
449.559	459.12
449.779	498.12
450	394.12
450.221	342.12
450.442	316.12
450.662	307.12
450.883	315.12
451.104	326.12
451.324	302.12
451.545	291.12
451.766	308.12
451.986	279.12
452.207	281.12
452.428	283.12
452.648	296.12
452.869	282.12
453.089	308.12
453.31	289.12
453.53	268.12
453.751	282.12
453.971	293.12
454.192	293.12
454.412	276.12
454.633	283.12
454.853	284.12
455.073	291.12
455.294	299.12
455.514	327.12
455.734	327.12
455.955	279.12
456.175	263.12
456.395	278.12
456.616	258.12
456.836	259.12
457.056	263.12
457.276	255.12
457.497	276.12
457.717	266.12
457.937	274.12
458.157	262.12
458.377	276.12
458.598	278.12
458.818	328.12
459.038	346.12
459.258	354.12
459.478	326.12
459.698	298.12
459.918	281.12
460.138	279.12
460.358	294.12
460.578	294.12
460.798	290.12
461.018	301.12
461.238	308.12
461.458	278.12
461.678	290.12
461.898	285.12
462.118	278.12
462.338	289.12
462.558	298.12
462.777	302.12
462.997	319.12
463.217	322.12
463.437	330.12
463.657	294.12
463.876	302.12
464.096	297.12
464.316	301.12
464.536	328.12
464.755	315.12
464.975	322.12
465.195	348.12
465.414	378.12
465.634	335.12
465.854	297.12
466.073	298.12
466.293	295.12
466.512	282.12
466.732	296.12
466.951	277.12
467.171	286.12
467.391	291.12
467.61	290.12
467.829	296.12
468.049	297.12
468.268	296.12
468.488	299.12
468.707	277.12
468.927	271.12
469.146	279.12
469.365	268.12
469.585	271.12
469.804	279.12
470.023	299.12
470.243	302.12
470.462	294.12
470.681	292.12
470.901	293.12
471.12	298.12
471.339	299.12
471.558	291.12
471.777	292.12
471.997	262.12
472.216	294.12
472.435	301.12
472.654	284.12
472.873	290.12
473.092	294.12
473.311	265.12
473.53	302.12
473.749	299.12
473.968	320.12
474.187	390.12
474.406	374.12
474.625	333.12
474.844	310.12
475.063	303.12
475.282	292.12
475.501	290.12
475.72	284.12
475.939	298.12
476.158	293.12
476.377	302.12
476.596	295.12
476.814	297.12
477.033	295.12
477.252	299.12
477.471	307.12
477.69	287.12
477.908	297.12
478.127	327.12
478.346	300.12
478.564	310.12
478.783	302.12
479.002	317.12
479.22	321.12
479.439	332.12
479.658	321.12
479.876	350.12
480.095	342.12
480.313	362.12
480.532	330.12
480.751	333.12
480.969	348.12
481.188	375.12
481.406	392.12
481.624	343.12
481.843	333.12
482.061	330.12
482.28	326.12
482.498	332.12
482.717	333.12
482.935	297.12
483.153	325.12
483.372	325.12
483.59	336.12
483.808	339.12
484.027	329.12
484.245	313.12
484.463	336.12
484.681	344.12
484.9	338.12
485.118	338.12
485.336	340.12
485.554	330.12
485.772	339.12
485.99	332.12
486.209	337.12
486.427	315.12
486.645	363.12
486.863	342.12
487.081	365.12
487.299	352.12
487.517	352.12
487.735	372.12
487.953	322.12
488.171	353.12
488.389	361.12
488.607	346.12
488.825	350.12
489.043	334.12
489.261	355.12
489.479	354.12
489.696	376.12
489.914	365.12
490.132	378.12
490.35	374.12
490.568	355.12
490.786	368.12
491.003	357.12
491.221	375.12
491.439	386.12
491.657	400.12
491.874	396.12
492.092	383.12
492.31	411.12
492.527	395.12
492.745	399.12
492.963	391.12
493.18	408.12
493.398	404.12
493.615	411.12
493.833	406.12
494.05	403.12
494.268	395.12
494.485	418.12
494.703	403.12
494.92	404.12
495.138	407.12
495.355	419.12
495.573	426.12
495.79	402.12
496.008	414.12
496.225	409.12
496.442	417.12
496.66	442.12
496.877	396.12
497.094	402.12
497.312	414.12
497.529	420.12
497.746	421.12
497.963	406.12
498.181	426.12
498.398	421.12
498.615	420.12
498.832	436.12
499.049	445.12
499.267	464.12
499.484	465.12
499.701	495.12
499.918	466.12
500.135	486.12
500.352	492.12
500.569	498.12
500.786	523.12
501.003	493.12
501.22	487.12
501.437	488.12
501.654	510.12
501.871	488.12
502.088	467.12
