Data from 1982.PennyLincolnUp.Lamp.En5.5.200Scan.071819.P1_HRD10591_16-45-24-961.txt Node
Date: Thu Jul 18 16:45:24 EDT 2019
User: cochatt
Spectrometer: HR+D1059
Trigger mode: 1
Integration Time (sec): 1.000000E-1
Scans to average: 1
Electric dark correction enabled: true
Nonlinearity correction enabled: false
Boxcar width: 0
XAxis mode: Wavelengths
Number of Pixels in Spectrum: 2048
>>>>>Begin Spectral Data<<<<<
223.165	-8.25
223.4	-8.25
223.635	-8.25
223.869	-28.25
224.104	-12.25
224.338	-3.25
224.573	-14.25
224.808	-6.25
225.042	-3.25
225.277	-8.25
225.511	-20.25
225.746	2.75
225.98	6.75
226.215	13.75
226.449	31.75
226.683	10.75
226.918	12.75
227.152	25.75
227.387	41.75
227.621	24.75
227.856	53.75
228.09	35.75
228.324	40.75
228.559	52.75
228.793	55.75
229.027	82.75
229.262	78.75
229.496	94.75
229.73	92.75
229.964	125.75
230.199	115.75
230.433	105.75
230.667	91.75
230.901	80.75
231.136	94.75
231.37	100.75
231.604	102.75
231.838	104.75
232.072	92.75
232.306	106.75
232.541	98.75
232.775	107.75
233.009	91.75
233.243	106.75
233.477	84.75
233.711	89.75
233.945	107.75
234.179	99.75
234.413	95.75
234.647	94.75
234.881	97.75
235.115	101.75
235.349	103.75
235.583	111.75
235.817	111.75
236.051	106.75
236.285	112.75
236.519	109.75
236.753	100.75
236.987	126.75
237.221	130.75
237.455	169.75
237.689	146.75
237.922	126.75
238.156	124.75
238.39	115.75
238.624	112.75
238.858	106.75
239.091	82.75
239.325	105.75
239.559	101.75
239.793	105.75
240.027	121.75
240.26	120.75
240.494	117.75
240.728	114.75
240.961	115.75
241.195	101.75
241.429	109.75
241.662	93.75
241.896	104.75
242.13	98.75
242.363	107.75
242.597	107.75
242.83	115.75
243.064	118.75
243.298	112.75
243.531	123.75
243.765	115.75
243.998	118.75
244.232	101.75
244.465	126.75
244.699	116.75
244.932	97.75
245.166	120.75
245.399	106.75
245.633	114.75
245.866	119.75
246.099	125.75
246.333	97.75
246.566	110.75
246.8	115.75
247.033	105.75
247.266	128.75
247.5	132.75
247.733	132.75
247.966	146.75
248.2	126.75
248.433	148.75
248.666	131.75
248.899	134.75
249.133	147.75
249.366	136.75
249.599	158.75
249.832	134.75
250.066	148.75
250.299	146.75
250.532	159.75
250.765	168.75
250.998	162.75
251.231	160.75
251.465	164.75
251.698	151.75
251.931	154.75
252.164	152.75
252.397	152.75
252.63	161.75
252.863	156.75
253.096	151.75
253.329	172.75
253.562	169.75
253.795	163.75
254.028	182.75
254.261	152.75
254.494	174.75
254.727	183.75
254.96	202.75
255.193	191.75
255.426	177.75
255.659	168.75
255.892	178.75
256.124	162.75
256.357	155.75
256.59	156.75
256.823	176.75
257.056	157.75
257.289	154.75
257.521	162.75
257.754	176.75
257.987	155.75
258.22	170.75
258.452	152.75
258.685	159.75
258.918	158.75
259.151	178.75
259.383	162.75
259.616	154.75
259.849	175.75
260.081	164.75
260.314	196.75
260.547	180.75
260.779	189.75
261.012	193.75
261.244	137.75
261.477	154.75
261.71	155.75
261.942	171.75
262.175	166.75
262.407	177.75
262.64	162.75
262.872	160.75
263.105	165.75
263.337	147.75
263.57	156.75
263.802	166.75
264.035	157.75
264.267	156.75
264.499	154.75
264.732	161.75
264.964	154.75
265.197	156.75
265.429	155.75
265.661	143.75
265.894	160.75
266.126	143.75
266.358	161.75
266.591	154.75
266.823	162.75
267.055	162.75
267.287	169.75
267.52	181.75
267.752	153.75
267.984	172.75
268.216	158.75
268.448	180.75
268.681	171.75
268.913	152.75
269.145	191.75
269.377	198.75
269.609	202.75
269.841	182.75
270.073	196.75
270.306	218.75
270.538	228.75
270.77	216.75
271.002	217.75
271.234	210.75
271.466	243.75
271.698	220.75
271.93	217.75
272.162	220.75
272.394	215.75
272.626	216.75
272.858	193.75
273.09	195.75
273.322	213.75
273.553	199.75
273.785	193.75
274.017	194.75
274.249	178.75
274.481	187.75
274.713	176.75
274.945	213.75
275.176	197.75
275.408	203.75
275.64	188.75
275.872	195.75
276.104	179.75
276.335	198.75
276.567	199.75
276.799	186.75
277.031	226.75
277.262	227.75
277.494	221.75
277.726	211.75
277.957	208.75
278.189	215.75
278.421	210.75
278.652	210.75
278.884	176.75
279.115	183.75
279.347	200.75
279.579	203.75
279.81	192.75
280.042	207.75
280.273	174.75
280.505	174.75
280.736	184.75
280.968	187.75
281.199	182.75
281.431	191.75
281.662	183.75
281.894	184.75
282.125	206.75
282.356	206.75
282.588	225.75
282.819	215.75
283.051	186.75
283.282	204.75
283.513	198.75
283.745	196.75
283.976	204.75
284.207	201.75
284.439	196.75
284.67	194.75
284.901	194.75
285.132	187.75
285.364	198.75
285.595	204.75
285.826	191.75
286.057	201.75
286.288	202.75
286.52	211.75
286.751	192.75
286.982	215.75
287.213	207.75
287.444	204.75
287.675	203.75
287.906	204.75
288.138	188.75
288.369	201.75
288.6	217.75
288.831	233.75
289.062	212.75
289.293	204.75
289.524	184.75
289.755	220.75
289.986	207.75
290.217	195.75
290.448	202.75
290.679	198.75
290.91	215.75
291.141	211.75
291.371	213.75
291.602	198.75
291.833	209.75
292.064	191.75
292.295	209.75
292.526	198.75
292.757	186.75
292.987	194.75
293.218	213.75
293.449	218.75
293.68	216.75
293.91	196.75
294.141	194.75
294.372	223.75
294.603	204.75
294.833	208.75
295.064	198.75
295.295	203.75
295.525	200.75
295.756	224.75
295.987	218.75
296.217	217.75
296.448	226.75
296.679	224.75
296.909	194.75
297.14	203.75
297.37	202.75
297.601	196.75
297.831	215.75
298.062	204.75
298.292	219.75
298.523	216.75
298.753	210.75
298.984	213.75
299.214	213.75
299.445	212.75
299.675	219.75
299.905	227.75
300.136	216.75
300.366	212.75
300.597	214.75
300.827	218.75
301.057	208.75
301.288	232.75
301.518	235.75
301.748	214.75
301.979	214.75
302.209	215.75
302.439	229.75
302.669	240.75
302.9	236.75
303.13	219.75
303.36	223.75
303.59	240.75
303.82	232.75
304.051	240.75
304.281	220.75
304.511	232.75
304.741	238.75
304.971	220.75
305.201	226.75
305.431	226.75
305.661	223.75
305.891	219.75
306.121	236.75
306.352	238.75
306.582	215.75
306.812	203.75
307.042	223.75
307.272	224.75
307.502	233.75
307.731	240.75
307.961	246.75
308.191	230.75
308.421	262.75
308.651	231.75
308.881	230.75
309.111	241.75
309.341	238.75
309.571	246.75
309.8	242.75
310.03	250.75
310.26	271.75
310.49	261.75
310.72	267.75
310.949	275.75
311.179	272.75
311.409	259.75
311.639	263.75
311.868	255.75
312.098	255.75
312.328	267.75
312.557	278.75
312.787	289.75
313.017	285.75
313.246	279.75
313.476	266.75
313.706	270.75
313.935	268.75
314.165	265.75
314.394	271.75
314.624	263.75
314.853	270.75
315.083	247.75
315.312	288.75
315.542	263.75
315.771	263.75
316.001	241.75
316.23	268.75
316.46	244.75
316.689	258.75
316.919	268.75
317.148	266.75
317.377	267.75
317.607	269.75
317.836	260.75
318.065	247.75
318.295	248.75
318.524	272.75
318.753	272.75
318.983	278.75
319.212	258.75
319.441	260.75
319.67	277.75
319.9	270.75
320.129	274.75
320.358	281.75
320.587	277.75
320.816	280.75
321.046	283.75
321.275	254.75
321.504	286.75
321.733	282.75
321.962	288.75
322.191	296.75
322.42	303.75
322.649	311.75
322.878	315.75
323.108	316.75
323.337	343.75
323.566	326.75
323.795	387.75
324.024	406.75
324.253	506.75
324.482	762.75
324.71	1102.75
324.939	1459.75
325.168	1186.75
325.397	631.75
325.626	438.75
325.855	382.75
326.084	375.75
326.313	354.75
326.542	347.75
326.77	401.75
326.999	489.75
327.228	672.75
327.457	970.75
327.686	1048.75
327.914	718.75
328.143	504.75
328.372	427.75
328.6	393.75
328.829	406.75
329.058	395.75
329.287	390.75
329.515	363.75
329.744	353.75
329.972	355.75
330.201	349.75
330.43	388.75
330.658	388.75
330.887	419.75
331.115	386.75
331.344	340.75
331.572	341.75
331.801	314.75
332.03	350.75
332.258	331.75
332.486	315.75
332.715	308.75
332.943	296.75
333.172	299.75
333.4	312.75
333.629	306.75
333.857	322.75
334.085	333.75
334.314	323.75
334.542	327.75
334.771	332.75
334.999	323.75
335.227	336.75
335.455	304.75
335.684	304.75
335.912	318.75
336.14	307.75
336.369	270.75
336.597	296.75
336.825	300.75
337.053	305.75
337.281	288.75
337.51	298.75
337.738	302.75
337.966	290.75
338.194	310.75
338.422	289.75
338.65	307.75
338.878	286.75
339.106	269.75
339.334	291.75
339.562	290.75
339.79	284.75
340.018	288.75
340.246	299.75
340.474	289.75
340.702	280.75
340.93	271.75
341.158	280.75
341.386	292.75
341.614	290.75
341.842	298.75
342.07	287.75
342.298	272.75
342.526	292.75
342.754	286.75
342.981	268.75
343.209	286.75
343.437	292.75
343.665	295.75
343.893	290.75
344.12	289.75
344.348	280.75
344.576	293.75
344.804	298.75
345.031	302.75
345.259	308.75
345.487	279.75
345.714	297.75
345.942	291.75
346.17	270.75
346.397	289.75
346.625	286.75
346.853	267.75
347.08	267.75
347.308	263.75
347.535	283.75
347.763	278.75
347.99	296.75
348.218	291.75
348.445	287.75
348.673	267.75
348.9	265.75
349.128	268.75
349.355	267.75
349.583	275.75
349.81	268.75
350.037	287.75
350.265	259.75
350.492	260.75
350.72	285.75
350.947	280.75
351.174	276.75
351.402	285.75
351.629	299.75
351.856	292.75
352.083	299.75
352.311	282.75
352.538	306.75
352.765	272.75
352.992	273.75
353.22	303.75
353.447	297.75
353.674	270.75
353.901	269.75
354.128	259.75
354.355	252.75
354.583	256.75
354.81	254.75
355.037	260.75
355.264	258.75
355.491	240.75
355.718	259.75
355.945	272.75
356.172	258.75
356.399	244.75
356.626	273.75
356.853	246.75
357.08	250.75
357.307	238.75
357.534	264.75
357.761	265.75
357.988	264.75
358.215	268.75
358.441	259.75
358.668	259.75
358.895	255.75
359.122	283.75
359.349	278.75
359.576	292.75
359.802	276.75
360.029	308.75
360.256	313.75
360.483	307.75
360.709	290.75
360.936	288.75
361.163	278.75
361.39	283.75
361.616	274.75
361.843	267.75
362.07	289.75
362.296	274.75
362.523	278.75
362.749	276.75
362.976	272.75
363.203	248.75
363.429	249.75
363.656	252.75
363.882	268.75
364.109	268.75
364.335	253.75
364.562	263.75
364.788	251.75
365.015	272.75
365.241	269.75
365.468	254.75
365.694	265.75
365.92	278.75
366.147	244.75
366.373	263.75
366.599	253.75
366.826	254.75
367.052	260.75
367.278	258.75
367.505	257.75
367.731	266.75
367.957	253.75
368.184	256.75
368.41	274.75
368.636	267.75
368.862	279.75
369.089	260.75
369.315	246.75
369.541	243.75
369.767	260.75
369.993	264.75
370.219	260.75
370.445	235.75
370.672	255.75
370.898	254.75
371.124	260.75
371.35	260.75
371.576	251.75
371.802	247.75
372.028	241.75
372.254	233.75
372.48	233.75
372.706	262.75
372.932	248.75
373.158	235.75
373.384	264.75
373.61	273.75
373.835	248.75
374.061	262.75
374.287	234.75
374.513	250.75
374.739	253.75
374.965	258.75
375.191	253.75
375.416	253.75
375.642	259.75
375.868	247.75
376.094	263.75
376.319	248.75
376.545	241.75
376.771	260.75
376.997	250.75
377.222	261.75
377.448	238.75
377.674	238.75
377.899	261.75
378.125	238.75
378.35	223.75
378.576	264.75
378.802	266.75
379.027	244.75
379.253	248.75
379.478	253.75
379.704	231.75
379.929	246.75
380.155	259.75
380.38	249.75
380.606	243.75
380.831	243.75
381.057	261.75
381.282	245.75
381.507	256.75
381.733	241.75
381.958	255.75
382.184	259.75
382.409	230.75
382.634	252.75
382.86	252.75
383.085	245.75
383.31	244.75
383.535	250.75
383.761	250.75
383.986	234.75
384.211	250.75
384.436	252.75
384.662	245.75
384.887	244.75
385.112	254.75
385.337	255.75
385.562	266.75
385.787	246.75
386.013	283.75
386.238	268.75
386.463	265.75
386.688	260.75
386.913	250.75
387.138	238.75
387.363	245.75
387.588	252.75
387.813	264.75
388.038	266.75
388.263	271.75
388.488	266.75
388.713	258.75
388.938	287.75
389.163	259.75
389.387	253.75
389.612	262.75
389.837	259.75
390.062	246.75
390.287	257.75
390.512	271.75
390.736	255.75
390.961	261.75
391.186	245.75
391.411	244.75
391.636	273.75
391.86	275.75
392.085	258.75
392.31	264.75
392.534	269.75
392.759	274.75
392.984	266.75
393.208	271.75
393.433	272.75
393.658	281.75
393.882	254.75
394.107	246.75
394.331	266.75
394.556	247.75
394.78	252.75
395.005	249.75
395.229	249.75
395.454	271.75
395.678	279.75
395.903	274.75
396.127	287.75
396.352	275.75
396.576	254.75
396.801	272.75
397.025	269.75
397.249	279.75
397.474	279.75
397.698	288.75
397.922	296.75
398.147	290.75
398.371	276.75
398.595	300.75
398.82	286.75
399.044	287.75
399.268	296.75
399.492	308.75
399.717	315.75
399.941	328.75
400.165	328.75
400.389	330.75
400.613	329.75
400.837	332.75
401.062	302.75
401.286	291.75
401.51	279.75
401.734	293.75
401.958	282.75
402.182	297.75
402.406	286.75
402.63	291.75
402.854	290.75
403.078	300.75
403.302	303.75
403.526	310.75
403.75	284.75
403.974	298.75
404.198	296.75
404.422	278.75
404.645	299.75
404.869	294.75
405.093	327.75
405.317	353.75
405.541	340.75
405.765	334.75
405.988	324.75
406.212	332.75
406.436	337.75
406.66	343.75
406.883	348.75
407.107	341.75
407.331	358.75
407.555	392.75
407.778	372.75
408.002	356.75
408.226	332.75
408.449	319.75
408.673	328.75
408.896	340.75
409.12	360.75
409.344	352.75
409.567	313.75
409.791	300.75
410.014	315.75
410.238	287.75
410.461	291.75
410.685	317.75
410.908	299.75
411.132	327.75
411.355	335.75
411.578	319.75
411.802	320.75
412.025	316.75
412.249	298.75
412.472	323.75
412.695	326.75
412.919	326.75
413.142	309.75
413.365	292.75
413.589	278.75
413.812	278.75
414.035	285.75
414.258	288.75
414.482	269.75
414.705	279.75
414.928	273.75
415.151	283.75
415.374	275.75
415.597	267.75
415.821	275.75
416.044	290.75
416.267	278.75
416.49	267.75
416.713	274.75
416.936	282.75
417.159	283.75
417.382	296.75
417.605	290.75
417.828	289.75
418.051	300.75
418.274	286.75
418.497	285.75
418.72	277.75
418.943	279.75
419.166	287.75
419.389	293.75
419.611	308.75
419.834	281.75
420.057	292.75
420.28	287.75
420.503	287.75
420.726	315.75
420.948	312.75
421.171	339.75
421.394	318.75
421.617	312.75
421.839	288.75
422.062	308.75
422.285	318.75
422.507	342.75
422.73	370.75
422.953	366.75
423.175	334.75
423.398	275.75
423.621	273.75
423.843	315.75
424.066	327.75
424.288	333.75
424.511	323.75
424.733	368.75
424.956	394.75
425.178	372.75
425.401	376.75
425.623	405.75
425.846	337.75
426.068	323.75
426.291	319.75
426.513	336.75
426.735	330.75
426.958	344.75
427.18	408.75
427.402	464.75
427.625	511.75
427.847	444.75
428.069	410.75
428.292	338.75
428.514	321.75
428.736	325.75
428.958	294.75
429.181	302.75
429.403	305.75
429.625	309.75
429.847	331.75
430.069	371.75
430.292	348.75
430.514	302.75
430.736	291.75
430.958	302.75
431.18	290.75
431.402	287.75
431.624	271.75
431.846	274.75
432.068	275.75
432.29	266.75
432.512	298.75
432.734	280.75
432.956	299.75
433.178	290.75
433.4	296.75
433.622	288.75
433.844	289.75
434.066	273.75
434.287	271.75
434.509	287.75
434.731	289.75
434.953	308.75
435.175	299.75
435.397	307.75
435.618	331.75
435.84	354.75
436.062	399.75
436.284	422.75
436.505	371.75
436.727	312.75
436.949	299.75
437.17	306.75
437.392	279.75
437.614	292.75
437.835	352.75
438.057	389.75
438.278	423.75
438.5	465.75
438.721	455.75
438.943	440.75
439.165	363.75
439.386	336.75
439.608	330.75
439.829	318.75
440.05	356.75
440.272	359.75
440.493	345.75
440.715	305.75
440.936	307.75
441.158	313.75
441.379	282.75
441.6	307.75
441.822	318.75
442.043	337.75
442.264	379.75
442.486	402.75
442.707	330.75
442.928	333.75
443.149	342.75
443.371	339.75
443.592	368.75
443.813	424.75
444.034	448.75
444.255	380.75
444.476	345.75
444.698	316.75
444.919	316.75
445.14	397.75
445.361	373.75
445.582	355.75
445.803	388.75
446.024	438.75
446.245	461.75
446.466	402.75
446.687	339.75
446.908	330.75
447.129	318.75
447.35	297.75
447.571	300.75
447.792	317.75
448.013	298.75
448.234	311.75
448.455	356.75
448.675	417.75
448.896	434.75
449.117	402.75
449.338	379.75
449.559	436.75
449.779	472.75
450	396.75
450.221	326.75
450.442	304.75
450.662	300.75
450.883	308.75
451.104	321.75
451.324	297.75
451.545	287.75
451.766	280.75
451.986	265.75
452.207	278.75
452.428	276.75
452.648	264.75
452.869	249.75
453.089	284.75
453.31	287.75
453.53	281.75
453.751	280.75
453.971	285.75
454.192	265.75
454.412	295.75
454.633	264.75
454.853	271.75
455.073	262.75
455.294	284.75
455.514	336.75
455.734	319.75
455.955	278.75
456.175	270.75
456.395	272.75
456.616	243.75
456.836	254.75
457.056	254.75
457.276	254.75
457.497	274.75
457.717	247.75
457.937	270.75
458.157	260.75
458.377	259.75
458.598	276.75
458.818	313.75
459.038	361.75
459.258	351.75
459.478	321.75
459.698	274.75
459.918	289.75
460.138	276.75
460.358	286.75
460.578	271.75
460.798	283.75
461.018	277.75
461.238	276.75
461.458	275.75
461.678	259.75
461.898	273.75
462.118	277.75
462.338	284.75
462.558	287.75
462.777	292.75
462.997	293.75
463.217	282.75
463.437	288.75
463.657	288.75
463.876	285.75
464.096	290.75
464.316	278.75
464.536	292.75
464.755	305.75
464.975	294.75
465.195	336.75
465.414	356.75
465.634	346.75
465.854	297.75
466.073	275.75
466.293	282.75
466.512	271.75
466.732	258.75
466.951	282.75
467.171	292.75
467.391	278.75
467.61	299.75
467.829	268.75
468.049	277.75
468.268	290.75
468.488	290.75
468.707	262.75
468.927	278.75
469.146	269.75
469.365	272.75
469.585	268.75
469.804	266.75
470.023	287.75
470.243	270.75
470.462	302.75
470.681	298.75
470.901	290.75
471.12	288.75
471.339	278.75
471.558	268.75
471.777	282.75
471.997	271.75
472.216	262.75
472.435	299.75
472.654	290.75
472.873	274.75
473.092	286.75
473.311	280.75
473.53	281.75
473.749	285.75
473.968	325.75
474.187	382.75
474.406	404.75
474.625	329.75
474.844	288.75
475.063	282.75
475.282	292.75
475.501	293.75
475.72	289.75
475.939	279.75
476.158	290.75
476.377	287.75
476.596	286.75
476.814	274.75
477.033	307.75
477.252	323.75
477.471	299.75
477.69	292.75
477.908	285.75
478.127	299.75
478.346	305.75
478.564	304.75
478.783	289.75
479.002	316.75
479.22	306.75
479.439	322.75
479.658	333.75
479.876	329.75
480.095	324.75
480.313	346.75
480.532	335.75
480.751	325.75
480.969	306.75
481.188	361.75
481.406	384.75
481.624	346.75
481.843	322.75
482.061	329.75
482.28	323.75
482.498	329.75
482.717	333.75
482.935	321.75
483.153	313.75
483.372	307.75
483.59	313.75
483.808	320.75
484.027	341.75
484.245	315.75
484.463	324.75
484.681	342.75
484.9	324.75
485.118	339.75
485.336	336.75
485.554	334.75
485.772	308.75
485.99	325.75
486.209	327.75
486.427	334.75
486.645	327.75
486.863	345.75
487.081	333.75
487.299	353.75
487.517	347.75
487.735	338.75
487.953	340.75
488.171	346.75
488.389	345.75
488.607	336.75
488.825	342.75
489.043	343.75
489.261	347.75
489.479	343.75
489.696	352.75
489.914	349.75
490.132	356.75
490.35	361.75
490.568	349.75
490.786	374.75
491.003	366.75
491.221	382.75
491.439	372.75
491.657	399.75
491.874	383.75
492.092	388.75
492.31	383.75
492.527	381.75
492.745	407.75
492.963	382.75
493.18	375.75
493.398	397.75
493.615	401.75
493.833	416.75
494.05	400.75
494.268	419.75
494.485	399.75
494.703	386.75
494.92	397.75
495.138	393.75
495.355	411.75
495.573	387.75
495.79	389.75
496.008	410.75
496.225	402.75
496.442	394.75
496.66	411.75
496.877	401.75
497.094	401.75
497.312	414.75
497.529	406.75
497.746	411.75
497.963	415.75
498.181	437.75
498.398	414.75
498.615	440.75
498.832	420.75
499.049	436.75
499.267	436.75
499.484	458.75
499.701	468.75
499.918	457.75
500.135	490.75
500.352	487.75
500.569	496.75
500.786	522.75
501.003	514.75
501.22	487.75
501.437	504.75
501.654	482.75
501.871	485.75
502.088	459.75
502.305	435.75
