Data from 1982.PennyLincolnUp.Lamp.En5.5.200Scan.071819.P1_HRD10591_16-47-25-962.txt Node
Date: Thu Jul 18 16:47:25 EDT 2019
User: cochatt
Spectrometer: HR+D1059
Trigger mode: 1
Integration Time (sec): 1.000000E-1
Scans to average: 1
Electric dark correction enabled: true
Nonlinearity correction enabled: false
Boxcar width: 0
XAxis mode: Wavelengths
Number of Pixels in Spectrum: 2048
>>>>>Begin Spectral Data<<<<<
223.165	-10.94
223.4	-10.94
223.635	-10.94
223.869	-17.94
224.104	-14.94
224.338	-21.94
224.573	-9.94
224.808	-11.94
225.042	4.06
225.277	-9.94
225.511	-9.94
225.746	-3.94
225.98	-6.94
226.215	18.06
226.449	28.06
226.683	19.06
226.918	11.06
227.152	38.06
227.387	35.06
227.621	40.06
227.856	59.06
228.09	54.06
228.324	46.06
228.559	60.06
228.793	67.06
229.027	81.06
229.262	92.06
229.496	113.06
229.73	111.06
229.964	137.06
230.199	95.06
230.433	101.06
230.667	115.06
230.901	114.06
231.136	100.06
231.37	101.06
231.604	103.06
231.838	106.06
232.072	111.06
232.306	105.06
232.541	86.06
232.775	95.06
233.009	102.06
233.243	97.06
233.477	98.06
233.711	99.06
233.945	101.06
234.179	113.06
234.413	114.06
234.647	101.06
234.881	88.06
235.115	91.06
235.349	94.06
235.583	105.06
235.817	122.06
236.051	112.06
236.285	114.06
236.519	104.06
236.753	122.06
236.987	132.06
237.221	156.06
237.455	197.06
237.689	164.06
237.922	124.06
238.156	129.06
238.39	109.06
238.624	99.06
238.858	110.06
239.091	114.06
239.325	107.06
239.559	104.06
239.793	111.06
240.027	121.06
240.26	122.06
240.494	127.06
240.728	123.06
240.961	124.06
241.195	118.06
241.429	122.06
241.662	114.06
241.896	106.06
242.13	113.06
242.363	117.06
242.597	129.06
242.83	112.06
243.064	135.06
243.298	117.06
243.531	117.06
243.765	121.06
243.998	121.06
244.232	120.06
244.465	131.06
244.699	125.06
244.932	125.06
245.166	121.06
245.399	127.06
245.633	125.06
245.866	114.06
246.099	147.06
246.333	118.06
246.566	139.06
246.8	153.06
247.033	122.06
247.266	135.06
247.5	126.06
247.733	138.06
247.966	151.06
248.2	139.06
248.433	130.06
248.666	129.06
248.899	154.06
249.133	164.06
249.366	158.06
249.599	166.06
249.832	145.06
250.066	154.06
250.299	148.06
250.532	156.06
250.765	156.06
250.998	190.06
251.231	173.06
251.465	177.06
251.698	156.06
251.931	160.06
252.164	175.06
252.397	167.06
252.63	181.06
252.863	176.06
253.096	174.06
253.329	182.06
253.562	179.06
253.795	178.06
254.028	165.06
254.261	198.06
254.494	171.06
254.727	213.06
254.96	236.06
255.193	228.06
255.426	187.06
255.659	195.06
255.892	168.06
256.124	176.06
256.357	162.06
256.59	184.06
256.823	170.06
257.056	164.06
257.289	190.06
257.521	176.06
257.754	176.06
257.987	168.06
258.22	182.06
258.452	172.06
258.685	171.06
258.918	162.06
259.151	190.06
259.383	181.06
259.616	196.06
259.849	179.06
260.081	182.06
260.314	195.06
260.547	208.06
260.779	194.06
261.012	198.06
261.244	190.06
261.477	197.06
261.71	197.06
261.942	185.06
262.175	192.06
262.407	184.06
262.64	186.06
262.872	179.06
263.105	185.06
263.337	165.06
263.57	176.06
263.802	176.06
264.035	184.06
264.267	168.06
264.499	165.06
264.732	171.06
264.964	171.06
265.197	183.06
265.429	189.06
265.661	167.06
265.894	168.06
266.126	178.06
266.358	188.06
266.591	171.06
266.823	188.06
267.055	185.06
267.287	185.06
267.52	194.06
267.752	180.06
267.984	173.06
268.216	197.06
268.448	217.06
268.681	207.06
268.913	206.06
269.145	226.06
269.377	229.06
269.609	217.06
269.841	220.06
270.073	224.06
270.306	263.06
270.538	255.06
270.77	259.06
271.002	259.06
271.234	242.06
271.466	237.06
271.698	258.06
271.93	255.06
272.162	260.06
272.394	258.06
272.626	238.06
272.858	235.06
273.09	227.06
273.322	229.06
273.553	233.06
273.785	222.06
274.017	210.06
274.249	206.06
274.481	206.06
274.713	217.06
274.945	205.06
275.176	220.06
275.408	213.06
275.64	215.06
275.872	221.06
276.104	200.06
276.335	219.06
276.567	207.06
276.799	237.06
277.031	252.06
277.262	256.06
277.494	259.06
277.726	248.06
277.957	214.06
278.189	222.06
278.421	218.06
278.652	204.06
278.884	221.06
279.115	208.06
279.347	218.06
279.579	220.06
279.81	190.06
280.042	202.06
280.273	234.06
280.505	227.06
280.736	217.06
280.968	208.06
281.199	227.06
281.431	213.06
281.662	223.06
281.894	215.06
282.125	210.06
282.356	239.06
282.588	226.06
282.819	240.06
283.051	215.06
283.282	194.06
283.513	207.06
283.745	242.06
283.976	215.06
284.207	221.06
284.439	216.06
284.67	222.06
284.901	211.06
285.132	215.06
285.364	197.06
285.595	232.06
285.826	222.06
286.057	217.06
286.288	224.06
286.52	232.06
286.751	218.06
286.982	233.06
287.213	222.06
287.444	224.06
287.675	217.06
287.906	235.06
288.138	231.06
288.369	225.06
288.6	220.06
288.831	229.06
289.062	235.06
289.293	231.06
289.524	238.06
289.755	227.06
289.986	210.06
290.217	218.06
290.448	241.06
290.679	237.06
290.91	215.06
291.141	212.06
291.371	217.06
291.602	235.06
291.833	226.06
292.064	230.06
292.295	228.06
292.526	246.06
292.757	233.06
292.987	232.06
293.218	223.06
293.449	214.06
293.68	232.06
293.91	218.06
294.141	232.06
294.372	226.06
294.603	234.06
294.833	238.06
295.064	222.06
295.295	234.06
295.525	234.06
295.756	236.06
295.987	248.06
296.217	262.06
296.448	272.06
296.679	235.06
296.909	241.06
297.14	228.06
297.37	230.06
297.601	241.06
297.831	233.06
298.062	219.06
298.292	244.06
298.523	242.06
298.753	224.06
298.984	233.06
299.214	220.06
299.445	230.06
299.675	246.06
299.905	237.06
300.136	233.06
300.366	258.06
300.597	242.06
300.827	261.06
301.057	255.06
301.288	261.06
301.518	241.06
301.748	257.06
301.979	258.06
302.209	259.06
302.439	243.06
302.669	259.06
302.9	242.06
303.13	258.06
303.36	256.06
303.59	251.06
303.82	260.06
304.051	257.06
304.281	264.06
304.511	254.06
304.741	263.06
304.971	259.06
305.201	264.06
305.431	258.06
305.661	252.06
305.891	251.06
306.121	256.06
306.352	250.06
306.582	257.06
306.812	250.06
307.042	270.06
307.272	270.06
307.502	267.06
307.731	249.06
307.961	259.06
308.191	270.06
308.421	249.06
308.651	257.06
308.881	265.06
309.111	263.06
309.341	281.06
309.571	273.06
309.8	296.06
310.03	311.06
310.26	299.06
310.49	292.06
310.72	295.06
310.949	332.06
311.179	315.06
311.409	293.06
311.639	306.06
311.868	286.06
312.098	304.06
312.328	324.06
312.557	329.06
312.787	306.06
313.017	316.06
313.246	296.06
313.476	280.06
313.706	304.06
313.935	325.06
314.165	302.06
314.394	301.06
314.624	314.06
314.853	309.06
315.083	292.06
315.312	296.06
315.542	313.06
315.771	285.06
316.001	289.06
316.23	288.06
316.46	290.06
316.689	307.06
316.919	309.06
317.148	303.06
317.377	306.06
317.607	304.06
317.836	284.06
318.065	290.06
318.295	280.06
318.524	293.06
318.753	306.06
318.983	309.06
319.212	290.06
319.441	320.06
319.67	299.06
319.9	306.06
320.129	293.06
320.358	295.06
320.587	305.06
320.816	310.06
321.046	323.06
321.275	322.06
321.504	329.06
321.733	327.06
321.962	338.06
322.191	338.06
322.42	357.06
322.649	374.06
322.878	358.06
323.108	390.06
323.337	420.06
323.566	427.06
323.795	442.06
324.024	495.06
324.253	646.06
324.482	938.06
324.71	1423.06
324.939	1850.06
325.168	1469.06
325.397	782.06
325.626	546.06
325.855	464.06
326.084	424.06
326.313	402.06
326.542	454.06
326.77	477.06
326.999	596.06
327.228	829.06
327.457	1186.06
327.686	1336.06
327.914	896.06
328.143	586.06
328.372	514.06
328.6	481.06
328.829	456.06
329.058	461.06
329.287	460.06
329.515	432.06
329.744	429.06
329.972	432.06
330.201	443.06
330.43	456.06
330.658	493.06
330.887	487.06
331.115	475.06
331.344	412.06
331.572	371.06
331.801	382.06
332.03	385.06
332.258	370.06
332.486	347.06
332.715	340.06
332.943	353.06
333.172	348.06
333.4	338.06
333.629	355.06
333.857	363.06
334.085	371.06
334.314	400.06
334.542	420.06
334.771	388.06
334.999	377.06
335.227	351.06
335.455	346.06
335.684	337.06
335.912	341.06
336.14	323.06
336.369	336.06
336.597	363.06
336.825	352.06
337.053	358.06
337.281	339.06
337.51	345.06
337.738	344.06
337.966	329.06
338.194	340.06
338.422	327.06
338.65	310.06
338.878	328.06
339.106	348.06
339.334	310.06
339.562	323.06
339.79	302.06
340.018	318.06
340.246	330.06
340.474	337.06
340.702	333.06
340.93	321.06
341.158	321.06
341.386	312.06
341.614	325.06
341.842	338.06
342.07	333.06
342.298	317.06
342.526	332.06
342.754	308.06
342.981	316.06
343.209	310.06
343.437	333.06
343.665	321.06
343.893	301.06
344.12	332.06
344.348	328.06
344.576	307.06
344.804	336.06
345.031	346.06
345.259	343.06
345.487	324.06
345.714	329.06
345.942	312.06
346.17	312.06
346.397	325.06
346.625	327.06
346.853	306.06
347.08	308.06
347.308	334.06
347.535	337.06
347.763	331.06
347.99	322.06
348.218	323.06
348.445	321.06
348.673	328.06
348.9	320.06
349.128	311.06
349.355	283.06
349.583	315.06
349.81	294.06
350.037	316.06
350.265	300.06
350.492	308.06
350.72	309.06
350.947	324.06
351.174	321.06
351.402	317.06
351.629	319.06
351.856	316.06
352.083	334.06
352.311	356.06
352.538	320.06
352.765	333.06
352.992	308.06
353.22	323.06
353.447	301.06
353.674	306.06
353.901	282.06
354.128	279.06
354.355	288.06
354.583	290.06
354.81	299.06
355.037	281.06
355.264	304.06
355.491	295.06
355.718	278.06
355.945	284.06
356.172	280.06
356.399	282.06
356.626	265.06
356.853	283.06
357.08	278.06
357.307	281.06
357.534	271.06
357.761	300.06
357.988	296.06
358.215	281.06
358.441	294.06
358.668	278.06
358.895	278.06
359.122	276.06
359.349	305.06
359.576	308.06
359.802	340.06
360.029	345.06
360.256	366.06
360.483	348.06
360.709	310.06
360.936	300.06
361.163	316.06
361.39	290.06
361.616	316.06
361.843	291.06
362.07	309.06
362.296	326.06
362.523	294.06
362.749	301.06
362.976	300.06
363.203	289.06
363.429	295.06
363.656	296.06
363.882	295.06
364.109	302.06
364.335	288.06
364.562	288.06
364.788	293.06
365.015	294.06
365.241	292.06
365.468	304.06
365.694	301.06
365.92	308.06
366.147	289.06
366.373	286.06
366.599	284.06
366.826	290.06
367.052	295.06
367.278	294.06
367.505	265.06
367.731	279.06
367.957	286.06
368.184	276.06
368.41	285.06
368.636	283.06
368.862	289.06
369.089	292.06
369.315	294.06
369.541	270.06
369.767	288.06
369.993	276.06
370.219	277.06
370.445	291.06
370.672	288.06
370.898	278.06
371.124	286.06
371.35	275.06
371.576	274.06
371.802	267.06
372.028	279.06
372.254	284.06
372.48	301.06
372.706	272.06
372.932	277.06
373.158	294.06
373.384	286.06
373.61	277.06
373.835	288.06
374.061	287.06
374.287	288.06
374.513	294.06
374.739	286.06
374.965	284.06
375.191	288.06
375.416	270.06
375.642	301.06
375.868	269.06
376.094	285.06
376.319	249.06
376.545	280.06
376.771	291.06
376.997	278.06
377.222	299.06
377.448	293.06
377.674	271.06
377.899	275.06
378.125	271.06
378.35	285.06
378.576	288.06
378.802	286.06
379.027	278.06
379.253	283.06
379.478	270.06
379.704	270.06
379.929	278.06
380.155	266.06
380.38	270.06
380.606	289.06
380.831	284.06
381.057	284.06
381.282	281.06
381.507	273.06
381.733	266.06
381.958	259.06
382.184	270.06
382.409	307.06
382.634	284.06
382.86	262.06
383.085	274.06
383.31	274.06
383.535	276.06
383.761	290.06
383.986	285.06
384.211	275.06
384.436	267.06
384.662	288.06
384.887	270.06
385.112	296.06
385.337	282.06
385.562	282.06
385.787	310.06
386.013	297.06
386.238	289.06
386.463	302.06
386.688	289.06
386.913	291.06
387.138	285.06
387.363	263.06
387.588	284.06
387.813	298.06
388.038	282.06
388.263	300.06
388.488	279.06
388.713	285.06
388.938	304.06
389.163	293.06
389.387	286.06
389.612	280.06
389.837	289.06
390.062	268.06
390.287	285.06
390.512	284.06
390.736	273.06
390.961	283.06
391.186	299.06
391.411	308.06
391.636	288.06
391.86	280.06
392.085	279.06
392.31	292.06
392.534	299.06
392.759	290.06
392.984	271.06
393.208	282.06
393.433	313.06
393.658	284.06
393.882	306.06
394.107	290.06
394.331	285.06
394.556	301.06
394.78	289.06
395.005	296.06
395.229	276.06
395.454	304.06
395.678	311.06
395.903	317.06
396.127	325.06
396.352	313.06
396.576	305.06
396.801	312.06
397.025	299.06
397.249	300.06
397.474	310.06
397.698	336.06
397.922	326.06
398.147	313.06
398.371	320.06
398.595	305.06
398.82	318.06
399.044	315.06
399.268	318.06
399.492	340.06
399.717	337.06
399.941	375.06
400.165	385.06
400.389	392.06
400.613	367.06
400.837	330.06
401.062	320.06
401.286	320.06
401.51	330.06
401.734	330.06
401.958	310.06
402.182	312.06
402.406	331.06
402.63	344.06
402.854	314.06
403.078	320.06
403.302	324.06
403.526	328.06
403.75	337.06
403.974	336.06
404.198	332.06
404.422	337.06
404.645	331.06
404.869	341.06
405.093	362.06
405.317	387.06
405.541	384.06
405.765	344.06
405.988	335.06
406.212	359.06
406.436	355.06
406.66	385.06
406.883	360.06
407.107	377.06
407.331	398.06
407.555	448.06
407.778	439.06
408.002	400.06
408.226	374.06
408.449	367.06
408.673	359.06
408.896	356.06
409.12	369.06
409.344	390.06
409.567	352.06
409.791	338.06
410.014	331.06
410.238	333.06
410.461	329.06
410.685	336.06
410.908	340.06
411.132	368.06
411.355	384.06
411.578	377.06
411.802	349.06
412.025	341.06
412.249	328.06
412.472	325.06
412.695	394.06
412.919	357.06
413.142	336.06
413.365	327.06
413.589	324.06
413.812	304.06
414.035	322.06
414.258	306.06
414.482	312.06
414.705	322.06
414.928	312.06
415.151	300.06
415.374	306.06
415.597	327.06
415.821	283.06
416.044	318.06
416.267	322.06
416.49	312.06
416.713	285.06
416.936	305.06
417.159	304.06
417.382	297.06
417.605	330.06
417.828	332.06
418.051	328.06
418.274	333.06
418.497	320.06
418.72	310.06
418.943	308.06
419.166	323.06
419.389	326.06
419.611	328.06
419.834	321.06
420.057	326.06
420.28	328.06
420.503	323.06
420.726	346.06
420.948	351.06
421.171	372.06
421.394	399.06
421.617	344.06
421.839	322.06
422.062	326.06
422.285	365.06
422.507	377.06
422.73	408.06
422.953	399.06
423.175	357.06
423.398	336.06
423.621	347.06
423.843	355.06
424.066	344.06
424.288	369.06
424.511	363.06
424.733	420.06
424.956	446.06
425.178	417.06
425.401	422.06
425.623	437.06
425.846	372.06
426.068	380.06
426.291	372.06
426.513	377.06
426.735	372.06
426.958	390.06
427.18	449.06
427.402	536.06
427.625	598.06
427.847	497.06
428.069	457.06
428.292	387.06
428.514	360.06
428.736	338.06
428.958	336.06
429.181	332.06
429.403	310.06
429.625	346.06
429.847	361.06
430.069	406.06
430.292	388.06
430.514	353.06
430.736	342.06
430.958	329.06
431.18	343.06
431.402	316.06
431.624	294.06
431.846	324.06
432.068	314.06
432.29	309.06
432.512	320.06
432.734	322.06
432.956	303.06
433.178	314.06
433.4	339.06
433.622	314.06
433.844	318.06
434.066	309.06
434.287	314.06
434.509	305.06
434.731	334.06
434.953	328.06
435.175	326.06
435.397	337.06
435.618	348.06
435.84	395.06
436.062	455.06
436.284	478.06
436.505	410.06
436.727	388.06
436.949	333.06
437.17	323.06
437.392	346.06
437.614	347.06
437.835	371.06
438.057	452.06
438.278	502.06
438.5	492.06
438.721	544.06
438.943	517.06
439.165	423.06
439.386	378.06
439.608	384.06
439.829	386.06
440.05	386.06
440.272	456.06
440.493	381.06
440.715	361.06
440.936	338.06
441.158	341.06
441.379	337.06
441.6	336.06
441.822	345.06
442.043	376.06
442.264	448.06
442.486	472.06
442.707	397.06
442.928	376.06
443.149	376.06
443.371	386.06
443.592	433.06
443.813	490.06
444.034	518.06
444.255	423.06
444.476	379.06
444.698	349.06
444.919	346.06
445.14	453.06
445.361	401.06
445.582	380.06
445.803	455.06
446.024	504.06
446.245	511.06
446.466	449.06
446.687	386.06
446.908	393.06
447.129	355.06
447.35	328.06
447.571	346.06
447.792	335.06
448.013	347.06
448.234	352.06
448.455	391.06
448.675	458.06
448.896	516.06
449.117	462.06
449.338	458.06
449.559	493.06
449.779	536.06
450	440.06
450.221	382.06
450.442	345.06
450.662	340.06
450.883	338.06
451.104	364.06
451.324	342.06
451.545	324.06
451.766	313.06
451.986	308.06
452.207	313.06
452.428	298.06
452.648	295.06
452.869	301.06
453.089	312.06
453.31	326.06
453.53	332.06
453.751	306.06
453.971	288.06
454.192	314.06
454.412	299.06
454.633	298.06
454.853	295.06
455.073	297.06
455.294	323.06
455.514	369.06
455.734	359.06
455.955	324.06
456.175	306.06
456.395	294.06
456.616	288.06
456.836	282.06
457.056	287.06
457.276	269.06
457.497	257.06
457.717	275.06
457.937	276.06
458.157	289.06
458.377	297.06
458.598	306.06
458.818	361.06
459.038	419.06
459.258	420.06
459.478	351.06
459.698	326.06
459.918	300.06
460.138	301.06
460.358	313.06
460.578	325.06
460.798	302.06
461.018	301.06
461.238	320.06
461.458	313.06
461.678	297.06
461.898	288.06
462.118	297.06
462.338	300.06
462.558	312.06
462.777	311.06
462.997	333.06
463.217	311.06
463.437	313.06
463.657	341.06
463.876	308.06
464.096	310.06
464.316	316.06
464.536	324.06
464.755	320.06
464.975	338.06
465.195	356.06
465.414	438.06
465.634	379.06
465.854	334.06
466.073	326.06
466.293	319.06
466.512	300.06
466.732	300.06
466.951	283.06
467.171	300.06
467.391	298.06
467.61	322.06
467.829	296.06
468.049	326.06
468.268	310.06
468.488	292.06
468.707	300.06
468.927	292.06
469.146	304.06
469.365	292.06
469.585	280.06
469.804	288.06
470.023	301.06
470.243	301.06
470.462	306.06
470.681	322.06
470.901	313.06
471.12	309.06
471.339	302.06
471.558	305.06
471.777	309.06
471.997	286.06
472.216	311.06
472.435	351.06
472.654	330.06
472.873	306.06
473.092	300.06
473.311	308.06
473.53	311.06
473.749	311.06
473.968	355.06
474.187	437.06
474.406	444.06
474.625	344.06
474.844	322.06
475.063	321.06
475.282	313.06
475.501	316.06
475.72	293.06
475.939	323.06
476.158	312.06
476.377	312.06
476.596	337.06
476.814	334.06
477.033	325.06
477.252	311.06
477.471	327.06
477.69	317.06
477.908	312.06
478.127	323.06
478.346	325.06
478.564	330.06
478.783	334.06
479.002	333.06
479.22	339.06
479.439	339.06
479.658	362.06
479.876	357.06
480.095	349.06
480.313	381.06
480.532	359.06
480.751	368.06
480.969	384.06
481.188	427.06
481.406	443.06
481.624	408.06
481.843	366.06
482.061	356.06
482.28	370.06
482.498	370.06
482.717	359.06
482.935	353.06
483.153	359.06
483.372	352.06
483.59	344.06
483.808	336.06
484.027	376.06
484.245	361.06
484.463	354.06
484.681	373.06
484.9	364.06
485.118	355.06
485.336	376.06
485.554	359.06
485.772	366.06
485.99	348.06
486.209	365.06
486.427	364.06
486.645	363.06
486.863	408.06
487.081	377.06
487.299	397.06
487.517	377.06
487.735	377.06
487.953	378.06
488.171	378.06
488.389	366.06
488.607	405.06
488.825	387.06
489.043	377.06
489.261	376.06
489.479	377.06
489.696	390.06
489.914	386.06
490.132	390.06
490.35	404.06
490.568	397.06
490.786	388.06
491.003	431.06
491.221	421.06
491.439	424.06
491.657	427.06
491.874	434.06
492.092	441.06
492.31	458.06
492.527	419.06
492.745	445.06
492.963	421.06
493.18	436.06
493.398	436.06
493.615	427.06
493.833	441.06
494.05	455.06
494.268	449.06
494.485	433.06
494.703	436.06
494.92	436.06
495.138	434.06
495.355	450.06
495.573	444.06
495.79	432.06
496.008	441.06
496.225	451.06
496.442	449.06
496.66	444.06
496.877	437.06
497.094	438.06
497.312	461.06
497.529	466.06
497.746	450.06
497.963	461.06
498.181	486.06
498.398	457.06
498.615	490.06
498.832	503.06
499.049	490.06
499.267	473.06
499.484	498.06
499.701	500.06
499.918	522.06
500.135	537.06
500.352	556.06
500.569	566.06
500.786	550.06
501.003	544.06
501.22	544.06
501.437	535.06
501.654	550.06
501.871	536.06
502.088	518.06
