Data from 1982.PennyLincolnUp.Lamp.En5.5.200Scan.071819.P1_HRD10591_16-45-03-961.txt Node
Date: Thu Jul 18 16:45:03 EDT 2019
User: cochatt
Spectrometer: HR+D1059
Trigger mode: 1
Integration Time (sec): 1.000000E-1
Scans to average: 1
Electric dark correction enabled: true
Nonlinearity correction enabled: false
Boxcar width: 0
XAxis mode: Wavelengths
Number of Pixels in Spectrum: 2048
>>>>>Begin Spectral Data<<<<<
223.165	-15.88
223.4	-15.88
223.635	-15.88
223.869	-13.88
224.104	-9.88
224.338	-9.88
224.573	-17.88
224.808	-14.88
225.042	-7.88
225.277	-10.88
225.511	-7.88
225.746	-6.88
225.98	14.12
226.215	18.12
226.449	20.12
226.683	24.12
226.918	9.12
227.152	30.12
227.387	28.12
227.621	31.12
227.856	47.12
228.09	35.12
228.324	40.12
228.559	40.12
228.793	59.12
229.027	87.12
229.262	92.12
229.496	102.12
229.73	94.12
229.964	109.12
230.199	103.12
230.433	103.12
230.667	104.12
230.901	82.12
231.136	93.12
231.37	82.12
231.604	91.12
231.838	99.12
232.072	115.12
232.306	93.12
232.541	92.12
232.775	90.12
233.009	107.12
233.243	97.12
233.477	112.12
233.711	98.12
233.945	98.12
234.179	97.12
234.413	113.12
234.647	99.12
234.881	95.12
235.115	102.12
235.349	104.12
235.583	110.12
235.817	104.12
236.051	106.12
236.285	96.12
236.519	102.12
236.753	104.12
236.987	123.12
237.221	132.12
237.455	140.12
237.689	138.12
237.922	107.12
238.156	127.12
238.39	104.12
238.624	99.12
238.858	85.12
239.091	107.12
239.325	101.12
239.559	97.12
239.793	96.12
240.027	99.12
240.26	117.12
240.494	121.12
240.728	118.12
240.961	130.12
241.195	118.12
241.429	107.12
241.662	108.12
241.896	105.12
242.13	108.12
242.363	113.12
242.597	101.12
242.83	114.12
243.064	105.12
243.298	123.12
243.531	102.12
243.765	107.12
243.998	117.12
244.232	113.12
244.465	120.12
244.699	104.12
244.932	108.12
245.166	114.12
245.399	112.12
245.633	114.12
245.866	108.12
246.099	126.12
246.333	102.12
246.566	120.12
246.8	120.12
247.033	132.12
247.266	114.12
247.5	123.12
247.733	122.12
247.966	140.12
248.2	131.12
248.433	133.12
248.666	147.12
248.899	146.12
249.133	160.12
249.366	145.12
249.599	146.12
249.832	159.12
250.066	140.12
250.299	134.12
250.532	149.12
250.765	150.12
250.998	140.12
251.231	176.12
251.465	157.12
251.698	164.12
251.931	148.12
252.164	147.12
252.397	143.12
252.63	153.12
252.863	160.12
253.096	153.12
253.329	165.12
253.562	176.12
253.795	151.12
254.028	157.12
254.261	172.12
254.494	177.12
254.727	198.12
254.96	193.12
255.193	189.12
255.426	168.12
255.659	161.12
255.892	181.12
256.124	181.12
256.357	171.12
256.59	171.12
256.823	155.12
257.056	159.12
257.289	152.12
257.521	158.12
257.754	153.12
257.987	162.12
258.22	149.12
258.452	161.12
258.685	151.12
258.918	167.12
259.151	156.12
259.383	155.12
259.616	166.12
259.849	162.12
260.081	166.12
260.314	169.12
260.547	166.12
260.779	179.12
261.012	156.12
261.244	172.12
261.477	179.12
261.71	160.12
261.942	164.12
262.175	170.12
262.407	176.12
262.64	149.12
262.872	160.12
263.105	160.12
263.337	167.12
263.57	159.12
263.802	139.12
264.035	159.12
264.267	148.12
264.499	171.12
264.732	170.12
264.964	146.12
265.197	146.12
265.429	156.12
265.661	157.12
265.894	148.12
266.126	161.12
266.358	173.12
266.591	145.12
266.823	165.12
267.055	169.12
267.287	151.12
267.52	164.12
267.752	158.12
267.984	174.12
268.216	173.12
268.448	168.12
268.681	153.12
268.913	172.12
269.145	191.12
269.377	173.12
269.609	188.12
269.841	186.12
270.073	194.12
270.306	197.12
270.538	218.12
270.77	219.12
271.002	223.12
271.234	206.12
271.466	213.12
271.698	212.12
271.93	217.12
272.162	228.12
272.394	214.12
272.626	218.12
272.858	192.12
273.09	193.12
273.322	185.12
273.553	186.12
273.785	192.12
274.017	204.12
274.249	187.12
274.481	182.12
274.713	201.12
274.945	188.12
275.176	192.12
275.408	178.12
275.64	205.12
275.872	186.12
276.104	189.12
276.335	212.12
276.567	193.12
276.799	204.12
277.031	204.12
277.262	243.12
277.494	221.12
277.726	210.12
277.957	189.12
278.189	178.12
278.421	204.12
278.652	192.12
278.884	208.12
279.115	183.12
279.347	188.12
279.579	178.12
279.81	200.12
280.042	192.12
280.273	186.12
280.505	176.12
280.736	191.12
280.968	183.12
281.199	174.12
281.431	189.12
281.662	176.12
281.894	194.12
282.125	191.12
282.356	206.12
282.588	206.12
282.819	194.12
283.051	183.12
283.282	187.12
283.513	187.12
283.745	192.12
283.976	196.12
284.207	193.12
284.439	178.12
284.67	181.12
284.901	182.12
285.132	195.12
285.364	195.12
285.595	194.12
285.826	171.12
286.057	201.12
286.288	193.12
286.52	191.12
286.751	192.12
286.982	198.12
287.213	197.12
287.444	204.12
287.675	195.12
287.906	212.12
288.138	194.12
288.369	203.12
288.6	209.12
288.831	192.12
289.062	217.12
289.293	200.12
289.524	210.12
289.755	185.12
289.986	198.12
290.217	206.12
290.448	219.12
290.679	195.12
290.91	200.12
291.141	190.12
291.371	205.12
291.602	211.12
291.833	202.12
292.064	184.12
292.295	205.12
292.526	195.12
292.757	194.12
292.987	199.12
293.218	199.12
293.449	221.12
293.68	215.12
293.91	204.12
294.141	210.12
294.372	195.12
294.603	192.12
294.833	195.12
295.064	205.12
295.295	200.12
295.525	208.12
295.756	199.12
295.987	216.12
296.217	228.12
296.448	205.12
296.679	206.12
296.909	204.12
297.14	209.12
297.37	199.12
297.601	216.12
297.831	218.12
298.062	210.12
298.292	196.12
298.523	222.12
298.753	201.12
298.984	205.12
299.214	209.12
299.445	212.12
299.675	218.12
299.905	237.12
300.136	212.12
300.366	219.12
300.597	212.12
300.827	203.12
301.057	224.12
301.288	225.12
301.518	229.12
301.748	220.12
301.979	212.12
302.209	232.12
302.439	228.12
302.669	206.12
302.9	224.12
303.13	231.12
303.36	241.12
303.59	234.12
303.82	236.12
304.051	206.12
304.281	228.12
304.511	201.12
304.741	224.12
304.971	222.12
305.201	232.12
305.431	219.12
305.661	216.12
305.891	218.12
306.121	227.12
306.352	234.12
306.582	216.12
306.812	221.12
307.042	238.12
307.272	218.12
307.502	241.12
307.731	241.12
307.961	230.12
308.191	225.12
308.421	235.12
308.651	231.12
308.881	237.12
309.111	233.12
309.341	231.12
309.571	252.12
309.8	256.12
310.03	246.12
310.26	260.12
310.49	266.12
310.72	272.12
310.949	242.12
311.179	280.12
311.409	243.12
311.639	260.12
311.868	266.12
312.098	253.12
312.328	260.12
312.557	268.12
312.787	270.12
313.017	279.12
313.246	266.12
313.476	251.12
313.706	257.12
313.935	262.12
314.165	256.12
314.394	265.12
314.624	264.12
314.853	250.12
315.083	267.12
315.312	253.12
315.542	246.12
315.771	259.12
316.001	247.12
316.23	259.12
316.46	264.12
316.689	258.12
316.919	250.12
317.148	265.12
317.377	251.12
317.607	270.12
317.836	268.12
318.065	243.12
318.295	268.12
318.524	270.12
318.753	252.12
318.983	256.12
319.212	245.12
319.441	245.12
319.67	253.12
319.9	236.12
320.129	243.12
320.358	266.12
320.587	260.12
320.816	261.12
321.046	265.12
321.275	261.12
321.504	263.12
321.733	256.12
321.962	280.12
322.191	299.12
322.42	277.12
322.649	304.12
322.878	305.12
323.108	300.12
323.337	326.12
323.566	338.12
323.795	354.12
324.024	381.12
324.253	479.12
324.482	692.12
324.71	995.12
324.939	1303.12
325.168	1041.12
325.397	573.12
325.626	432.12
325.855	362.12
326.084	308.12
326.313	320.12
326.542	337.12
326.77	356.12
326.999	425.12
327.228	606.12
327.457	857.12
327.686	948.12
327.914	634.12
328.143	458.12
328.372	403.12
328.6	390.12
328.829	363.12
329.058	360.12
329.287	348.12
329.515	361.12
329.744	332.12
329.972	318.12
330.201	337.12
330.43	368.12
330.658	371.12
330.887	395.12
331.115	379.12
331.344	332.12
331.572	324.12
331.801	312.12
332.03	321.12
332.258	318.12
332.486	290.12
332.715	290.12
332.943	305.12
333.172	279.12
333.4	295.12
333.629	313.12
333.857	317.12
334.085	324.12
334.314	318.12
334.542	332.12
334.771	322.12
334.999	309.12
335.227	303.12
335.455	296.12
335.684	300.12
335.912	284.12
336.14	283.12
336.369	292.12
336.597	299.12
336.825	293.12
337.053	302.12
337.281	277.12
337.51	277.12
337.738	284.12
337.966	285.12
338.194	294.12
338.422	282.12
338.65	281.12
338.878	289.12
339.106	268.12
339.334	291.12
339.562	255.12
339.79	267.12
340.018	293.12
340.246	269.12
340.474	292.12
340.702	292.12
340.93	283.12
341.158	284.12
341.386	283.12
341.614	297.12
341.842	274.12
342.07	281.12
342.298	268.12
342.526	283.12
342.754	283.12
342.981	259.12
343.209	270.12
343.437	266.12
343.665	278.12
343.893	261.12
344.12	288.12
344.348	292.12
344.576	284.12
344.804	301.12
345.031	308.12
345.259	306.12
345.487	291.12
345.714	276.12
345.942	281.12
346.17	270.12
346.397	275.12
346.625	284.12
346.853	264.12
347.08	260.12
347.308	268.12
347.535	272.12
347.763	283.12
347.99	280.12
348.218	290.12
348.445	289.12
348.673	270.12
348.9	267.12
349.128	263.12
349.355	268.12
349.583	276.12
349.81	276.12
350.037	261.12
350.265	262.12
350.492	265.12
350.72	265.12
350.947	260.12
351.174	251.12
351.402	270.12
351.629	282.12
351.856	289.12
352.083	284.12
352.311	285.12
352.538	267.12
352.765	285.12
352.992	285.12
353.22	277.12
353.447	275.12
353.674	276.12
353.901	274.12
354.128	275.12
354.355	264.12
354.583	256.12
354.81	265.12
355.037	254.12
355.264	251.12
355.491	246.12
355.718	246.12
355.945	243.12
356.172	243.12
356.399	242.12
356.626	254.12
356.853	256.12
357.08	245.12
357.307	261.12
357.534	243.12
357.761	257.12
357.988	244.12
358.215	256.12
358.441	240.12
358.668	245.12
358.895	253.12
359.122	249.12
359.349	275.12
359.576	266.12
359.802	288.12
360.029	301.12
360.256	304.12
360.483	278.12
360.709	267.12
360.936	289.12
361.163	264.12
361.39	269.12
361.616	273.12
361.843	274.12
362.07	254.12
362.296	264.12
362.523	253.12
362.749	280.12
362.976	289.12
363.203	261.12
363.429	269.12
363.656	262.12
363.882	249.12
364.109	255.12
364.335	249.12
364.562	256.12
364.788	251.12
365.015	266.12
365.241	269.12
365.468	259.12
365.694	276.12
365.92	255.12
366.147	269.12
366.373	267.12
366.599	260.12
366.826	244.12
367.052	261.12
367.278	273.12
367.505	230.12
367.731	249.12
367.957	245.12
368.184	229.12
368.41	249.12
368.636	272.12
368.862	268.12
369.089	264.12
369.315	241.12
369.541	262.12
369.767	248.12
369.993	249.12
370.219	256.12
370.445	269.12
370.672	258.12
370.898	240.12
371.124	265.12
371.35	260.12
371.576	258.12
371.802	247.12
372.028	246.12
372.254	262.12
372.48	267.12
372.706	257.12
372.932	252.12
373.158	260.12
373.384	257.12
373.61	236.12
373.835	248.12
374.061	256.12
374.287	257.12
374.513	267.12
374.739	249.12
374.965	248.12
375.191	239.12
375.416	237.12
375.642	244.12
375.868	260.12
376.094	259.12
376.319	241.12
376.545	246.12
376.771	262.12
376.997	246.12
377.222	253.12
377.448	245.12
377.674	249.12
377.899	256.12
378.125	252.12
378.35	254.12
378.576	256.12
378.802	242.12
379.027	249.12
379.253	253.12
379.478	245.12
379.704	268.12
379.929	247.12
380.155	248.12
380.38	243.12
380.606	243.12
380.831	261.12
381.057	257.12
381.282	248.12
381.507	258.12
381.733	245.12
381.958	251.12
382.184	259.12
382.409	257.12
382.634	274.12
382.86	260.12
383.085	258.12
383.31	246.12
383.535	242.12
383.761	264.12
383.986	259.12
384.211	274.12
384.436	248.12
384.662	258.12
384.887	261.12
385.112	265.12
385.337	259.12
385.562	256.12
385.787	259.12
386.013	296.12
386.238	289.12
386.463	276.12
386.688	262.12
386.913	265.12
387.138	246.12
387.363	259.12
387.588	259.12
387.813	266.12
388.038	260.12
388.263	246.12
388.488	265.12
388.713	264.12
388.938	268.12
389.163	227.12
389.387	263.12
389.612	266.12
389.837	268.12
390.062	256.12
390.287	256.12
390.512	275.12
390.736	266.12
390.961	249.12
391.186	242.12
391.411	259.12
391.636	258.12
391.86	264.12
392.085	265.12
392.31	269.12
392.534	274.12
392.759	269.12
392.984	269.12
393.208	270.12
393.433	281.12
393.658	275.12
393.882	266.12
394.107	273.12
394.331	267.12
394.556	260.12
394.78	257.12
395.005	243.12
395.229	234.12
395.454	284.12
395.678	288.12
395.903	265.12
396.127	290.12
396.352	291.12
396.576	271.12
396.801	258.12
397.025	273.12
397.249	271.12
397.474	293.12
397.698	283.12
397.922	275.12
398.147	277.12
398.371	293.12
398.595	260.12
398.82	288.12
399.044	277.12
399.268	289.12
399.492	302.12
399.717	299.12
399.941	349.12
400.165	341.12
400.389	342.12
400.613	322.12
400.837	314.12
401.062	317.12
401.286	282.12
401.51	298.12
401.734	305.12
401.958	291.12
402.182	280.12
402.406	294.12
402.63	306.12
402.854	293.12
403.078	332.12
403.302	307.12
403.526	296.12
403.75	288.12
403.974	290.12
404.198	314.12
404.422	312.12
404.645	278.12
404.869	275.12
405.093	316.12
405.317	330.12
405.541	336.12
405.765	320.12
405.988	316.12
406.212	313.12
406.436	314.12
406.66	344.12
406.883	338.12
407.107	328.12
407.331	366.12
407.555	386.12
407.778	382.12
408.002	352.12
408.226	322.12
408.449	313.12
408.673	312.12
408.896	355.12
409.12	361.12
409.344	341.12
409.567	305.12
409.791	310.12
410.014	307.12
410.238	299.12
410.461	297.12
410.685	322.12
410.908	300.12
411.132	328.12
411.355	340.12
411.578	328.12
411.802	300.12
412.025	305.12
412.249	299.12
412.472	296.12
412.695	333.12
412.919	304.12
413.142	291.12
413.365	276.12
413.589	293.12
413.812	286.12
414.035	278.12
414.258	281.12
414.482	283.12
414.705	280.12
414.928	289.12
415.151	287.12
415.374	274.12
415.597	265.12
415.821	268.12
416.044	276.12
416.267	283.12
416.49	287.12
416.713	287.12
416.936	270.12
417.159	294.12
417.382	281.12
417.605	277.12
417.828	291.12
418.051	307.12
418.274	285.12
418.497	272.12
418.72	283.12
418.943	258.12
419.166	284.12
419.389	281.12
419.611	300.12
419.834	286.12
420.057	283.12
420.28	290.12
420.503	298.12
420.726	292.12
420.948	308.12
421.171	326.12
421.394	333.12
421.617	324.12
421.839	285.12
422.062	297.12
422.285	293.12
422.507	319.12
422.73	384.12
422.953	352.12
423.175	297.12
423.398	301.12
423.621	328.12
423.843	306.12
424.066	329.12
424.288	322.12
424.511	333.12
424.733	332.12
424.956	384.12
425.178	383.12
425.401	384.12
425.623	389.12
425.846	339.12
426.068	290.12
426.291	314.12
426.513	316.12
426.735	324.12
426.958	318.12
427.18	391.12
427.402	467.12
427.625	464.12
427.847	432.12
428.069	374.12
428.292	334.12
428.514	328.12
428.736	313.12
428.958	314.12
429.181	306.12
429.403	293.12
429.625	294.12
429.847	333.12
430.069	366.12
430.292	344.12
430.514	318.12
430.736	285.12
430.958	277.12
431.18	282.12
431.402	281.12
431.624	284.12
431.846	269.12
432.068	276.12
432.29	293.12
432.512	289.12
432.734	296.12
432.956	285.12
433.178	276.12
433.4	281.12
433.622	285.12
433.844	279.12
434.066	282.12
434.287	290.12
434.509	294.12
434.731	285.12
434.953	292.12
435.175	295.12
435.397	326.12
435.618	326.12
435.84	342.12
436.062	388.12
436.284	416.12
436.505	365.12
436.727	326.12
436.949	299.12
437.17	317.12
437.392	293.12
437.614	320.12
437.835	320.12
438.057	374.12
438.278	427.12
438.5	418.12
438.721	462.12
438.943	446.12
439.165	365.12
439.386	322.12
439.608	318.12
439.829	320.12
440.05	332.12
440.272	352.12
440.493	335.12
440.715	334.12
440.936	291.12
441.158	285.12
441.379	281.12
441.6	289.12
441.822	309.12
442.043	351.12
442.264	384.12
442.486	399.12
442.707	349.12
442.928	340.12
443.149	330.12
443.371	349.12
443.592	345.12
443.813	426.12
444.034	425.12
444.255	348.12
444.476	338.12
444.698	309.12
444.919	306.12
445.14	381.12
445.361	357.12
445.582	335.12
445.803	377.12
446.024	423.12
446.245	437.12
446.466	396.12
446.687	339.12
446.908	306.12
447.129	310.12
447.35	302.12
447.571	295.12
447.792	294.12
448.013	297.12
448.234	304.12
448.455	347.12
448.675	410.12
448.896	444.12
449.117	378.12
449.338	385.12
449.559	418.12
449.779	472.12
450	381.12
450.221	336.12
450.442	290.12
450.662	267.12
450.883	296.12
451.104	303.12
451.324	286.12
451.545	289.12
451.766	268.12
451.986	283.12
452.207	275.12
452.428	259.12
452.648	283.12
452.869	270.12
453.089	278.12
453.31	256.12
453.53	277.12
453.751	261.12
453.971	270.12
454.192	284.12
454.412	254.12
454.633	273.12
454.853	253.12
455.073	281.12
455.294	279.12
455.514	313.12
455.734	310.12
455.955	257.12
456.175	258.12
456.395	258.12
456.616	258.12
456.836	226.12
457.056	260.12
457.276	259.12
457.497	267.12
457.717	277.12
457.937	252.12
458.157	253.12
458.377	245.12
458.598	282.12
458.818	308.12
459.038	339.12
459.258	328.12
459.478	298.12
459.698	276.12
459.918	275.12
460.138	278.12
460.358	275.12
460.578	260.12
460.798	285.12
461.018	268.12
461.238	280.12
461.458	282.12
461.678	288.12
461.898	283.12
462.118	278.12
462.338	275.12
462.558	270.12
462.777	280.12
462.997	286.12
463.217	288.12
463.437	291.12
463.657	283.12
463.876	305.12
464.096	281.12
464.316	293.12
464.536	308.12
464.755	312.12
464.975	291.12
465.195	324.12
465.414	358.12
465.634	314.12
465.854	311.12
466.073	288.12
466.293	301.12
466.512	273.12
466.732	261.12
466.951	289.12
467.171	280.12
467.391	276.12
467.61	271.12
467.829	282.12
468.049	266.12
468.268	286.12
468.488	270.12
468.707	263.12
468.927	261.12
469.146	268.12
469.365	277.12
469.585	256.12
469.804	266.12
470.023	272.12
470.243	261.12
470.462	278.12
470.681	265.12
470.901	278.12
471.12	278.12
471.339	277.12
471.558	280.12
471.777	270.12
471.997	266.12
472.216	254.12
472.435	305.12
472.654	284.12
472.873	276.12
473.092	272.12
473.311	285.12
473.53	286.12
473.749	269.12
473.968	322.12
474.187	362.12
474.406	370.12
474.625	302.12
474.844	302.12
475.063	276.12
475.282	277.12
475.501	284.12
475.72	300.12
475.939	287.12
476.158	291.12
476.377	278.12
476.596	286.12
476.814	276.12
477.033	305.12
477.252	291.12
477.471	288.12
477.69	300.12
477.908	311.12
478.127	294.12
478.346	291.12
478.564	320.12
478.783	297.12
479.002	301.12
479.22	324.12
479.439	324.12
479.658	310.12
479.876	311.12
480.095	310.12
480.313	334.12
480.532	332.12
480.751	309.12
480.969	318.12
481.188	343.12
481.406	368.12
481.624	342.12
481.843	318.12
482.061	307.12
482.28	301.12
482.498	315.12
482.717	341.12
482.935	315.12
483.153	328.12
483.372	316.12
483.59	309.12
483.808	315.12
484.027	323.12
484.245	313.12
484.463	320.12
484.681	334.12
484.9	312.12
485.118	317.12
485.336	327.12
485.554	325.12
485.772	321.12
485.99	321.12
486.209	325.12
486.427	326.12
486.645	332.12
486.863	337.12
487.081	346.12
487.299	329.12
487.517	334.12
487.735	339.12
487.953	342.12
488.171	325.12
488.389	322.12
488.607	316.12
488.825	344.12
489.043	343.12
489.261	320.12
489.479	337.12
489.696	322.12
489.914	344.12
490.132	348.12
490.35	349.12
490.568	357.12
490.786	360.12
491.003	375.12
491.221	374.12
491.439	351.12
491.657	361.12
491.874	392.12
492.092	387.12
492.31	384.12
492.527	381.12
492.745	390.12
492.963	374.12
493.18	398.12
493.398	372.12
493.615	380.12
493.833	376.12
494.05	385.12
494.268	384.12
494.485	392.12
494.703	378.12
494.92	378.12
495.138	382.12
495.355	403.12
495.573	403.12
495.79	392.12
496.008	396.12
496.225	371.12
496.442	408.12
496.66	389.12
496.877	388.12
497.094	382.12
497.312	410.12
497.529	390.12
497.746	382.12
497.963	412.12
498.181	410.12
498.398	430.12
498.615	438.12
498.832	453.12
499.049	470.12
499.267	423.12
499.484	438.12
499.701	456.12
499.918	509.12
500.135	468.12
500.352	510.12
500.569	514.12
500.786	515.12
501.003	515.12
501.22	498.12
501.437	488.12
501.654	464.12
501.871	483.12
502.088	470.12
502.305	452.12
