Data from 1982.PennyLincolnUp.Lamp.En5.5.200Scan.071819.P1_HRD10591_16-44-39-961.txt Node
Date: Thu Jul 18 16:44:39 EDT 2019
User: cochatt
Spectrometer: HR+D1059
Trigger mode: 1
Integration Time (sec): 1.000000E-1
Scans to average: 1
Electric dark correction enabled: true
Nonlinearity correction enabled: false
Boxcar width: 0
XAxis mode: Wavelengths
Number of Pixels in Spectrum: 2048
>>>>>Begin Spectral Data<<<<<
223.165	-18.94
223.4	-18.94
223.635	-18.94
223.869	-9.94
224.104	-17.94
224.338	7.06
224.573	-15.94
224.808	-7.94
225.042	-6.94
225.277	-17.94
225.511	-2.94
225.746	-7.94
225.98	15.06
226.215	11.06
226.449	16.06
226.683	16.06
226.918	22.06
227.152	19.06
227.387	33.06
227.621	31.06
227.856	38.06
228.09	44.06
228.324	45.06
228.559	68.06
228.793	61.06
229.027	69.06
229.262	83.06
229.496	101.06
229.73	110.06
229.964	104.06
230.199	87.06
230.433	87.06
230.667	98.06
230.901	87.06
231.136	84.06
231.37	97.06
231.604	100.06
231.838	103.06
232.072	87.06
232.306	98.06
232.541	91.06
232.775	104.06
233.009	98.06
233.243	86.06
233.477	99.06
233.711	89.06
233.945	94.06
234.179	86.06
234.413	94.06
234.647	93.06
234.881	103.06
235.115	94.06
235.349	89.06
235.583	101.06
235.817	95.06
236.051	97.06
236.285	108.06
236.519	109.06
236.753	82.06
236.987	102.06
237.221	129.06
237.455	155.06
237.689	139.06
237.922	108.06
238.156	100.06
238.39	112.06
238.624	98.06
238.858	105.06
239.091	92.06
239.325	88.06
239.559	99.06
239.793	117.06
240.027	110.06
240.26	118.06
240.494	121.06
240.728	102.06
240.961	117.06
241.195	104.06
241.429	117.06
241.662	105.06
241.896	109.06
242.13	97.06
242.363	95.06
242.597	87.06
242.83	111.06
243.064	114.06
243.298	102.06
243.531	94.06
243.765	91.06
243.998	95.06
244.232	89.06
244.465	94.06
244.699	114.06
244.932	117.06
245.166	103.06
245.399	114.06
245.633	119.06
245.866	113.06
246.099	110.06
246.333	115.06
246.566	96.06
246.8	122.06
247.033	120.06
247.266	121.06
247.5	122.06
247.733	131.06
247.966	128.06
248.2	142.06
248.433	136.06
248.666	129.06
248.899	123.06
249.133	127.06
249.366	160.06
249.599	144.06
249.832	145.06
250.066	152.06
250.299	144.06
250.532	140.06
250.765	144.06
250.998	169.06
251.231	159.06
251.465	149.06
251.698	149.06
251.931	138.06
252.164	143.06
252.397	142.06
252.63	129.06
252.863	168.06
253.096	157.06
253.329	158.06
253.562	171.06
253.795	153.06
254.028	147.06
254.261	158.06
254.494	154.06
254.727	177.06
254.96	181.06
255.193	168.06
255.426	163.06
255.659	135.06
255.892	153.06
256.124	162.06
256.357	157.06
256.59	148.06
256.823	151.06
257.056	151.06
257.289	148.06
257.521	155.06
257.754	147.06
257.987	133.06
258.22	157.06
258.452	141.06
258.685	144.06
258.918	136.06
259.151	142.06
259.383	149.06
259.616	147.06
259.849	169.06
260.081	174.06
260.314	169.06
260.547	167.06
260.779	164.06
261.012	181.06
261.244	147.06
261.477	160.06
261.71	175.06
261.942	156.06
262.175	169.06
262.407	172.06
262.64	164.06
262.872	152.06
263.105	156.06
263.337	152.06
263.57	157.06
263.802	143.06
264.035	168.06
264.267	151.06
264.499	138.06
264.732	141.06
264.964	155.06
265.197	161.06
265.429	167.06
265.661	156.06
265.894	160.06
266.126	161.06
266.358	160.06
266.591	156.06
266.823	156.06
267.055	154.06
267.287	160.06
267.52	162.06
267.752	179.06
267.984	165.06
268.216	173.06
268.448	171.06
268.681	162.06
268.913	175.06
269.145	180.06
269.377	181.06
269.609	174.06
269.841	190.06
270.073	185.06
270.306	210.06
270.538	217.06
270.77	192.06
271.002	212.06
271.234	201.06
271.466	218.06
271.698	213.06
271.93	216.06
272.162	203.06
272.394	201.06
272.626	192.06
272.858	203.06
273.09	185.06
273.322	198.06
273.553	178.06
273.785	193.06
274.017	182.06
274.249	189.06
274.481	191.06
274.713	194.06
274.945	192.06
275.176	195.06
275.408	187.06
275.64	177.06
275.872	190.06
276.104	192.06
276.335	199.06
276.567	194.06
276.799	196.06
277.031	207.06
277.262	221.06
277.494	232.06
277.726	197.06
277.957	204.06
278.189	199.06
278.421	209.06
278.652	195.06
278.884	208.06
279.115	212.06
279.347	225.06
279.579	275.06
279.81	323.06
280.042	294.06
280.273	276.06
280.505	252.06
280.736	259.06
280.968	196.06
281.199	201.06
281.431	178.06
281.662	194.06
281.894	200.06
282.125	188.06
282.356	207.06
282.588	213.06
282.819	220.06
283.051	199.06
283.282	191.06
283.513	182.06
283.745	199.06
283.976	189.06
284.207	192.06
284.439	189.06
284.67	203.06
284.901	218.06
285.132	196.06
285.364	205.06
285.595	214.06
285.826	200.06
286.057	192.06
286.288	193.06
286.52	193.06
286.751	203.06
286.982	201.06
287.213	193.06
287.444	221.06
287.675	214.06
287.906	214.06
288.138	225.06
288.369	216.06
288.6	213.06
288.831	197.06
289.062	206.06
289.293	198.06
289.524	200.06
289.755	203.06
289.986	182.06
290.217	205.06
290.448	188.06
290.679	209.06
290.91	187.06
291.141	205.06
291.371	194.06
291.602	214.06
291.833	179.06
292.064	186.06
292.295	193.06
292.526	198.06
292.757	183.06
292.987	203.06
293.218	188.06
293.449	204.06
293.68	206.06
293.91	205.06
294.141	206.06
294.372	201.06
294.603	216.06
294.833	195.06
295.064	198.06
295.295	194.06
295.525	189.06
295.756	209.06
295.987	210.06
296.217	221.06
296.448	220.06
296.679	201.06
296.909	193.06
297.14	208.06
297.37	194.06
297.601	217.06
297.831	213.06
298.062	217.06
298.292	224.06
298.523	224.06
298.753	222.06
298.984	217.06
299.214	198.06
299.445	223.06
299.675	200.06
299.905	226.06
300.136	220.06
300.366	213.06
300.597	214.06
300.827	213.06
301.057	217.06
301.288	227.06
301.518	219.06
301.748	225.06
301.979	224.06
302.209	236.06
302.439	228.06
302.669	231.06
302.9	221.06
303.13	220.06
303.36	224.06
303.59	230.06
303.82	225.06
304.051	250.06
304.281	223.06
304.511	223.06
304.741	205.06
304.971	203.06
305.201	228.06
305.431	237.06
305.661	226.06
305.891	210.06
306.121	233.06
306.352	252.06
306.582	246.06
306.812	217.06
307.042	220.06
307.272	245.06
307.502	237.06
307.731	230.06
307.961	237.06
308.191	221.06
308.421	235.06
308.651	232.06
308.881	251.06
309.111	252.06
309.341	240.06
309.571	258.06
309.8	260.06
310.03	251.06
310.26	260.06
310.49	277.06
310.72	277.06
310.949	270.06
311.179	263.06
311.409	269.06
311.639	275.06
311.868	272.06
312.098	285.06
312.328	259.06
312.557	297.06
312.787	290.06
313.017	286.06
313.246	277.06
313.476	248.06
313.706	262.06
313.935	278.06
314.165	281.06
314.394	283.06
314.624	279.06
314.853	278.06
315.083	258.06
315.312	253.06
315.542	258.06
315.771	260.06
316.001	272.06
316.23	247.06
316.46	255.06
316.689	276.06
316.919	271.06
317.148	260.06
317.377	271.06
317.607	271.06
317.836	278.06
318.065	269.06
318.295	262.06
318.524	275.06
318.753	254.06
318.983	254.06
319.212	264.06
319.441	275.06
319.67	270.06
319.9	259.06
320.129	271.06
320.358	265.06
320.587	288.06
320.816	268.06
321.046	287.06
321.275	303.06
321.504	268.06
321.733	278.06
321.962	291.06
322.191	287.06
322.42	308.06
322.649	303.06
322.878	331.06
323.108	339.06
323.337	364.06
323.566	385.06
323.795	398.06
324.024	452.06
324.253	559.06
324.482	878.06
324.71	1301.06
324.939	1653.06
325.168	1297.06
325.397	678.06
325.626	478.06
325.855	391.06
326.084	359.06
326.313	374.06
326.542	396.06
326.77	424.06
326.999	548.06
327.228	762.06
327.457	1058.06
327.686	1176.06
327.914	774.06
328.143	509.06
328.372	450.06
328.6	409.06
328.829	413.06
329.058	428.06
329.287	427.06
329.515	405.06
329.744	351.06
329.972	347.06
330.201	363.06
330.43	399.06
330.658	423.06
330.887	467.06
331.115	418.06
331.344	372.06
331.572	342.06
331.801	351.06
332.03	335.06
332.258	331.06
332.486	316.06
332.715	321.06
332.943	303.06
333.172	306.06
333.4	312.06
333.629	306.06
333.857	316.06
334.085	319.06
334.314	321.06
334.542	325.06
334.771	330.06
334.999	331.06
335.227	323.06
335.455	292.06
335.684	307.06
335.912	296.06
336.14	292.06
336.369	326.06
336.597	294.06
336.825	302.06
337.053	305.06
337.281	284.06
337.51	313.06
337.738	299.06
337.966	288.06
338.194	304.06
338.422	303.06
338.65	281.06
338.878	299.06
339.106	279.06
339.334	296.06
339.562	266.06
339.79	281.06
340.018	280.06
340.246	282.06
340.474	290.06
340.702	291.06
340.93	292.06
341.158	303.06
341.386	307.06
341.614	288.06
341.842	301.06
342.07	297.06
342.298	269.06
342.526	263.06
342.754	271.06
342.981	275.06
343.209	274.06
343.437	276.06
343.665	289.06
343.893	277.06
344.12	287.06
344.348	285.06
344.576	294.06
344.804	291.06
345.031	305.06
345.259	311.06
345.487	326.06
345.714	295.06
345.942	303.06
346.17	302.06
346.397	273.06
346.625	272.06
346.853	285.06
347.08	292.06
347.308	284.06
347.535	293.06
347.763	287.06
347.99	291.06
348.218	292.06
348.445	293.06
348.673	273.06
348.9	283.06
349.128	275.06
349.355	269.06
349.583	258.06
349.81	266.06
350.037	264.06
350.265	267.06
350.492	273.06
350.72	286.06
350.947	267.06
351.174	278.06
351.402	275.06
351.629	283.06
351.856	317.06
352.083	300.06
352.311	301.06
352.538	300.06
352.765	299.06
352.992	295.06
353.22	281.06
353.447	286.06
353.674	266.06
353.901	279.06
354.128	273.06
354.355	270.06
354.583	265.06
354.81	257.06
355.037	251.06
355.264	263.06
355.491	274.06
355.718	256.06
355.945	249.06
356.172	232.06
356.399	264.06
356.626	259.06
356.853	259.06
357.08	262.06
357.307	255.06
357.534	265.06
357.761	255.06
357.988	270.06
358.215	252.06
358.441	253.06
358.668	263.06
358.895	265.06
359.122	287.06
359.349	275.06
359.576	285.06
359.802	281.06
360.029	325.06
360.256	321.06
360.483	323.06
360.709	274.06
360.936	294.06
361.163	299.06
361.39	269.06
361.616	276.06
361.843	296.06
362.07	296.06
362.296	296.06
362.523	268.06
362.749	281.06
362.976	262.06
363.203	284.06
363.429	265.06
363.656	269.06
363.882	267.06
364.109	261.06
364.335	255.06
364.562	287.06
364.788	249.06
365.015	263.06
365.241	262.06
365.468	268.06
365.694	265.06
365.92	278.06
366.147	251.06
366.373	271.06
366.599	244.06
366.826	257.06
367.052	246.06
367.278	267.06
367.505	235.06
367.731	268.06
367.957	257.06
368.184	253.06
368.41	258.06
368.636	265.06
368.862	258.06
369.089	255.06
369.315	249.06
369.541	264.06
369.767	261.06
369.993	263.06
370.219	258.06
370.445	259.06
370.672	251.06
370.898	231.06
371.124	256.06
371.35	258.06
371.576	273.06
371.802	262.06
372.028	262.06
372.254	263.06
372.48	249.06
372.706	264.06
372.932	255.06
373.158	260.06
373.384	262.06
373.61	262.06
373.835	255.06
374.061	239.06
374.287	259.06
374.513	286.06
374.739	277.06
374.965	259.06
375.191	241.06
375.416	257.06
375.642	251.06
375.868	262.06
376.094	275.06
376.319	251.06
376.545	255.06
376.771	255.06
376.997	251.06
377.222	248.06
377.448	261.06
377.674	244.06
377.899	238.06
378.125	227.06
378.35	259.06
378.576	256.06
378.802	256.06
379.027	244.06
379.253	248.06
379.478	261.06
379.704	241.06
379.929	256.06
380.155	257.06
380.38	231.06
380.606	254.06
380.831	243.06
381.057	252.06
381.282	260.06
381.507	263.06
381.733	252.06
381.958	255.06
382.184	263.06
382.409	251.06
382.634	254.06
382.86	262.06
383.085	273.06
383.31	269.06
383.535	257.06
383.761	274.06
383.986	283.06
384.211	255.06
384.436	240.06
384.662	255.06
384.887	262.06
385.112	259.06
385.337	283.06
385.562	275.06
385.787	271.06
386.013	286.06
386.238	269.06
386.463	283.06
386.688	264.06
386.913	253.06
387.138	255.06
387.363	255.06
387.588	250.06
387.813	264.06
388.038	276.06
388.263	287.06
388.488	262.06
388.713	269.06
388.938	259.06
389.163	283.06
389.387	239.06
389.612	261.06
389.837	248.06
390.062	243.06
390.287	268.06
390.512	260.06
390.736	262.06
390.961	268.06
391.186	257.06
391.411	259.06
391.636	263.06
391.86	287.06
392.085	279.06
392.31	269.06
392.534	270.06
392.759	264.06
392.984	272.06
393.208	288.06
393.433	348.06
393.658	345.06
393.882	287.06
394.107	276.06
394.331	248.06
394.556	278.06
394.78	275.06
395.005	289.06
395.229	269.06
395.454	276.06
395.678	264.06
395.903	290.06
396.127	295.06
396.352	279.06
396.576	296.06
396.801	309.06
397.025	317.06
397.249	307.06
397.474	294.06
397.698	281.06
397.922	295.06
398.147	269.06
398.371	273.06
398.595	263.06
398.82	287.06
399.044	288.06
399.268	297.06
399.492	303.06
399.717	328.06
399.941	327.06
400.165	341.06
400.389	336.06
400.613	311.06
400.837	310.06
401.062	318.06
401.286	292.06
401.51	278.06
401.734	282.06
401.958	282.06
402.182	292.06
402.406	319.06
402.63	307.06
402.854	301.06
403.078	292.06
403.302	312.06
403.526	301.06
403.75	278.06
403.974	299.06
404.198	275.06
404.422	285.06
404.645	308.06
404.869	304.06
405.093	324.06
405.317	318.06
405.541	351.06
405.765	319.06
405.988	306.06
406.212	308.06
406.436	315.06
406.66	353.06
406.883	324.06
407.107	326.06
407.331	350.06
407.555	385.06
407.778	391.06
408.002	333.06
408.226	334.06
408.449	348.06
408.673	336.06
408.896	348.06
409.12	351.06
409.344	343.06
409.567	319.06
409.791	313.06
410.014	292.06
410.238	297.06
410.461	293.06
410.685	293.06
410.908	304.06
411.132	333.06
411.355	339.06
411.578	343.06
411.802	311.06
412.025	298.06
412.249	295.06
412.472	306.06
412.695	327.06
412.919	297.06
413.142	279.06
413.365	282.06
413.589	267.06
413.812	276.06
414.035	280.06
414.258	295.06
414.482	286.06
414.705	297.06
414.928	280.06
415.151	277.06
415.374	283.06
415.597	281.06
415.821	279.06
416.044	280.06
416.267	284.06
416.49	285.06
416.713	274.06
416.936	272.06
417.159	285.06
417.382	296.06
417.605	304.06
417.828	283.06
418.051	296.06
418.274	293.06
418.497	275.06
418.72	274.06
418.943	271.06
419.166	294.06
419.389	301.06
419.611	312.06
419.834	293.06
420.057	281.06
420.28	279.06
420.503	276.06
420.726	287.06
420.948	303.06
421.171	328.06
421.394	321.06
421.617	306.06
421.839	281.06
422.062	299.06
422.285	304.06
422.507	344.06
422.73	388.06
422.953	358.06
423.175	334.06
423.398	294.06
423.621	314.06
423.843	294.06
424.066	305.06
424.288	319.06
424.511	337.06
424.733	365.06
424.956	416.06
425.178	401.06
425.401	391.06
425.623	398.06
425.846	320.06
426.068	311.06
426.291	309.06
426.513	319.06
426.735	314.06
426.958	355.06
427.18	390.06
427.402	470.06
427.625	527.06
427.847	457.06
428.069	379.06
428.292	354.06
428.514	321.06
428.736	309.06
428.958	320.06
429.181	307.06
429.403	290.06
429.625	308.06
429.847	343.06
430.069	363.06
430.292	366.06
430.514	323.06
430.736	315.06
430.958	288.06
431.18	276.06
431.402	289.06
431.624	287.06
431.846	287.06
432.068	264.06
432.29	292.06
432.512	280.06
432.734	270.06
432.956	276.06
433.178	274.06
433.4	296.06
433.622	278.06
433.844	276.06
434.066	291.06
434.287	269.06
434.509	275.06
434.731	280.06
434.953	277.06
435.175	296.06
435.397	291.06
435.618	334.06
435.84	367.06
436.062	406.06
436.284	425.06
436.505	361.06
436.727	335.06
436.949	293.06
437.17	303.06
437.392	288.06
437.614	309.06
437.835	332.06
438.057	380.06
438.278	447.06
438.5	441.06
438.721	443.06
438.943	433.06
439.165	364.06
439.386	344.06
439.608	331.06
439.829	327.06
440.05	357.06
440.272	383.06
440.493	382.06
440.715	334.06
440.936	300.06
441.158	298.06
441.379	294.06
441.6	310.06
441.822	328.06
442.043	364.06
442.264	398.06
442.486	412.06
442.707	361.06
442.928	328.06
443.149	337.06
443.371	336.06
443.592	359.06
443.813	437.06
444.034	436.06
444.255	364.06
444.476	322.06
444.698	301.06
444.919	319.06
445.14	399.06
445.361	344.06
445.582	365.06
445.803	395.06
446.024	447.06
446.245	454.06
446.466	407.06
446.687	355.06
446.908	319.06
447.129	314.06
447.35	292.06
447.571	297.06
447.792	299.06
448.013	333.06
448.234	333.06
448.455	341.06
448.675	412.06
448.896	461.06
449.117	395.06
449.338	381.06
449.559	469.06
449.779	502.06
450	401.06
450.221	352.06
450.442	306.06
450.662	305.06
450.883	301.06
451.104	325.06
451.324	288.06
451.545	285.06
451.766	277.06
451.986	285.06
452.207	265.06
452.428	273.06
452.648	277.06
452.869	269.06
453.089	275.06
453.31	272.06
453.53	271.06
453.751	275.06
453.971	294.06
454.192	300.06
454.412	265.06
454.633	274.06
454.853	281.06
455.073	289.06
455.294	285.06
455.514	335.06
455.734	323.06
455.955	270.06
456.175	273.06
456.395	262.06
456.616	242.06
456.836	264.06
457.056	254.06
457.276	259.06
457.497	265.06
457.717	270.06
457.937	259.06
458.157	270.06
458.377	264.06
458.598	299.06
458.818	345.06
459.038	374.06
459.258	369.06
459.478	311.06
459.698	293.06
459.918	277.06
460.138	277.06
460.358	281.06
460.578	276.06
460.798	284.06
461.018	290.06
461.238	284.06
461.458	268.06
461.678	285.06
461.898	269.06
462.118	284.06
462.338	273.06
462.558	277.06
462.777	303.06
462.997	287.06
463.217	275.06
463.437	319.06
463.657	290.06
463.876	298.06
464.096	300.06
464.316	305.06
464.536	307.06
464.755	281.06
464.975	308.06
465.195	357.06
465.414	400.06
465.634	344.06
465.854	305.06
466.073	302.06
466.293	284.06
466.512	273.06
466.732	288.06
466.951	287.06
467.171	275.06
467.391	269.06
467.61	291.06
467.829	291.06
468.049	288.06
468.268	258.06
468.488	270.06
468.707	261.06
468.927	285.06
469.146	275.06
469.365	270.06
469.585	276.06
469.804	296.06
470.023	285.06
470.243	281.06
470.462	280.06
470.681	293.06
470.901	285.06
471.12	273.06
471.339	270.06
471.558	278.06
471.777	281.06
471.997	277.06
472.216	287.06
472.435	284.06
472.654	284.06
472.873	274.06
473.092	264.06
473.311	281.06
473.53	261.06
473.749	299.06
473.968	317.06
474.187	376.06
474.406	374.06
474.625	324.06
474.844	277.06
475.063	288.06
475.282	290.06
475.501	276.06
475.72	272.06
475.939	265.06
476.158	294.06
476.377	291.06
476.596	275.06
476.814	289.06
477.033	299.06
477.252	277.06
477.471	297.06
477.69	286.06
477.908	283.06
478.127	306.06
478.346	311.06
478.564	303.06
478.783	335.06
479.002	321.06
479.22	319.06
479.439	321.06
479.658	338.06
479.876	317.06
480.095	343.06
480.313	350.06
480.532	344.06
480.751	336.06
480.969	348.06
481.188	356.06
481.406	355.06
481.624	345.06
481.843	328.06
482.061	314.06
482.28	320.06
482.498	327.06
482.717	336.06
482.935	326.06
483.153	333.06
483.372	304.06
483.59	326.06
483.808	320.06
484.027	314.06
484.245	322.06
484.463	332.06
484.681	337.06
484.9	319.06
485.118	339.06
485.336	339.06
485.554	333.06
485.772	320.06
485.99	321.06
486.209	322.06
486.427	324.06
486.645	358.06
486.863	357.06
487.081	356.06
487.299	352.06
487.517	358.06
487.735	337.06
487.953	370.06
488.171	367.06
488.389	341.06
488.607	336.06
488.825	355.06
489.043	344.06
489.261	360.06
489.479	337.06
489.696	317.06
489.914	348.06
490.132	339.06
490.35	344.06
490.568	361.06
490.786	372.06
491.003	361.06
491.221	373.06
491.439	379.06
491.657	371.06
491.874	387.06
492.092	373.06
492.31	390.06
492.527	405.06
492.745	390.06
492.963	400.06
493.18	401.06
493.398	390.06
493.615	389.06
493.833	391.06
494.05	402.06
494.268	384.06
494.485	388.06
494.703	386.06
494.92	381.06
495.138	408.06
495.355	405.06
495.573	398.06
495.79	426.06
496.008	395.06
496.225	403.06
496.442	378.06
496.66	389.06
496.877	391.06
497.094	410.06
497.312	412.06
497.529	394.06
497.746	411.06
497.963	412.06
498.181	444.06
498.398	449.06
498.615	440.06
498.832	453.06
499.049	443.06
499.267	440.06
499.484	429.06
499.701	463.06
499.918	483.06
500.135	498.06
500.352	517.06
500.569	494.06
500.786	534.06
501.003	516.06
501.22	494.06
501.437	496.06
501.654	485.06
501.871	480.06
502.088	492.06
502.305	468.06
502.522	443.06
