Data from 1982.PennyLincolnUp.Lamp.En5.5.200Scan.071819.P1_HRD10591_16-46-16-961.txt Node
Date: Thu Jul 18 16:46:16 EDT 2019
User: cochatt
Spectrometer: HR+D1059
Trigger mode: 1
Integration Time (sec): 1.000000E-1
Scans to average: 1
Electric dark correction enabled: true
Nonlinearity correction enabled: false
Boxcar width: 0
XAxis mode: Wavelengths
Number of Pixels in Spectrum: 2048
>>>>>Begin Spectral Data<<<<<
223.165	-24.88
223.4	-24.88
223.635	-24.88
223.869	-21.88
224.104	-28.88
224.338	1.12
224.573	-18.88
224.808	-11.88
225.042	-6.88
225.277	-4.88
225.511	8.12
225.746	3.12
225.98	11.12
226.215	12.12
226.449	22.12
226.683	11.12
226.918	14.12
227.152	35.12
227.387	25.12
227.621	38.12
227.856	51.12
228.09	44.12
228.324	60.12
228.559	60.12
228.793	60.12
229.027	85.12
229.262	92.12
229.496	100.12
229.73	107.12
229.964	123.12
230.199	109.12
230.433	101.12
230.667	100.12
230.901	102.12
231.136	97.12
231.37	114.12
231.604	83.12
231.838	99.12
232.072	91.12
232.306	99.12
232.541	101.12
232.775	101.12
233.009	89.12
233.243	108.12
233.477	94.12
233.711	96.12
233.945	90.12
234.179	96.12
234.413	117.12
234.647	96.12
234.881	105.12
235.115	94.12
235.349	97.12
235.583	107.12
235.817	103.12
236.051	96.12
236.285	99.12
236.519	108.12
236.753	115.12
236.987	123.12
237.221	149.12
237.455	181.12
237.689	144.12
237.922	112.12
238.156	120.12
238.39	106.12
238.624	109.12
238.858	104.12
239.091	87.12
239.325	100.12
239.559	101.12
239.793	109.12
240.027	111.12
240.26	122.12
240.494	133.12
240.728	117.12
240.961	118.12
241.195	114.12
241.429	123.12
241.662	131.12
241.896	118.12
242.13	107.12
242.363	103.12
242.597	108.12
242.83	115.12
243.064	120.12
243.298	119.12
243.531	114.12
243.765	100.12
243.998	106.12
244.232	113.12
244.465	108.12
244.699	131.12
244.932	107.12
245.166	111.12
245.399	131.12
245.633	118.12
245.866	120.12
246.099	115.12
246.333	124.12
246.566	113.12
246.8	123.12
247.033	123.12
247.266	112.12
247.5	131.12
247.733	139.12
247.966	132.12
248.2	116.12
248.433	136.12
248.666	148.12
248.899	164.12
249.133	165.12
249.366	149.12
249.599	152.12
249.832	133.12
250.066	145.12
250.299	133.12
250.532	156.12
250.765	168.12
250.998	160.12
251.231	168.12
251.465	165.12
251.698	158.12
251.931	155.12
252.164	170.12
252.397	166.12
252.63	157.12
252.863	164.12
253.096	173.12
253.329	183.12
253.562	181.12
253.795	169.12
254.028	186.12
254.261	165.12
254.494	172.12
254.727	191.12
254.96	188.12
255.193	210.12
255.426	205.12
255.659	191.12
255.892	186.12
256.124	167.12
256.357	185.12
256.59	179.12
256.823	172.12
257.056	160.12
257.289	165.12
257.521	167.12
257.754	163.12
257.987	163.12
258.22	173.12
258.452	157.12
258.685	177.12
258.918	153.12
259.151	163.12
259.383	167.12
259.616	173.12
259.849	181.12
260.081	199.12
260.314	210.12
260.547	195.12
260.779	185.12
261.012	175.12
261.244	173.12
261.477	173.12
261.71	170.12
261.942	184.12
262.175	202.12
262.407	177.12
262.64	178.12
262.872	163.12
263.105	164.12
263.337	159.12
263.57	149.12
263.802	168.12
264.035	180.12
264.267	161.12
264.499	172.12
264.732	183.12
264.964	175.12
265.197	172.12
265.429	172.12
265.661	175.12
265.894	169.12
266.126	178.12
266.358	150.12
266.591	164.12
266.823	179.12
267.055	185.12
267.287	183.12
267.52	183.12
267.752	175.12
267.984	177.12
268.216	180.12
268.448	177.12
268.681	176.12
268.913	205.12
269.145	198.12
269.377	197.12
269.609	205.12
269.841	199.12
270.073	201.12
270.306	234.12
270.538	228.12
270.77	226.12
271.002	232.12
271.234	221.12
271.466	229.12
271.698	228.12
271.93	239.12
272.162	228.12
272.394	241.12
272.626	221.12
272.858	211.12
273.09	213.12
273.322	210.12
273.553	205.12
273.785	208.12
274.017	194.12
274.249	217.12
274.481	210.12
274.713	202.12
274.945	204.12
275.176	202.12
275.408	213.12
275.64	197.12
275.872	206.12
276.104	207.12
276.335	208.12
276.567	232.12
276.799	197.12
277.031	230.12
277.262	241.12
277.494	239.12
277.726	234.12
277.957	218.12
278.189	195.12
278.421	202.12
278.652	211.12
278.884	202.12
279.115	190.12
279.347	186.12
279.579	203.12
279.81	194.12
280.042	214.12
280.273	189.12
280.505	194.12
280.736	202.12
280.968	194.12
281.199	205.12
281.431	213.12
281.662	211.12
281.894	205.12
282.125	212.12
282.356	202.12
282.588	221.12
282.819	237.12
283.051	217.12
283.282	204.12
283.513	204.12
283.745	187.12
283.976	217.12
284.207	196.12
284.439	219.12
284.67	204.12
284.901	213.12
285.132	204.12
285.364	211.12
285.595	209.12
285.826	209.12
286.057	210.12
286.288	197.12
286.52	210.12
286.751	204.12
286.982	222.12
287.213	208.12
287.444	202.12
287.675	220.12
287.906	219.12
288.138	234.12
288.369	221.12
288.6	211.12
288.831	211.12
289.062	210.12
289.293	226.12
289.524	215.12
289.755	220.12
289.986	205.12
290.217	212.12
290.448	215.12
290.679	199.12
290.91	223.12
291.141	194.12
291.371	215.12
291.602	189.12
291.833	210.12
292.064	216.12
292.295	222.12
292.526	201.12
292.757	217.12
292.987	212.12
293.218	219.12
293.449	211.12
293.68	216.12
293.91	216.12
294.141	218.12
294.372	200.12
294.603	219.12
294.833	195.12
295.064	220.12
295.295	231.12
295.525	211.12
295.756	229.12
295.987	218.12
296.217	248.12
296.448	253.12
296.679	228.12
296.909	219.12
297.14	235.12
297.37	229.12
297.601	220.12
297.831	227.12
298.062	227.12
298.292	204.12
298.523	228.12
298.753	218.12
298.984	226.12
299.214	217.12
299.445	220.12
299.675	228.12
299.905	223.12
300.136	225.12
300.366	240.12
300.597	239.12
300.827	239.12
301.057	252.12
301.288	251.12
301.518	242.12
301.748	255.12
301.979	260.12
302.209	245.12
302.439	256.12
302.669	239.12
302.9	243.12
303.13	225.12
303.36	243.12
303.59	251.12
303.82	263.12
304.051	271.12
304.281	253.12
304.511	245.12
304.741	256.12
304.971	237.12
305.201	246.12
305.431	233.12
305.661	246.12
305.891	234.12
306.121	253.12
306.352	265.12
306.582	250.12
306.812	255.12
307.042	237.12
307.272	240.12
307.502	241.12
307.731	237.12
307.961	230.12
308.191	248.12
308.421	242.12
308.651	247.12
308.881	253.12
309.111	262.12
309.341	265.12
309.571	265.12
309.8	289.12
310.03	274.12
310.26	285.12
310.49	285.12
310.72	299.12
310.949	293.12
311.179	297.12
311.409	287.12
311.639	279.12
311.868	281.12
312.098	276.12
312.328	269.12
312.557	304.12
312.787	310.12
313.017	304.12
313.246	293.12
313.476	284.12
313.706	283.12
313.935	294.12
314.165	287.12
314.394	297.12
314.624	300.12
314.853	284.12
315.083	259.12
315.312	263.12
315.542	285.12
315.771	287.12
316.001	272.12
316.23	269.12
316.46	289.12
316.689	258.12
316.919	296.12
317.148	289.12
317.377	290.12
317.607	295.12
317.836	281.12
318.065	278.12
318.295	269.12
318.524	283.12
318.753	255.12
318.983	282.12
319.212	284.12
319.441	284.12
319.67	291.12
319.9	291.12
320.129	278.12
320.358	272.12
320.587	291.12
320.816	283.12
321.046	292.12
321.275	290.12
321.504	303.12
321.733	305.12
321.962	325.12
322.191	324.12
322.42	358.12
322.649	337.12
322.878	375.12
323.108	356.12
323.337	353.12
323.566	395.12
323.795	415.12
324.024	473.12
324.253	577.12
324.482	870.12
324.71	1270.12
324.939	1649.12
325.168	1335.12
325.397	722.12
325.626	507.12
325.855	420.12
326.084	417.12
326.313	390.12
326.542	401.12
326.77	433.12
326.999	534.12
327.228	756.12
327.457	1032.12
327.686	1203.12
327.914	797.12
328.143	554.12
328.372	470.12
328.6	457.12
328.829	424.12
329.058	442.12
329.287	433.12
329.515	402.12
329.744	376.12
329.972	395.12
330.201	397.12
330.43	441.12
330.658	443.12
330.887	460.12
331.115	434.12
331.344	389.12
331.572	370.12
331.801	371.12
332.03	360.12
332.258	341.12
332.486	335.12
332.715	344.12
332.943	327.12
333.172	320.12
333.4	334.12
333.629	347.12
333.857	353.12
334.085	356.12
334.314	359.12
334.542	372.12
334.771	389.12
334.999	356.12
335.227	345.12
335.455	324.12
335.684	321.12
335.912	332.12
336.14	340.12
336.369	334.12
336.597	327.12
336.825	344.12
337.053	317.12
337.281	313.12
337.51	323.12
337.738	307.12
337.966	325.12
338.194	321.12
338.422	319.12
338.65	303.12
338.878	303.12
339.106	317.12
339.334	316.12
339.562	307.12
339.79	316.12
340.018	305.12
340.246	292.12
340.474	314.12
340.702	305.12
340.93	291.12
341.158	313.12
341.386	292.12
341.614	309.12
341.842	299.12
342.07	299.12
342.298	300.12
342.526	303.12
342.754	304.12
342.981	296.12
343.209	291.12
343.437	295.12
343.665	281.12
343.893	303.12
344.12	321.12
344.348	306.12
344.576	317.12
344.804	321.12
345.031	325.12
345.259	327.12
345.487	328.12
345.714	321.12
345.942	308.12
346.17	302.12
346.397	296.12
346.625	283.12
346.853	295.12
347.08	292.12
347.308	302.12
347.535	315.12
347.763	329.12
347.99	293.12
348.218	306.12
348.445	308.12
348.673	304.12
348.9	301.12
349.128	286.12
349.355	294.12
349.583	281.12
349.81	283.12
350.037	287.12
350.265	276.12
350.492	288.12
350.72	297.12
350.947	295.12
351.174	298.12
351.402	309.12
351.629	311.12
351.856	301.12
352.083	314.12
352.311	326.12
352.538	323.12
352.765	299.12
352.992	297.12
353.22	298.12
353.447	280.12
353.674	279.12
353.901	284.12
354.128	277.12
354.355	279.12
354.583	291.12
354.81	273.12
355.037	288.12
355.264	268.12
355.491	272.12
355.718	281.12
355.945	294.12
356.172	280.12
356.399	267.12
356.626	275.12
356.853	279.12
357.08	264.12
357.307	252.12
357.534	277.12
357.761	256.12
357.988	283.12
358.215	283.12
358.441	270.12
358.668	285.12
358.895	285.12
359.122	277.12
359.349	288.12
359.576	314.12
359.802	300.12
360.029	332.12
360.256	333.12
360.483	303.12
360.709	304.12
360.936	300.12
361.163	308.12
361.39	302.12
361.616	283.12
361.843	294.12
362.07	289.12
362.296	295.12
362.523	287.12
362.749	290.12
362.976	296.12
363.203	295.12
363.429	284.12
363.656	281.12
363.882	278.12
364.109	285.12
364.335	274.12
364.562	263.12
364.788	275.12
365.015	279.12
365.241	277.12
365.468	294.12
365.694	294.12
365.92	283.12
366.147	289.12
366.373	263.12
366.599	266.12
366.826	291.12
367.052	264.12
367.278	276.12
367.505	274.12
367.731	272.12
367.957	259.12
368.184	255.12
368.41	276.12
368.636	291.12
368.862	300.12
369.089	268.12
369.315	282.12
369.541	275.12
369.767	266.12
369.993	277.12
370.219	268.12
370.445	281.12
370.672	271.12
370.898	264.12
371.124	275.12
371.35	257.12
371.576	259.12
371.802	257.12
372.028	243.12
372.254	268.12
372.48	271.12
372.706	255.12
372.932	262.12
373.158	253.12
373.384	260.12
373.61	256.12
373.835	265.12
374.061	275.12
374.287	246.12
374.513	257.12
374.739	255.12
374.965	277.12
375.191	276.12
375.416	258.12
375.642	261.12
375.868	256.12
376.094	280.12
376.319	259.12
376.545	266.12
376.771	248.12
376.997	266.12
377.222	267.12
377.448	266.12
377.674	265.12
377.899	271.12
378.125	247.12
378.35	266.12
378.576	276.12
378.802	261.12
379.027	262.12
379.253	247.12
379.478	263.12
379.704	261.12
379.929	266.12
380.155	274.12
380.38	265.12
380.606	275.12
380.831	261.12
381.057	274.12
381.282	265.12
381.507	261.12
381.733	266.12
381.958	248.12
382.184	261.12
382.409	267.12
382.634	272.12
382.86	283.12
383.085	264.12
383.31	298.12
383.535	264.12
383.761	276.12
383.986	274.12
384.211	277.12
384.436	268.12
384.662	247.12
384.887	268.12
385.112	265.12
385.337	281.12
385.562	277.12
385.787	269.12
386.013	273.12
386.238	282.12
386.463	277.12
386.688	274.12
386.913	266.12
387.138	263.12
387.363	286.12
387.588	282.12
387.813	277.12
388.038	277.12
388.263	272.12
388.488	272.12
388.713	275.12
388.938	257.12
389.163	253.12
389.387	282.12
389.612	287.12
389.837	282.12
390.062	269.12
390.287	277.12
390.512	287.12
390.736	267.12
390.961	265.12
391.186	267.12
391.411	275.12
391.636	268.12
391.86	279.12
392.085	261.12
392.31	281.12
392.534	259.12
392.759	290.12
392.984	270.12
393.208	287.12
393.433	272.12
393.658	261.12
393.882	270.12
394.107	287.12
394.331	282.12
394.556	280.12
394.78	273.12
395.005	268.12
395.229	287.12
395.454	284.12
395.678	287.12
395.903	274.12
396.127	303.12
396.352	288.12
396.576	293.12
396.801	284.12
397.025	283.12
397.249	276.12
397.474	304.12
397.698	272.12
397.922	304.12
398.147	298.12
398.371	283.12
398.595	309.12
398.82	302.12
399.044	300.12
399.268	324.12
399.492	344.12
399.717	340.12
399.941	344.12
400.165	363.12
400.389	380.12
400.613	331.12
400.837	345.12
401.062	325.12
401.286	320.12
401.51	289.12
401.734	307.12
401.958	327.12
402.182	310.12
402.406	327.12
402.63	315.12
402.854	309.12
403.078	313.12
403.302	327.12
403.526	341.12
403.75	315.12
403.974	314.12
404.198	312.12
404.422	296.12
404.645	323.12
404.869	335.12
405.093	327.12
405.317	360.12
405.541	379.12
405.765	360.12
405.988	324.12
406.212	333.12
406.436	348.12
406.66	367.12
406.883	345.12
407.107	368.12
407.331	371.12
407.555	419.12
407.778	392.12
408.002	370.12
408.226	337.12
408.449	339.12
408.673	328.12
408.896	366.12
409.12	375.12
409.344	350.12
409.567	333.12
409.791	335.12
410.014	331.12
410.238	308.12
410.461	320.12
410.685	320.12
410.908	332.12
411.132	348.12
411.355	356.12
411.578	344.12
411.802	306.12
412.025	295.12
412.249	310.12
412.472	337.12
412.695	353.12
412.919	340.12
413.142	317.12
413.365	321.12
413.589	303.12
413.812	323.12
414.035	291.12
414.258	283.12
414.482	282.12
414.705	286.12
414.928	290.12
415.151	297.12
415.374	277.12
415.597	294.12
415.821	312.12
416.044	290.12
416.267	305.12
416.49	293.12
416.713	281.12
416.936	302.12
417.159	313.12
417.382	286.12
417.605	305.12
417.828	291.12
418.051	307.12
418.274	300.12
418.497	297.12
418.72	284.12
418.943	304.12
419.166	303.12
419.389	336.12
419.611	289.12
419.834	317.12
420.057	300.12
420.28	315.12
420.503	319.12
420.726	321.12
420.948	338.12
421.171	355.12
421.394	365.12
421.617	335.12
421.839	323.12
422.062	321.12
422.285	324.12
422.507	381.12
422.73	387.12
422.953	373.12
423.175	333.12
423.398	316.12
423.621	328.12
423.843	334.12
424.066	349.12
424.288	326.12
424.511	341.12
424.733	395.12
424.956	431.12
425.178	415.12
425.401	409.12
425.623	427.12
425.846	378.12
426.068	334.12
426.291	333.12
426.513	321.12
426.735	346.12
426.958	374.12
427.18	419.12
427.402	529.12
427.625	530.12
427.847	498.12
428.069	405.12
428.292	372.12
428.514	364.12
428.736	337.12
428.958	328.12
429.181	341.12
429.403	321.12
429.625	330.12
429.847	334.12
430.069	378.12
430.292	370.12
430.514	320.12
430.736	321.12
430.958	299.12
431.18	289.12
431.402	291.12
431.624	295.12
431.846	290.12
432.068	269.12
432.29	293.12
432.512	272.12
432.734	293.12
432.956	294.12
433.178	309.12
433.4	315.12
433.622	293.12
433.844	317.12
434.066	289.12
434.287	297.12
434.509	291.12
434.731	286.12
434.953	327.12
435.175	297.12
435.397	338.12
435.618	330.12
435.84	356.12
436.062	433.12
436.284	475.12
436.505	375.12
436.727	354.12
436.949	324.12
437.17	307.12
437.392	317.12
437.614	322.12
437.835	381.12
438.057	415.12
438.278	480.12
438.5	486.12
438.721	489.12
438.943	487.12
439.165	378.12
439.386	363.12
439.608	348.12
439.829	341.12
440.05	362.12
440.272	404.12
440.493	362.12
440.715	343.12
440.936	320.12
441.158	315.12
441.379	327.12
441.6	337.12
441.822	333.12
442.043	356.12
442.264	410.12
442.486	428.12
442.707	392.12
442.928	354.12
443.149	381.12
443.371	373.12
443.592	404.12
443.813	441.12
444.034	484.12
444.255	425.12
444.476	349.12
444.698	337.12
444.919	348.12
445.14	388.12
445.361	385.12
445.582	376.12
445.803	403.12
446.024	448.12
446.245	469.12
446.466	444.12
446.687	370.12
446.908	348.12
447.129	322.12
447.35	325.12
447.571	331.12
447.792	320.12
448.013	306.12
448.234	343.12
448.455	372.12
448.675	458.12
448.896	498.12
449.117	444.12
449.338	396.12
449.559	477.12
449.779	498.12
450	425.12
450.221	355.12
450.442	333.12
450.662	312.12
450.883	326.12
451.104	336.12
451.324	319.12
451.545	317.12
451.766	323.12
451.986	283.12
452.207	264.12
452.428	278.12
452.648	303.12
452.869	294.12
453.089	284.12
453.31	298.12
453.53	279.12
453.751	288.12
453.971	305.12
454.192	299.12
454.412	289.12
454.633	286.12
454.853	277.12
455.073	283.12
455.294	287.12
455.514	339.12
455.734	335.12
455.955	287.12
456.175	280.12
456.395	251.12
456.616	267.12
456.836	257.12
457.056	241.12
457.276	245.12
457.497	263.12
457.717	270.12
457.937	266.12
458.157	281.12
458.377	276.12
458.598	295.12
458.818	341.12
459.038	381.12
459.258	388.12
459.478	333.12
459.698	303.12
459.918	281.12
460.138	285.12
460.358	301.12
460.578	286.12
460.798	292.12
461.018	306.12
461.238	282.12
461.458	285.12
461.678	272.12
461.898	286.12
462.118	293.12
462.338	289.12
462.558	297.12
462.777	304.12
462.997	285.12
463.217	296.12
463.437	319.12
463.657	310.12
463.876	289.12
464.096	294.12
464.316	300.12
464.536	308.12
464.755	315.12
464.975	339.12
465.195	353.12
465.414	408.12
465.634	349.12
465.854	327.12
466.073	295.12
466.293	307.12
466.512	298.12
466.732	273.12
466.951	285.12
467.171	279.12
467.391	278.12
467.61	286.12
467.829	292.12
468.049	280.12
468.268	283.12
468.488	284.12
468.707	277.12
468.927	276.12
469.146	267.12
469.365	277.12
469.585	276.12
469.804	284.12
470.023	275.12
470.243	279.12
470.462	303.12
470.681	318.12
470.901	287.12
471.12	299.12
471.339	296.12
471.558	291.12
471.777	292.12
471.997	298.12
472.216	305.12
472.435	317.12
472.654	308.12
472.873	299.12
473.092	300.12
473.311	292.12
473.53	295.12
473.749	312.12
473.968	344.12
474.187	412.12
474.406	400.12
474.625	326.12
474.844	311.12
475.063	282.12
475.282	299.12
475.501	295.12
475.72	310.12
475.939	295.12
476.158	306.12
476.377	337.12
476.596	299.12
476.814	295.12
477.033	293.12
477.252	312.12
477.471	307.12
477.69	315.12
477.908	324.12
478.127	311.12
478.346	312.12
478.564	329.12
478.783	311.12
479.002	329.12
479.22	331.12
479.439	326.12
479.658	344.12
479.876	335.12
480.095	354.12
480.313	373.12
480.532	347.12
480.751	360.12
480.969	362.12
481.188	391.12
481.406	408.12
481.624	362.12
481.843	354.12
482.061	346.12
482.28	363.12
482.498	329.12
482.717	336.12
482.935	339.12
483.153	325.12
483.372	342.12
483.59	346.12
483.808	353.12
484.027	340.12
484.245	333.12
484.463	347.12
484.681	338.12
484.9	331.12
485.118	340.12
485.336	331.12
485.554	332.12
485.772	361.12
485.99	351.12
486.209	363.12
486.427	337.12
486.645	363.12
486.863	367.12
487.081	359.12
487.299	383.12
487.517	335.12
487.735	358.12
487.953	383.12
488.171	367.12
488.389	354.12
488.607	349.12
488.825	360.12
489.043	358.12
489.261	361.12
489.479	341.12
489.696	358.12
489.914	356.12
490.132	381.12
490.35	376.12
490.568	371.12
490.786	371.12
491.003	389.12
491.221	389.12
491.439	409.12
491.657	404.12
491.874	417.12
492.092	406.12
492.31	400.12
492.527	405.12
492.745	415.12
492.963	411.12
493.18	399.12
493.398	406.12
493.615	406.12
493.833	396.12
494.05	419.12
494.268	431.12
494.485	418.12
494.703	426.12
494.92	417.12
495.138	431.12
495.355	427.12
495.573	430.12
495.79	429.12
496.008	417.12
496.225	409.12
496.442	434.12
496.66	427.12
496.877	413.12
497.094	436.12
497.312	411.12
497.529	404.12
497.746	437.12
497.963	453.12
498.181	451.12
498.398	457.12
498.615	454.12
498.832	474.12
499.049	479.12
499.267	466.12
499.484	484.12
499.701	487.12
499.918	485.12
500.135	525.12
500.352	519.12
500.569	522.12
500.786	524.12
501.003	524.12
501.22	501.12
501.437	483.12
501.654	499.12
501.871	485.12
502.088	499.12
502.305	473.12
