Data from 1982.PennyLincolnUp.Lamp.En5.5.200Scan.071819.P1_HRD10591_16-47-20-962.txt Node
Date: Thu Jul 18 16:47:20 EDT 2019
User: cochatt
Spectrometer: HR+D1059
Trigger mode: 1
Integration Time (sec): 1.000000E-1
Scans to average: 1
Electric dark correction enabled: true
Nonlinearity correction enabled: false
Boxcar width: 0
XAxis mode: Wavelengths
Number of Pixels in Spectrum: 2048
>>>>>Begin Spectral Data<<<<<
223.165	-18.75
223.4	-18.75
223.635	-18.75
223.869	-21.75
224.104	-22.75
224.338	-13.75
224.573	-18.75
224.808	-21.75
225.042	-14.75
225.277	-0.75
225.511	6.25
225.746	-2.75
225.98	14.25
226.215	5.25
226.449	19.25
226.683	22.25
226.918	33.25
227.152	35.25
227.387	36.25
227.621	36.25
227.856	46.25
228.09	28.25
228.324	38.25
228.559	54.25
228.793	59.25
229.027	86.25
229.262	100.25
229.496	103.25
229.73	114.25
229.964	130.25
230.199	122.25
230.433	96.25
230.667	111.25
230.901	103.25
231.136	101.25
231.37	110.25
231.604	98.25
231.838	86.25
232.072	92.25
232.306	97.25
232.541	103.25
232.775	87.25
233.009	105.25
233.243	109.25
233.477	123.25
233.711	106.25
233.945	103.25
234.179	110.25
234.413	113.25
234.647	95.25
234.881	103.25
235.115	116.25
235.349	117.25
235.583	105.25
235.817	113.25
236.051	116.25
236.285	95.25
236.519	123.25
236.753	111.25
236.987	133.25
237.221	155.25
237.455	173.25
237.689	159.25
237.922	127.25
238.156	113.25
238.39	117.25
238.624	114.25
238.858	114.25
239.091	105.25
239.325	113.25
239.559	116.25
239.793	116.25
240.027	123.25
240.26	114.25
240.494	128.25
240.728	126.25
240.961	141.25
241.195	108.25
241.429	110.25
241.662	109.25
241.896	120.25
242.13	108.25
242.363	98.25
242.597	121.25
242.83	115.25
243.064	120.25
243.298	126.25
243.531	135.25
243.765	121.25
243.998	114.25
244.232	103.25
244.465	113.25
244.699	121.25
244.932	119.25
245.166	116.25
245.399	123.25
245.633	123.25
245.866	121.25
246.099	120.25
246.333	125.25
246.566	123.25
246.8	135.25
247.033	139.25
247.266	124.25
247.5	131.25
247.733	133.25
247.966	145.25
248.2	172.25
248.433	155.25
248.666	148.25
248.899	154.25
249.133	167.25
249.366	167.25
249.599	154.25
249.832	159.25
250.066	155.25
250.299	163.25
250.532	159.25
250.765	158.25
250.998	171.25
251.231	193.25
251.465	175.25
251.698	165.25
251.931	170.25
252.164	157.25
252.397	163.25
252.63	145.25
252.863	148.25
253.096	180.25
253.329	186.25
253.562	179.25
253.795	181.25
254.028	182.25
254.261	173.25
254.494	202.25
254.727	216.25
254.96	242.25
255.193	218.25
255.426	214.25
255.659	206.25
255.892	197.25
256.124	190.25
256.357	195.25
256.59	177.25
256.823	167.25
257.056	174.25
257.289	162.25
257.521	185.25
257.754	182.25
257.987	174.25
258.22	181.25
258.452	164.25
258.685	170.25
258.918	193.25
259.151	170.25
259.383	189.25
259.616	171.25
259.849	169.25
260.081	197.25
260.314	213.25
260.547	184.25
260.779	194.25
261.012	191.25
261.244	205.25
261.477	189.25
261.71	178.25
261.942	195.25
262.175	175.25
262.407	198.25
262.64	173.25
262.872	179.25
263.105	171.25
263.337	175.25
263.57	179.25
263.802	177.25
264.035	159.25
264.267	179.25
264.499	170.25
264.732	170.25
264.964	168.25
265.197	164.25
265.429	184.25
265.661	176.25
265.894	175.25
266.126	181.25
266.358	169.25
266.591	187.25
266.823	178.25
267.055	182.25
267.287	199.25
267.52	186.25
267.752	176.25
267.984	196.25
268.216	183.25
268.448	209.25
268.681	182.25
268.913	226.25
269.145	219.25
269.377	226.25
269.609	227.25
269.841	213.25
270.073	228.25
270.306	225.25
270.538	246.25
270.77	238.25
271.002	246.25
271.234	234.25
271.466	244.25
271.698	258.25
271.93	253.25
272.162	260.25
272.394	243.25
272.626	253.25
272.858	230.25
273.09	230.25
273.322	230.25
273.553	219.25
273.785	204.25
274.017	211.25
274.249	235.25
274.481	233.25
274.713	200.25
274.945	222.25
275.176	223.25
275.408	229.25
275.64	223.25
275.872	201.25
276.104	219.25
276.335	219.25
276.567	214.25
276.799	220.25
277.031	242.25
277.262	252.25
277.494	233.25
277.726	235.25
277.957	230.25
278.189	240.25
278.421	221.25
278.652	211.25
278.884	209.25
279.115	202.25
279.347	229.25
279.579	227.25
279.81	195.25
280.042	212.25
280.273	208.25
280.505	218.25
280.736	227.25
280.968	194.25
281.199	194.25
281.431	209.25
281.662	203.25
281.894	222.25
282.125	245.25
282.356	245.25
282.588	247.25
282.819	248.25
283.051	221.25
283.282	199.25
283.513	221.25
283.745	235.25
283.976	234.25
284.207	242.25
284.439	232.25
284.67	211.25
284.901	219.25
285.132	232.25
285.364	211.25
285.595	213.25
285.826	209.25
286.057	215.25
286.288	217.25
286.52	233.25
286.751	216.25
286.982	209.25
287.213	223.25
287.444	211.25
287.675	217.25
287.906	233.25
288.138	235.25
288.369	245.25
288.6	237.25
288.831	231.25
289.062	252.25
289.293	237.25
289.524	225.25
289.755	217.25
289.986	222.25
290.217	235.25
290.448	212.25
290.679	240.25
290.91	227.25
291.141	232.25
291.371	229.25
291.602	215.25
291.833	218.25
292.064	231.25
292.295	222.25
292.526	216.25
292.757	222.25
292.987	234.25
293.218	221.25
293.449	237.25
293.68	234.25
293.91	247.25
294.141	211.25
294.372	236.25
294.603	227.25
294.833	234.25
295.064	224.25
295.295	241.25
295.525	251.25
295.756	237.25
295.987	246.25
296.217	261.25
296.448	266.25
296.679	238.25
296.909	243.25
297.14	237.25
297.37	240.25
297.601	235.25
297.831	236.25
298.062	215.25
298.292	245.25
298.523	241.25
298.753	223.25
298.984	243.25
299.214	225.25
299.445	248.25
299.675	231.25
299.905	239.25
300.136	226.25
300.366	238.25
300.597	239.25
300.827	236.25
301.057	264.25
301.288	266.25
301.518	264.25
301.748	243.25
301.979	259.25
302.209	251.25
302.439	240.25
302.669	261.25
302.9	245.25
303.13	270.25
303.36	238.25
303.59	262.25
303.82	267.25
304.051	276.25
304.281	246.25
304.511	256.25
304.741	249.25
304.971	243.25
305.201	250.25
305.431	260.25
305.661	244.25
305.891	263.25
306.121	245.25
306.352	271.25
306.582	272.25
306.812	272.25
307.042	270.25
307.272	254.25
307.502	248.25
307.731	260.25
307.961	249.25
308.191	258.25
308.421	265.25
308.651	278.25
308.881	284.25
309.111	261.25
309.341	285.25
309.571	290.25
309.8	307.25
310.03	305.25
310.26	293.25
310.49	301.25
310.72	304.25
310.949	321.25
311.179	303.25
311.409	312.25
311.639	295.25
311.868	300.25
312.098	309.25
312.328	322.25
312.557	315.25
312.787	324.25
313.017	320.25
313.246	314.25
313.476	283.25
313.706	296.25
313.935	306.25
314.165	310.25
314.394	303.25
314.624	315.25
314.853	320.25
315.083	307.25
315.312	321.25
315.542	289.25
315.771	295.25
316.001	302.25
316.23	294.25
316.46	289.25
316.689	295.25
316.919	303.25
317.148	325.25
317.377	313.25
317.607	302.25
317.836	311.25
318.065	302.25
318.295	293.25
318.524	293.25
318.753	300.25
318.983	291.25
319.212	301.25
319.441	313.25
319.67	301.25
319.9	309.25
320.129	293.25
320.358	305.25
320.587	316.25
320.816	313.25
321.046	317.25
321.275	326.25
321.504	330.25
321.733	334.25
321.962	322.25
322.191	328.25
322.42	342.25
322.649	364.25
322.878	394.25
323.108	407.25
323.337	397.25
323.566	413.25
323.795	421.25
324.024	487.25
324.253	633.25
324.482	921.25
324.71	1393.25
324.939	1801.25
325.168	1461.25
325.397	796.25
325.626	531.25
325.855	441.25
326.084	424.25
326.313	413.25
326.542	433.25
326.77	484.25
326.999	595.25
327.228	835.25
327.457	1206.25
327.686	1322.25
327.914	875.25
328.143	595.25
328.372	505.25
328.6	479.25
328.829	449.25
329.058	467.25
329.287	454.25
329.515	445.25
329.744	418.25
329.972	397.25
330.201	430.25
330.43	453.25
330.658	497.25
330.887	500.25
331.115	451.25
331.344	411.25
331.572	383.25
331.801	390.25
332.03	372.25
332.258	374.25
332.486	335.25
332.715	353.25
332.943	357.25
333.172	340.25
333.4	343.25
333.629	362.25
333.857	361.25
334.085	384.25
334.314	401.25
334.542	423.25
334.771	413.25
334.999	386.25
335.227	369.25
335.455	363.25
335.684	346.25
335.912	329.25
336.14	334.25
336.369	348.25
336.597	343.25
336.825	345.25
337.053	340.25
337.281	326.25
337.51	319.25
337.738	325.25
337.966	320.25
338.194	331.25
338.422	330.25
338.65	348.25
338.878	349.25
339.106	330.25
339.334	321.25
339.562	334.25
339.79	334.25
340.018	330.25
340.246	333.25
340.474	329.25
340.702	312.25
340.93	328.25
341.158	309.25
341.386	323.25
341.614	333.25
341.842	344.25
342.07	322.25
342.298	310.25
342.526	313.25
342.754	329.25
342.981	318.25
343.209	308.25
343.437	335.25
343.665	329.25
343.893	325.25
344.12	339.25
344.348	330.25
344.576	323.25
344.804	341.25
345.031	326.25
345.259	332.25
345.487	330.25
345.714	337.25
345.942	339.25
346.17	301.25
346.397	315.25
346.625	306.25
346.853	310.25
347.08	316.25
347.308	327.25
347.535	325.25
347.763	329.25
347.99	325.25
348.218	309.25
348.445	308.25
348.673	332.25
348.9	308.25
349.128	311.25
349.355	309.25
349.583	292.25
349.81	307.25
350.037	298.25
350.265	314.25
350.492	316.25
350.72	296.25
350.947	314.25
351.174	330.25
351.402	325.25
351.629	321.25
351.856	306.25
352.083	324.25
352.311	331.25
352.538	323.25
352.765	321.25
352.992	323.25
353.22	314.25
353.447	317.25
353.674	307.25
353.901	297.25
354.128	294.25
354.355	275.25
354.583	292.25
354.81	282.25
355.037	279.25
355.264	283.25
355.491	281.25
355.718	290.25
355.945	285.25
356.172	296.25
356.399	285.25
356.626	277.25
356.853	292.25
357.08	277.25
357.307	298.25
357.534	289.25
357.761	295.25
357.988	265.25
358.215	296.25
358.441	320.25
358.668	284.25
358.895	294.25
359.122	308.25
359.349	299.25
359.576	309.25
359.802	333.25
360.029	355.25
360.256	368.25
360.483	334.25
360.709	318.25
360.936	310.25
361.163	302.25
361.39	315.25
361.616	315.25
361.843	314.25
362.07	319.25
362.296	318.25
362.523	295.25
362.749	319.25
362.976	302.25
363.203	294.25
363.429	299.25
363.656	302.25
363.882	308.25
364.109	294.25
364.335	295.25
364.562	298.25
364.788	308.25
365.015	316.25
365.241	268.25
365.468	286.25
365.694	299.25
365.92	296.25
366.147	285.25
366.373	292.25
366.599	296.25
366.826	290.25
367.052	299.25
367.278	265.25
367.505	295.25
367.731	292.25
367.957	267.25
368.184	281.25
368.41	287.25
368.636	299.25
368.862	309.25
369.089	307.25
369.315	305.25
369.541	289.25
369.767	290.25
369.993	277.25
370.219	307.25
370.445	294.25
370.672	310.25
370.898	293.25
371.124	313.25
371.35	289.25
371.576	286.25
371.802	280.25
372.028	292.25
372.254	284.25
372.48	278.25
372.706	282.25
372.932	288.25
373.158	281.25
373.384	292.25
373.61	264.25
373.835	283.25
374.061	289.25
374.287	296.25
374.513	289.25
374.739	320.25
374.965	280.25
375.191	281.25
375.416	285.25
375.642	282.25
375.868	300.25
376.094	278.25
376.319	285.25
376.545	291.25
376.771	271.25
376.997	286.25
377.222	291.25
377.448	269.25
377.674	284.25
377.899	277.25
378.125	269.25
378.35	277.25
378.576	276.25
378.802	282.25
379.027	283.25
379.253	288.25
379.478	279.25
379.704	273.25
379.929	272.25
380.155	283.25
380.38	275.25
380.606	283.25
380.831	274.25
381.057	283.25
381.282	277.25
381.507	284.25
381.733	288.25
381.958	287.25
382.184	286.25
382.409	270.25
382.634	282.25
382.86	258.25
383.085	283.25
383.31	279.25
383.535	279.25
383.761	285.25
383.986	297.25
384.211	302.25
384.436	289.25
384.662	293.25
384.887	292.25
385.112	286.25
385.337	286.25
385.562	280.25
385.787	294.25
386.013	309.25
386.238	297.25
386.463	302.25
386.688	309.25
386.913	286.25
387.138	292.25
387.363	307.25
387.588	283.25
387.813	309.25
388.038	286.25
388.263	279.25
388.488	288.25
388.713	289.25
388.938	281.25
389.163	297.25
389.387	298.25
389.612	278.25
389.837	301.25
390.062	294.25
390.287	299.25
390.512	282.25
390.736	277.25
390.961	289.25
391.186	276.25
391.411	283.25
391.636	280.25
391.86	290.25
392.085	302.25
392.31	283.25
392.534	301.25
392.759	306.25
392.984	285.25
393.208	291.25
393.433	285.25
393.658	282.25
393.882	278.25
394.107	298.25
394.331	307.25
394.556	306.25
394.78	288.25
395.005	285.25
395.229	277.25
395.454	290.25
395.678	288.25
395.903	327.25
396.127	302.25
396.352	313.25
396.576	293.25
396.801	288.25
397.025	294.25
397.249	312.25
397.474	296.25
397.698	315.25
397.922	307.25
398.147	331.25
398.371	329.25
398.595	328.25
398.82	316.25
399.044	323.25
399.268	326.25
399.492	365.25
399.717	363.25
399.941	376.25
400.165	375.25
400.389	406.25
400.613	365.25
400.837	330.25
401.062	317.25
401.286	324.25
401.51	309.25
401.734	319.25
401.958	323.25
402.182	330.25
402.406	337.25
402.63	343.25
402.854	335.25
403.078	332.25
403.302	332.25
403.526	326.25
403.75	325.25
403.974	327.25
404.198	292.25
404.422	329.25
404.645	345.25
404.869	345.25
405.093	360.25
405.317	390.25
405.541	391.25
405.765	364.25
405.988	350.25
406.212	355.25
406.436	365.25
406.66	372.25
406.883	362.25
407.107	362.25
407.331	395.25
407.555	426.25
407.778	439.25
408.002	407.25
408.226	369.25
408.449	365.25
408.673	373.25
408.896	376.25
409.12	403.25
409.344	389.25
409.567	336.25
409.791	327.25
410.014	332.25
410.238	347.25
410.461	332.25
410.685	347.25
410.908	371.25
411.132	359.25
411.355	383.25
411.578	374.25
411.802	345.25
412.025	348.25
412.249	330.25
412.472	343.25
412.695	385.25
412.919	377.25
413.142	329.25
413.365	315.25
413.589	290.25
413.812	315.25
414.035	321.25
414.258	323.25
414.482	324.25
414.705	311.25
414.928	309.25
415.151	312.25
415.374	319.25
415.597	309.25
415.821	305.25
416.044	321.25
416.267	312.25
416.49	338.25
416.713	305.25
416.936	298.25
417.159	312.25
417.382	329.25
417.605	330.25
417.828	316.25
418.051	317.25
418.274	297.25
418.497	311.25
418.72	319.25
418.943	307.25
419.166	315.25
419.389	338.25
419.611	321.25
419.834	335.25
420.057	329.25
420.28	349.25
420.503	346.25
420.726	317.25
420.948	327.25
421.171	356.25
421.394	372.25
421.617	334.25
421.839	311.25
422.062	322.25
422.285	333.25
422.507	380.25
422.73	429.25
422.953	397.25
423.175	373.25
423.398	344.25
423.621	359.25
423.843	365.25
424.066	366.25
424.288	350.25
424.511	378.25
424.733	415.25
424.956	463.25
425.178	455.25
425.401	433.25
425.623	457.25
425.846	398.25
426.068	353.25
426.291	353.25
426.513	352.25
426.735	388.25
426.958	387.25
427.18	454.25
427.402	523.25
427.625	594.25
427.847	511.25
428.069	454.25
428.292	406.25
428.514	340.25
428.736	345.25
428.958	343.25
429.181	334.25
429.403	351.25
429.625	324.25
429.847	366.25
430.069	395.25
430.292	405.25
430.514	344.25
430.736	327.25
430.958	329.25
431.18	318.25
431.402	310.25
431.624	300.25
431.846	333.25
432.068	317.25
432.29	295.25
432.512	334.25
432.734	328.25
432.956	320.25
433.178	318.25
433.4	333.25
433.622	299.25
433.844	313.25
434.066	309.25
434.287	310.25
434.509	318.25
434.731	310.25
434.953	321.25
435.175	345.25
435.397	349.25
435.618	358.25
435.84	391.25
436.062	456.25
436.284	499.25
436.505	421.25
436.727	385.25
436.949	354.25
437.17	356.25
437.392	314.25
437.614	357.25
437.835	383.25
438.057	427.25
438.278	515.25
438.5	492.25
438.721	529.25
438.943	498.25
439.165	420.25
439.386	391.25
439.608	363.25
439.829	373.25
440.05	385.25
440.272	428.25
440.493	386.25
440.715	377.25
440.936	324.25
441.158	345.25
441.379	343.25
441.6	338.25
441.822	380.25
442.043	399.25
442.264	444.25
442.486	480.25
442.707	405.25
442.928	383.25
443.149	375.25
443.371	393.25
443.592	423.25
443.813	473.25
444.034	508.25
444.255	419.25
444.476	367.25
444.698	379.25
444.919	362.25
445.14	433.25
445.361	421.25
445.582	396.25
445.803	450.25
446.024	520.25
446.245	519.25
446.466	457.25
446.687	383.25
446.908	358.25
447.129	358.25
447.35	331.25
447.571	345.25
447.792	329.25
448.013	359.25
448.234	369.25
448.455	379.25
448.675	464.25
448.896	513.25
449.117	453.25
449.338	457.25
449.559	510.25
449.779	557.25
450	432.25
450.221	381.25
450.442	354.25
450.662	351.25
450.883	326.25
451.104	373.25
451.324	326.25
451.545	334.25
451.766	301.25
451.986	298.25
452.207	306.25
452.428	291.25
452.648	302.25
452.869	291.25
453.089	319.25
453.31	315.25
453.53	309.25
453.751	305.25
453.971	307.25
454.192	342.25
454.412	316.25
454.633	308.25
454.853	312.25
455.073	300.25
455.294	325.25
455.514	365.25
455.734	350.25
455.955	306.25
456.175	281.25
456.395	293.25
456.616	271.25
456.836	281.25
457.056	275.25
457.276	276.25
457.497	275.25
457.717	279.25
457.937	289.25
458.157	281.25
458.377	297.25
458.598	313.25
458.818	375.25
459.038	425.25
459.258	402.25
459.478	358.25
459.698	315.25
459.918	305.25
460.138	322.25
460.358	291.25
460.578	298.25
460.798	308.25
461.018	313.25
461.238	300.25
461.458	307.25
461.678	303.25
461.898	290.25
462.118	299.25
462.338	307.25
462.558	297.25
462.777	313.25
462.997	307.25
463.217	321.25
463.437	332.25
463.657	320.25
463.876	321.25
464.096	333.25
464.316	329.25
464.536	312.25
464.755	337.25
464.975	332.25
465.195	361.25
465.414	417.25
465.634	388.25
465.854	357.25
466.073	306.25
466.293	313.25
466.512	293.25
466.732	331.25
466.951	315.25
467.171	311.25
467.391	301.25
467.61	298.25
467.829	310.25
468.049	313.25
468.268	312.25
468.488	309.25
468.707	281.25
468.927	281.25
469.146	290.25
469.365	309.25
469.585	291.25
469.804	309.25
470.023	305.25
470.243	296.25
470.462	320.25
470.681	331.25
470.901	316.25
471.12	327.25
471.339	309.25
471.558	311.25
471.777	319.25
471.997	298.25
472.216	333.25
472.435	323.25
472.654	323.25
472.873	316.25
473.092	319.25
473.311	291.25
473.53	325.25
473.749	313.25
473.968	349.25
474.187	417.25
474.406	417.25
474.625	346.25
474.844	332.25
475.063	314.25
475.282	287.25
475.501	302.25
475.72	322.25
475.939	302.25
476.158	311.25
476.377	315.25
476.596	317.25
476.814	317.25
477.033	339.25
477.252	329.25
477.471	341.25
477.69	323.25
477.908	327.25
478.127	341.25
478.346	314.25
478.564	313.25
478.783	349.25
479.002	326.25
479.22	324.25
479.439	360.25
479.658	362.25
479.876	370.25
480.095	364.25
480.313	403.25
480.532	370.25
480.751	361.25
480.969	383.25
481.188	429.25
481.406	449.25
481.624	394.25
481.843	386.25
482.061	355.25
482.28	377.25
482.498	359.25
482.717	361.25
482.935	357.25
483.153	344.25
483.372	358.25
483.59	357.25
483.808	344.25
484.027	353.25
484.245	348.25
484.463	356.25
484.681	378.25
484.9	368.25
485.118	376.25
485.336	383.25
485.554	370.25
485.772	377.25
485.99	353.25
486.209	367.25
486.427	380.25
486.645	372.25
486.863	404.25
487.081	393.25
487.299	393.25
487.517	395.25
487.735	369.25
487.953	363.25
488.171	373.25
488.389	378.25
488.607	376.25
488.825	380.25
489.043	369.25
489.261	377.25
489.479	396.25
489.696	392.25
489.914	390.25
490.132	385.25
490.35	403.25
490.568	396.25
490.786	398.25
491.003	395.25
491.221	425.25
491.439	426.25
491.657	417.25
491.874	449.25
492.092	453.25
492.31	441.25
492.527	444.25
492.745	434.25
492.963	423.25
493.18	454.25
493.398	439.25
493.615	428.25
493.833	465.25
494.05	443.25
494.268	455.25
494.485	463.25
494.703	444.25
494.92	421.25
495.138	441.25
495.355	433.25
495.573	456.25
495.79	456.25
496.008	472.25
496.225	455.25
496.442	444.25
496.66	459.25
496.877	425.25
497.094	458.25
497.312	465.25
497.529	440.25
497.746	475.25
497.963	456.25
498.181	483.25
498.398	482.25
498.615	483.25
498.832	482.25
499.049	482.25
499.267	475.25
499.484	504.25
499.701	524.25
499.918	543.25
500.135	543.25
500.352	554.25
500.569	557.25
500.786	587.25
501.003	547.25
501.22	529.25
501.437	545.25
501.654	551.25
501.871	537.25
502.088	518.25
