Data from 1982.PennyLincolnUp.Lamp.En5.5.200Scan.071819.P1_HRD10591_16-46-37-961.txt Node
Date: Thu Jul 18 16:46:37 EDT 2019
User: cochatt
Spectrometer: HR+D1059
Trigger mode: 1
Integration Time (sec): 1.000000E-1
Scans to average: 1
Electric dark correction enabled: true
Nonlinearity correction enabled: false
Boxcar width: 0
XAxis mode: Wavelengths
Number of Pixels in Spectrum: 2048
>>>>>Begin Spectral Data<<<<<
223.165	-7.75
223.4	-7.75
223.635	-7.75
223.869	-18.75
224.104	-20.75
224.338	-5.75
224.573	-14.75
224.808	-22.75
225.042	-23.75
225.277	4.25
225.511	3.25
225.746	-3.75
225.98	19.25
226.215	-1.75
226.449	12.25
226.683	18.25
226.918	30.25
227.152	32.25
227.387	38.25
227.621	28.25
227.856	37.25
228.09	43.25
228.324	52.25
228.559	41.25
228.793	83.25
229.027	80.25
229.262	99.25
229.496	105.25
229.73	111.25
229.964	120.25
230.199	109.25
230.433	85.25
230.667	103.25
230.901	97.25
231.136	101.25
231.37	88.25
231.604	99.25
231.838	105.25
232.072	90.25
232.306	94.25
232.541	98.25
232.775	106.25
233.009	95.25
233.243	102.25
233.477	102.25
233.711	107.25
233.945	116.25
234.179	122.25
234.413	112.25
234.647	101.25
234.881	101.25
235.115	92.25
235.349	103.25
235.583	111.25
235.817	116.25
236.051	106.25
236.285	104.25
236.519	105.25
236.753	127.25
236.987	119.25
237.221	143.25
237.455	177.25
237.689	154.25
237.922	116.25
238.156	98.25
238.39	95.25
238.624	114.25
238.858	109.25
239.091	115.25
239.325	106.25
239.559	87.25
239.793	122.25
240.027	105.25
240.26	111.25
240.494	113.25
240.728	119.25
240.961	124.25
241.195	127.25
241.429	117.25
241.662	99.25
241.896	123.25
242.13	117.25
242.363	121.25
242.597	119.25
242.83	117.25
243.064	119.25
243.298	120.25
243.531	111.25
243.765	116.25
243.998	104.25
244.232	117.25
244.465	111.25
244.699	125.25
244.932	119.25
245.166	127.25
245.399	133.25
245.633	121.25
245.866	127.25
246.099	120.25
246.333	112.25
246.566	127.25
246.8	119.25
247.033	129.25
247.266	123.25
247.5	131.25
247.733	147.25
247.966	138.25
248.2	140.25
248.433	163.25
248.666	133.25
248.899	156.25
249.133	172.25
249.366	157.25
249.599	165.25
249.832	144.25
250.066	126.25
250.299	147.25
250.532	150.25
250.765	177.25
250.998	173.25
251.231	181.25
251.465	161.25
251.698	164.25
251.931	157.25
252.164	168.25
252.397	156.25
252.63	159.25
252.863	172.25
253.096	163.25
253.329	198.25
253.562	189.25
253.795	167.25
254.028	178.25
254.261	193.25
254.494	175.25
254.727	195.25
254.96	229.25
255.193	225.25
255.426	190.25
255.659	188.25
255.892	187.25
256.124	184.25
256.357	189.25
256.59	197.25
256.823	187.25
257.056	171.25
257.289	180.25
257.521	171.25
257.754	177.25
257.987	166.25
258.22	170.25
258.452	168.25
258.685	176.25
258.918	168.25
259.151	169.25
259.383	176.25
259.616	179.25
259.849	198.25
260.081	201.25
260.314	183.25
260.547	197.25
260.779	215.25
261.012	198.25
261.244	194.25
261.477	183.25
261.71	184.25
261.942	187.25
262.175	200.25
262.407	184.25
262.64	168.25
262.872	173.25
263.105	159.25
263.337	168.25
263.57	158.25
263.802	170.25
264.035	159.25
264.267	167.25
264.499	168.25
264.732	178.25
264.964	156.25
265.197	173.25
265.429	172.25
265.661	181.25
265.894	182.25
266.126	167.25
266.358	179.25
266.591	163.25
266.823	172.25
267.055	180.25
267.287	175.25
267.52	182.25
267.752	172.25
267.984	202.25
268.216	177.25
268.448	200.25
268.681	188.25
268.913	191.25
269.145	204.25
269.377	210.25
269.609	208.25
269.841	208.25
270.073	214.25
270.306	234.25
270.538	238.25
270.77	255.25
271.002	248.25
271.234	254.25
271.466	229.25
271.698	239.25
271.93	247.25
272.162	251.25
272.394	263.25
272.626	239.25
272.858	214.25
273.09	219.25
273.322	196.25
273.553	217.25
273.785	223.25
274.017	220.25
274.249	205.25
274.481	202.25
274.713	217.25
274.945	213.25
275.176	213.25
275.408	213.25
275.64	205.25
275.872	204.25
276.104	203.25
276.335	223.25
276.567	217.25
276.799	216.25
277.031	239.25
277.262	257.25
277.494	270.25
277.726	223.25
277.957	218.25
278.189	224.25
278.421	213.25
278.652	220.25
278.884	214.25
279.115	203.25
279.347	196.25
279.579	212.25
279.81	212.25
280.042	218.25
280.273	213.25
280.505	196.25
280.736	191.25
280.968	188.25
281.199	216.25
281.431	210.25
281.662	207.25
281.894	205.25
282.125	229.25
282.356	235.25
282.588	228.25
282.819	242.25
283.051	218.25
283.282	216.25
283.513	212.25
283.745	230.25
283.976	223.25
284.207	227.25
284.439	218.25
284.67	225.25
284.901	218.25
285.132	218.25
285.364	211.25
285.595	218.25
285.826	213.25
286.057	212.25
286.288	216.25
286.52	214.25
286.751	219.25
286.982	220.25
287.213	228.25
287.444	225.25
287.675	213.25
287.906	245.25
288.138	231.25
288.369	245.25
288.6	218.25
288.831	230.25
289.062	223.25
289.293	222.25
289.524	232.25
289.755	216.25
289.986	225.25
290.217	215.25
290.448	222.25
290.679	226.25
290.91	210.25
291.141	215.25
291.371	223.25
291.602	225.25
291.833	214.25
292.064	220.25
292.295	217.25
292.526	221.25
292.757	234.25
292.987	203.25
293.218	219.25
293.449	231.25
293.68	225.25
293.91	210.25
294.141	249.25
294.372	217.25
294.603	233.25
294.833	222.25
295.064	221.25
295.295	220.25
295.525	227.25
295.756	225.25
295.987	236.25
296.217	247.25
296.448	248.25
296.679	241.25
296.909	223.25
297.14	230.25
297.37	219.25
297.601	226.25
297.831	231.25
298.062	225.25
298.292	225.25
298.523	241.25
298.753	242.25
298.984	224.25
299.214	249.25
299.445	243.25
299.675	243.25
299.905	237.25
300.136	241.25
300.366	240.25
300.597	236.25
300.827	223.25
301.057	237.25
301.288	263.25
301.518	259.25
301.748	253.25
301.979	246.25
302.209	228.25
302.439	251.25
302.669	253.25
302.9	247.25
303.13	240.25
303.36	255.25
303.59	285.25
303.82	247.25
304.051	263.25
304.281	247.25
304.511	239.25
304.741	242.25
304.971	233.25
305.201	246.25
305.431	251.25
305.661	241.25
305.891	244.25
306.121	247.25
306.352	258.25
306.582	261.25
306.812	276.25
307.042	264.25
307.272	254.25
307.502	244.25
307.731	256.25
307.961	260.25
308.191	249.25
308.421	265.25
308.651	270.25
308.881	256.25
309.111	251.25
309.341	266.25
309.571	287.25
309.8	270.25
310.03	282.25
310.26	287.25
310.49	275.25
310.72	291.25
310.949	306.25
311.179	328.25
311.409	289.25
311.639	293.25
311.868	296.25
312.098	282.25
312.328	302.25
312.557	312.25
312.787	314.25
313.017	306.25
313.246	294.25
313.476	300.25
313.706	295.25
313.935	297.25
314.165	303.25
314.394	299.25
314.624	308.25
314.853	310.25
315.083	301.25
315.312	275.25
315.542	290.25
315.771	295.25
316.001	292.25
316.23	295.25
316.46	286.25
316.689	276.25
316.919	276.25
317.148	314.25
317.377	297.25
317.607	298.25
317.836	303.25
318.065	297.25
318.295	289.25
318.524	286.25
318.753	301.25
318.983	299.25
319.212	300.25
319.441	299.25
319.67	311.25
319.9	270.25
320.129	306.25
320.358	298.25
320.587	299.25
320.816	317.25
321.046	328.25
321.275	309.25
321.504	319.25
321.733	308.25
321.962	297.25
322.191	317.25
322.42	336.25
322.649	359.25
322.878	347.25
323.108	364.25
323.337	385.25
323.566	407.25
323.795	441.25
324.024	492.25
324.253	624.25
324.482	905.25
324.71	1309.25
324.939	1786.25
325.168	1394.25
325.397	783.25
325.626	529.25
325.855	433.25
326.084	398.25
326.313	392.25
326.542	407.25
326.77	441.25
326.999	551.25
327.228	787.25
327.457	1119.25
327.686	1256.25
327.914	854.25
328.143	602.25
328.372	509.25
328.6	466.25
328.829	451.25
329.058	450.25
329.287	457.25
329.515	411.25
329.744	395.25
329.972	408.25
330.201	434.25
330.43	453.25
330.658	464.25
330.887	483.25
331.115	438.25
331.344	403.25
331.572	398.25
331.801	385.25
332.03	351.25
332.258	376.25
332.486	346.25
332.715	337.25
332.943	345.25
333.172	344.25
333.4	336.25
333.629	356.25
333.857	343.25
334.085	376.25
334.314	383.25
334.542	393.25
334.771	390.25
334.999	378.25
335.227	357.25
335.455	319.25
335.684	328.25
335.912	342.25
336.14	328.25
336.369	327.25
336.597	336.25
336.825	316.25
337.053	331.25
337.281	305.25
337.51	309.25
337.738	337.25
337.966	333.25
338.194	351.25
338.422	325.25
338.65	313.25
338.878	332.25
339.106	295.25
339.334	321.25
339.562	310.25
339.79	323.25
340.018	316.25
340.246	329.25
340.474	338.25
340.702	337.25
340.93	324.25
341.158	316.25
341.386	307.25
341.614	333.25
341.842	327.25
342.07	309.25
342.298	301.25
342.526	292.25
342.754	316.25
342.981	289.25
343.209	307.25
343.437	301.25
343.665	312.25
343.893	328.25
344.12	307.25
344.348	309.25
344.576	341.25
344.804	333.25
345.031	333.25
345.259	332.25
345.487	324.25
345.714	319.25
345.942	315.25
346.17	324.25
346.397	305.25
346.625	317.25
346.853	299.25
347.08	316.25
347.308	327.25
347.535	299.25
347.763	307.25
347.99	313.25
348.218	332.25
348.445	339.25
348.673	330.25
348.9	306.25
349.128	306.25
349.355	284.25
349.583	297.25
349.81	305.25
350.037	293.25
350.265	308.25
350.492	304.25
350.72	308.25
350.947	321.25
351.174	317.25
351.402	320.25
351.629	306.25
351.856	316.25
352.083	308.25
352.311	331.25
352.538	321.25
352.765	331.25
352.992	341.25
353.22	310.25
353.447	290.25
353.674	299.25
353.901	314.25
354.128	293.25
354.355	292.25
354.583	282.25
354.81	287.25
355.037	290.25
355.264	280.25
355.491	281.25
355.718	270.25
355.945	276.25
356.172	277.25
356.399	284.25
356.626	274.25
356.853	272.25
357.08	289.25
357.307	269.25
357.534	275.25
357.761	288.25
357.988	284.25
358.215	265.25
358.441	281.25
358.668	283.25
358.895	293.25
359.122	279.25
359.349	289.25
359.576	296.25
359.802	317.25
360.029	339.25
360.256	363.25
360.483	351.25
360.709	313.25
360.936	325.25
361.163	322.25
361.39	293.25
361.616	317.25
361.843	299.25
362.07	295.25
362.296	297.25
362.523	312.25
362.749	304.25
362.976	284.25
363.203	294.25
363.429	287.25
363.656	287.25
363.882	285.25
364.109	290.25
364.335	274.25
364.562	275.25
364.788	279.25
365.015	263.25
365.241	276.25
365.468	296.25
365.694	301.25
365.92	297.25
366.147	294.25
366.373	280.25
366.599	290.25
366.826	285.25
367.052	295.25
367.278	290.25
367.505	297.25
367.731	300.25
367.957	286.25
368.184	273.25
368.41	290.25
368.636	297.25
368.862	300.25
369.089	286.25
369.315	276.25
369.541	273.25
369.767	305.25
369.993	292.25
370.219	305.25
370.445	280.25
370.672	269.25
370.898	281.25
371.124	274.25
371.35	268.25
371.576	261.25
371.802	274.25
372.028	275.25
372.254	274.25
372.48	274.25
372.706	268.25
372.932	270.25
373.158	280.25
373.384	280.25
373.61	277.25
373.835	267.25
374.061	273.25
374.287	278.25
374.513	270.25
374.739	297.25
374.965	275.25
375.191	285.25
375.416	269.25
375.642	263.25
375.868	282.25
376.094	269.25
376.319	285.25
376.545	273.25
376.771	287.25
376.997	295.25
377.222	291.25
377.448	281.25
377.674	275.25
377.899	264.25
378.125	258.25
378.35	274.25
378.576	259.25
378.802	250.25
379.027	290.25
379.253	263.25
379.478	270.25
379.704	281.25
379.929	292.25
380.155	286.25
380.38	284.25
380.606	255.25
380.831	259.25
381.057	261.25
381.282	283.25
381.507	283.25
381.733	290.25
381.958	268.25
382.184	268.25
382.409	272.25
382.634	290.25
382.86	287.25
383.085	284.25
383.31	275.25
383.535	269.25
383.761	303.25
383.986	278.25
384.211	287.25
384.436	271.25
384.662	284.25
384.887	292.25
385.112	296.25
385.337	279.25
385.562	281.25
385.787	294.25
386.013	282.25
386.238	283.25
386.463	293.25
386.688	304.25
386.913	281.25
387.138	287.25
387.363	295.25
387.588	283.25
387.813	299.25
388.038	277.25
388.263	288.25
388.488	259.25
388.713	280.25
388.938	267.25
389.163	270.25
389.387	312.25
389.612	282.25
389.837	312.25
390.062	286.25
390.287	290.25
390.512	290.25
390.736	284.25
390.961	284.25
391.186	292.25
391.411	306.25
391.636	284.25
391.86	298.25
392.085	289.25
392.31	275.25
392.534	281.25
392.759	293.25
392.984	276.25
393.208	281.25
393.433	277.25
393.658	268.25
393.882	289.25
394.107	279.25
394.331	285.25
394.556	270.25
394.78	279.25
395.005	299.25
395.229	278.25
395.454	295.25
395.678	276.25
395.903	291.25
396.127	301.25
396.352	326.25
396.576	289.25
396.801	290.25
397.025	304.25
397.249	295.25
397.474	298.25
397.698	309.25
397.922	298.25
398.147	319.25
398.371	321.25
398.595	308.25
398.82	310.25
399.044	314.25
399.268	332.25
399.492	339.25
399.717	356.25
399.941	372.25
400.165	370.25
400.389	393.25
400.613	365.25
400.837	335.25
401.062	328.25
401.286	339.25
401.51	327.25
401.734	325.25
401.958	319.25
402.182	316.25
402.406	308.25
402.63	321.25
402.854	329.25
403.078	320.25
403.302	310.25
403.526	314.25
403.75	332.25
403.974	329.25
404.198	323.25
404.422	329.25
404.645	340.25
404.869	348.25
405.093	341.25
405.317	369.25
405.541	395.25
405.765	347.25
405.988	352.25
406.212	354.25
406.436	357.25
406.66	384.25
406.883	356.25
407.107	360.25
407.331	396.25
407.555	444.25
407.778	407.25
408.002	374.25
408.226	383.25
408.449	369.25
408.673	349.25
408.896	370.25
409.12	383.25
409.344	370.25
409.567	351.25
409.791	342.25
410.014	349.25
410.238	322.25
410.461	329.25
410.685	324.25
410.908	336.25
411.132	360.25
411.355	373.25
411.578	372.25
411.802	340.25
412.025	321.25
412.249	337.25
412.472	356.25
412.695	362.25
412.919	349.25
413.142	345.25
413.365	339.25
413.589	316.25
413.812	317.25
414.035	308.25
414.258	319.25
414.482	299.25
414.705	319.25
414.928	308.25
415.151	299.25
415.374	305.25
415.597	294.25
415.821	305.25
416.044	299.25
416.267	299.25
416.49	308.25
416.713	310.25
416.936	307.25
417.159	308.25
417.382	316.25
417.605	320.25
417.828	308.25
418.051	316.25
418.274	322.25
418.497	300.25
418.72	306.25
418.943	289.25
419.166	309.25
419.389	322.25
419.611	331.25
419.834	329.25
420.057	320.25
420.28	337.25
420.503	315.25
420.726	321.25
420.948	331.25
421.171	378.25
421.394	366.25
421.617	338.25
421.839	326.25
422.062	338.25
422.285	343.25
422.507	375.25
422.73	427.25
422.953	387.25
423.175	355.25
423.398	337.25
423.621	346.25
423.843	351.25
424.066	369.25
424.288	348.25
424.511	354.25
424.733	397.25
424.956	431.25
425.178	445.25
425.401	433.25
425.623	444.25
425.846	391.25
426.068	348.25
426.291	358.25
426.513	372.25
426.735	374.25
426.958	384.25
427.18	468.25
427.402	549.25
427.625	575.25
427.847	495.25
428.069	458.25
428.292	397.25
428.514	343.25
428.736	342.25
428.958	336.25
429.181	324.25
429.403	330.25
429.625	342.25
429.847	354.25
430.069	385.25
430.292	377.25
430.514	318.25
430.736	328.25
430.958	339.25
431.18	313.25
431.402	313.25
431.624	309.25
431.846	298.25
432.068	309.25
432.29	293.25
432.512	300.25
432.734	310.25
432.956	300.25
433.178	314.25
433.4	332.25
433.622	319.25
433.844	321.25
434.066	304.25
434.287	297.25
434.509	298.25
434.731	329.25
434.953	330.25
435.175	317.25
435.397	349.25
435.618	362.25
435.84	401.25
436.062	451.25
436.284	491.25
436.505	407.25
436.727	352.25
436.949	336.25
437.17	329.25
437.392	320.25
437.614	337.25
437.835	355.25
438.057	427.25
438.278	489.25
438.5	492.25
438.721	517.25
438.943	484.25
439.165	397.25
439.386	354.25
439.608	364.25
439.829	369.25
440.05	390.25
440.272	411.25
440.493	386.25
440.715	373.25
440.936	348.25
441.158	336.25
441.379	322.25
441.6	332.25
441.822	340.25
442.043	365.25
442.264	437.25
442.486	453.25
442.707	397.25
442.928	357.25
443.149	360.25
443.371	388.25
443.592	415.25
443.813	483.25
444.034	492.25
444.255	422.25
444.476	372.25
444.698	333.25
444.919	341.25
445.14	433.25
445.361	385.25
445.582	401.25
445.803	429.25
446.024	516.25
446.245	496.25
446.466	460.25
446.687	391.25
446.908	357.25
447.129	328.25
447.35	336.25
447.571	330.25
447.792	328.25
448.013	325.25
448.234	336.25
448.455	387.25
448.675	472.25
448.896	510.25
449.117	433.25
449.338	418.25
449.559	487.25
449.779	533.25
450	446.25
450.221	377.25
450.442	338.25
450.662	354.25
450.883	341.25
451.104	351.25
451.324	328.25
451.545	304.25
451.766	291.25
451.986	309.25
452.207	303.25
452.428	275.25
452.648	288.25
452.869	298.25
453.089	297.25
453.31	311.25
453.53	297.25
453.751	300.25
453.971	316.25
454.192	335.25
454.412	306.25
454.633	292.25
454.853	289.25
455.073	297.25
455.294	314.25
455.514	367.25
455.734	347.25
455.955	303.25
456.175	307.25
456.395	281.25
456.616	272.25
456.836	259.25
457.056	285.25
457.276	273.25
457.497	277.25
457.717	280.25
457.937	279.25
458.157	275.25
458.377	280.25
458.598	295.25
458.818	345.25
459.038	411.25
459.258	415.25
459.478	359.25
459.698	321.25
459.918	314.25
460.138	313.25
460.358	298.25
460.578	282.25
460.798	298.25
461.018	306.25
461.238	299.25
461.458	306.25
461.678	295.25
461.898	285.25
462.118	295.25
462.338	298.25
462.558	300.25
462.777	304.25
462.997	328.25
463.217	325.25
463.437	309.25
463.657	312.25
463.876	313.25
464.096	337.25
464.316	313.25
464.536	308.25
464.755	330.25
464.975	335.25
465.195	375.25
465.414	413.25
465.634	371.25
465.854	341.25
466.073	320.25
466.293	313.25
466.512	321.25
466.732	299.25
466.951	303.25
467.171	316.25
467.391	312.25
467.61	290.25
467.829	321.25
468.049	312.25
468.268	312.25
468.488	288.25
468.707	294.25
468.927	272.25
469.146	277.25
469.365	306.25
469.585	302.25
469.804	313.25
470.023	306.25
470.243	313.25
470.462	291.25
470.681	305.25
470.901	322.25
471.12	309.25
471.339	322.25
471.558	305.25
471.777	303.25
471.997	287.25
472.216	315.25
472.435	335.25
472.654	340.25
472.873	309.25
473.092	309.25
473.311	298.25
473.53	314.25
473.749	315.25
473.968	354.25
474.187	433.25
474.406	395.25
474.625	341.25
474.844	317.25
475.063	331.25
475.282	307.25
475.501	312.25
475.72	337.25
475.939	309.25
476.158	309.25
476.377	324.25
476.596	300.25
476.814	318.25
477.033	337.25
477.252	313.25
477.471	306.25
477.69	315.25
477.908	309.25
478.127	320.25
478.346	308.25
478.564	314.25
478.783	328.25
479.002	333.25
479.22	360.25
479.439	341.25
479.658	362.25
479.876	352.25
480.095	329.25
480.313	378.25
480.532	395.25
480.751	343.25
480.969	384.25
481.188	412.25
481.406	448.25
481.624	361.25
481.843	353.25
482.061	341.25
482.28	343.25
482.498	336.25
482.717	347.25
482.935	363.25
483.153	345.25
483.372	346.25
483.59	340.25
483.808	353.25
484.027	356.25
484.245	355.25
484.463	365.25
484.681	361.25
484.9	354.25
485.118	358.25
485.336	341.25
485.554	360.25
485.772	365.25
485.99	377.25
486.209	355.25
486.427	369.25
486.645	369.25
486.863	380.25
487.081	407.25
487.299	385.25
487.517	359.25
487.735	368.25
487.953	380.25
488.171	372.25
488.389	380.25
488.607	386.25
488.825	371.25
489.043	383.25
489.261	382.25
489.479	383.25
489.696	379.25
489.914	368.25
490.132	402.25
490.35	375.25
490.568	397.25
490.786	388.25
491.003	376.25
491.221	381.25
491.439	409.25
491.657	415.25
491.874	412.25
492.092	410.25
492.31	426.25
492.527	432.25
492.745	440.25
492.963	435.25
493.18	419.25
493.398	445.25
493.615	429.25
493.833	466.25
494.05	440.25
494.268	446.25
494.485	442.25
494.703	425.25
494.92	437.25
495.138	447.25
495.355	453.25
495.573	445.25
495.79	452.25
496.008	464.25
496.225	456.25
496.442	440.25
496.66	449.25
496.877	432.25
497.094	423.25
497.312	453.25
497.529	441.25
497.746	456.25
497.963	466.25
498.181	451.25
498.398	461.25
498.615	478.25
498.832	486.25
499.049	463.25
499.267	486.25
499.484	494.25
499.701	497.25
499.918	499.25
500.135	514.25
500.352	560.25
500.569	571.25
500.786	561.25
501.003	555.25
501.22	532.25
501.437	531.25
501.654	551.25
501.871	518.25
502.088	523.25
