Data from 1982.PennyLincolnUp.Lamp.En5.5.200Scan.071819.P1_HRD10591_16-47-01-962.txt Node
Date: Thu Jul 18 16:47:01 EDT 2019
User: cochatt
Spectrometer: HR+D1059
Trigger mode: 1
Integration Time (sec): 1.000000E-1
Scans to average: 1
Electric dark correction enabled: true
Nonlinearity correction enabled: false
Boxcar width: 0
XAxis mode: Wavelengths
Number of Pixels in Spectrum: 2048
>>>>>Begin Spectral Data<<<<<
223.165	-20.31
223.4	-20.31
223.635	-20.31
223.869	-20.31
224.104	-12.31
224.338	-15.31
224.573	-11.31
224.808	-11.31
225.042	-9.31
225.277	-10.31
225.511	-4.31
225.746	-8.31
225.98	13.69
226.215	22.69
226.449	17.69
226.683	8.69
226.918	16.69
227.152	43.69
227.387	36.69
227.621	42.69
227.856	56.69
228.09	43.69
228.324	56.69
228.559	52.69
228.793	73.69
229.027	78.69
229.262	100.69
229.496	103.69
229.73	122.69
229.964	134.69
230.199	115.69
230.433	104.69
230.667	108.69
230.901	117.69
231.136	100.69
231.37	106.69
231.604	119.69
231.838	102.69
232.072	100.69
232.306	115.69
232.541	103.69
232.775	102.69
233.009	111.69
233.243	107.69
233.477	96.69
233.711	90.69
233.945	94.69
234.179	108.69
234.413	119.69
234.647	109.69
234.881	92.69
235.115	105.69
235.349	107.69
235.583	123.69
235.817	110.69
236.051	116.69
236.285	118.69
236.519	118.69
236.753	112.69
236.987	120.69
237.221	149.69
237.455	177.69
237.689	150.69
237.922	139.69
238.156	113.69
238.39	102.69
238.624	111.69
238.858	117.69
239.091	122.69
239.325	112.69
239.559	103.69
239.793	110.69
240.027	132.69
240.26	118.69
240.494	137.69
240.728	128.69
240.961	131.69
241.195	128.69
241.429	126.69
241.662	111.69
241.896	109.69
242.13	109.69
242.363	104.69
242.597	118.69
242.83	111.69
243.064	120.69
243.298	120.69
243.531	116.69
243.765	115.69
243.998	107.69
244.232	112.69
244.465	131.69
244.699	130.69
244.932	126.69
245.166	113.69
245.399	121.69
245.633	135.69
245.866	116.69
246.099	113.69
246.333	129.69
246.566	124.69
246.8	130.69
247.033	119.69
247.266	123.69
247.5	137.69
247.733	134.69
247.966	152.69
248.2	136.69
248.433	147.69
248.666	147.69
248.899	144.69
249.133	155.69
249.366	154.69
249.599	151.69
249.832	140.69
250.066	160.69
250.299	158.69
250.532	170.69
250.765	147.69
250.998	185.69
251.231	171.69
251.465	167.69
251.698	174.69
251.931	160.69
252.164	168.69
252.397	168.69
252.63	140.69
252.863	167.69
253.096	178.69
253.329	157.69
253.562	164.69
253.795	164.69
254.028	174.69
254.261	183.69
254.494	171.69
254.727	193.69
254.96	226.69
255.193	208.69
255.426	211.69
255.659	203.69
255.892	195.69
256.124	179.69
256.357	172.69
256.59	174.69
256.823	185.69
257.056	185.69
257.289	172.69
257.521	175.69
257.754	180.69
257.987	173.69
258.22	164.69
258.452	163.69
258.685	157.69
258.918	180.69
259.151	186.69
259.383	190.69
259.616	171.69
259.849	175.69
260.081	196.69
260.314	196.69
260.547	199.69
260.779	195.69
261.012	199.69
261.244	167.69
261.477	202.69
261.71	176.69
261.942	169.69
262.175	182.69
262.407	199.69
262.64	163.69
262.872	166.69
263.105	167.69
263.337	170.69
263.57	180.69
263.802	165.69
264.035	174.69
264.267	173.69
264.499	172.69
264.732	176.69
264.964	170.69
265.197	179.69
265.429	184.69
265.661	178.69
265.894	164.69
266.126	154.69
266.358	181.69
266.591	182.69
266.823	182.69
267.055	172.69
267.287	173.69
267.52	184.69
267.752	170.69
267.984	182.69
268.216	188.69
268.448	185.69
268.681	191.69
268.913	202.69
269.145	203.69
269.377	195.69
269.609	219.69
269.841	224.69
270.073	223.69
270.306	239.69
270.538	242.69
270.77	266.69
271.002	239.69
271.234	250.69
271.466	246.69
271.698	263.69
271.93	254.69
272.162	256.69
272.394	255.69
272.626	240.69
272.858	229.69
273.09	220.69
273.322	204.69
273.553	222.69
273.785	219.69
274.017	210.69
274.249	220.69
274.481	202.69
274.713	208.69
274.945	217.69
275.176	215.69
275.408	207.69
275.64	205.69
275.872	198.69
276.104	213.69
276.335	211.69
276.567	219.69
276.799	226.69
277.031	235.69
277.262	242.69
277.494	255.69
277.726	241.69
277.957	224.69
278.189	234.69
278.421	205.69
278.652	209.69
278.884	212.69
279.115	230.69
279.347	206.69
279.579	196.69
279.81	203.69
280.042	201.69
280.273	208.69
280.505	214.69
280.736	206.69
280.968	201.69
281.199	206.69
281.431	195.69
281.662	227.69
281.894	204.69
282.125	213.69
282.356	240.69
282.588	238.69
282.819	244.69
283.051	207.69
283.282	215.69
283.513	198.69
283.745	205.69
283.976	208.69
284.207	219.69
284.439	214.69
284.67	191.69
284.901	215.69
285.132	208.69
285.364	200.69
285.595	238.69
285.826	217.69
286.057	218.69
286.288	199.69
286.52	210.69
286.751	217.69
286.982	211.69
287.213	223.69
287.444	215.69
287.675	210.69
287.906	242.69
288.138	228.69
288.369	246.69
288.6	226.69
288.831	220.69
289.062	226.69
289.293	212.69
289.524	221.69
289.755	214.69
289.986	229.69
290.217	212.69
290.448	207.69
290.679	222.69
290.91	208.69
291.141	211.69
291.371	237.69
291.602	227.69
291.833	218.69
292.064	222.69
292.295	219.69
292.526	207.69
292.757	221.69
292.987	214.69
293.218	206.69
293.449	224.69
293.68	224.69
293.91	230.69
294.141	246.69
294.372	218.69
294.603	228.69
294.833	227.69
295.064	228.69
295.295	216.69
295.525	228.69
295.756	229.69
295.987	233.69
296.217	256.69
296.448	254.69
296.679	234.69
296.909	232.69
297.14	221.69
297.37	227.69
297.601	226.69
297.831	226.69
298.062	221.69
298.292	221.69
298.523	213.69
298.753	245.69
298.984	223.69
299.214	248.69
299.445	238.69
299.675	242.69
299.905	239.69
300.136	232.69
300.366	216.69
300.597	236.69
300.827	238.69
301.057	239.69
301.288	250.69
301.518	254.69
301.748	255.69
301.979	237.69
302.209	237.69
302.439	245.69
302.669	250.69
302.9	230.69
303.13	228.69
303.36	250.69
303.59	252.69
303.82	254.69
304.051	260.69
304.281	252.69
304.511	256.69
304.741	243.69
304.971	250.69
305.201	244.69
305.431	242.69
305.661	254.69
305.891	228.69
306.121	248.69
306.352	242.69
306.582	259.69
306.812	247.69
307.042	245.69
307.272	254.69
307.502	264.69
307.731	271.69
307.961	248.69
308.191	253.69
308.421	245.69
308.651	245.69
308.881	259.69
309.111	251.69
309.341	262.69
309.571	260.69
309.8	265.69
310.03	286.69
310.26	291.69
310.49	274.69
310.72	296.69
310.949	301.69
311.179	303.69
311.409	298.69
311.639	293.69
311.868	291.69
312.098	283.69
312.328	300.69
312.557	302.69
312.787	317.69
313.017	298.69
313.246	296.69
313.476	286.69
313.706	300.69
313.935	298.69
314.165	306.69
314.394	306.69
314.624	293.69
314.853	306.69
315.083	285.69
315.312	282.69
315.542	292.69
315.771	260.69
316.001	283.69
316.23	264.69
316.46	272.69
316.689	279.69
316.919	306.69
317.148	291.69
317.377	302.69
317.607	296.69
317.836	294.69
318.065	295.69
318.295	277.69
318.524	285.69
318.753	283.69
318.983	287.69
319.212	287.69
319.441	286.69
319.67	292.69
319.9	294.69
320.129	293.69
320.358	308.69
320.587	295.69
320.816	300.69
321.046	308.69
321.275	310.69
321.504	332.69
321.733	308.69
321.962	299.69
322.191	324.69
322.42	347.69
322.649	332.69
322.878	351.69
323.108	376.69
323.337	380.69
323.566	405.69
323.795	438.69
324.024	483.69
324.253	619.69
324.482	910.69
324.71	1317.69
324.939	1768.69
325.168	1408.69
325.397	764.69
325.626	525.69
325.855	433.69
326.084	390.69
326.313	403.69
326.542	404.69
326.77	446.69
326.999	570.69
327.228	803.69
327.457	1148.69
327.686	1302.69
327.914	862.69
328.143	572.69
328.372	490.69
328.6	480.69
328.829	445.69
329.058	444.69
329.287	465.69
329.515	438.69
329.744	408.69
329.972	404.69
330.201	417.69
330.43	434.69
330.658	453.69
330.887	482.69
331.115	455.69
331.344	386.69
331.572	383.69
331.801	368.69
332.03	347.69
332.258	350.69
332.486	341.69
332.715	340.69
332.943	345.69
333.172	333.69
333.4	324.69
333.629	333.69
333.857	335.69
334.085	358.69
334.314	379.69
334.542	377.69
334.771	398.69
334.999	379.69
335.227	343.69
335.455	346.69
335.684	328.69
335.912	329.69
336.14	326.69
336.369	343.69
336.597	329.69
336.825	323.69
337.053	335.69
337.281	309.69
337.51	313.69
337.738	318.69
337.966	309.69
338.194	341.69
338.422	338.69
338.65	314.69
338.878	315.69
339.106	323.69
339.334	302.69
339.562	320.69
339.79	302.69
340.018	310.69
340.246	326.69
340.474	300.69
340.702	301.69
340.93	316.69
341.158	308.69
341.386	321.69
341.614	324.69
341.842	298.69
342.07	292.69
342.298	303.69
342.526	304.69
342.754	290.69
342.981	307.69
343.209	289.69
343.437	291.69
343.665	287.69
343.893	303.69
344.12	323.69
344.348	299.69
344.576	321.69
344.804	323.69
345.031	324.69
345.259	335.69
345.487	324.69
345.714	294.69
345.942	303.69
346.17	317.69
346.397	310.69
346.625	296.69
346.853	298.69
347.08	297.69
347.308	305.69
347.535	316.69
347.763	292.69
347.99	310.69
348.218	302.69
348.445	322.69
348.673	325.69
348.9	316.69
349.128	296.69
349.355	289.69
349.583	290.69
349.81	284.69
350.037	281.69
350.265	286.69
350.492	270.69
350.72	281.69
350.947	295.69
351.174	303.69
351.402	291.69
351.629	317.69
351.856	295.69
352.083	312.69
352.311	316.69
352.538	302.69
352.765	318.69
352.992	311.69
353.22	300.69
353.447	300.69
353.674	288.69
353.901	271.69
354.128	284.69
354.355	290.69
354.583	277.69
354.81	279.69
355.037	277.69
355.264	284.69
355.491	274.69
355.718	268.69
355.945	286.69
356.172	282.69
356.399	272.69
356.626	262.69
356.853	287.69
357.08	274.69
357.307	275.69
357.534	259.69
357.761	269.69
357.988	287.69
358.215	265.69
358.441	272.69
358.668	267.69
358.895	274.69
359.122	283.69
359.349	286.69
359.576	292.69
359.802	310.69
360.029	316.69
360.256	336.69
360.483	331.69
360.709	303.69
360.936	292.69
361.163	293.69
361.39	303.69
361.616	287.69
361.843	288.69
362.07	298.69
362.296	303.69
362.523	313.69
362.749	306.69
362.976	292.69
363.203	272.69
363.429	283.69
363.656	295.69
363.882	283.69
364.109	282.69
364.335	261.69
364.562	280.69
364.788	277.69
365.015	282.69
365.241	265.69
365.468	262.69
365.694	287.69
365.92	301.69
366.147	278.69
366.373	273.69
366.599	259.69
366.826	271.69
367.052	277.69
367.278	269.69
367.505	273.69
367.731	284.69
367.957	285.69
368.184	273.69
368.41	278.69
368.636	290.69
368.862	300.69
369.089	269.69
369.315	273.69
369.541	249.69
369.767	278.69
369.993	263.69
370.219	266.69
370.445	274.69
370.672	252.69
370.898	255.69
371.124	262.69
371.35	263.69
371.576	259.69
371.802	264.69
372.028	291.69
372.254	262.69
372.48	266.69
372.706	238.69
372.932	265.69
373.158	265.69
373.384	291.69
373.61	266.69
373.835	274.69
374.061	278.69
374.287	273.69
374.513	264.69
374.739	276.69
374.965	274.69
375.191	278.69
375.416	272.69
375.642	258.69
375.868	270.69
376.094	260.69
376.319	273.69
376.545	268.69
376.771	261.69
376.997	270.69
377.222	248.69
377.448	247.69
377.674	255.69
377.899	261.69
378.125	250.69
378.35	251.69
378.576	264.69
378.802	249.69
379.027	270.69
379.253	268.69
379.478	278.69
379.704	246.69
379.929	238.69
380.155	277.69
380.38	256.69
380.606	281.69
380.831	271.69
381.057	273.69
381.282	266.69
381.507	251.69
381.733	263.69
381.958	261.69
382.184	254.69
382.409	274.69
382.634	277.69
382.86	262.69
383.085	263.69
383.31	265.69
383.535	266.69
383.761	269.69
383.986	267.69
384.211	271.69
384.436	275.69
384.662	269.69
384.887	252.69
385.112	280.69
385.337	271.69
385.562	264.69
385.787	271.69
386.013	270.69
386.238	290.69
386.463	280.69
386.688	272.69
386.913	288.69
387.138	283.69
387.363	266.69
387.588	269.69
387.813	292.69
388.038	273.69
388.263	262.69
388.488	267.69
388.713	284.69
388.938	261.69
389.163	277.69
389.387	302.69
389.612	268.69
389.837	261.69
390.062	272.69
390.287	273.69
390.512	286.69
390.736	279.69
390.961	287.69
391.186	278.69
391.411	289.69
391.636	281.69
391.86	284.69
392.085	271.69
392.31	278.69
392.534	281.69
392.759	294.69
392.984	281.69
393.208	263.69
393.433	271.69
393.658	272.69
393.882	262.69
394.107	258.69
394.331	267.69
394.556	279.69
394.78	272.69
395.005	281.69
395.229	278.69
395.454	255.69
395.678	263.69
395.903	272.69
396.127	309.69
396.352	312.69
396.576	289.69
396.801	289.69
397.025	279.69
397.249	315.69
397.474	299.69
397.698	283.69
397.922	323.69
398.147	304.69
398.371	304.69
398.595	311.69
398.82	300.69
399.044	300.69
399.268	321.69
399.492	328.69
399.717	348.69
399.941	357.69
400.165	342.69
400.389	359.69
400.613	329.69
400.837	320.69
401.062	319.69
401.286	298.69
401.51	288.69
401.734	292.69
401.958	289.69
402.182	296.69
402.406	308.69
402.63	302.69
402.854	314.69
403.078	311.69
403.302	302.69
403.526	308.69
403.75	292.69
403.974	302.69
404.198	309.69
404.422	312.69
404.645	305.69
404.869	330.69
405.093	342.69
405.317	351.69
405.541	371.69
405.765	345.69
405.988	322.69
406.212	338.69
406.436	342.69
406.66	360.69
406.883	351.69
407.107	372.69
407.331	372.69
407.555	422.69
407.778	420.69
408.002	380.69
408.226	352.69
408.449	338.69
408.673	354.69
408.896	352.69
409.12	360.69
409.344	351.69
409.567	325.69
409.791	319.69
410.014	308.69
410.238	315.69
410.461	284.69
410.685	318.69
410.908	309.69
411.132	350.69
411.355	350.69
411.578	357.69
411.802	326.69
412.025	320.69
412.249	322.69
412.472	347.69
412.695	362.69
412.919	363.69
413.142	313.69
413.365	323.69
413.589	312.69
413.812	290.69
414.035	304.69
414.258	289.69
414.482	291.69
414.705	298.69
414.928	282.69
415.151	293.69
415.374	286.69
415.597	285.69
415.821	293.69
416.044	291.69
416.267	290.69
416.49	303.69
416.713	290.69
416.936	276.69
417.159	302.69
417.382	286.69
417.605	301.69
417.828	309.69
418.051	302.69
418.274	319.69
418.497	293.69
418.72	295.69
418.943	293.69
419.166	311.69
419.389	317.69
419.611	309.69
419.834	327.69
420.057	326.69
420.28	321.69
420.503	318.69
420.726	289.69
420.948	317.69
421.171	360.69
421.394	364.69
421.617	322.69
421.839	306.69
422.062	311.69
422.285	341.69
422.507	341.69
422.73	402.69
422.953	400.69
423.175	347.69
423.398	318.69
423.621	333.69
423.843	328.69
424.066	347.69
424.288	322.69
424.511	350.69
424.733	390.69
424.956	412.69
425.178	404.69
425.401	414.69
425.623	421.69
425.846	361.69
426.068	342.69
426.291	331.69
426.513	343.69
426.735	360.69
426.958	389.69
427.18	428.69
427.402	515.69
427.625	554.69
427.847	475.69
428.069	422.69
428.292	379.69
428.514	350.69
428.736	319.69
428.958	333.69
429.181	318.69
429.403	333.69
429.625	328.69
429.847	338.69
430.069	384.69
430.292	372.69
430.514	327.69
430.736	315.69
430.958	314.69
431.18	304.69
431.402	313.69
431.624	296.69
431.846	282.69
432.068	289.69
432.29	296.69
432.512	312.69
432.734	309.69
432.956	296.69
433.178	306.69
433.4	304.69
433.622	276.69
433.844	294.69
434.066	284.69
434.287	285.69
434.509	288.69
434.731	290.69
434.953	308.69
435.175	297.69
435.397	318.69
435.618	352.69
435.84	376.69
436.062	414.69
436.284	459.69
436.505	376.69
436.727	355.69
436.949	346.69
437.17	324.69
437.392	331.69
437.614	335.69
437.835	350.69
438.057	429.69
438.278	463.69
438.5	465.69
438.721	500.69
438.943	475.69
439.165	386.69
439.386	347.69
439.608	344.69
439.829	356.69
440.05	376.69
440.272	414.69
440.493	376.69
440.715	345.69
440.936	316.69
441.158	335.69
441.379	323.69
441.6	327.69
441.822	353.69
442.043	365.69
442.264	417.69
442.486	434.69
442.707	384.69
442.928	349.69
443.149	343.69
443.371	383.69
443.592	397.69
443.813	461.69
444.034	475.69
444.255	405.69
444.476	346.69
444.698	345.69
444.919	336.69
445.14	445.69
445.361	388.69
445.582	374.69
445.803	411.69
446.024	480.69
446.245	496.69
446.466	454.69
446.687	381.69
446.908	352.69
447.129	336.69
447.35	320.69
447.571	310.69
447.792	319.69
448.013	312.69
448.234	335.69
448.455	379.69
448.675	434.69
448.896	486.69
449.117	443.69
449.338	416.69
449.559	478.69
449.779	499.69
450	404.69
450.221	347.69
450.442	333.69
450.662	315.69
450.883	326.69
451.104	346.69
451.324	316.69
451.545	308.69
451.766	306.69
451.986	285.69
452.207	279.69
452.428	295.69
452.648	279.69
452.869	273.69
453.089	321.69
453.31	306.69
453.53	296.69
453.751	306.69
453.971	295.69
454.192	310.69
454.412	292.69
454.633	266.69
454.853	282.69
455.073	299.69
455.294	327.69
455.514	378.69
455.734	338.69
455.955	292.69
456.175	279.69
456.395	271.69
456.616	274.69
456.836	275.69
457.056	266.69
457.276	271.69
457.497	260.69
457.717	272.69
457.937	267.69
458.157	277.69
458.377	282.69
458.598	312.69
458.818	321.69
459.038	365.69
459.258	379.69
459.478	338.69
459.698	314.69
459.918	302.69
460.138	303.69
460.358	278.69
460.578	290.69
460.798	280.69
461.018	288.69
461.238	290.69
461.458	299.69
461.678	280.69
461.898	297.69
462.118	290.69
462.338	287.69
462.558	298.69
462.777	285.69
462.997	284.69
463.217	310.69
463.437	312.69
463.657	298.69
463.876	290.69
464.096	310.69
464.316	300.69
464.536	322.69
464.755	312.69
464.975	323.69
465.195	374.69
465.414	398.69
465.634	343.69
465.854	311.69
466.073	310.69
466.293	290.69
466.512	300.69
466.732	295.69
466.951	281.69
467.171	260.69
467.391	298.69
467.61	281.69
467.829	307.69
468.049	306.69
468.268	305.69
468.488	295.69
468.707	270.69
468.927	281.69
469.146	279.69
469.365	273.69
469.585	268.69
469.804	276.69
470.023	302.69
470.243	291.69
470.462	301.69
470.681	320.69
470.901	314.69
471.12	306.69
471.339	303.69
471.558	298.69
471.777	289.69
471.997	283.69
472.216	310.69
472.435	319.69
472.654	311.69
472.873	286.69
473.092	300.69
473.311	293.69
473.53	285.69
473.749	275.69
473.968	320.69
474.187	402.69
474.406	414.69
474.625	340.69
474.844	294.69
475.063	306.69
475.282	291.69
475.501	300.69
475.72	301.69
475.939	313.69
476.158	295.69
476.377	294.69
476.596	297.69
476.814	318.69
477.033	299.69
477.252	297.69
477.471	316.69
477.69	309.69
477.908	303.69
478.127	306.69
478.346	305.69
478.564	312.69
478.783	326.69
479.002	321.69
479.22	327.69
479.439	331.69
479.658	341.69
479.876	330.69
480.095	353.69
480.313	360.69
480.532	318.69
480.751	352.69
480.969	359.69
481.188	401.69
481.406	442.69
481.624	376.69
481.843	355.69
482.061	363.69
482.28	344.69
482.498	343.69
482.717	326.69
482.935	332.69
483.153	337.69
483.372	338.69
483.59	356.69
483.808	327.69
484.027	339.69
484.245	338.69
484.463	345.69
484.681	349.69
484.9	338.69
485.118	332.69
485.336	343.69
485.554	354.69
485.772	347.69
485.99	350.69
486.209	365.69
486.427	351.69
486.645	359.69
486.863	391.69
487.081	370.69
487.299	356.69
487.517	357.69
487.735	361.69
487.953	363.69
488.171	382.69
488.389	356.69
488.607	378.69
488.825	387.69
489.043	354.69
489.261	358.69
489.479	380.69
489.696	372.69
489.914	382.69
490.132	376.69
490.35	370.69
490.568	393.69
490.786	380.69
491.003	390.69
491.221	394.69
491.439	395.69
491.657	416.69
491.874	396.69
492.092	423.69
492.31	431.69
492.527	430.69
492.745	415.69
492.963	419.69
493.18	419.69
493.398	419.69
493.615	424.69
493.833	428.69
494.05	430.69
494.268	425.69
494.485	436.69
494.703	415.69
494.92	421.69
495.138	438.69
495.355	438.69
495.573	439.69
495.79	418.69
496.008	434.69
496.225	429.69
496.442	422.69
496.66	435.69
496.877	417.69
497.094	431.69
497.312	434.69
497.529	443.69
497.746	435.69
497.963	449.69
498.181	461.69
498.398	465.69
498.615	453.69
498.832	452.69
499.049	447.69
499.267	456.69
499.484	469.69
499.701	479.69
499.918	480.69
500.135	495.69
500.352	515.69
500.569	520.69
500.786	516.69
501.003	534.69
501.22	532.69
501.437	507.69
501.654	509.69
501.871	535.69
