Data from 1982.PennyLincolnUp.Lamp.En5.5.200Scan.071819.P1_HRD10591_16-47-38-961.txt Node
Date: Thu Jul 18 16:47:38 EDT 2019
User: cochatt
Spectrometer: HR+D1059
Trigger mode: 1
Integration Time (sec): 1.000000E-1
Scans to average: 1
Electric dark correction enabled: true
Nonlinearity correction enabled: false
Boxcar width: 0
XAxis mode: Wavelengths
Number of Pixels in Spectrum: 2048
>>>>>Begin Spectral Data<<<<<
223.165	-11.38
223.4	-11.38
223.635	-11.38
223.869	-14.38
224.104	-21.38
224.338	-5.38
224.573	-2.38
224.808	-25.38
225.042	-16.38
225.277	-13.38
225.511	5.62
225.746	3.62
225.98	8.62
226.215	-3.38
226.449	9.62
226.683	19.62
226.918	35.62
227.152	30.62
227.387	28.62
227.621	24.62
227.856	43.62
228.09	32.62
228.324	56.62
228.559	52.62
228.793	70.62
229.027	71.62
229.262	93.62
229.496	86.62
229.73	115.62
229.964	122.62
230.199	102.62
230.433	99.62
230.667	115.62
230.901	98.62
231.136	88.62
231.37	92.62
231.604	111.62
231.838	101.62
232.072	98.62
232.306	101.62
232.541	89.62
232.775	86.62
233.009	111.62
233.243	96.62
233.477	114.62
233.711	91.62
233.945	94.62
234.179	91.62
234.413	94.62
234.647	108.62
234.881	101.62
235.115	108.62
235.349	110.62
235.583	102.62
235.817	112.62
236.051	105.62
236.285	108.62
236.519	120.62
236.753	112.62
236.987	129.62
237.221	150.62
237.455	180.62
237.689	154.62
237.922	129.62
238.156	122.62
238.39	103.62
238.624	100.62
238.858	118.62
239.091	100.62
239.325	106.62
239.559	114.62
239.793	116.62
240.027	106.62
240.26	114.62
240.494	115.62
240.728	128.62
240.961	108.62
241.195	124.62
241.429	127.62
241.662	114.62
241.896	116.62
242.13	105.62
242.363	117.62
242.597	109.62
242.83	110.62
243.064	133.62
243.298	107.62
243.531	128.62
243.765	112.62
243.998	113.62
244.232	117.62
244.465	106.62
244.699	110.62
244.932	122.62
245.166	107.62
245.399	126.62
245.633	116.62
245.866	133.62
246.099	124.62
246.333	123.62
246.566	123.62
246.8	121.62
247.033	117.62
247.266	110.62
247.5	137.62
247.733	144.62
247.966	142.62
248.2	134.62
248.433	143.62
248.666	145.62
248.899	150.62
249.133	158.62
249.366	151.62
249.599	167.62
249.832	146.62
250.066	162.62
250.299	152.62
250.532	148.62
250.765	181.62
250.998	169.62
251.231	177.62
251.465	147.62
251.698	150.62
251.931	163.62
252.164	152.62
252.397	159.62
252.63	163.62
252.863	161.62
253.096	157.62
253.329	181.62
253.562	164.62
253.795	171.62
254.028	163.62
254.261	166.62
254.494	194.62
254.727	193.62
254.96	218.62
255.193	213.62
255.426	204.62
255.659	185.62
255.892	185.62
256.124	192.62
256.357	184.62
256.59	179.62
256.823	169.62
257.056	158.62
257.289	170.62
257.521	160.62
257.754	171.62
257.987	177.62
258.22	176.62
258.452	175.62
258.685	164.62
258.918	175.62
259.151	175.62
259.383	175.62
259.616	172.62
259.849	171.62
260.081	194.62
260.314	202.62
260.547	196.62
260.779	179.62
261.012	195.62
261.244	178.62
261.477	180.62
261.71	168.62
261.942	167.62
262.175	185.62
262.407	194.62
262.64	181.62
262.872	170.62
263.105	168.62
263.337	181.62
263.57	178.62
263.802	173.62
264.035	172.62
264.267	169.62
264.499	166.62
264.732	171.62
264.964	174.62
265.197	172.62
265.429	163.62
265.661	167.62
265.894	162.62
266.126	179.62
266.358	162.62
266.591	166.62
266.823	174.62
267.055	172.62
267.287	194.62
267.52	174.62
267.752	174.62
267.984	189.62
268.216	154.62
268.448	189.62
268.681	180.62
268.913	197.62
269.145	216.62
269.377	209.62
269.609	219.62
269.841	215.62
270.073	213.62
270.306	227.62
270.538	255.62
270.77	245.62
271.002	234.62
271.234	234.62
271.466	248.62
271.698	235.62
271.93	236.62
272.162	248.62
272.394	260.62
272.626	222.62
272.858	218.62
273.09	222.62
273.322	204.62
273.553	209.62
273.785	214.62
274.017	199.62
274.249	194.62
274.481	202.62
274.713	196.62
274.945	208.62
275.176	227.62
275.408	209.62
275.64	207.62
275.872	190.62
276.104	203.62
276.335	224.62
276.567	199.62
276.799	224.62
277.031	245.62
277.262	259.62
277.494	246.62
277.726	241.62
277.957	223.62
278.189	208.62
278.421	206.62
278.652	207.62
278.884	200.62
279.115	199.62
279.347	198.62
279.579	216.62
279.81	201.62
280.042	214.62
280.273	190.62
280.505	196.62
280.736	203.62
280.968	192.62
281.199	217.62
281.431	213.62
281.662	199.62
281.894	208.62
282.125	222.62
282.356	218.62
282.588	235.62
282.819	243.62
283.051	227.62
283.282	213.62
283.513	196.62
283.745	210.62
283.976	216.62
284.207	217.62
284.439	204.62
284.67	215.62
284.901	206.62
285.132	197.62
285.364	203.62
285.595	206.62
285.826	210.62
286.057	214.62
286.288	221.62
286.52	220.62
286.751	202.62
286.982	223.62
287.213	224.62
287.444	215.62
287.675	217.62
287.906	236.62
288.138	213.62
288.369	233.62
288.6	224.62
288.831	229.62
289.062	225.62
289.293	224.62
289.524	201.62
289.755	218.62
289.986	213.62
290.217	215.62
290.448	207.62
290.679	212.62
290.91	215.62
291.141	209.62
291.371	225.62
291.602	193.62
291.833	221.62
292.064	217.62
292.295	210.62
292.526	209.62
292.757	226.62
292.987	235.62
293.218	205.62
293.449	221.62
293.68	196.62
293.91	209.62
294.141	221.62
294.372	222.62
294.603	213.62
294.833	214.62
295.064	231.62
295.295	219.62
295.525	227.62
295.756	204.62
295.987	222.62
296.217	236.62
296.448	235.62
296.679	245.62
296.909	230.62
297.14	222.62
297.37	226.62
297.601	220.62
297.831	240.62
298.062	249.62
298.292	203.62
298.523	223.62
298.753	217.62
298.984	222.62
299.214	226.62
299.445	231.62
299.675	239.62
299.905	237.62
300.136	217.62
300.366	238.62
300.597	225.62
300.827	244.62
301.057	244.62
301.288	253.62
301.518	252.62
301.748	239.62
301.979	231.62
302.209	226.62
302.439	248.62
302.669	250.62
302.9	223.62
303.13	234.62
303.36	235.62
303.59	251.62
303.82	255.62
304.051	259.62
304.281	234.62
304.511	239.62
304.741	250.62
304.971	228.62
305.201	243.62
305.431	243.62
305.661	248.62
305.891	251.62
306.121	233.62
306.352	235.62
306.582	231.62
306.812	245.62
307.042	234.62
307.272	245.62
307.502	256.62
307.731	271.62
307.961	248.62
308.191	239.62
308.421	257.62
308.651	250.62
308.881	267.62
309.111	263.62
309.341	261.62
309.571	280.62
309.8	287.62
310.03	286.62
310.26	283.62
310.49	279.62
310.72	277.62
310.949	300.62
311.179	302.62
311.409	297.62
311.639	281.62
311.868	277.62
312.098	280.62
312.328	287.62
312.557	312.62
312.787	300.62
313.017	288.62
313.246	297.62
313.476	291.62
313.706	284.62
313.935	316.62
314.165	297.62
314.394	313.62
314.624	293.62
314.853	279.62
315.083	287.62
315.312	253.62
315.542	284.62
315.771	294.62
316.001	275.62
316.23	283.62
316.46	270.62
316.689	258.62
316.919	295.62
317.148	290.62
317.377	293.62
317.607	301.62
317.836	283.62
318.065	307.62
318.295	277.62
318.524	286.62
318.753	284.62
318.983	288.62
319.212	276.62
319.441	290.62
319.67	276.62
319.9	285.62
320.129	293.62
320.358	281.62
320.587	306.62
320.816	296.62
321.046	291.62
321.275	298.62
321.504	300.62
321.733	304.62
321.962	316.62
322.191	320.62
322.42	339.62
322.649	346.62
322.878	352.62
323.108	362.62
323.337	381.62
323.566	409.62
323.795	422.62
324.024	485.62
324.253	606.62
324.482	913.62
324.71	1343.62
324.939	1714.62
325.168	1432.62
325.397	754.62
325.626	521.62
325.855	430.62
326.084	407.62
326.313	384.62
326.542	405.62
326.77	451.62
326.999	577.62
327.228	775.62
327.457	1142.62
327.686	1263.62
327.914	852.62
328.143	574.62
328.372	490.62
328.6	471.62
328.829	442.62
329.058	446.62
329.287	471.62
329.515	425.62
329.744	400.62
329.972	399.62
330.201	432.62
330.43	443.62
330.658	466.62
330.887	462.62
331.115	462.62
331.344	403.62
331.572	359.62
331.801	386.62
332.03	374.62
332.258	368.62
332.486	330.62
332.715	334.62
332.943	340.62
333.172	339.62
333.4	343.62
333.629	344.62
333.857	347.62
334.085	339.62
334.314	386.62
334.542	399.62
334.771	386.62
334.999	372.62
335.227	337.62
335.455	338.62
335.684	346.62
335.912	320.62
336.14	312.62
336.369	340.62
336.597	336.62
336.825	325.62
337.053	325.62
337.281	326.62
337.51	304.62
337.738	319.62
337.966	299.62
338.194	312.62
338.422	321.62
338.65	320.62
338.878	321.62
339.106	304.62
339.334	306.62
339.562	311.62
339.79	299.62
340.018	293.62
340.246	289.62
340.474	308.62
340.702	325.62
340.93	328.62
341.158	318.62
341.386	300.62
341.614	318.62
341.842	328.62
342.07	299.62
342.298	296.62
342.526	290.62
342.754	310.62
342.981	306.62
343.209	310.62
343.437	289.62
343.665	303.62
343.893	308.62
344.12	313.62
344.348	294.62
344.576	320.62
344.804	326.62
345.031	319.62
345.259	339.62
345.487	314.62
345.714	314.62
345.942	312.62
346.17	313.62
346.397	322.62
346.625	314.62
346.853	305.62
347.08	321.62
347.308	313.62
347.535	315.62
347.763	315.62
347.99	307.62
348.218	320.62
348.445	320.62
348.673	306.62
348.9	310.62
349.128	291.62
349.355	286.62
349.583	290.62
349.81	298.62
350.037	291.62
350.265	300.62
350.492	312.62
350.72	289.62
350.947	290.62
351.174	292.62
351.402	303.62
351.629	318.62
351.856	299.62
352.083	306.62
352.311	298.62
352.538	314.62
352.765	306.62
352.992	305.62
353.22	286.62
353.447	290.62
353.674	298.62
353.901	272.62
354.128	277.62
354.355	283.62
354.583	268.62
354.81	283.62
355.037	267.62
355.264	280.62
355.491	286.62
355.718	285.62
355.945	283.62
356.172	260.62
356.399	254.62
356.626	278.62
356.853	278.62
357.08	268.62
357.307	270.62
357.534	280.62
357.761	285.62
357.988	281.62
358.215	275.62
358.441	271.62
358.668	273.62
358.895	277.62
359.122	272.62
359.349	287.62
359.576	293.62
359.802	332.62
360.029	326.62
360.256	327.62
360.483	327.62
360.709	316.62
360.936	322.62
361.163	295.62
361.39	289.62
361.616	295.62
361.843	296.62
362.07	307.62
362.296	291.62
362.523	290.62
362.749	299.62
362.976	296.62
363.203	269.62
363.429	274.62
363.656	264.62
363.882	292.62
364.109	276.62
364.335	283.62
364.562	282.62
364.788	259.62
365.015	292.62
365.241	292.62
365.468	273.62
365.694	276.62
365.92	282.62
366.147	274.62
366.373	285.62
366.599	277.62
366.826	278.62
367.052	271.62
367.278	261.62
367.505	278.62
367.731	296.62
367.957	302.62
368.184	280.62
368.41	283.62
368.636	289.62
368.862	280.62
369.089	269.62
369.315	270.62
369.541	278.62
369.767	249.62
369.993	262.62
370.219	264.62
370.445	274.62
370.672	274.62
370.898	259.62
371.124	274.62
371.35	277.62
371.576	268.62
371.802	268.62
372.028	278.62
372.254	259.62
372.48	256.62
372.706	266.62
372.932	273.62
373.158	268.62
373.384	272.62
373.61	260.62
373.835	266.62
374.061	279.62
374.287	270.62
374.513	260.62
374.739	273.62
374.965	265.62
375.191	266.62
375.416	257.62
375.642	295.62
375.868	277.62
376.094	268.62
376.319	276.62
376.545	254.62
376.771	268.62
376.997	275.62
377.222	244.62
377.448	258.62
377.674	261.62
377.899	256.62
378.125	251.62
378.35	268.62
378.576	267.62
378.802	250.62
379.027	248.62
379.253	258.62
379.478	256.62
379.704	275.62
379.929	255.62
380.155	271.62
380.38	262.62
380.606	274.62
380.831	273.62
381.057	274.62
381.282	255.62
381.507	272.62
381.733	269.62
381.958	252.62
382.184	278.62
382.409	259.62
382.634	253.62
382.86	279.62
383.085	256.62
383.31	280.62
383.535	263.62
383.761	265.62
383.986	254.62
384.211	275.62
384.436	278.62
384.662	269.62
384.887	270.62
385.112	256.62
385.337	256.62
385.562	278.62
385.787	287.62
386.013	282.62
386.238	294.62
386.463	258.62
386.688	274.62
386.913	273.62
387.138	274.62
387.363	282.62
387.588	268.62
387.813	287.62
388.038	281.62
388.263	263.62
388.488	278.62
388.713	266.62
388.938	268.62
389.163	275.62
389.387	266.62
389.612	260.62
389.837	276.62
390.062	293.62
390.287	290.62
390.512	295.62
390.736	279.62
390.961	275.62
391.186	279.62
391.411	259.62
391.636	271.62
391.86	296.62
392.085	274.62
392.31	275.62
392.534	284.62
392.759	276.62
392.984	272.62
393.208	275.62
393.433	271.62
393.658	256.62
393.882	269.62
394.107	267.62
394.331	276.62
394.556	275.62
394.78	268.62
395.005	273.62
395.229	269.62
395.454	272.62
395.678	285.62
395.903	287.62
396.127	280.62
396.352	297.62
396.576	305.62
396.801	284.62
397.025	274.62
397.249	291.62
397.474	283.62
397.698	296.62
397.922	296.62
398.147	304.62
398.371	289.62
398.595	311.62
398.82	294.62
399.044	309.62
399.268	313.62
399.492	316.62
399.717	335.62
399.941	355.62
400.165	361.62
400.389	366.62
400.613	344.62
400.837	335.62
401.062	306.62
401.286	313.62
401.51	292.62
401.734	302.62
401.958	281.62
402.182	305.62
402.406	296.62
402.63	319.62
402.854	299.62
403.078	298.62
403.302	311.62
403.526	306.62
403.75	331.62
403.974	322.62
404.198	310.62
404.422	313.62
404.645	327.62
404.869	326.62
405.093	342.62
405.317	363.62
405.541	379.62
405.765	349.62
405.988	334.62
406.212	338.62
406.436	342.62
406.66	367.62
406.883	334.62
407.107	370.62
407.331	370.62
407.555	404.62
407.778	408.62
408.002	368.62
408.226	351.62
408.449	325.62
408.673	328.62
408.896	350.62
409.12	375.62
409.344	383.62
409.567	319.62
409.791	321.62
410.014	321.62
410.238	297.62
410.461	311.62
410.685	328.62
410.908	316.62
411.132	371.62
411.355	369.62
411.578	336.62
411.802	335.62
412.025	308.62
412.249	309.62
412.472	321.62
412.695	344.62
412.919	344.62
413.142	310.62
413.365	319.62
413.589	298.62
413.812	304.62
414.035	318.62
414.258	312.62
414.482	276.62
414.705	321.62
414.928	311.62
415.151	304.62
415.374	281.62
415.597	292.62
415.821	281.62
416.044	310.62
416.267	290.62
416.49	287.62
416.713	301.62
416.936	299.62
417.159	304.62
417.382	308.62
417.605	304.62
417.828	336.62
418.051	307.62
418.274	295.62
418.497	289.62
418.72	299.62
418.943	307.62
419.166	305.62
419.389	332.62
419.611	327.62
419.834	316.62
420.057	323.62
420.28	314.62
420.503	313.62
420.726	319.62
420.948	334.62
421.171	359.62
421.394	359.62
421.617	326.62
421.839	327.62
422.062	322.62
422.285	318.62
422.507	360.62
422.73	408.62
422.953	382.62
423.175	344.62
423.398	336.62
423.621	327.62
423.843	367.62
424.066	327.62
424.288	348.62
424.511	361.62
424.733	390.62
424.956	451.62
425.178	422.62
425.401	408.62
425.623	432.62
425.846	367.62
426.068	332.62
426.291	351.62
426.513	332.62
426.735	346.62
426.958	369.62
427.18	426.62
427.402	474.62
427.625	551.62
427.847	498.62
428.069	428.62
428.292	394.62
428.514	339.62
428.736	340.62
428.958	325.62
429.181	318.62
429.403	331.62
429.625	337.62
429.847	347.62
430.069	371.62
430.292	361.62
430.514	338.62
430.736	308.62
430.958	306.62
431.18	278.62
431.402	291.62
431.624	285.62
431.846	289.62
432.068	288.62
432.29	308.62
432.512	282.62
432.734	313.62
432.956	295.62
433.178	308.62
433.4	306.62
433.622	290.62
433.844	283.62
434.066	289.62
434.287	288.62
434.509	303.62
434.731	303.62
434.953	314.62
435.175	327.62
435.397	347.62
435.618	338.62
435.84	393.62
436.062	448.62
436.284	439.62
436.505	394.62
436.727	363.62
436.949	329.62
437.17	318.62
437.392	327.62
437.614	329.62
437.835	372.62
438.057	422.62
438.278	467.62
438.5	478.62
438.721	499.62
438.943	469.62
439.165	396.62
439.386	360.62
439.608	366.62
439.829	357.62
440.05	374.62
440.272	402.62
440.493	377.62
440.715	353.62
440.936	332.62
441.158	328.62
441.379	309.62
441.6	329.62
441.822	345.62
442.043	368.62
442.264	415.62
442.486	436.62
442.707	374.62
442.928	363.62
443.149	365.62
443.371	387.62
443.592	409.62
443.813	472.62
444.034	480.62
444.255	404.62
444.476	357.62
444.698	356.62
444.919	348.62
445.14	438.62
445.361	404.62
445.582	375.62
445.803	416.62
446.024	482.62
446.245	469.62
446.466	451.62
446.687	372.62
446.908	350.62
447.129	340.62
447.35	310.62
447.571	334.62
447.792	330.62
448.013	305.62
448.234	343.62
448.455	376.62
448.675	438.62
448.896	489.62
449.117	441.62
449.338	412.62
449.559	469.62
449.779	517.62
450	435.62
450.221	347.62
450.442	343.62
450.662	316.62
450.883	334.62
451.104	323.62
451.324	326.62
451.545	296.62
451.766	293.62
451.986	305.62
452.207	270.62
452.428	299.62
452.648	291.62
452.869	301.62
453.089	298.62
453.31	288.62
453.53	305.62
453.751	300.62
453.971	295.62
454.192	303.62
454.412	312.62
454.633	286.62
454.853	273.62
455.073	284.62
455.294	319.62
455.514	350.62
455.734	350.62
455.955	290.62
456.175	275.62
456.395	264.62
456.616	268.62
456.836	277.62
457.056	284.62
457.276	262.62
457.497	272.62
457.717	264.62
457.937	278.62
458.157	266.62
458.377	274.62
458.598	295.62
458.818	361.62
459.038	381.62
459.258	387.62
459.478	348.62
459.698	300.62
459.918	309.62
460.138	309.62
460.358	305.62
460.578	278.62
460.798	308.62
461.018	286.62
461.238	304.62
461.458	304.62
461.678	288.62
461.898	282.62
462.118	283.62
462.338	302.62
462.558	300.62
462.777	289.62
462.997	311.62
463.217	320.62
463.437	316.62
463.657	294.62
463.876	289.62
464.096	310.62
464.316	288.62
464.536	312.62
464.755	320.62
464.975	323.62
465.195	353.62
465.414	405.62
465.634	357.62
465.854	332.62
466.073	312.62
466.293	297.62
466.512	279.62
466.732	269.62
466.951	286.62
467.171	285.62
467.391	288.62
467.61	320.62
467.829	300.62
468.049	279.62
468.268	285.62
468.488	291.62
468.707	274.62
468.927	283.62
469.146	257.62
469.365	276.62
469.585	282.62
469.804	293.62
470.023	296.62
470.243	309.62
470.462	282.62
470.681	315.62
470.901	305.62
471.12	295.62
471.339	306.62
471.558	314.62
471.777	302.62
471.997	284.62
472.216	296.62
472.435	330.62
472.654	306.62
472.873	287.62
473.092	293.62
473.311	300.62
473.53	315.62
473.749	308.62
473.968	318.62
474.187	397.62
474.406	430.62
474.625	336.62
474.844	311.62
475.063	283.62
475.282	308.62
475.501	287.62
475.72	290.62
475.939	312.62
476.158	310.62
476.377	296.62
476.596	287.62
476.814	292.62
477.033	305.62
477.252	311.62
477.471	313.62
477.69	304.62
477.908	313.62
478.127	304.62
478.346	327.62
478.564	319.62
478.783	322.62
479.002	325.62
479.22	320.62
479.439	338.62
479.658	340.62
479.876	358.62
480.095	347.62
480.313	364.62
480.532	366.62
480.751	342.62
480.969	370.62
481.188	406.62
481.406	412.62
481.624	384.62
481.843	354.62
482.061	354.62
482.28	351.62
482.498	335.62
482.717	341.62
482.935	347.62
483.153	331.62
483.372	330.62
483.59	332.62
483.808	331.62
484.027	332.62
484.245	353.62
484.463	344.62
484.681	346.62
484.9	358.62
485.118	346.62
485.336	338.62
485.554	336.62
485.772	355.62
485.99	346.62
486.209	357.62
486.427	359.62
486.645	375.62
486.863	346.62
487.081	372.62
487.299	372.62
487.517	366.62
487.735	367.62
487.953	371.62
488.171	357.62
488.389	373.62
488.607	368.62
488.825	373.62
489.043	368.62
489.261	362.62
489.479	360.62
489.696	359.62
489.914	362.62
490.132	377.62
490.35	385.62
490.568	371.62
490.786	388.62
491.003	393.62
491.221	399.62
491.439	388.62
491.657	410.62
491.874	418.62
492.092	410.62
492.31	413.62
492.527	415.62
492.745	425.62
492.963	423.62
493.18	424.62
493.398	423.62
493.615	434.62
493.833	434.62
494.05	426.62
494.268	436.62
494.485	420.62
494.703	398.62
494.92	419.62
495.138	413.62
495.355	449.62
495.573	430.62
495.79	432.62
496.008	443.62
496.225	424.62
496.442	434.62
496.66	441.62
496.877	431.62
497.094	423.62
497.312	446.62
497.529	435.62
497.746	450.62
497.963	447.62
498.181	467.62
498.398	455.62
498.615	461.62
498.832	484.62
499.049	474.62
499.267	458.62
499.484	469.62
499.701	495.62
499.918	483.62
500.135	502.62
500.352	520.62
500.569	526.62
500.786	559.62
501.003	504.62
501.22	532.62
501.437	498.62
501.654	494.62
501.871	488.62
502.088	518.62
