Data from 1982.PennyLincolnUp.Lamp.En5.5.200Scan.071819.P1_HRD10591_16-45-48-961.txt Node
Date: Thu Jul 18 16:45:48 EDT 2019
User: cochatt
Spectrometer: HR+D1059
Trigger mode: 1
Integration Time (sec): 1.000000E-1
Scans to average: 1
Electric dark correction enabled: true
Nonlinearity correction enabled: false
Boxcar width: 0
XAxis mode: Wavelengths
Number of Pixels in Spectrum: 2048
>>>>>Begin Spectral Data<<<<<
223.165	-13.44
223.4	-13.44
223.635	-13.44
223.869	-24.44
224.104	-9.44
224.338	-24.44
224.573	-13.44
224.808	-11.44
225.042	-2.44
225.277	3.56
225.511	-5.44
225.746	9.56
225.98	-1.44
226.215	14.56
226.449	4.56
226.683	14.56
226.918	32.56
227.152	26.56
227.387	33.56
227.621	28.56
227.856	38.56
228.09	48.56
228.324	50.56
228.559	50.56
228.793	69.56
229.027	72.56
229.262	97.56
229.496	100.56
229.73	108.56
229.964	99.56
230.199	101.56
230.433	89.56
230.667	98.56
230.901	96.56
231.136	92.56
231.37	89.56
231.604	96.56
231.838	100.56
232.072	96.56
232.306	96.56
232.541	86.56
232.775	98.56
233.009	99.56
233.243	100.56
233.477	101.56
233.711	97.56
233.945	98.56
234.179	112.56
234.413	98.56
234.647	103.56
234.881	97.56
235.115	99.56
235.349	104.56
235.583	106.56
235.817	99.56
236.051	105.56
236.285	114.56
236.519	99.56
236.753	110.56
236.987	129.56
237.221	161.56
237.455	195.56
237.689	128.56
237.922	122.56
238.156	124.56
238.39	105.56
238.624	112.56
238.858	114.56
239.091	84.56
239.325	92.56
239.559	100.56
239.793	111.56
240.027	121.56
240.26	106.56
240.494	117.56
240.728	126.56
240.961	107.56
241.195	126.56
241.429	123.56
241.662	107.56
241.896	104.56
242.13	117.56
242.363	113.56
242.597	115.56
242.83	123.56
243.064	114.56
243.298	103.56
243.531	118.56
243.765	122.56
243.998	129.56
244.232	125.56
244.465	112.56
244.699	120.56
244.932	124.56
245.166	123.56
245.399	128.56
245.633	114.56
245.866	120.56
246.099	117.56
246.333	130.56
246.566	124.56
246.8	112.56
247.033	136.56
247.266	125.56
247.5	148.56
247.733	131.56
247.966	135.56
248.2	142.56
248.433	140.56
248.666	148.56
248.899	142.56
249.133	169.56
249.366	158.56
249.599	155.56
249.832	129.56
250.066	148.56
250.299	156.56
250.532	164.56
250.765	177.56
250.998	174.56
251.231	159.56
251.465	168.56
251.698	165.56
251.931	142.56
252.164	163.56
252.397	164.56
252.63	170.56
252.863	160.56
253.096	180.56
253.329	166.56
253.562	178.56
253.795	176.56
254.028	174.56
254.261	169.56
254.494	187.56
254.727	200.56
254.96	202.56
255.193	213.56
255.426	196.56
255.659	184.56
255.892	179.56
256.124	184.56
256.357	174.56
256.59	176.56
256.823	172.56
257.056	141.56
257.289	166.56
257.521	184.56
257.754	176.56
257.987	171.56
258.22	183.56
258.452	160.56
258.685	167.56
258.918	167.56
259.151	160.56
259.383	188.56
259.616	170.56
259.849	180.56
260.081	176.56
260.314	191.56
260.547	204.56
260.779	191.56
261.012	174.56
261.244	191.56
261.477	172.56
261.71	187.56
261.942	189.56
262.175	172.56
262.407	188.56
262.64	172.56
262.872	178.56
263.105	176.56
263.337	166.56
263.57	184.56
263.802	176.56
264.035	163.56
264.267	168.56
264.499	159.56
264.732	158.56
264.964	161.56
265.197	158.56
265.429	170.56
265.661	176.56
265.894	156.56
266.126	176.56
266.358	172.56
266.591	179.56
266.823	172.56
267.055	186.56
267.287	177.56
267.52	184.56
267.752	164.56
267.984	180.56
268.216	181.56
268.448	185.56
268.681	179.56
268.913	188.56
269.145	200.56
269.377	220.56
269.609	212.56
269.841	195.56
270.073	210.56
270.306	225.56
270.538	225.56
270.77	243.56
271.002	228.56
271.234	219.56
271.466	218.56
271.698	240.56
271.93	256.56
272.162	264.56
272.394	272.56
272.626	218.56
272.858	220.56
273.09	189.56
273.322	212.56
273.553	190.56
273.785	204.56
274.017	217.56
274.249	215.56
274.481	205.56
274.713	189.56
274.945	221.56
275.176	199.56
275.408	194.56
275.64	210.56
275.872	211.56
276.104	210.56
276.335	230.56
276.567	200.56
276.799	220.56
277.031	234.56
277.262	231.56
277.494	241.56
277.726	230.56
277.957	210.56
278.189	221.56
278.421	215.56
278.652	224.56
278.884	216.56
279.115	212.56
279.347	220.56
279.579	185.56
279.81	209.56
280.042	212.56
280.273	209.56
280.505	218.56
280.736	192.56
280.968	208.56
281.199	210.56
281.431	212.56
281.662	199.56
281.894	206.56
282.125	215.56
282.356	212.56
282.588	232.56
282.819	244.56
283.051	207.56
283.282	201.56
283.513	216.56
283.745	209.56
283.976	216.56
284.207	222.56
284.439	198.56
284.67	212.56
284.901	203.56
285.132	208.56
285.364	206.56
285.595	195.56
285.826	201.56
286.057	204.56
286.288	202.56
286.52	210.56
286.751	213.56
286.982	229.56
287.213	199.56
287.444	218.56
287.675	233.56
287.906	218.56
288.138	234.56
288.369	227.56
288.6	213.56
288.831	226.56
289.062	221.56
289.293	217.56
289.524	215.56
289.755	204.56
289.986	214.56
290.217	211.56
290.448	203.56
290.679	207.56
290.91	202.56
291.141	193.56
291.371	211.56
291.602	214.56
291.833	213.56
292.064	195.56
292.295	205.56
292.526	206.56
292.757	211.56
292.987	220.56
293.218	228.56
293.449	230.56
293.68	209.56
293.91	221.56
294.141	228.56
294.372	213.56
294.603	231.56
294.833	213.56
295.064	214.56
295.295	237.56
295.525	234.56
295.756	224.56
295.987	217.56
296.217	261.56
296.448	262.56
296.679	230.56
296.909	218.56
297.14	204.56
297.37	220.56
297.601	238.56
297.831	211.56
298.062	232.56
298.292	228.56
298.523	242.56
298.753	219.56
298.984	209.56
299.214	251.56
299.445	228.56
299.675	221.56
299.905	248.56
300.136	237.56
300.366	225.56
300.597	238.56
300.827	234.56
301.057	251.56
301.288	250.56
301.518	248.56
301.748	242.56
301.979	241.56
302.209	241.56
302.439	248.56
302.669	237.56
302.9	228.56
303.13	259.56
303.36	236.56
303.59	233.56
303.82	251.56
304.051	255.56
304.281	248.56
304.511	246.56
304.741	241.56
304.971	240.56
305.201	245.56
305.431	228.56
305.661	240.56
305.891	232.56
306.121	241.56
306.352	228.56
306.582	253.56
306.812	230.56
307.042	231.56
307.272	226.56
307.502	231.56
307.731	262.56
307.961	252.56
308.191	259.56
308.421	253.56
308.651	264.56
308.881	258.56
309.111	270.56
309.341	268.56
309.571	273.56
309.8	266.56
310.03	277.56
310.26	272.56
310.49	294.56
310.72	282.56
310.949	324.56
311.179	290.56
311.409	270.56
311.639	274.56
311.868	304.56
312.098	298.56
312.328	286.56
312.557	301.56
312.787	309.56
313.017	310.56
313.246	286.56
313.476	293.56
313.706	278.56
313.935	301.56
314.165	276.56
314.394	304.56
314.624	283.56
314.853	289.56
315.083	277.56
315.312	297.56
315.542	277.56
315.771	269.56
316.001	275.56
316.23	265.56
316.46	296.56
316.689	317.56
316.919	298.56
317.148	295.56
317.377	288.56
317.607	278.56
317.836	284.56
318.065	275.56
318.295	299.56
318.524	282.56
318.753	270.56
318.983	259.56
319.212	291.56
319.441	292.56
319.67	291.56
319.9	290.56
320.129	279.56
320.358	276.56
320.587	281.56
320.816	292.56
321.046	298.56
321.275	303.56
321.504	300.56
321.733	296.56
321.962	321.56
322.191	323.56
322.42	333.56
322.649	340.56
322.878	352.56
323.108	345.56
323.337	388.56
323.566	384.56
323.795	418.56
324.024	466.56
324.253	588.56
324.482	820.56
324.71	1258.56
324.939	1555.56
325.168	1312.56
325.397	694.56
325.626	497.56
325.855	406.56
326.084	390.56
326.313	379.56
326.542	393.56
326.77	421.56
326.999	522.56
327.228	741.56
327.457	1058.56
327.686	1168.56
327.914	786.56
328.143	540.56
328.372	460.56
328.6	467.56
328.829	422.56
329.058	448.56
329.287	445.56
329.515	407.56
329.744	379.56
329.972	382.56
330.201	389.56
330.43	442.56
330.658	426.56
330.887	456.56
331.115	434.56
331.344	389.56
331.572	375.56
331.801	372.56
332.03	330.56
332.258	336.56
332.486	326.56
332.715	326.56
332.943	331.56
333.172	324.56
333.4	314.56
333.629	318.56
333.857	343.56
334.085	365.56
334.314	361.56
334.542	374.56
334.771	368.56
334.999	364.56
335.227	341.56
335.455	331.56
335.684	322.56
335.912	331.56
336.14	308.56
336.369	323.56
336.597	332.56
336.825	324.56
337.053	326.56
337.281	307.56
337.51	321.56
337.738	312.56
337.966	298.56
338.194	314.56
338.422	324.56
338.65	310.56
338.878	306.56
339.106	302.56
339.334	302.56
339.562	305.56
339.79	316.56
340.018	298.56
340.246	316.56
340.474	314.56
340.702	308.56
340.93	315.56
341.158	311.56
341.386	298.56
341.614	307.56
341.842	324.56
342.07	329.56
342.298	313.56
342.526	292.56
342.754	312.56
342.981	296.56
343.209	301.56
343.437	312.56
343.665	301.56
343.893	292.56
344.12	317.56
344.348	310.56
344.576	293.56
344.804	316.56
345.031	331.56
345.259	328.56
345.487	309.56
345.714	323.56
345.942	314.56
346.17	322.56
346.397	297.56
346.625	290.56
346.853	291.56
347.08	290.56
347.308	311.56
347.535	334.56
347.763	317.56
347.99	316.56
348.218	287.56
348.445	314.56
348.673	306.56
348.9	307.56
349.128	308.56
349.355	310.56
349.583	320.56
349.81	283.56
350.037	302.56
350.265	293.56
350.492	305.56
350.72	283.56
350.947	301.56
351.174	301.56
351.402	305.56
351.629	306.56
351.856	314.56
352.083	319.56
352.311	315.56
352.538	312.56
352.765	300.56
352.992	314.56
353.22	316.56
353.447	310.56
353.674	293.56
353.901	293.56
354.128	281.56
354.355	268.56
354.583	262.56
354.81	283.56
355.037	292.56
355.264	273.56
355.491	280.56
355.718	271.56
355.945	250.56
356.172	271.56
356.399	282.56
356.626	269.56
356.853	258.56
357.08	285.56
357.307	280.56
357.534	280.56
357.761	271.56
357.988	281.56
358.215	276.56
358.441	284.56
358.668	276.56
358.895	290.56
359.122	280.56
359.349	279.56
359.576	295.56
359.802	329.56
360.029	332.56
360.256	330.56
360.483	309.56
360.709	299.56
360.936	301.56
361.163	284.56
361.39	299.56
361.616	293.56
361.843	304.56
362.07	288.56
362.296	307.56
362.523	285.56
362.749	280.56
362.976	274.56
363.203	281.56
363.429	260.56
363.656	286.56
363.882	296.56
364.109	284.56
364.335	301.56
364.562	270.56
364.788	260.56
365.015	273.56
365.241	286.56
365.468	278.56
365.694	307.56
365.92	276.56
366.147	279.56
366.373	277.56
366.599	286.56
366.826	280.56
367.052	269.56
367.278	268.56
367.505	285.56
367.731	276.56
367.957	281.56
368.184	281.56
368.41	280.56
368.636	276.56
368.862	294.56
369.089	285.56
369.315	263.56
369.541	250.56
369.767	281.56
369.993	279.56
370.219	265.56
370.445	272.56
370.672	256.56
370.898	279.56
371.124	268.56
371.35	275.56
371.576	283.56
371.802	263.56
372.028	289.56
372.254	275.56
372.48	265.56
372.706	280.56
372.932	265.56
373.158	256.56
373.384	286.56
373.61	286.56
373.835	281.56
374.061	264.56
374.287	291.56
374.513	278.56
374.739	283.56
374.965	275.56
375.191	277.56
375.416	265.56
375.642	265.56
375.868	272.56
376.094	262.56
376.319	273.56
376.545	263.56
376.771	270.56
376.997	275.56
377.222	267.56
377.448	266.56
377.674	266.56
377.899	282.56
378.125	269.56
378.35	273.56
378.576	266.56
378.802	253.56
379.027	256.56
379.253	264.56
379.478	238.56
379.704	267.56
379.929	274.56
380.155	262.56
380.38	283.56
380.606	279.56
380.831	267.56
381.057	289.56
381.282	267.56
381.507	256.56
381.733	256.56
381.958	263.56
382.184	271.56
382.409	256.56
382.634	272.56
382.86	267.56
383.085	284.56
383.31	284.56
383.535	281.56
383.761	280.56
383.986	273.56
384.211	267.56
384.436	266.56
384.662	280.56
384.887	288.56
385.112	268.56
385.337	276.56
385.562	278.56
385.787	285.56
386.013	279.56
386.238	286.56
386.463	296.56
386.688	286.56
386.913	293.56
387.138	285.56
387.363	285.56
387.588	267.56
387.813	295.56
388.038	267.56
388.263	265.56
388.488	284.56
388.713	275.56
388.938	292.56
389.163	281.56
389.387	288.56
389.612	289.56
389.837	286.56
390.062	281.56
390.287	270.56
390.512	267.56
390.736	285.56
390.961	293.56
391.186	288.56
391.411	295.56
391.636	288.56
391.86	292.56
392.085	272.56
392.31	283.56
392.534	272.56
392.759	274.56
392.984	284.56
393.208	276.56
393.433	279.56
393.658	276.56
393.882	290.56
394.107	285.56
394.331	283.56
394.556	268.56
394.78	278.56
395.005	288.56
395.229	277.56
395.454	288.56
395.678	280.56
395.903	296.56
396.127	308.56
396.352	304.56
396.576	294.56
396.801	275.56
397.025	300.56
397.249	307.56
397.474	276.56
397.698	286.56
397.922	312.56
398.147	315.56
398.371	329.56
398.595	294.56
398.82	317.56
399.044	306.56
399.268	317.56
399.492	322.56
399.717	336.56
399.941	343.56
400.165	380.56
400.389	365.56
400.613	334.56
400.837	299.56
401.062	316.56
401.286	302.56
401.51	304.56
401.734	327.56
401.958	316.56
402.182	332.56
402.406	334.56
402.63	322.56
402.854	306.56
403.078	310.56
403.302	318.56
403.526	325.56
403.75	316.56
403.974	323.56
404.198	315.56
404.422	311.56
404.645	311.56
404.869	329.56
405.093	345.56
405.317	364.56
405.541	386.56
405.765	355.56
405.988	331.56
406.212	350.56
406.436	345.56
406.66	358.56
406.883	341.56
407.107	350.56
407.331	378.56
407.555	435.56
407.778	410.56
408.002	360.56
408.226	359.56
408.449	330.56
408.673	344.56
408.896	361.56
409.12	374.56
409.344	352.56
409.567	339.56
409.791	310.56
410.014	323.56
410.238	317.56
410.461	322.56
410.685	325.56
410.908	347.56
411.132	344.56
411.355	361.56
411.578	352.56
411.802	324.56
412.025	315.56
412.249	313.56
412.472	337.56
412.695	374.56
412.919	341.56
413.142	328.56
413.365	310.56
413.589	309.56
413.812	304.56
414.035	308.56
414.258	305.56
414.482	313.56
414.705	312.56
414.928	282.56
415.151	300.56
415.374	291.56
415.597	292.56
415.821	299.56
416.044	286.56
416.267	287.56
416.49	301.56
416.713	290.56
416.936	298.56
417.159	322.56
417.382	322.56
417.605	308.56
417.828	311.56
418.051	334.56
418.274	313.56
418.497	318.56
418.72	301.56
418.943	320.56
419.166	296.56
419.389	324.56
419.611	327.56
419.834	297.56
420.057	302.56
420.28	318.56
420.503	317.56
420.726	311.56
420.948	322.56
421.171	355.56
421.394	344.56
421.617	342.56
421.839	320.56
422.062	326.56
422.285	325.56
422.507	377.56
422.73	393.56
422.953	369.56
423.175	348.56
423.398	324.56
423.621	348.56
423.843	353.56
424.066	342.56
424.288	344.56
424.511	371.56
424.733	380.56
424.956	424.56
425.178	433.56
425.401	414.56
425.623	392.56
425.846	356.56
426.068	341.56
426.291	358.56
426.513	343.56
426.735	357.56
426.958	386.56
427.18	427.56
427.402	489.56
427.625	546.56
427.847	486.56
428.069	423.56
428.292	372.56
428.514	338.56
428.736	309.56
428.958	323.56
429.181	312.56
429.403	326.56
429.625	346.56
429.847	341.56
430.069	388.56
430.292	378.56
430.514	329.56
430.736	321.56
430.958	309.56
431.18	300.56
431.402	313.56
431.624	297.56
431.846	293.56
432.068	291.56
432.29	283.56
432.512	295.56
432.734	310.56
432.956	303.56
433.178	319.56
433.4	328.56
433.622	312.56
433.844	309.56
434.066	297.56
434.287	290.56
434.509	285.56
434.731	311.56
434.953	309.56
435.175	334.56
435.397	338.56
435.618	340.56
435.84	377.56
436.062	436.56
436.284	464.56
436.505	371.56
436.727	361.56
436.949	337.56
437.17	328.56
437.392	318.56
437.614	349.56
437.835	346.56
438.057	409.56
438.278	470.56
438.5	472.56
438.721	494.56
438.943	468.56
439.165	402.56
439.386	363.56
439.608	355.56
439.829	353.56
440.05	356.56
440.272	393.56
440.493	365.56
440.715	350.56
440.936	328.56
441.158	341.56
441.379	295.56
441.6	317.56
441.822	348.56
442.043	364.56
442.264	389.56
442.486	422.56
442.707	378.56
442.928	374.56
443.149	368.56
443.371	353.56
443.592	392.56
443.813	444.56
444.034	457.56
444.255	399.56
444.476	354.56
444.698	346.56
444.919	337.56
445.14	411.56
445.361	378.56
445.582	361.56
445.803	420.56
446.024	472.56
446.245	478.56
446.466	424.56
446.687	376.56
446.908	344.56
447.129	348.56
447.35	333.56
447.571	325.56
447.792	317.56
448.013	305.56
448.234	341.56
448.455	376.56
448.675	459.56
448.896	489.56
449.117	430.56
449.338	404.56
449.559	491.56
449.779	531.56
450	432.56
450.221	370.56
450.442	330.56
450.662	329.56
450.883	323.56
451.104	333.56
451.324	335.56
451.545	320.56
451.766	312.56
451.986	294.56
452.207	302.56
452.428	281.56
452.648	310.56
452.869	295.56
453.089	298.56
453.31	295.56
453.53	292.56
453.751	306.56
453.971	289.56
454.192	285.56
454.412	276.56
454.633	278.56
454.853	285.56
455.073	278.56
455.294	302.56
455.514	343.56
455.734	340.56
455.955	290.56
456.175	283.56
456.395	270.56
456.616	269.56
456.836	278.56
457.056	284.56
457.276	266.56
457.497	261.56
457.717	273.56
457.937	276.56
458.157	274.56
458.377	270.56
458.598	279.56
458.818	340.56
459.038	386.56
459.258	392.56
459.478	356.56
459.698	304.56
459.918	298.56
460.138	304.56
460.358	308.56
460.578	307.56
460.798	297.56
461.018	284.56
461.238	308.56
461.458	292.56
461.678	292.56
461.898	300.56
462.118	309.56
462.338	313.56
462.558	280.56
462.777	288.56
462.997	296.56
463.217	314.56
463.437	315.56
463.657	296.56
463.876	297.56
464.096	307.56
464.316	317.56
464.536	312.56
464.755	327.56
464.975	324.56
465.195	335.56
465.414	396.56
465.634	372.56
465.854	326.56
466.073	314.56
466.293	305.56
466.512	292.56
466.732	295.56
466.951	286.56
467.171	280.56
467.391	288.56
467.61	298.56
467.829	293.56
468.049	293.56
468.268	303.56
468.488	298.56
468.707	283.56
468.927	277.56
469.146	284.56
469.365	293.56
469.585	295.56
469.804	290.56
470.023	295.56
470.243	278.56
470.462	301.56
470.681	297.56
470.901	290.56
471.12	292.56
471.339	307.56
471.558	309.56
471.777	285.56
471.997	295.56
472.216	292.56
472.435	315.56
472.654	323.56
472.873	309.56
473.092	287.56
473.311	291.56
473.53	297.56
473.749	312.56
473.968	322.56
474.187	416.56
474.406	405.56
474.625	330.56
474.844	327.56
475.063	294.56
475.282	317.56
475.501	304.56
475.72	323.56
475.939	300.56
476.158	288.56
476.377	300.56
476.596	312.56
476.814	323.56
477.033	314.56
477.252	312.56
477.471	303.56
477.69	301.56
477.908	311.56
478.127	309.56
478.346	299.56
478.564	310.56
478.783	331.56
479.002	321.56
479.22	329.56
479.439	344.56
479.658	358.56
479.876	342.56
480.095	346.56
480.313	366.56
480.532	371.56
480.751	355.56
480.969	353.56
481.188	379.56
481.406	406.56
481.624	372.56
481.843	359.56
482.061	336.56
482.28	352.56
482.498	328.56
482.717	334.56
482.935	336.56
483.153	331.56
483.372	339.56
483.59	334.56
483.808	337.56
484.027	339.56
484.245	354.56
484.463	352.56
484.681	357.56
484.9	340.56
485.118	331.56
485.336	337.56
485.554	349.56
485.772	346.56
485.99	356.56
486.209	357.56
486.427	370.56
486.645	370.56
486.863	384.56
487.081	359.56
487.299	377.56
487.517	361.56
487.735	372.56
487.953	368.56
488.171	357.56
488.389	356.56
488.607	385.56
488.825	361.56
489.043	382.56
489.261	368.56
489.479	362.56
489.696	363.56
489.914	373.56
490.132	377.56
490.35	369.56
490.568	377.56
490.786	384.56
491.003	384.56
491.221	398.56
491.439	409.56
491.657	405.56
491.874	401.56
492.092	415.56
492.31	418.56
492.527	417.56
492.745	414.56
492.963	407.56
493.18	427.56
493.398	420.56
493.615	424.56
493.833	436.56
494.05	403.56
494.268	427.56
494.485	419.56
494.703	421.56
494.92	429.56
495.138	426.56
495.355	427.56
495.573	440.56
495.79	432.56
496.008	441.56
496.225	433.56
496.442	440.56
496.66	427.56
496.877	432.56
497.094	432.56
497.312	445.56
497.529	425.56
497.746	437.56
497.963	450.56
498.181	455.56
498.398	461.56
498.615	470.56
498.832	455.56
499.049	481.56
499.267	493.56
499.484	468.56
499.701	477.56
499.918	519.56
500.135	532.56
500.352	516.56
500.569	545.56
500.786	548.56
501.003	500.56
501.22	527.56
501.437	538.56
501.654	518.56
501.871	525.56
502.088	506.56
502.305	463.56
