Data from 1982.PennyLincolnUp.Lamp.En5.5.200Scan.071819.P1_HRD10591_16-47-41-962.txt Node
Date: Thu Jul 18 16:47:41 EDT 2019
User: cochatt
Spectrometer: HR+D1059
Trigger mode: 1
Integration Time (sec): 1.000000E-1
Scans to average: 1
Electric dark correction enabled: true
Nonlinearity correction enabled: false
Boxcar width: 0
XAxis mode: Wavelengths
Number of Pixels in Spectrum: 2048
>>>>>Begin Spectral Data<<<<<
223.165	-11.62
223.4	-11.62
223.635	-11.62
223.869	-5.62
224.104	-27.62
224.338	-14.62
224.573	-10.62
224.808	-14.62
225.042	-11.62
225.277	-7.62
225.511	-2.62
225.746	-4.62
225.98	2.38
226.215	-1.62
226.449	25.38
226.683	28.38
226.918	31.38
227.152	25.38
227.387	31.38
227.621	42.38
227.856	40.38
228.09	52.38
228.324	57.38
228.559	46.38
228.793	55.38
229.027	90.38
229.262	107.38
229.496	105.38
229.73	113.38
229.964	139.38
230.199	114.38
230.433	100.38
230.667	108.38
230.901	105.38
231.136	103.38
231.37	103.38
231.604	99.38
231.838	79.38
232.072	114.38
232.306	110.38
232.541	111.38
232.775	100.38
233.009	108.38
233.243	103.38
233.477	121.38
233.711	99.38
233.945	101.38
234.179	100.38
234.413	110.38
234.647	91.38
234.881	85.38
235.115	110.38
235.349	111.38
235.583	101.38
235.817	99.38
236.051	99.38
236.285	115.38
236.519	118.38
236.753	124.38
236.987	131.38
237.221	147.38
237.455	169.38
237.689	152.38
237.922	127.38
238.156	120.38
238.39	127.38
238.624	102.38
238.858	107.38
239.091	103.38
239.325	115.38
239.559	102.38
239.793	113.38
240.027	129.38
240.26	125.38
240.494	135.38
240.728	121.38
240.961	130.38
241.195	118.38
241.429	124.38
241.662	101.38
241.896	115.38
242.13	115.38
242.363	110.38
242.597	109.38
242.83	114.38
243.064	113.38
243.298	117.38
243.531	124.38
243.765	112.38
243.998	129.38
244.232	118.38
244.465	125.38
244.699	125.38
244.932	119.38
245.166	113.38
245.399	119.38
245.633	127.38
245.866	134.38
246.099	122.38
246.333	124.38
246.566	137.38
246.8	123.38
247.033	145.38
247.266	136.38
247.5	126.38
247.733	129.38
247.966	137.38
248.2	157.38
248.433	150.38
248.666	142.38
248.899	156.38
249.133	159.38
249.366	170.38
249.599	152.38
249.832	157.38
250.066	152.38
250.299	148.38
250.532	165.38
250.765	161.38
250.998	189.38
251.231	175.38
251.465	173.38
251.698	166.38
251.931	158.38
252.164	180.38
252.397	157.38
252.63	157.38
252.863	171.38
253.096	166.38
253.329	187.38
253.562	188.38
253.795	204.38
254.028	173.38
254.261	172.38
254.494	191.38
254.727	209.38
254.96	215.38
255.193	227.38
255.426	199.38
255.659	186.38
255.892	194.38
256.124	199.38
256.357	194.38
256.59	188.38
256.823	186.38
257.056	166.38
257.289	188.38
257.521	173.38
257.754	170.38
257.987	173.38
258.22	176.38
258.452	173.38
258.685	165.38
258.918	175.38
259.151	174.38
259.383	181.38
259.616	175.38
259.849	183.38
260.081	189.38
260.314	209.38
260.547	213.38
260.779	199.38
261.012	195.38
261.244	188.38
261.477	178.38
261.71	191.38
261.942	208.38
262.175	201.38
262.407	184.38
262.64	161.38
262.872	160.38
263.105	171.38
263.337	192.38
263.57	173.38
263.802	170.38
264.035	189.38
264.267	172.38
264.499	179.38
264.732	186.38
264.964	187.38
265.197	181.38
265.429	181.38
265.661	182.38
265.894	190.38
266.126	185.38
266.358	177.38
266.591	180.38
266.823	173.38
267.055	179.38
267.287	183.38
267.52	169.38
267.752	195.38
267.984	184.38
268.216	184.38
268.448	184.38
268.681	181.38
268.913	209.38
269.145	217.38
269.377	217.38
269.609	212.38
269.841	225.38
270.073	224.38
270.306	242.38
270.538	269.38
270.77	257.38
271.002	235.38
271.234	229.38
271.466	241.38
271.698	247.38
271.93	249.38
272.162	261.38
272.394	243.38
272.626	249.38
272.858	233.38
273.09	210.38
273.322	235.38
273.553	203.38
273.785	215.38
274.017	204.38
274.249	215.38
274.481	217.38
274.713	211.38
274.945	210.38
275.176	204.38
275.408	215.38
275.64	228.38
275.872	194.38
276.104	223.38
276.335	209.38
276.567	212.38
276.799	224.38
277.031	246.38
277.262	246.38
277.494	247.38
277.726	258.38
277.957	220.38
278.189	221.38
278.421	212.38
278.652	204.38
278.884	213.38
279.115	212.38
279.347	205.38
279.579	205.38
279.81	197.38
280.042	210.38
280.273	198.38
280.505	210.38
280.736	218.38
280.968	204.38
281.199	207.38
281.431	205.38
281.662	209.38
281.894	206.38
282.125	219.38
282.356	242.38
282.588	242.38
282.819	241.38
283.051	225.38
283.282	195.38
283.513	229.38
283.745	215.38
283.976	227.38
284.207	224.38
284.439	204.38
284.67	218.38
284.901	212.38
285.132	210.38
285.364	205.38
285.595	224.38
285.826	205.38
286.057	209.38
286.288	209.38
286.52	206.38
286.751	220.38
286.982	219.38
287.213	214.38
287.444	207.38
287.675	227.38
287.906	230.38
288.138	236.38
288.369	225.38
288.6	249.38
288.831	259.38
289.062	230.38
289.293	221.38
289.524	203.38
289.755	218.38
289.986	228.38
290.217	230.38
290.448	215.38
290.679	227.38
290.91	235.38
291.141	222.38
291.371	225.38
291.602	223.38
291.833	227.38
292.064	229.38
292.295	231.38
292.526	215.38
292.757	237.38
292.987	219.38
293.218	203.38
293.449	232.38
293.68	219.38
293.91	220.38
294.141	225.38
294.372	227.38
294.603	214.38
294.833	229.38
295.064	234.38
295.295	225.38
295.525	232.38
295.756	236.38
295.987	218.38
296.217	249.38
296.448	247.38
296.679	230.38
296.909	225.38
297.14	228.38
297.37	234.38
297.601	217.38
297.831	219.38
298.062	234.38
298.292	236.38
298.523	226.38
298.753	244.38
298.984	217.38
299.214	231.38
299.445	234.38
299.675	250.38
299.905	232.38
300.136	250.38
300.366	227.38
300.597	238.38
300.827	252.38
301.057	237.38
301.288	251.38
301.518	252.38
301.748	253.38
301.979	255.38
302.209	251.38
302.439	251.38
302.669	260.38
302.9	253.38
303.13	242.38
303.36	258.38
303.59	252.38
303.82	249.38
304.051	256.38
304.281	257.38
304.511	246.38
304.741	246.38
304.971	225.38
305.201	255.38
305.431	234.38
305.661	259.38
305.891	251.38
306.121	261.38
306.352	261.38
306.582	270.38
306.812	268.38
307.042	264.38
307.272	254.38
307.502	272.38
307.731	276.38
307.961	245.38
308.191	252.38
308.421	246.38
308.651	249.38
308.881	253.38
309.111	251.38
309.341	263.38
309.571	261.38
309.8	270.38
310.03	291.38
310.26	291.38
310.49	293.38
310.72	315.38
310.949	296.38
311.179	318.38
311.409	271.38
311.639	289.38
311.868	299.38
312.098	299.38
312.328	315.38
312.557	314.38
312.787	328.38
313.017	318.38
313.246	302.38
313.476	293.38
313.706	298.38
313.935	313.38
314.165	318.38
314.394	305.38
314.624	300.38
314.853	309.38
315.083	295.38
315.312	302.38
315.542	284.38
315.771	278.38
316.001	288.38
316.23	275.38
316.46	281.38
316.689	285.38
316.919	284.38
317.148	306.38
317.377	319.38
317.607	292.38
317.836	289.38
318.065	291.38
318.295	305.38
318.524	289.38
318.753	285.38
318.983	290.38
319.212	287.38
319.441	291.38
319.67	312.38
319.9	278.38
320.129	299.38
320.358	290.38
320.587	308.38
320.816	296.38
321.046	316.38
321.275	310.38
321.504	302.38
321.733	315.38
321.962	323.38
322.191	343.38
322.42	355.38
322.649	362.38
322.878	366.38
323.108	380.38
323.337	394.38
323.566	420.38
323.795	423.38
324.024	474.38
324.253	632.38
324.482	933.38
324.71	1385.38
324.939	1782.38
325.168	1441.38
325.397	795.38
325.626	557.38
325.855	457.38
326.084	412.38
326.313	410.38
326.542	433.38
326.77	458.38
326.999	586.38
327.228	825.38
327.457	1164.38
327.686	1313.38
327.914	863.38
328.143	590.38
328.372	519.38
328.6	490.38
328.829	463.38
329.058	470.38
329.287	459.38
329.515	429.38
329.744	395.38
329.972	400.38
330.201	424.38
330.43	460.38
330.658	468.38
330.887	475.38
331.115	485.38
331.344	400.38
331.572	402.38
331.801	386.38
332.03	372.38
332.258	333.38
332.486	351.38
332.715	346.38
332.943	334.38
333.172	330.38
333.4	329.38
333.629	357.38
333.857	350.38
334.085	358.38
334.314	388.38
334.542	377.38
334.771	417.38
334.999	389.38
335.227	351.38
335.455	308.38
335.684	327.38
335.912	338.38
336.14	333.38
336.369	334.38
336.597	335.38
336.825	370.38
337.053	321.38
337.281	335.38
337.51	326.38
337.738	317.38
337.966	305.38
338.194	331.38
338.422	327.38
338.65	313.38
338.878	335.38
339.106	314.38
339.334	316.38
339.562	303.38
339.79	307.38
340.018	297.38
340.246	317.38
340.474	319.38
340.702	317.38
340.93	330.38
341.158	314.38
341.386	324.38
341.614	306.38
341.842	316.38
342.07	328.38
342.298	313.38
342.526	312.38
342.754	329.38
342.981	297.38
343.209	302.38
343.437	303.38
343.665	305.38
343.893	317.38
344.12	333.38
344.348	311.38
344.576	313.38
344.804	330.38
345.031	317.38
345.259	339.38
345.487	309.38
345.714	306.38
345.942	323.38
346.17	319.38
346.397	305.38
346.625	311.38
346.853	317.38
347.08	311.38
347.308	305.38
347.535	313.38
347.763	321.38
347.99	332.38
348.218	330.38
348.445	321.38
348.673	322.38
348.9	302.38
349.128	291.38
349.355	287.38
349.583	287.38
349.81	300.38
350.037	307.38
350.265	299.38
350.492	302.38
350.72	305.38
350.947	311.38
351.174	309.38
351.402	312.38
351.629	325.38
351.856	313.38
352.083	302.38
352.311	313.38
352.538	321.38
352.765	327.38
352.992	316.38
353.22	296.38
353.447	305.38
353.674	309.38
353.901	300.38
354.128	285.38
354.355	301.38
354.583	318.38
354.81	283.38
355.037	274.38
355.264	276.38
355.491	275.38
355.718	286.38
355.945	295.38
356.172	281.38
356.399	280.38
356.626	299.38
356.853	281.38
357.08	273.38
357.307	283.38
357.534	267.38
357.761	274.38
357.988	291.38
358.215	286.38
358.441	280.38
358.668	279.38
358.895	296.38
359.122	295.38
359.349	306.38
359.576	309.38
359.802	331.38
360.029	336.38
360.256	354.38
360.483	314.38
360.709	302.38
360.936	299.38
361.163	320.38
361.39	317.38
361.616	298.38
361.843	279.38
362.07	299.38
362.296	307.38
362.523	294.38
362.749	289.38
362.976	290.38
363.203	300.38
363.429	284.38
363.656	279.38
363.882	264.38
364.109	279.38
364.335	285.38
364.562	293.38
364.788	273.38
365.015	284.38
365.241	291.38
365.468	293.38
365.694	300.38
365.92	283.38
366.147	278.38
366.373	292.38
366.599	292.38
366.826	289.38
367.052	280.38
367.278	290.38
367.505	279.38
367.731	269.38
367.957	261.38
368.184	276.38
368.41	275.38
368.636	283.38
368.862	283.38
369.089	272.38
369.315	272.38
369.541	269.38
369.767	289.38
369.993	276.38
370.219	271.38
370.445	263.38
370.672	262.38
370.898	285.38
371.124	270.38
371.35	281.38
371.576	277.38
371.802	269.38
372.028	271.38
372.254	264.38
372.48	280.38
372.706	273.38
372.932	263.38
373.158	275.38
373.384	266.38
373.61	270.38
373.835	275.38
374.061	283.38
374.287	271.38
374.513	270.38
374.739	291.38
374.965	276.38
375.191	253.38
375.416	256.38
375.642	286.38
375.868	272.38
376.094	279.38
376.319	270.38
376.545	278.38
376.771	266.38
376.997	268.38
377.222	271.38
377.448	262.38
377.674	259.38
377.899	252.38
378.125	267.38
378.35	269.38
378.576	266.38
378.802	262.38
379.027	249.38
379.253	261.38
379.478	251.38
379.704	267.38
379.929	250.38
380.155	247.38
380.38	268.38
380.606	270.38
380.831	253.38
381.057	277.38
381.282	259.38
381.507	266.38
381.733	266.38
381.958	267.38
382.184	277.38
382.409	274.38
382.634	286.38
382.86	271.38
383.085	263.38
383.31	272.38
383.535	280.38
383.761	276.38
383.986	275.38
384.211	275.38
384.436	268.38
384.662	262.38
384.887	283.38
385.112	262.38
385.337	257.38
385.562	280.38
385.787	298.38
386.013	289.38
386.238	296.38
386.463	285.38
386.688	286.38
386.913	268.38
387.138	273.38
387.363	265.38
387.588	284.38
387.813	285.38
388.038	275.38
388.263	260.38
388.488	252.38
388.713	271.38
388.938	266.38
389.163	298.38
389.387	278.38
389.612	278.38
389.837	291.38
390.062	274.38
390.287	284.38
390.512	283.38
390.736	279.38
390.961	265.38
391.186	273.38
391.411	277.38
391.636	261.38
391.86	290.38
392.085	283.38
392.31	294.38
392.534	272.38
392.759	283.38
392.984	274.38
393.208	264.38
393.433	266.38
393.658	278.38
393.882	262.38
394.107	281.38
394.331	272.38
394.556	286.38
394.78	277.38
395.005	247.38
395.229	270.38
395.454	275.38
395.678	284.38
395.903	298.38
396.127	315.38
396.352	297.38
396.576	300.38
396.801	281.38
397.025	285.38
397.249	291.38
397.474	263.38
397.698	292.38
397.922	284.38
398.147	311.38
398.371	299.38
398.595	298.38
398.82	299.38
399.044	296.38
399.268	321.38
399.492	310.38
399.717	332.38
399.941	351.38
400.165	370.38
400.389	381.38
400.613	346.38
400.837	319.38
401.062	321.38
401.286	323.38
401.51	298.38
401.734	311.38
401.958	317.38
402.182	320.38
402.406	318.38
402.63	323.38
402.854	302.38
403.078	307.38
403.302	312.38
403.526	326.38
403.75	301.38
403.974	307.38
404.198	335.38
404.422	319.38
404.645	306.38
404.869	320.38
405.093	342.38
405.317	365.38
405.541	381.38
405.765	335.38
405.988	337.38
406.212	356.38
406.436	359.38
406.66	355.38
406.883	343.38
407.107	368.38
407.331	393.38
407.555	429.38
407.778	413.38
408.002	367.38
408.226	356.38
408.449	363.38
408.673	359.38
408.896	386.38
409.12	398.38
409.344	359.38
409.567	349.38
409.791	345.38
410.014	326.38
410.238	310.38
410.461	298.38
410.685	337.38
410.908	340.38
411.132	361.38
411.355	373.38
411.578	350.38
411.802	325.38
412.025	313.38
412.249	332.38
412.472	336.38
412.695	367.38
412.919	349.38
413.142	318.38
413.365	327.38
413.589	314.38
413.812	293.38
414.035	307.38
414.258	297.38
414.482	292.38
414.705	302.38
414.928	301.38
415.151	299.38
415.374	284.38
415.597	291.38
415.821	310.38
416.044	307.38
416.267	317.38
416.49	292.38
416.713	292.38
416.936	286.38
417.159	296.38
417.382	313.38
417.605	298.38
417.828	327.38
418.051	328.38
418.274	317.38
418.497	297.38
418.72	301.38
418.943	303.38
419.166	317.38
419.389	298.38
419.611	319.38
419.834	299.38
420.057	321.38
420.28	334.38
420.503	305.38
420.726	308.38
420.948	322.38
421.171	360.38
421.394	363.38
421.617	324.38
421.839	318.38
422.062	329.38
422.285	327.38
422.507	369.38
422.73	407.38
422.953	391.38
423.175	340.38
423.398	350.38
423.621	327.38
423.843	371.38
424.066	349.38
424.288	349.38
424.511	356.38
424.733	384.38
424.956	449.38
425.178	429.38
425.401	423.38
425.623	420.38
425.846	369.38
426.068	332.38
426.291	343.38
426.513	356.38
426.735	354.38
426.958	378.38
427.18	433.38
427.402	523.38
427.625	580.38
427.847	497.38
428.069	445.38
428.292	377.38
428.514	344.38
428.736	331.38
428.958	321.38
429.181	335.38
429.403	334.38
429.625	327.38
429.847	350.38
430.069	386.38
430.292	394.38
430.514	333.38
430.736	317.38
430.958	294.38
431.18	312.38
431.402	303.38
431.624	296.38
431.846	312.38
432.068	307.38
432.29	318.38
432.512	307.38
432.734	306.38
432.956	329.38
433.178	311.38
433.4	311.38
433.622	310.38
433.844	271.38
434.066	307.38
434.287	308.38
434.509	285.38
434.731	301.38
434.953	296.38
435.175	320.38
435.397	345.38
435.618	377.38
435.84	394.38
436.062	455.38
436.284	491.38
436.505	391.38
436.727	354.38
436.949	339.38
437.17	318.38
437.392	315.38
437.614	330.38
437.835	370.38
438.057	450.38
438.278	496.38
438.5	490.38
438.721	531.38
438.943	486.38
439.165	389.38
439.386	365.38
439.608	377.38
439.829	364.38
440.05	383.38
440.272	413.38
440.493	367.38
440.715	346.38
440.936	330.38
441.158	341.38
441.379	321.38
441.6	338.38
441.822	338.38
442.043	355.38
442.264	424.38
442.486	433.38
442.707	391.38
442.928	352.38
443.149	379.38
443.371	381.38
443.592	396.38
443.813	454.38
444.034	486.38
444.255	404.38
444.476	366.38
444.698	345.38
444.919	335.38
445.14	438.38
445.361	394.38
445.582	379.38
445.803	441.38
446.024	489.38
446.245	517.38
446.466	463.38
446.687	368.38
446.908	365.38
447.129	331.38
447.35	330.38
447.571	343.38
447.792	323.38
448.013	342.38
448.234	360.38
448.455	379.38
448.675	453.38
448.896	515.38
449.117	461.38
449.338	423.38
449.559	478.38
449.779	520.38
450	427.38
450.221	353.38
450.442	334.38
450.662	311.38
450.883	332.38
451.104	335.38
451.324	353.38
451.545	324.38
451.766	317.38
451.986	318.38
452.207	291.38
452.428	300.38
452.648	291.38
452.869	281.38
453.089	286.38
453.31	298.38
453.53	299.38
453.751	282.38
453.971	315.38
454.192	329.38
454.412	311.38
454.633	294.38
454.853	287.38
455.073	286.38
455.294	340.38
455.514	355.38
455.734	347.38
455.955	296.38
456.175	271.38
456.395	263.38
456.616	275.38
456.836	271.38
457.056	269.38
457.276	274.38
457.497	273.38
457.717	297.38
457.937	299.38
458.157	282.38
458.377	288.38
458.598	304.38
458.818	331.38
459.038	378.38
459.258	385.38
459.478	338.38
459.698	312.38
459.918	323.38
460.138	296.38
460.358	311.38
460.578	307.38
460.798	289.38
461.018	311.38
461.238	289.38
461.458	288.38
461.678	284.38
461.898	292.38
462.118	297.38
462.338	292.38
462.558	311.38
462.777	307.38
462.997	307.38
463.217	299.38
463.437	315.38
463.657	319.38
463.876	295.38
464.096	300.38
464.316	310.38
464.536	317.38
464.755	318.38
464.975	319.38
465.195	358.38
465.414	398.38
465.634	353.38
465.854	317.38
466.073	323.38
466.293	316.38
466.512	302.38
466.732	323.38
466.951	298.38
467.171	300.38
467.391	281.38
467.61	313.38
467.829	291.38
468.049	301.38
468.268	318.38
468.488	289.38
468.707	282.38
468.927	289.38
469.146	283.38
469.365	268.38
469.585	285.38
469.804	302.38
470.023	271.38
470.243	302.38
470.462	305.38
470.681	315.38
470.901	323.38
471.12	299.38
471.339	290.38
471.558	286.38
471.777	290.38
471.997	293.38
472.216	299.38
472.435	322.38
472.654	323.38
472.873	311.38
473.092	305.38
473.311	281.38
473.53	314.38
473.749	315.38
473.968	350.38
474.187	414.38
474.406	419.38
474.625	343.38
474.844	309.38
475.063	306.38
475.282	307.38
475.501	300.38
475.72	316.38
475.939	309.38
476.158	311.38
476.377	320.38
476.596	315.38
476.814	307.38
477.033	320.38
477.252	322.38
477.471	311.38
477.69	328.38
477.908	335.38
478.127	321.38
478.346	301.38
478.564	319.38
478.783	329.38
479.002	325.38
479.22	345.38
479.439	327.38
479.658	356.38
479.876	364.38
480.095	354.38
480.313	364.38
480.532	345.38
480.751	353.38
480.969	361.38
481.188	405.38
481.406	417.38
481.624	380.38
481.843	362.38
482.061	351.38
482.28	339.38
482.498	353.38
482.717	356.38
482.935	346.38
483.153	332.38
483.372	343.38
483.59	348.38
483.808	341.38
484.027	340.38
484.245	350.38
484.463	369.38
484.681	362.38
484.9	356.38
485.118	326.38
485.336	342.38
485.554	329.38
485.772	355.38
485.99	349.38
486.209	389.38
486.427	357.38
486.645	375.38
486.863	367.38
487.081	360.38
487.299	392.38
487.517	381.38
487.735	369.38
487.953	375.38
488.171	364.38
488.389	366.38
488.607	388.38
488.825	357.38
489.043	377.38
489.261	388.38
489.479	366.38
489.696	377.38
489.914	387.38
490.132	399.38
490.35	381.38
490.568	382.38
490.786	401.38
491.003	407.38
491.221	399.38
491.439	407.38
491.657	399.38
491.874	427.38
492.092	411.38
492.31	435.38
492.527	435.38
492.745	434.38
492.963	430.38
493.18	453.38
493.398	449.38
493.615	423.38
493.833	431.38
494.05	428.38
494.268	448.38
494.485	444.38
494.703	449.38
494.92	435.38
495.138	432.38
495.355	423.38
495.573	426.38
495.79	439.38
496.008	445.38
496.225	433.38
496.442	444.38
496.66	425.38
496.877	414.38
497.094	426.38
497.312	435.38
497.529	423.38
497.746	452.38
497.963	451.38
498.181	447.38
498.398	457.38
498.615	468.38
498.832	483.38
499.049	476.38
499.267	473.38
499.484	461.38
499.701	515.38
499.918	486.38
500.135	477.38
500.352	524.38
500.569	527.38
500.786	535.38
501.003	525.38
501.22	521.38
501.437	518.38
501.654	526.38
501.871	516.38
502.088	516.38
