Data from 1982.PennyLincolnUp.Lamp.En5.5.200Scan.071819.P1_HRD10591_16-47-39-961.txt Node
Date: Thu Jul 18 16:47:39 EDT 2019
User: cochatt
Spectrometer: HR+D1059
Trigger mode: 1
Integration Time (sec): 1.000000E-1
Scans to average: 1
Electric dark correction enabled: true
Nonlinearity correction enabled: false
Boxcar width: 0
XAxis mode: Wavelengths
Number of Pixels in Spectrum: 2048
>>>>>Begin Spectral Data<<<<<
223.165	-13.69
223.4	-13.69
223.635	-13.69
223.869	-9.69
224.104	-18.69
224.338	-22.69
224.573	-16.69
224.808	-15.69
225.042	-15.69
225.277	2.31
225.511	-6.69
225.746	2.31
225.98	20.31
226.215	18.31
226.449	7.31
226.683	17.31
226.918	22.31
227.152	29.31
227.387	41.31
227.621	35.31
227.856	36.31
228.09	39.31
228.324	56.31
228.559	63.31
228.793	59.31
229.027	88.31
229.262	97.31
229.496	100.31
229.73	108.31
229.964	126.31
230.199	118.31
230.433	100.31
230.667	92.31
230.901	96.31
231.136	111.31
231.37	109.31
231.604	103.31
231.838	103.31
232.072	111.31
232.306	122.31
232.541	103.31
232.775	84.31
233.009	110.31
233.243	101.31
233.477	111.31
233.711	110.31
233.945	106.31
234.179	113.31
234.413	117.31
234.647	108.31
234.881	115.31
235.115	110.31
235.349	108.31
235.583	100.31
235.817	98.31
236.051	104.31
236.285	113.31
236.519	110.31
236.753	112.31
236.987	126.31
237.221	144.31
237.455	183.31
237.689	175.31
237.922	146.31
238.156	107.31
238.39	128.31
238.624	126.31
238.858	116.31
239.091	106.31
239.325	125.31
239.559	123.31
239.793	130.31
240.027	121.31
240.26	133.31
240.494	141.31
240.728	132.31
240.961	145.31
241.195	128.31
241.429	120.31
241.662	118.31
241.896	93.31
242.13	116.31
242.363	118.31
242.597	125.31
242.83	126.31
243.064	136.31
243.298	103.31
243.531	125.31
243.765	132.31
243.998	133.31
244.232	117.31
244.465	129.31
244.699	137.31
244.932	113.31
245.166	131.31
245.399	130.31
245.633	134.31
245.866	109.31
246.099	132.31
246.333	132.31
246.566	129.31
246.8	126.31
247.033	128.31
247.266	141.31
247.5	136.31
247.733	136.31
247.966	140.31
248.2	144.31
248.433	137.31
248.666	149.31
248.899	162.31
249.133	158.31
249.366	170.31
249.599	167.31
249.832	148.31
250.066	166.31
250.299	150.31
250.532	168.31
250.765	180.31
250.998	189.31
251.231	199.31
251.465	189.31
251.698	183.31
251.931	174.31
252.164	160.31
252.397	168.31
252.63	172.31
252.863	171.31
253.096	188.31
253.329	200.31
253.562	172.31
253.795	191.31
254.028	184.31
254.261	184.31
254.494	191.31
254.727	221.31
254.96	227.31
255.193	218.31
255.426	215.31
255.659	203.31
255.892	187.31
256.124	193.31
256.357	201.31
256.59	180.31
256.823	191.31
257.056	181.31
257.289	176.31
257.521	186.31
257.754	182.31
257.987	173.31
258.22	188.31
258.452	178.31
258.685	175.31
258.918	172.31
259.151	170.31
259.383	168.31
259.616	181.31
259.849	192.31
260.081	188.31
260.314	205.31
260.547	210.31
260.779	199.31
261.012	210.31
261.244	190.31
261.477	178.31
261.71	188.31
261.942	177.31
262.175	186.31
262.407	172.31
262.64	194.31
262.872	171.31
263.105	176.31
263.337	160.31
263.57	174.31
263.802	184.31
264.035	166.31
264.267	184.31
264.499	173.31
264.732	182.31
264.964	171.31
265.197	168.31
265.429	166.31
265.661	178.31
265.894	191.31
266.126	202.31
266.358	177.31
266.591	173.31
266.823	175.31
267.055	189.31
267.287	186.31
267.52	200.31
267.752	176.31
267.984	180.31
268.216	186.31
268.448	180.31
268.681	189.31
268.913	199.31
269.145	213.31
269.377	228.31
269.609	231.31
269.841	212.31
270.073	223.31
270.306	246.31
270.538	241.31
270.77	219.31
271.002	244.31
271.234	244.31
271.466	250.31
271.698	262.31
271.93	269.31
272.162	258.31
272.394	260.31
272.626	229.31
272.858	225.31
273.09	226.31
273.322	227.31
273.553	221.31
273.785	215.31
274.017	198.31
274.249	218.31
274.481	225.31
274.713	226.31
274.945	213.31
275.176	221.31
275.408	211.31
275.64	216.31
275.872	229.31
276.104	207.31
276.335	222.31
276.567	216.31
276.799	245.31
277.031	246.31
277.262	270.31
277.494	262.31
277.726	244.31
277.957	231.31
278.189	210.31
278.421	221.31
278.652	214.31
278.884	227.31
279.115	225.31
279.347	209.31
279.579	217.31
279.81	223.31
280.042	201.31
280.273	208.31
280.505	210.31
280.736	221.31
280.968	208.31
281.199	217.31
281.431	205.31
281.662	206.31
281.894	201.31
282.125	211.31
282.356	231.31
282.588	234.31
282.819	234.31
283.051	225.31
283.282	219.31
283.513	230.31
283.745	215.31
283.976	224.31
284.207	214.31
284.439	209.31
284.67	216.31
284.901	206.31
285.132	213.31
285.364	217.31
285.595	221.31
285.826	214.31
286.057	228.31
286.288	212.31
286.52	215.31
286.751	206.31
286.982	228.31
287.213	221.31
287.444	223.31
287.675	226.31
287.906	231.31
288.138	242.31
288.369	229.31
288.6	238.31
288.831	222.31
289.062	217.31
289.293	209.31
289.524	222.31
289.755	234.31
289.986	223.31
290.217	227.31
290.448	210.31
290.679	227.31
290.91	217.31
291.141	206.31
291.371	220.31
291.602	213.31
291.833	229.31
292.064	221.31
292.295	202.31
292.526	224.31
292.757	236.31
292.987	228.31
293.218	212.31
293.449	210.31
293.68	222.31
293.91	221.31
294.141	234.31
294.372	225.31
294.603	223.31
294.833	221.31
295.064	230.31
295.295	221.31
295.525	240.31
295.756	247.31
295.987	221.31
296.217	240.31
296.448	232.31
296.679	248.31
296.909	225.31
297.14	244.31
297.37	226.31
297.601	242.31
297.831	223.31
298.062	225.31
298.292	215.31
298.523	229.31
298.753	232.31
298.984	230.31
299.214	245.31
299.445	221.31
299.675	226.31
299.905	256.31
300.136	256.31
300.366	239.31
300.597	252.31
300.827	247.31
301.057	264.31
301.288	255.31
301.518	256.31
301.748	238.31
301.979	258.31
302.209	253.31
302.439	244.31
302.669	248.31
302.9	256.31
303.13	264.31
303.36	252.31
303.59	272.31
303.82	259.31
304.051	262.31
304.281	252.31
304.511	263.31
304.741	237.31
304.971	256.31
305.201	260.31
305.431	248.31
305.661	247.31
305.891	239.31
306.121	253.31
306.352	265.31
306.582	253.31
306.812	231.31
307.042	240.31
307.272	242.31
307.502	264.31
307.731	249.31
307.961	256.31
308.191	250.31
308.421	261.31
308.651	276.31
308.881	274.31
309.111	254.31
309.341	249.31
309.571	269.31
309.8	273.31
310.03	280.31
310.26	298.31
310.49	314.31
310.72	310.31
310.949	327.31
311.179	308.31
311.409	286.31
311.639	299.31
311.868	286.31
312.098	303.31
312.328	307.31
312.557	322.31
312.787	332.31
313.017	325.31
313.246	302.31
313.476	315.31
313.706	295.31
313.935	299.31
314.165	301.31
314.394	317.31
314.624	301.31
314.853	291.31
315.083	320.31
315.312	294.31
315.542	297.31
315.771	295.31
316.001	295.31
316.23	301.31
316.46	285.31
316.689	286.31
316.919	281.31
317.148	302.31
317.377	290.31
317.607	305.31
317.836	295.31
318.065	300.31
318.295	275.31
318.524	288.31
318.753	297.31
318.983	306.31
319.212	292.31
319.441	302.31
319.67	289.31
319.9	316.31
320.129	309.31
320.358	296.31
320.587	295.31
320.816	309.31
321.046	316.31
321.275	320.31
321.504	309.31
321.733	324.31
321.962	329.31
322.191	344.31
322.42	349.31
322.649	369.31
322.878	372.31
323.108	388.31
323.337	373.31
323.566	408.31
323.795	448.31
324.024	479.31
324.253	640.31
324.482	941.31
324.71	1402.31
324.939	1849.31
325.168	1501.31
325.397	785.31
325.626	527.31
325.855	448.31
326.084	411.31
326.313	425.31
326.542	417.31
326.77	476.31
326.999	578.31
327.228	841.31
327.457	1198.31
327.686	1328.31
327.914	876.31
328.143	577.31
328.372	500.31
328.6	487.31
328.829	467.31
329.058	458.31
329.287	484.31
329.515	428.31
329.744	412.31
329.972	398.31
330.201	416.31
330.43	463.31
330.658	462.31
330.887	479.31
331.115	452.31
331.344	401.31
331.572	383.31
331.801	388.31
332.03	376.31
332.258	366.31
332.486	346.31
332.715	344.31
332.943	348.31
333.172	332.31
333.4	333.31
333.629	349.31
333.857	362.31
334.085	366.31
334.314	394.31
334.542	396.31
334.771	400.31
334.999	364.31
335.227	346.31
335.455	352.31
335.684	352.31
335.912	336.31
336.14	354.31
336.369	348.31
336.597	338.31
336.825	346.31
337.053	348.31
337.281	320.31
337.51	324.31
337.738	338.31
337.966	328.31
338.194	338.31
338.422	338.31
338.65	330.31
338.878	307.31
339.106	316.31
339.334	319.31
339.562	303.31
339.79	305.31
340.018	326.31
340.246	314.31
340.474	337.31
340.702	308.31
340.93	308.31
341.158	317.31
341.386	297.31
341.614	323.31
341.842	336.31
342.07	303.31
342.298	326.31
342.526	321.31
342.754	304.31
342.981	299.31
343.209	302.31
343.437	302.31
343.665	314.31
343.893	309.31
344.12	323.31
344.348	318.31
344.576	332.31
344.804	335.31
345.031	344.31
345.259	323.31
345.487	343.31
345.714	339.31
345.942	317.31
346.17	317.31
346.397	317.31
346.625	320.31
346.853	317.31
347.08	308.31
347.308	300.31
347.535	320.31
347.763	332.31
347.99	318.31
348.218	324.31
348.445	316.31
348.673	328.31
348.9	315.31
349.128	310.31
349.355	321.31
349.583	301.31
349.81	296.31
350.037	310.31
350.265	292.31
350.492	305.31
350.72	305.31
350.947	324.31
351.174	313.31
351.402	324.31
351.629	320.31
351.856	317.31
352.083	329.31
352.311	300.31
352.538	336.31
352.765	349.31
352.992	320.31
353.22	311.31
353.447	316.31
353.674	308.31
353.901	284.31
354.128	267.31
354.355	283.31
354.583	266.31
354.81	289.31
355.037	293.31
355.264	295.31
355.491	293.31
355.718	280.31
355.945	284.31
356.172	293.31
356.399	269.31
356.626	287.31
356.853	285.31
357.08	266.31
357.307	290.31
357.534	294.31
357.761	285.31
357.988	289.31
358.215	286.31
358.441	286.31
358.668	282.31
358.895	285.31
359.122	282.31
359.349	297.31
359.576	312.31
359.802	327.31
360.029	335.31
360.256	336.31
360.483	336.31
360.709	319.31
360.936	303.31
361.163	320.31
361.39	318.31
361.616	292.31
361.843	296.31
362.07	299.31
362.296	291.31
362.523	286.31
362.749	297.31
362.976	287.31
363.203	312.31
363.429	288.31
363.656	288.31
363.882	274.31
364.109	264.31
364.335	301.31
364.562	306.31
364.788	281.31
365.015	300.31
365.241	289.31
365.468	303.31
365.694	302.31
365.92	292.31
366.147	303.31
366.373	303.31
366.599	273.31
366.826	272.31
367.052	286.31
367.278	298.31
367.505	275.31
367.731	283.31
367.957	261.31
368.184	283.31
368.41	289.31
368.636	295.31
368.862	288.31
369.089	295.31
369.315	275.31
369.541	282.31
369.767	281.31
369.993	285.31
370.219	288.31
370.445	280.31
370.672	278.31
370.898	274.31
371.124	271.31
371.35	249.31
371.576	270.31
371.802	270.31
372.028	265.31
372.254	269.31
372.48	269.31
372.706	274.31
372.932	286.31
373.158	282.31
373.384	287.31
373.61	300.31
373.835	277.31
374.061	292.31
374.287	281.31
374.513	278.31
374.739	283.31
374.965	280.31
375.191	270.31
375.416	284.31
375.642	266.31
375.868	277.31
376.094	275.31
376.319	263.31
376.545	272.31
376.771	287.31
376.997	267.31
377.222	268.31
377.448	272.31
377.674	269.31
377.899	291.31
378.125	272.31
378.35	278.31
378.576	264.31
378.802	275.31
379.027	276.31
379.253	263.31
379.478	272.31
379.704	280.31
379.929	285.31
380.155	283.31
380.38	281.31
380.606	289.31
380.831	275.31
381.057	285.31
381.282	271.31
381.507	249.31
381.733	287.31
381.958	273.31
382.184	296.31
382.409	265.31
382.634	273.31
382.86	276.31
383.085	289.31
383.31	274.31
383.535	271.31
383.761	259.31
383.986	271.31
384.211	268.31
384.436	264.31
384.662	283.31
384.887	274.31
385.112	288.31
385.337	270.31
385.562	281.31
385.787	286.31
386.013	282.31
386.238	299.31
386.463	293.31
386.688	264.31
386.913	284.31
387.138	257.31
387.363	276.31
387.588	299.31
387.813	286.31
388.038	285.31
388.263	273.31
388.488	270.31
388.713	255.31
388.938	277.31
389.163	309.31
389.387	269.31
389.612	289.31
389.837	268.31
390.062	282.31
390.287	292.31
390.512	289.31
390.736	288.31
390.961	284.31
391.186	284.31
391.411	267.31
391.636	289.31
391.86	289.31
392.085	284.31
392.31	282.31
392.534	282.31
392.759	268.31
392.984	285.31
393.208	267.31
393.433	264.31
393.658	268.31
393.882	280.31
394.107	280.31
394.331	289.31
394.556	290.31
394.78	300.31
395.005	282.31
395.229	286.31
395.454	290.31
395.678	300.31
395.903	317.31
396.127	305.31
396.352	295.31
396.576	306.31
396.801	285.31
397.025	288.31
397.249	293.31
397.474	308.31
397.698	309.31
397.922	313.31
398.147	298.31
398.371	315.31
398.595	306.31
398.82	308.31
399.044	325.31
399.268	296.31
399.492	329.31
399.717	352.31
399.941	361.31
400.165	352.31
400.389	378.31
400.613	338.31
400.837	338.31
401.062	333.31
401.286	302.31
401.51	323.31
401.734	314.31
401.958	297.31
402.182	312.31
402.406	347.31
402.63	340.31
402.854	308.31
403.078	331.31
403.302	313.31
403.526	329.31
403.75	314.31
403.974	328.31
404.198	308.31
404.422	328.31
404.645	326.31
404.869	331.31
405.093	347.31
405.317	380.31
405.541	388.31
405.765	353.31
405.988	361.31
406.212	373.31
406.436	374.31
406.66	361.31
406.883	342.31
407.107	359.31
407.331	404.31
407.555	417.31
407.778	392.31
408.002	364.31
408.226	373.31
408.449	361.31
408.673	350.31
408.896	366.31
409.12	380.31
409.344	352.31
409.567	353.31
409.791	336.31
410.014	343.31
410.238	316.31
410.461	317.31
410.685	327.31
410.908	352.31
411.132	362.31
411.355	375.31
411.578	357.31
411.802	327.31
412.025	321.31
412.249	352.31
412.472	346.31
412.695	384.31
412.919	364.31
413.142	326.31
413.365	304.31
413.589	302.31
413.812	318.31
414.035	318.31
414.258	292.31
414.482	297.31
414.705	288.31
414.928	273.31
415.151	295.31
415.374	295.31
415.597	303.31
415.821	309.31
416.044	296.31
416.267	307.31
416.49	288.31
416.713	298.31
416.936	304.31
417.159	298.31
417.382	296.31
417.605	299.31
417.828	314.31
418.051	308.31
418.274	326.31
418.497	303.31
418.72	302.31
418.943	300.31
419.166	299.31
419.389	316.31
419.611	322.31
419.834	321.31
420.057	329.31
420.28	343.31
420.503	309.31
420.726	328.31
420.948	345.31
421.171	350.31
421.394	368.31
421.617	345.31
421.839	318.31
422.062	320.31
422.285	313.31
422.507	365.31
422.73	406.31
422.953	387.31
423.175	333.31
423.398	322.31
423.621	346.31
423.843	345.31
424.066	350.31
424.288	338.31
424.511	370.31
424.733	390.31
424.956	446.31
425.178	424.31
425.401	414.31
425.623	443.31
425.846	376.31
426.068	349.31
426.291	357.31
426.513	350.31
426.735	354.31
426.958	374.31
427.18	433.31
427.402	512.31
427.625	559.31
427.847	511.31
428.069	441.31
428.292	388.31
428.514	347.31
428.736	335.31
428.958	330.31
429.181	321.31
429.403	321.31
429.625	348.31
429.847	373.31
430.069	398.31
430.292	402.31
430.514	349.31
430.736	340.31
430.958	312.31
431.18	321.31
431.402	321.31
431.624	305.31
431.846	317.31
432.068	307.31
432.29	316.31
432.512	307.31
432.734	313.31
432.956	319.31
433.178	316.31
433.4	309.31
433.622	293.31
433.844	315.31
434.066	302.31
434.287	298.31
434.509	300.31
434.731	302.31
434.953	324.31
435.175	338.31
435.397	333.31
435.618	341.31
435.84	380.31
436.062	448.31
436.284	480.31
436.505	395.31
436.727	389.31
436.949	332.31
437.17	318.31
437.392	324.31
437.614	316.31
437.835	373.31
438.057	451.31
438.278	506.31
438.5	492.31
438.721	514.31
438.943	495.31
439.165	422.31
439.386	380.31
439.608	368.31
439.829	376.31
440.05	384.31
440.272	408.31
440.493	412.31
440.715	364.31
440.936	347.31
441.158	333.31
441.379	331.31
441.6	345.31
441.822	363.31
442.043	380.31
442.264	424.31
442.486	467.31
442.707	380.31
442.928	358.31
443.149	367.31
443.371	374.31
443.592	408.31
443.813	470.31
444.034	485.31
444.255	409.31
444.476	352.31
444.698	353.31
444.919	359.31
445.14	453.31
445.361	407.31
445.582	382.31
445.803	422.31
446.024	508.31
446.245	493.31
446.466	448.31
446.687	385.31
446.908	365.31
447.129	334.31
447.35	331.31
447.571	311.31
447.792	318.31
448.013	321.31
448.234	347.31
448.455	385.31
448.675	458.31
448.896	518.31
449.117	456.31
449.338	437.31
449.559	482.31
449.779	541.31
450	432.31
450.221	373.31
450.442	365.31
450.662	324.31
450.883	334.31
451.104	357.31
451.324	308.31
451.545	319.31
451.766	296.31
451.986	306.31
452.207	315.31
452.428	292.31
452.648	280.31
452.869	303.31
453.089	298.31
453.31	322.31
453.53	312.31
453.751	304.31
453.971	299.31
454.192	336.31
454.412	306.31
454.633	288.31
454.853	294.31
455.073	293.31
455.294	297.31
455.514	374.31
455.734	328.31
455.955	299.31
456.175	294.31
456.395	278.31
456.616	279.31
456.836	290.31
457.056	278.31
457.276	290.31
457.497	284.31
457.717	283.31
457.937	279.31
458.157	284.31
458.377	288.31
458.598	310.31
458.818	359.31
459.038	382.31
459.258	396.31
459.478	352.31
459.698	328.31
459.918	296.31
460.138	310.31
460.358	290.31
460.578	276.31
460.798	303.31
461.018	301.31
461.238	289.31
461.458	295.31
461.678	293.31
461.898	294.31
462.118	285.31
462.338	298.31
462.558	290.31
462.777	313.31
462.997	318.31
463.217	311.31
463.437	311.31
463.657	329.31
463.876	300.31
464.096	310.31
464.316	322.31
464.536	323.31
464.755	345.31
464.975	330.31
465.195	353.31
465.414	407.31
465.634	362.31
465.854	329.31
466.073	326.31
466.293	288.31
466.512	303.31
466.732	286.31
466.951	287.31
467.171	320.31
467.391	319.31
467.61	309.31
467.829	310.31
468.049	289.31
468.268	293.31
468.488	294.31
468.707	297.31
468.927	308.31
469.146	308.31
469.365	286.31
469.585	289.31
469.804	313.31
470.023	298.31
470.243	292.31
470.462	288.31
470.681	322.31
470.901	313.31
471.12	312.31
471.339	313.31
471.558	306.31
471.777	321.31
471.997	288.31
472.216	297.31
472.435	356.31
472.654	312.31
472.873	325.31
473.092	300.31
473.311	312.31
473.53	309.31
473.749	309.31
473.968	338.31
474.187	424.31
474.406	408.31
474.625	336.31
474.844	316.31
475.063	290.31
475.282	284.31
475.501	312.31
475.72	316.31
475.939	289.31
476.158	292.31
476.377	295.31
476.596	303.31
476.814	295.31
477.033	319.31
477.252	320.31
477.471	328.31
477.69	330.31
477.908	315.31
478.127	320.31
478.346	315.31
478.564	340.31
478.783	313.31
479.002	320.31
479.22	354.31
479.439	346.31
479.658	372.31
479.876	380.31
480.095	367.31
480.313	372.31
480.532	366.31
480.751	362.31
480.969	359.31
481.188	428.31
481.406	446.31
481.624	377.31
481.843	385.31
482.061	358.31
482.28	347.31
482.498	335.31
482.717	349.31
482.935	334.31
483.153	332.31
483.372	349.31
483.59	358.31
483.808	332.31
484.027	341.31
484.245	335.31
484.463	358.31
484.681	350.31
484.9	360.31
485.118	358.31
485.336	347.31
485.554	365.31
485.772	361.31
485.99	366.31
486.209	364.31
486.427	365.31
486.645	372.31
486.863	382.31
487.081	365.31
487.299	380.31
487.517	386.31
487.735	378.31
487.953	378.31
488.171	384.31
488.389	377.31
488.607	388.31
488.825	395.31
489.043	393.31
489.261	392.31
489.479	376.31
489.696	381.31
489.914	375.31
490.132	383.31
490.35	377.31
490.568	389.31
490.786	387.31
491.003	395.31
491.221	412.31
491.439	430.31
491.657	414.31
491.874	417.31
492.092	428.31
492.31	440.31
492.527	422.31
492.745	412.31
492.963	421.31
493.18	437.31
493.398	438.31
493.615	421.31
493.833	456.31
494.05	425.31
494.268	457.31
494.485	431.31
494.703	428.31
494.92	448.31
495.138	445.31
495.355	429.31
495.573	465.31
495.79	433.31
496.008	425.31
496.225	430.31
496.442	457.31
496.66	430.31
496.877	432.31
497.094	440.31
497.312	431.31
497.529	441.31
497.746	474.31
497.963	472.31
498.181	468.31
498.398	472.31
498.615	465.31
498.832	455.31
499.049	469.31
499.267	484.31
499.484	482.31
499.701	503.31
499.918	500.31
500.135	514.31
500.352	534.31
500.569	537.31
500.786	527.31
501.003	522.31
501.22	536.31
501.437	526.31
501.654	524.31
501.871	520.31
502.088	516.31
