Data from 1982.PennyLincolnUp.Lamp.En5.5.200Scan.071819.P1_HRD10591_16-44-56-960.txt Node
Date: Thu Jul 18 16:44:56 EDT 2019
User: cochatt
Spectrometer: HR+D1059
Trigger mode: 1
Integration Time (sec): 1.000000E-1
Scans to average: 1
Electric dark correction enabled: true
Nonlinearity correction enabled: false
Boxcar width: 0
XAxis mode: Wavelengths
Number of Pixels in Spectrum: 2048
>>>>>Begin Spectral Data<<<<<
223.165	-20.31
223.4	-20.31
223.635	-20.31
223.869	-16.31
224.104	-17.31
224.338	-21.31
224.573	-22.31
224.808	-18.31
225.042	-9.31
225.277	1.69
225.511	-8.31
225.746	3.69
225.98	6.69
226.215	12.69
226.449	23.69
226.683	33.69
226.918	15.69
227.152	35.69
227.387	29.69
227.621	45.69
227.856	56.69
228.09	41.69
228.324	58.69
228.559	52.69
228.793	80.69
229.027	63.69
229.262	77.69
229.496	87.69
229.73	104.69
229.964	114.69
230.199	84.69
230.433	70.69
230.667	101.69
230.901	89.69
231.136	95.69
231.37	98.69
231.604	113.69
231.838	101.69
232.072	89.69
232.306	106.69
232.541	90.69
232.775	103.69
233.009	102.69
233.243	82.69
233.477	115.69
233.711	89.69
233.945	89.69
234.179	109.69
234.413	87.69
234.647	111.69
234.881	104.69
235.115	93.69
235.349	117.69
235.583	105.69
235.817	98.69
236.051	103.69
236.285	106.69
236.519	92.69
236.753	98.69
236.987	115.69
237.221	135.69
237.455	163.69
237.689	129.69
237.922	111.69
238.156	119.69
238.39	108.69
238.624	97.69
238.858	89.69
239.091	94.69
239.325	108.69
239.559	100.69
239.793	108.69
240.027	120.69
240.26	105.69
240.494	128.69
240.728	119.69
240.961	130.69
241.195	106.69
241.429	104.69
241.662	109.69
241.896	116.69
242.13	121.69
242.363	113.69
242.597	114.69
242.83	111.69
243.064	97.69
243.298	115.69
243.531	103.69
243.765	120.69
243.998	119.69
244.232	118.69
244.465	124.69
244.699	134.69
244.932	119.69
245.166	119.69
245.399	110.69
245.633	128.69
245.866	117.69
246.099	111.69
246.333	116.69
246.566	112.69
246.8	115.69
247.033	127.69
247.266	122.69
247.5	133.69
247.733	134.69
247.966	137.69
248.2	118.69
248.433	121.69
248.666	122.69
248.899	132.69
249.133	145.69
249.366	141.69
249.599	143.69
249.832	138.69
250.066	135.69
250.299	135.69
250.532	151.69
250.765	155.69
250.998	156.69
251.231	165.69
251.465	161.69
251.698	138.69
251.931	145.69
252.164	142.69
252.397	144.69
252.63	146.69
252.863	163.69
253.096	169.69
253.329	155.69
253.562	157.69
253.795	145.69
254.028	163.69
254.261	171.69
254.494	159.69
254.727	167.69
254.96	173.69
255.193	163.69
255.426	186.69
255.659	167.69
255.892	155.69
256.124	165.69
256.357	161.69
256.59	178.69
256.823	146.69
257.056	146.69
257.289	148.69
257.521	156.69
257.754	160.69
257.987	149.69
258.22	167.69
258.452	151.69
258.685	159.69
258.918	141.69
259.151	152.69
259.383	154.69
259.616	160.69
259.849	171.69
260.081	170.69
260.314	182.69
260.547	173.69
260.779	173.69
261.012	152.69
261.244	160.69
261.477	166.69
261.71	150.69
261.942	159.69
262.175	166.69
262.407	151.69
262.64	175.69
262.872	153.69
263.105	154.69
263.337	157.69
263.57	157.69
263.802	149.69
264.035	133.69
264.267	146.69
264.499	141.69
264.732	163.69
264.964	158.69
265.197	152.69
265.429	156.69
265.661	157.69
265.894	166.69
266.126	167.69
266.358	157.69
266.591	157.69
266.823	169.69
267.055	165.69
267.287	165.69
267.52	180.69
267.752	177.69
267.984	166.69
268.216	165.69
268.448	166.69
268.681	143.69
268.913	196.69
269.145	198.69
269.377	190.69
269.609	197.69
269.841	187.69
270.073	195.69
270.306	207.69
270.538	207.69
270.77	211.69
271.002	221.69
271.234	211.69
271.466	210.69
271.698	216.69
271.93	201.69
272.162	211.69
272.394	213.69
272.626	197.69
272.858	194.69
273.09	194.69
273.322	187.69
273.553	189.69
273.785	184.69
274.017	179.69
274.249	177.69
274.481	174.69
274.713	183.69
274.945	186.69
275.176	199.69
275.408	191.69
275.64	197.69
275.872	170.69
276.104	185.69
276.335	181.69
276.567	196.69
276.799	197.69
277.031	193.69
277.262	220.69
277.494	216.69
277.726	216.69
277.957	196.69
278.189	194.69
278.421	159.69
278.652	173.69
278.884	183.69
279.115	174.69
279.347	199.69
279.579	182.69
279.81	185.69
280.042	193.69
280.273	183.69
280.505	187.69
280.736	196.69
280.968	181.69
281.199	184.69
281.431	190.69
281.662	187.69
281.894	191.69
282.125	193.69
282.356	198.69
282.588	190.69
282.819	199.69
283.051	197.69
283.282	186.69
283.513	202.69
283.745	181.69
283.976	185.69
284.207	194.69
284.439	202.69
284.67	186.69
284.901	180.69
285.132	204.69
285.364	192.69
285.595	181.69
285.826	179.69
286.057	195.69
286.288	187.69
286.52	182.69
286.751	200.69
286.982	192.69
287.213	185.69
287.444	198.69
287.675	187.69
287.906	197.69
288.138	208.69
288.369	201.69
288.6	188.69
288.831	206.69
289.062	204.69
289.293	198.69
289.524	197.69
289.755	202.69
289.986	204.69
290.217	193.69
290.448	197.69
290.679	198.69
290.91	212.69
291.141	213.69
291.371	200.69
291.602	205.69
291.833	181.69
292.064	193.69
292.295	194.69
292.526	219.69
292.757	189.69
292.987	195.69
293.218	198.69
293.449	202.69
293.68	200.69
293.91	187.69
294.141	201.69
294.372	197.69
294.603	207.69
294.833	199.69
295.064	190.69
295.295	187.69
295.525	198.69
295.756	208.69
295.987	208.69
296.217	222.69
296.448	221.69
296.679	210.69
296.909	199.69
297.14	204.69
297.37	202.69
297.601	193.69
297.831	196.69
298.062	219.69
298.292	201.69
298.523	217.69
298.753	199.69
298.984	187.69
299.214	206.69
299.445	197.69
299.675	206.69
299.905	202.69
300.136	211.69
300.366	227.69
300.597	220.69
300.827	220.69
301.057	209.69
301.288	228.69
301.518	218.69
301.748	213.69
301.979	225.69
302.209	216.69
302.439	225.69
302.669	224.69
302.9	199.69
303.13	207.69
303.36	210.69
303.59	216.69
303.82	227.69
304.051	236.69
304.281	224.69
304.511	211.69
304.741	213.69
304.971	211.69
305.201	218.69
305.431	219.69
305.661	221.69
305.891	221.69
306.121	218.69
306.352	221.69
306.582	213.69
306.812	223.69
307.042	235.69
307.272	229.69
307.502	207.69
307.731	223.69
307.961	212.69
308.191	201.69
308.421	234.69
308.651	235.69
308.881	214.69
309.111	245.69
309.341	233.69
309.571	257.69
309.8	243.69
310.03	255.69
310.26	247.69
310.49	255.69
310.72	239.69
310.949	231.69
311.179	256.69
311.409	238.69
311.639	251.69
311.868	244.69
312.098	262.69
312.328	232.69
312.557	251.69
312.787	259.69
313.017	264.69
313.246	251.69
313.476	247.69
313.706	248.69
313.935	259.69
314.165	252.69
314.394	254.69
314.624	270.69
314.853	238.69
315.083	246.69
315.312	251.69
315.542	249.69
315.771	242.69
316.001	233.69
316.23	238.69
316.46	241.69
316.689	230.69
316.919	262.69
317.148	279.69
317.377	260.69
317.607	241.69
317.836	265.69
318.065	266.69
318.295	248.69
318.524	246.69
318.753	249.69
318.983	235.69
319.212	260.69
319.441	249.69
319.67	237.69
319.9	255.69
320.129	261.69
320.358	262.69
320.587	270.69
320.816	272.69
321.046	250.69
321.275	278.69
321.504	251.69
321.733	268.69
321.962	269.69
322.191	266.69
322.42	283.69
322.649	285.69
322.878	303.69
323.108	313.69
323.337	293.69
323.566	317.69
323.795	331.69
324.024	365.69
324.253	448.69
324.482	638.69
324.71	957.69
324.939	1211.69
325.168	987.69
325.397	542.69
325.626	395.69
325.855	347.69
326.084	314.69
326.313	323.69
326.542	317.69
326.77	340.69
326.999	424.69
327.228	581.69
327.457	787.69
327.686	903.69
327.914	611.69
328.143	412.69
328.372	357.69
328.6	355.69
328.829	340.69
329.058	341.69
329.287	361.69
329.515	338.69
329.744	319.69
329.972	296.69
330.201	320.69
330.43	335.69
330.658	346.69
330.887	361.69
331.115	358.69
331.344	312.69
331.572	306.69
331.801	302.69
332.03	292.69
332.258	300.69
332.486	284.69
332.715	286.69
332.943	289.69
333.172	278.69
333.4	292.69
333.629	299.69
333.857	298.69
334.085	299.69
334.314	301.69
334.542	318.69
334.771	293.69
334.999	289.69
335.227	298.69
335.455	289.69
335.684	283.69
335.912	276.69
336.14	289.69
336.369	280.69
336.597	274.69
336.825	291.69
337.053	283.69
337.281	273.69
337.51	273.69
337.738	286.69
337.966	275.69
338.194	291.69
338.422	283.69
338.65	277.69
338.878	265.69
339.106	271.69
339.334	261.69
339.562	251.69
339.79	270.69
340.018	270.69
340.246	268.69
340.474	263.69
340.702	277.69
340.93	267.69
341.158	268.69
341.386	269.69
341.614	268.69
341.842	261.69
342.07	261.69
342.298	258.69
342.526	257.69
342.754	263.69
342.981	260.69
343.209	277.69
343.437	262.69
343.665	288.69
343.893	263.69
344.12	269.69
344.348	274.69
344.576	287.69
344.804	271.69
345.031	286.69
345.259	278.69
345.487	276.69
345.714	281.69
345.942	257.69
346.17	277.69
346.397	260.69
346.625	262.69
346.853	265.69
347.08	267.69
347.308	268.69
347.535	274.69
347.763	281.69
347.99	255.69
348.218	245.69
348.445	269.69
348.673	276.69
348.9	275.69
349.128	267.69
349.355	261.69
349.583	260.69
349.81	246.69
350.037	244.69
350.265	232.69
350.492	244.69
350.72	246.69
350.947	273.69
351.174	275.69
351.402	278.69
351.629	243.69
351.856	260.69
352.083	277.69
352.311	259.69
352.538	268.69
352.765	285.69
352.992	265.69
353.22	244.69
353.447	272.69
353.674	265.69
353.901	261.69
354.128	252.69
354.355	244.69
354.583	237.69
354.81	241.69
355.037	249.69
355.264	230.69
355.491	243.69
355.718	245.69
355.945	243.69
356.172	237.69
356.399	238.69
356.626	251.69
356.853	244.69
357.08	238.69
357.307	238.69
357.534	239.69
357.761	249.69
357.988	243.69
358.215	239.69
358.441	231.69
358.668	243.69
358.895	255.69
359.122	247.69
359.349	248.69
359.576	262.69
359.802	285.69
360.029	286.69
360.256	284.69
360.483	286.69
360.709	270.69
360.936	282.69
361.163	265.69
361.39	245.69
361.616	258.69
361.843	246.69
362.07	263.69
362.296	274.69
362.523	267.69
362.749	248.69
362.976	262.69
363.203	257.69
363.429	259.69
363.656	253.69
363.882	231.69
364.109	243.69
364.335	281.69
364.562	213.69
364.788	230.69
365.015	243.69
365.241	249.69
365.468	256.69
365.694	255.69
365.92	269.69
366.147	257.69
366.373	244.69
366.599	242.69
366.826	258.69
367.052	253.69
367.278	243.69
367.505	242.69
367.731	251.69
367.957	255.69
368.184	249.69
368.41	239.69
368.636	258.69
368.862	259.69
369.089	253.69
369.315	250.69
369.541	254.69
369.767	243.69
369.993	237.69
370.219	232.69
370.445	246.69
370.672	252.69
370.898	246.69
371.124	244.69
371.35	238.69
371.576	229.69
371.802	248.69
372.028	246.69
372.254	254.69
372.48	255.69
372.706	245.69
372.932	248.69
373.158	243.69
373.384	246.69
373.61	242.69
373.835	245.69
374.061	257.69
374.287	245.69
374.513	248.69
374.739	255.69
374.965	235.69
375.191	226.69
375.416	254.69
375.642	233.69
375.868	235.69
376.094	253.69
376.319	237.69
376.545	244.69
376.771	261.69
376.997	233.69
377.222	245.69
377.448	251.69
377.674	233.69
377.899	243.69
378.125	243.69
378.35	279.69
378.576	234.69
378.802	244.69
379.027	241.69
379.253	237.69
379.478	247.69
379.704	251.69
379.929	245.69
380.155	229.69
380.38	238.69
380.606	244.69
380.831	247.69
381.057	247.69
381.282	250.69
381.507	245.69
381.733	239.69
381.958	244.69
382.184	237.69
382.409	244.69
382.634	245.69
382.86	246.69
383.085	265.69
383.31	254.69
383.535	251.69
383.761	260.69
383.986	247.69
384.211	261.69
384.436	255.69
384.662	263.69
384.887	246.69
385.112	260.69
385.337	259.69
385.562	269.69
385.787	242.69
386.013	257.69
386.238	261.69
386.463	255.69
386.688	249.69
386.913	246.69
387.138	252.69
387.363	251.69
387.588	266.69
387.813	269.69
388.038	260.69
388.263	232.69
388.488	266.69
388.713	251.69
388.938	257.69
389.163	243.69
389.387	249.69
389.612	252.69
389.837	258.69
390.062	266.69
390.287	251.69
390.512	236.69
390.736	249.69
390.961	254.69
391.186	235.69
391.411	268.69
391.636	255.69
391.86	262.69
392.085	253.69
392.31	277.69
392.534	259.69
392.759	275.69
392.984	255.69
393.208	270.69
393.433	260.69
393.658	260.69
393.882	276.69
394.107	266.69
394.331	265.69
394.556	250.69
394.78	248.69
395.005	279.69
395.229	270.69
395.454	268.69
395.678	261.69
395.903	257.69
396.127	258.69
396.352	263.69
396.576	268.69
396.801	233.69
397.025	254.69
397.249	269.69
397.474	275.69
397.698	286.69
397.922	289.69
398.147	276.69
398.371	292.69
398.595	260.69
398.82	258.69
399.044	290.69
399.268	280.69
399.492	306.69
399.717	313.69
399.941	321.69
400.165	330.69
400.389	326.69
400.613	301.69
400.837	287.69
401.062	292.69
401.286	301.69
401.51	277.69
401.734	279.69
401.958	290.69
402.182	286.69
402.406	274.69
402.63	290.69
402.854	277.69
403.078	278.69
403.302	279.69
403.526	288.69
403.75	291.69
403.974	286.69
404.198	278.69
404.422	281.69
404.645	287.69
404.869	293.69
405.093	309.69
405.317	316.69
405.541	327.69
405.765	317.69
405.988	307.69
406.212	311.69
406.436	310.69
406.66	315.69
406.883	317.69
407.107	313.69
407.331	340.69
407.555	362.69
407.778	363.69
408.002	348.69
408.226	318.69
408.449	317.69
408.673	319.69
408.896	325.69
409.12	349.69
409.344	341.69
409.567	299.69
409.791	293.69
410.014	286.69
410.238	295.69
410.461	301.69
410.685	302.69
410.908	281.69
411.132	297.69
411.355	330.69
411.578	313.69
411.802	317.69
412.025	298.69
412.249	280.69
412.472	288.69
412.695	305.69
412.919	277.69
413.142	294.69
413.365	292.69
413.589	269.69
413.812	261.69
414.035	265.69
414.258	276.69
414.482	253.69
414.705	290.69
414.928	275.69
415.151	267.69
415.374	282.69
415.597	272.69
415.821	249.69
416.044	262.69
416.267	266.69
416.49	261.69
416.713	269.69
416.936	266.69
417.159	263.69
417.382	277.69
417.605	279.69
417.828	268.69
418.051	277.69
418.274	298.69
418.497	289.69
418.72	272.69
418.943	264.69
419.166	272.69
419.389	290.69
419.611	280.69
419.834	287.69
420.057	304.69
420.28	275.69
420.503	282.69
420.726	277.69
420.948	297.69
421.171	298.69
421.394	333.69
421.617	309.69
421.839	290.69
422.062	285.69
422.285	297.69
422.507	332.69
422.73	346.69
422.953	351.69
423.175	307.69
423.398	285.69
423.621	275.69
423.843	293.69
424.066	294.69
424.288	295.69
424.511	320.69
424.733	355.69
424.956	369.69
425.178	377.69
425.401	367.69
425.623	361.69
425.846	343.69
426.068	307.69
426.291	284.69
426.513	293.69
426.735	303.69
426.958	337.69
427.18	395.69
427.402	436.69
427.625	461.69
427.847	413.69
428.069	374.69
428.292	319.69
428.514	305.69
428.736	285.69
428.958	269.69
429.181	279.69
429.403	283.69
429.625	302.69
429.847	303.69
430.069	332.69
430.292	345.69
430.514	299.69
430.736	272.69
430.958	278.69
431.18	281.69
431.402	247.69
431.624	279.69
431.846	264.69
432.068	263.69
432.29	277.69
432.512	277.69
432.734	282.69
432.956	262.69
433.178	291.69
433.4	270.69
433.622	267.69
433.844	279.69
434.066	260.69
434.287	276.69
434.509	262.69
434.731	293.69
434.953	280.69
435.175	283.69
435.397	301.69
435.618	305.69
435.84	335.69
436.062	371.69
436.284	401.69
436.505	330.69
436.727	298.69
436.949	280.69
437.17	291.69
437.392	269.69
437.614	275.69
437.835	297.69
438.057	357.69
438.278	427.69
438.5	409.69
438.721	433.69
438.943	403.69
439.165	343.69
439.386	306.69
439.608	301.69
439.829	319.69
440.05	324.69
440.272	341.69
440.493	329.69
440.715	292.69
440.936	279.69
441.158	308.69
441.379	293.69
441.6	289.69
441.822	302.69
442.043	346.69
442.264	370.69
442.486	373.69
442.707	332.69
442.928	279.69
443.149	308.69
443.371	328.69
443.592	352.69
443.813	389.69
444.034	433.69
444.255	343.69
444.476	305.69
444.698	306.69
444.919	289.69
445.14	403.69
445.361	360.69
445.582	342.69
445.803	352.69
446.024	408.69
446.245	421.69
446.466	373.69
446.687	328.69
446.908	319.69
447.129	295.69
447.35	289.69
447.571	291.69
447.792	294.69
448.013	284.69
448.234	299.69
448.455	337.69
448.675	395.69
448.896	435.69
449.117	358.69
449.338	364.69
449.559	420.69
449.779	445.69
450	378.69
450.221	306.69
450.442	296.69
450.662	293.69
450.883	285.69
451.104	284.69
451.324	292.69
451.545	261.69
451.766	244.69
451.986	249.69
452.207	264.69
452.428	265.69
452.648	251.69
452.869	274.69
453.089	264.69
453.31	256.69
453.53	263.69
453.751	246.69
453.971	259.69
454.192	267.69
454.412	266.69
454.633	249.69
454.853	252.69
455.073	255.69
455.294	284.69
455.514	286.69
455.734	293.69
455.955	260.69
456.175	252.69
456.395	236.69
456.616	221.69
456.836	256.69
457.056	265.69
457.276	244.69
457.497	248.69
457.717	238.69
457.937	253.69
458.157	244.69
458.377	264.69
458.598	278.69
458.818	297.69
459.038	341.69
459.258	328.69
459.478	297.69
459.698	284.69
459.918	276.69
460.138	261.69
460.358	282.69
460.578	284.69
460.798	267.69
461.018	272.69
461.238	277.69
461.458	275.69
461.678	250.69
461.898	285.69
462.118	290.69
462.338	286.69
462.558	266.69
462.777	273.69
462.997	281.69
463.217	283.69
463.437	295.69
463.657	269.69
463.876	275.69
464.096	291.69
464.316	285.69
464.536	287.69
464.755	287.69
464.975	281.69
465.195	296.69
465.414	314.69
465.634	290.69
465.854	286.69
466.073	258.69
466.293	269.69
466.512	264.69
466.732	245.69
466.951	265.69
467.171	295.69
467.391	284.69
467.61	283.69
467.829	261.69
468.049	264.69
468.268	262.69
468.488	274.69
468.707	263.69
468.927	265.69
469.146	250.69
469.365	253.69
469.585	243.69
469.804	266.69
470.023	265.69
470.243	260.69
470.462	269.69
470.681	271.69
470.901	275.69
471.12	269.69
471.339	249.69
471.558	257.69
471.777	285.69
471.997	276.69
472.216	268.69
472.435	281.69
472.654	257.69
472.873	269.69
473.092	267.69
473.311	271.69
473.53	264.69
473.749	272.69
473.968	294.69
474.187	347.69
474.406	349.69
474.625	289.69
474.844	281.69
475.063	271.69
475.282	273.69
475.501	265.69
475.72	280.69
475.939	267.69
476.158	255.69
476.377	275.69
476.596	267.69
476.814	283.69
477.033	268.69
477.252	289.69
477.471	274.69
477.69	281.69
477.908	275.69
478.127	281.69
478.346	272.69
478.564	297.69
478.783	283.69
479.002	298.69
479.22	296.69
479.439	280.69
479.658	319.69
479.876	307.69
480.095	302.69
480.313	338.69
480.532	313.69
480.751	302.69
480.969	316.69
481.188	349.69
481.406	340.69
481.624	326.69
481.843	317.69
482.061	313.69
482.28	317.69
482.498	310.69
482.717	307.69
482.935	293.69
483.153	294.69
483.372	300.69
483.59	306.69
483.808	308.69
484.027	311.69
484.245	307.69
484.463	314.69
484.681	339.69
484.9	305.69
485.118	296.69
485.336	317.69
485.554	312.69
485.772	300.69
485.99	308.69
486.209	323.69
486.427	302.69
486.645	317.69
486.863	328.69
487.081	337.69
487.299	334.69
487.517	343.69
487.735	332.69
487.953	325.69
488.171	333.69
488.389	317.69
488.607	334.69
488.825	339.69
489.043	315.69
489.261	328.69
489.479	317.69
489.696	328.69
489.914	332.69
490.132	326.69
490.35	333.69
490.568	337.69
490.786	343.69
491.003	352.69
491.221	338.69
491.439	366.69
491.657	362.69
491.874	363.69
492.092	369.69
492.31	393.69
492.527	354.69
492.745	377.69
492.963	359.69
493.18	364.69
493.398	381.69
493.615	383.69
493.833	378.69
494.05	380.69
494.268	387.69
494.485	374.69
494.703	389.69
494.92	379.69
495.138	362.69
495.355	381.69
495.573	376.69
495.79	393.69
496.008	380.69
496.225	377.69
496.442	377.69
496.66	391.69
496.877	366.69
497.094	369.69
497.312	378.69
497.529	398.69
497.746	386.69
497.963	392.69
498.181	390.69
498.398	407.69
498.615	404.69
498.832	409.69
499.049	431.69
499.267	419.69
499.484	437.69
499.701	455.69
499.918	444.69
500.135	479.69
500.352	481.69
500.569	479.69
500.786	468.69
501.003	473.69
501.22	463.69
501.437	475.69
501.654	462.69
501.871	462.69
502.088	436.69
502.305	425.69
