Data from 1982.PennyLincolnUp.Lamp.En5.5.200Scan.071819.P1_HRD10591_16-44-55-960.txt Node
Date: Thu Jul 18 16:44:55 EDT 2019
User: cochatt
Spectrometer: HR+D1059
Trigger mode: 1
Integration Time (sec): 1.000000E-1
Scans to average: 1
Electric dark correction enabled: true
Nonlinearity correction enabled: false
Boxcar width: 0
XAxis mode: Wavelengths
Number of Pixels in Spectrum: 2048
>>>>>Begin Spectral Data<<<<<
223.165	-3.38
223.4	-3.38
223.635	-3.38
223.869	-30.38
224.104	-29.38
224.338	-12.38
224.573	-5.38
224.808	-11.38
225.042	-17.38
225.277	-4.38
225.511	-19.38
225.746	-1.38
225.98	18.62
226.215	18.62
226.449	29.62
226.683	24.62
226.918	8.62
227.152	34.62
227.387	39.62
227.621	33.62
227.856	52.62
228.09	54.62
228.324	46.62
228.559	43.62
228.793	53.62
229.027	77.62
229.262	77.62
229.496	103.62
229.73	101.62
229.964	104.62
230.199	97.62
230.433	100.62
230.667	98.62
230.901	100.62
231.136	92.62
231.37	85.62
231.604	100.62
231.838	86.62
232.072	93.62
232.306	95.62
232.541	84.62
232.775	94.62
233.009	86.62
233.243	108.62
233.477	90.62
233.711	90.62
233.945	102.62
234.179	104.62
234.413	110.62
234.647	103.62
234.881	80.62
235.115	97.62
235.349	96.62
235.583	119.62
235.817	98.62
236.051	84.62
236.285	102.62
236.519	88.62
236.753	107.62
236.987	106.62
237.221	128.62
237.455	160.62
237.689	120.62
237.922	99.62
238.156	118.62
238.39	118.62
238.624	86.62
238.858	90.62
239.091	110.62
239.325	101.62
239.559	105.62
239.793	109.62
240.027	107.62
240.26	106.62
240.494	99.62
240.728	109.62
240.961	93.62
241.195	110.62
241.429	96.62
241.662	102.62
241.896	117.62
242.13	117.62
242.363	100.62
242.597	112.62
242.83	112.62
243.064	120.62
243.298	108.62
243.531	100.62
243.765	109.62
243.998	115.62
244.232	104.62
244.465	112.62
244.699	114.62
244.932	114.62
245.166	121.62
245.399	104.62
245.633	111.62
245.866	108.62
246.099	118.62
246.333	109.62
246.566	116.62
246.8	112.62
247.033	126.62
247.266	125.62
247.5	133.62
247.733	121.62
247.966	124.62
248.2	128.62
248.433	138.62
248.666	125.62
248.899	126.62
249.133	149.62
249.366	152.62
249.599	128.62
249.832	142.62
250.066	144.62
250.299	122.62
250.532	140.62
250.765	142.62
250.998	141.62
251.231	154.62
251.465	154.62
251.698	145.62
251.931	161.62
252.164	136.62
252.397	159.62
252.63	146.62
252.863	151.62
253.096	163.62
253.329	157.62
253.562	147.62
253.795	165.62
254.028	160.62
254.261	148.62
254.494	149.62
254.727	165.62
254.96	169.62
255.193	182.62
255.426	161.62
255.659	171.62
255.892	162.62
256.124	177.62
256.357	172.62
256.59	146.62
256.823	135.62
257.056	151.62
257.289	154.62
257.521	141.62
257.754	142.62
257.987	142.62
258.22	166.62
258.452	163.62
258.685	158.62
258.918	154.62
259.151	163.62
259.383	142.62
259.616	168.62
259.849	172.62
260.081	178.62
260.314	174.62
260.547	184.62
260.779	164.62
261.012	152.62
261.244	162.62
261.477	158.62
261.71	146.62
261.942	163.62
262.175	152.62
262.407	158.62
262.64	154.62
262.872	134.62
263.105	152.62
263.337	163.62
263.57	144.62
263.802	152.62
264.035	159.62
264.267	162.62
264.499	139.62
264.732	157.62
264.964	162.62
265.197	163.62
265.429	162.62
265.661	140.62
265.894	148.62
266.126	161.62
266.358	166.62
266.591	154.62
266.823	159.62
267.055	152.62
267.287	155.62
267.52	158.62
267.752	157.62
267.984	165.62
268.216	144.62
268.448	162.62
268.681	181.62
268.913	164.62
269.145	168.62
269.377	182.62
269.609	168.62
269.841	184.62
270.073	182.62
270.306	183.62
270.538	202.62
270.77	192.62
271.002	184.62
271.234	192.62
271.466	194.62
271.698	187.62
271.93	196.62
272.162	202.62
272.394	200.62
272.626	193.62
272.858	194.62
273.09	179.62
273.322	180.62
273.553	166.62
273.785	188.62
274.017	187.62
274.249	171.62
274.481	184.62
274.713	172.62
274.945	193.62
275.176	169.62
275.408	176.62
275.64	192.62
275.872	185.62
276.104	166.62
276.335	168.62
276.567	188.62
276.799	201.62
277.031	203.62
277.262	203.62
277.494	197.62
277.726	200.62
277.957	189.62
278.189	188.62
278.421	172.62
278.652	189.62
278.884	192.62
279.115	199.62
279.347	196.62
279.579	186.62
279.81	201.62
280.042	189.62
280.273	166.62
280.505	185.62
280.736	190.62
280.968	178.62
281.199	200.62
281.431	190.62
281.662	178.62
281.894	204.62
282.125	184.62
282.356	186.62
282.588	205.62
282.819	188.62
283.051	193.62
283.282	176.62
283.513	201.62
283.745	196.62
283.976	185.62
284.207	194.62
284.439	192.62
284.67	187.62
284.901	188.62
285.132	188.62
285.364	183.62
285.595	189.62
285.826	186.62
286.057	192.62
286.288	192.62
286.52	184.62
286.751	204.62
286.982	184.62
287.213	196.62
287.444	197.62
287.675	191.62
287.906	195.62
288.138	205.62
288.369	191.62
288.6	195.62
288.831	210.62
289.062	213.62
289.293	183.62
289.524	184.62
289.755	185.62
289.986	180.62
290.217	193.62
290.448	178.62
290.679	193.62
290.91	184.62
291.141	195.62
291.371	180.62
291.602	191.62
291.833	201.62
292.064	188.62
292.295	181.62
292.526	189.62
292.757	211.62
292.987	198.62
293.218	188.62
293.449	184.62
293.68	194.62
293.91	197.62
294.141	181.62
294.372	187.62
294.603	184.62
294.833	190.62
295.064	204.62
295.295	206.62
295.525	206.62
295.756	206.62
295.987	195.62
296.217	220.62
296.448	208.62
296.679	201.62
296.909	201.62
297.14	196.62
297.37	205.62
297.601	190.62
297.831	198.62
298.062	200.62
298.292	189.62
298.523	205.62
298.753	206.62
298.984	205.62
299.214	199.62
299.445	187.62
299.675	223.62
299.905	204.62
300.136	194.62
300.366	192.62
300.597	184.62
300.827	195.62
301.057	202.62
301.288	209.62
301.518	200.62
301.748	208.62
301.979	201.62
302.209	209.62
302.439	217.62
302.669	192.62
302.9	212.62
303.13	224.62
303.36	209.62
303.59	227.62
303.82	225.62
304.051	214.62
304.281	234.62
304.511	202.62
304.741	232.62
304.971	226.62
305.201	202.62
305.431	213.62
305.661	203.62
305.891	211.62
306.121	224.62
306.352	218.62
306.582	220.62
306.812	212.62
307.042	233.62
307.272	226.62
307.502	208.62
307.731	216.62
307.961	209.62
308.191	224.62
308.421	220.62
308.651	217.62
308.881	218.62
309.111	213.62
309.341	226.62
309.571	227.62
309.8	226.62
310.03	229.62
310.26	243.62
310.49	232.62
310.72	244.62
310.949	240.62
311.179	251.62
311.409	228.62
311.639	243.62
311.868	254.62
312.098	244.62
312.328	246.62
312.557	240.62
312.787	254.62
313.017	240.62
313.246	254.62
313.476	241.62
313.706	251.62
313.935	233.62
314.165	258.62
314.394	265.62
314.624	264.62
314.853	221.62
315.083	249.62
315.312	252.62
315.542	258.62
315.771	236.62
316.001	221.62
316.23	243.62
316.46	243.62
316.689	245.62
316.919	239.62
317.148	240.62
317.377	252.62
317.607	237.62
317.836	244.62
318.065	256.62
318.295	235.62
318.524	244.62
318.753	244.62
318.983	216.62
319.212	235.62
319.441	244.62
319.67	251.62
319.9	256.62
320.129	233.62
320.358	250.62
320.587	235.62
320.816	247.62
321.046	262.62
321.275	275.62
321.504	249.62
321.733	272.62
321.962	262.62
322.191	278.62
322.42	269.62
322.649	261.62
322.878	275.62
323.108	291.62
323.337	313.62
323.566	307.62
323.795	315.62
324.024	373.62
324.253	439.62
324.482	615.62
324.71	887.62
324.939	1157.62
325.168	970.62
325.397	554.62
325.626	374.62
325.855	328.62
326.084	318.62
326.313	294.62
326.542	322.62
326.77	347.62
326.999	415.62
327.228	574.62
327.457	783.62
327.686	874.62
327.914	589.62
328.143	399.62
328.372	362.62
328.6	343.62
328.829	347.62
329.058	334.62
329.287	329.62
329.515	321.62
329.744	306.62
329.972	302.62
330.201	328.62
330.43	317.62
330.658	352.62
330.887	356.62
331.115	345.62
331.344	296.62
331.572	297.62
331.801	317.62
332.03	306.62
332.258	293.62
332.486	258.62
332.715	274.62
332.943	277.62
333.172	282.62
333.4	278.62
333.629	273.62
333.857	299.62
334.085	293.62
334.314	288.62
334.542	322.62
334.771	320.62
334.999	289.62
335.227	293.62
335.455	275.62
335.684	273.62
335.912	296.62
336.14	257.62
336.369	272.62
336.597	282.62
336.825	289.62
337.053	256.62
337.281	266.62
337.51	280.62
337.738	273.62
337.966	272.62
338.194	274.62
338.422	278.62
338.65	266.62
338.878	265.62
339.106	264.62
339.334	256.62
339.562	250.62
339.79	267.62
340.018	279.62
340.246	268.62
340.474	273.62
340.702	256.62
340.93	279.62
341.158	264.62
341.386	268.62
341.614	262.62
341.842	262.62
342.07	257.62
342.298	266.62
342.526	270.62
342.754	252.62
342.981	250.62
343.209	273.62
343.437	266.62
343.665	258.62
343.893	266.62
344.12	281.62
344.348	291.62
344.576	268.62
344.804	280.62
345.031	271.62
345.259	262.62
345.487	264.62
345.714	273.62
345.942	247.62
346.17	260.62
346.397	252.62
346.625	245.62
346.853	266.62
347.08	272.62
347.308	262.62
347.535	262.62
347.763	263.62
347.99	280.62
348.218	267.62
348.445	270.62
348.673	248.62
348.9	251.62
349.128	272.62
349.355	250.62
349.583	259.62
349.81	256.62
350.037	248.62
350.265	259.62
350.492	253.62
350.72	253.62
350.947	260.62
351.174	268.62
351.402	267.62
351.629	236.62
351.856	274.62
352.083	270.62
352.311	280.62
352.538	288.62
352.765	267.62
352.992	247.62
353.22	276.62
353.447	260.62
353.674	257.62
353.901	252.62
354.128	245.62
354.355	250.62
354.583	241.62
354.81	247.62
355.037	244.62
355.264	252.62
355.491	257.62
355.718	227.62
355.945	240.62
356.172	252.62
356.399	229.62
356.626	233.62
356.853	262.62
357.08	222.62
357.307	234.62
357.534	244.62
357.761	243.62
357.988	228.62
358.215	241.62
358.441	238.62
358.668	240.62
358.895	244.62
359.122	252.62
359.349	253.62
359.576	256.62
359.802	285.62
360.029	275.62
360.256	282.62
360.483	264.62
360.709	222.62
360.936	269.62
361.163	237.62
361.39	260.62
361.616	238.62
361.843	249.62
362.07	248.62
362.296	254.62
362.523	261.62
362.749	258.62
362.976	249.62
363.203	235.62
363.429	247.62
363.656	242.62
363.882	238.62
364.109	244.62
364.335	240.62
364.562	261.62
364.788	249.62
365.015	243.62
365.241	242.62
365.468	263.62
365.694	233.62
365.92	246.62
366.147	226.62
366.373	239.62
366.599	220.62
366.826	224.62
367.052	249.62
367.278	227.62
367.505	242.62
367.731	258.62
367.957	237.62
368.184	232.62
368.41	243.62
368.636	259.62
368.862	265.62
369.089	249.62
369.315	256.62
369.541	246.62
369.767	247.62
369.993	245.62
370.219	252.62
370.445	242.62
370.672	240.62
370.898	227.62
371.124	242.62
371.35	248.62
371.576	259.62
371.802	241.62
372.028	242.62
372.254	228.62
372.48	232.62
372.706	244.62
372.932	235.62
373.158	240.62
373.384	242.62
373.61	244.62
373.835	231.62
374.061	237.62
374.287	229.62
374.513	231.62
374.739	249.62
374.965	256.62
375.191	243.62
375.416	245.62
375.642	253.62
375.868	247.62
376.094	222.62
376.319	246.62
376.545	240.62
376.771	240.62
376.997	254.62
377.222	243.62
377.448	247.62
377.674	254.62
377.899	233.62
378.125	238.62
378.35	244.62
378.576	238.62
378.802	247.62
379.027	230.62
379.253	238.62
379.478	227.62
379.704	236.62
379.929	248.62
380.155	246.62
380.38	234.62
380.606	240.62
380.831	247.62
381.057	254.62
381.282	232.62
381.507	227.62
381.733	227.62
381.958	243.62
382.184	255.62
382.409	261.62
382.634	233.62
382.86	252.62
383.085	249.62
383.31	235.62
383.535	251.62
383.761	256.62
383.986	250.62
384.211	248.62
384.436	257.62
384.662	244.62
384.887	247.62
385.112	242.62
385.337	252.62
385.562	246.62
385.787	276.62
386.013	255.62
386.238	257.62
386.463	247.62
386.688	260.62
386.913	253.62
387.138	248.62
387.363	247.62
387.588	244.62
387.813	260.62
388.038	268.62
388.263	258.62
388.488	256.62
388.713	257.62
388.938	256.62
389.163	238.62
389.387	256.62
389.612	255.62
389.837	261.62
390.062	246.62
390.287	252.62
390.512	251.62
390.736	252.62
390.961	278.62
391.186	252.62
391.411	256.62
391.636	265.62
391.86	256.62
392.085	246.62
392.31	259.62
392.534	269.62
392.759	257.62
392.984	261.62
393.208	259.62
393.433	244.62
393.658	256.62
393.882	256.62
394.107	258.62
394.331	261.62
394.556	247.62
394.78	275.62
395.005	279.62
395.229	235.62
395.454	278.62
395.678	245.62
395.903	265.62
396.127	257.62
396.352	284.62
396.576	268.62
396.801	267.62
397.025	264.62
397.249	251.62
397.474	279.62
397.698	271.62
397.922	275.62
398.147	284.62
398.371	282.62
398.595	268.62
398.82	285.62
399.044	279.62
399.268	290.62
399.492	294.62
399.717	307.62
399.941	311.62
400.165	332.62
400.389	330.62
400.613	325.62
400.837	291.62
401.062	281.62
401.286	291.62
401.51	296.62
401.734	266.62
401.958	281.62
402.182	262.62
402.406	283.62
402.63	296.62
402.854	277.62
403.078	291.62
403.302	292.62
403.526	279.62
403.75	283.62
403.974	280.62
404.198	276.62
404.422	291.62
404.645	299.62
404.869	278.62
405.093	320.62
405.317	319.62
405.541	310.62
405.765	319.62
405.988	317.62
406.212	315.62
406.436	305.62
406.66	307.62
406.883	297.62
407.107	341.62
407.331	344.62
407.555	363.62
407.778	364.62
408.002	338.62
408.226	317.62
408.449	317.62
408.673	318.62
408.896	331.62
409.12	346.62
409.344	332.62
409.567	296.62
409.791	279.62
410.014	271.62
410.238	284.62
410.461	274.62
410.685	276.62
410.908	281.62
411.132	335.62
411.355	326.62
411.578	306.62
411.802	297.62
412.025	306.62
412.249	279.62
412.472	278.62
412.695	299.62
412.919	275.62
413.142	286.62
413.365	305.62
413.589	274.62
413.812	261.62
414.035	269.62
414.258	260.62
414.482	265.62
414.705	261.62
414.928	283.62
415.151	264.62
415.374	281.62
415.597	259.62
415.821	260.62
416.044	262.62
416.267	262.62
416.49	263.62
416.713	247.62
416.936	259.62
417.159	258.62
417.382	253.62
417.605	250.62
417.828	267.62
418.051	280.62
418.274	274.62
418.497	289.62
418.72	268.62
418.943	279.62
419.166	263.62
419.389	270.62
419.611	275.62
419.834	279.62
420.057	272.62
420.28	263.62
420.503	278.62
420.726	269.62
420.948	292.62
421.171	308.62
421.394	317.62
421.617	294.62
421.839	271.62
422.062	271.62
422.285	276.62
422.507	313.62
422.73	362.62
422.953	327.62
423.175	300.62
423.398	293.62
423.621	285.62
423.843	278.62
424.066	285.62
424.288	301.62
424.511	296.62
424.733	333.62
424.956	365.62
425.178	380.62
425.401	354.62
425.623	340.62
425.846	323.62
426.068	296.62
426.291	297.62
426.513	284.62
426.735	304.62
426.958	303.62
427.18	358.62
427.402	429.62
427.625	471.62
427.847	399.62
428.069	346.62
428.292	306.62
428.514	297.62
428.736	280.62
428.958	292.62
429.181	290.62
429.403	283.62
429.625	289.62
429.847	305.62
430.069	340.62
430.292	317.62
430.514	288.62
430.736	293.62
430.958	287.62
431.18	257.62
431.402	250.62
431.624	263.62
431.846	258.62
432.068	254.62
432.29	264.62
432.512	257.62
432.734	276.62
432.956	292.62
433.178	261.62
433.4	280.62
433.622	268.62
433.844	271.62
434.066	268.62
434.287	273.62
434.509	262.62
434.731	270.62
434.953	260.62
435.175	273.62
435.397	308.62
435.618	297.62
435.84	340.62
436.062	366.62
436.284	413.62
436.505	347.62
436.727	312.62
436.949	288.62
437.17	277.62
437.392	287.62
437.614	286.62
437.835	309.62
438.057	358.62
438.278	392.62
438.5	414.62
438.721	426.62
438.943	420.62
439.165	326.62
439.386	309.62
439.608	313.62
439.829	293.62
440.05	336.62
440.272	326.62
440.493	326.62
440.715	293.62
440.936	290.62
441.158	301.62
441.379	285.62
441.6	286.62
441.822	292.62
442.043	301.62
442.264	356.62
442.486	378.62
442.707	328.62
442.928	310.62
443.149	333.62
443.371	330.62
443.592	333.62
443.813	375.62
444.034	412.62
444.255	341.62
444.476	331.62
444.698	291.62
444.919	303.62
445.14	385.62
445.361	331.62
445.582	324.62
445.803	368.62
446.024	416.62
446.245	416.62
446.466	379.62
446.687	328.62
446.908	306.62
447.129	301.62
447.35	282.62
447.571	286.62
447.792	297.62
448.013	279.62
448.234	297.62
448.455	336.62
448.675	376.62
448.896	426.62
449.117	381.62
449.338	358.62
449.559	408.62
449.779	449.62
450	356.62
450.221	310.62
450.442	284.62
450.662	282.62
450.883	284.62
451.104	290.62
451.324	282.62
451.545	263.62
451.766	247.62
451.986	264.62
452.207	262.62
452.428	263.62
452.648	257.62
452.869	258.62
453.089	258.62
453.31	247.62
453.53	268.62
453.751	265.62
453.971	274.62
454.192	259.62
454.412	264.62
454.633	256.62
454.853	274.62
455.073	246.62
455.294	286.62
455.514	304.62
455.734	288.62
455.955	254.62
456.175	263.62
456.395	241.62
456.616	248.62
456.836	240.62
457.056	241.62
457.276	252.62
457.497	243.62
457.717	247.62
457.937	234.62
458.157	256.62
458.377	259.62
458.598	266.62
458.818	293.62
459.038	319.62
459.258	337.62
459.478	280.62
459.698	269.62
459.918	281.62
460.138	260.62
460.358	246.62
460.578	266.62
460.798	264.62
461.018	280.62
461.238	265.62
461.458	269.62
461.678	261.62
461.898	254.62
462.118	272.62
462.338	276.62
462.558	264.62
462.777	280.62
462.997	270.62
463.217	293.62
463.437	294.62
463.657	283.62
463.876	276.62
464.096	282.62
464.316	274.62
464.536	263.62
464.755	290.62
464.975	290.62
465.195	314.62
465.414	335.62
465.634	292.62
465.854	278.62
466.073	265.62
466.293	274.62
466.512	231.62
466.732	258.62
466.951	264.62
467.171	260.62
467.391	267.62
467.61	251.62
467.829	281.62
468.049	270.62
468.268	270.62
468.488	238.62
468.707	251.62
468.927	259.62
469.146	246.62
469.365	243.62
469.585	251.62
469.804	249.62
470.023	251.62
470.243	264.62
470.462	278.62
470.681	275.62
470.901	262.62
471.12	262.62
471.339	265.62
471.558	281.62
471.777	266.62
471.997	270.62
472.216	267.62
472.435	271.62
472.654	276.62
472.873	246.62
473.092	258.62
473.311	252.62
473.53	274.62
473.749	285.62
473.968	285.62
474.187	345.62
474.406	331.62
474.625	296.62
474.844	272.62
475.063	269.62
475.282	264.62
475.501	272.62
475.72	266.62
475.939	279.62
476.158	280.62
476.377	281.62
476.596	262.62
476.814	271.62
477.033	284.62
477.252	296.62
477.471	276.62
477.69	278.62
477.908	285.62
478.127	284.62
478.346	287.62
478.564	302.62
478.783	306.62
479.002	301.62
479.22	291.62
479.439	301.62
479.658	313.62
479.876	323.62
480.095	316.62
480.313	330.62
480.532	319.62
480.751	328.62
480.969	319.62
481.188	333.62
481.406	362.62
481.624	308.62
481.843	315.62
482.061	308.62
482.28	292.62
482.498	304.62
482.717	301.62
482.935	310.62
483.153	292.62
483.372	288.62
483.59	297.62
483.808	312.62
484.027	302.62
484.245	311.62
484.463	302.62
484.681	297.62
484.9	310.62
485.118	308.62
485.336	294.62
485.554	306.62
485.772	308.62
485.99	299.62
486.209	326.62
486.427	325.62
486.645	317.62
486.863	321.62
487.081	320.62
487.299	320.62
487.517	337.62
487.735	317.62
487.953	317.62
488.171	322.62
488.389	321.62
488.607	339.62
488.825	334.62
489.043	322.62
489.261	319.62
489.479	326.62
489.696	332.62
489.914	329.62
490.132	338.62
490.35	330.62
490.568	336.62
490.786	355.62
491.003	328.62
491.221	338.62
491.439	342.62
491.657	349.62
491.874	359.62
492.092	349.62
492.31	342.62
492.527	376.62
492.745	371.62
492.963	349.62
493.18	380.62
493.398	390.62
493.615	363.62
493.833	390.62
494.05	376.62
494.268	376.62
494.485	344.62
494.703	359.62
494.92	357.62
495.138	369.62
495.355	378.62
495.573	363.62
495.79	362.62
496.008	366.62
496.225	374.62
496.442	354.62
496.66	374.62
496.877	360.62
497.094	382.62
497.312	382.62
497.529	377.62
497.746	385.62
497.963	407.62
498.181	409.62
498.398	384.62
498.615	412.62
498.832	414.62
499.049	405.62
499.267	429.62
499.484	451.62
499.701	429.62
499.918	454.62
500.135	460.62
500.352	450.62
500.569	482.62
500.786	483.62
501.003	497.62
501.22	487.62
501.437	466.62
501.654	459.62
501.871	444.62
502.088	437.62
502.305	422.62
