Data from 1982.PennyLincolnUp.Lamp.En5.5.200Scan.071819.P1_HRD10591_16-46-23-962.txt Node
Date: Thu Jul 18 16:46:23 EDT 2019
User: cochatt
Spectrometer: HR+D1059
Trigger mode: 1
Integration Time (sec): 1.000000E-1
Scans to average: 1
Electric dark correction enabled: true
Nonlinearity correction enabled: false
Boxcar width: 0
XAxis mode: Wavelengths
Number of Pixels in Spectrum: 2048
>>>>>Begin Spectral Data<<<<<
223.165	2.06
223.4	2.06
223.635	2.06
223.869	-21.94
224.104	-14.94
224.338	-12.94
224.573	-30.94
224.808	-22.94
225.042	-5.94
225.277	3.06
225.511	-0.94
225.746	2.06
225.98	-4.94
226.215	6.06
226.449	11.06
226.683	24.06
226.918	26.06
227.152	41.06
227.387	30.06
227.621	38.06
227.856	33.06
228.09	46.06
228.324	44.06
228.559	49.06
228.793	61.06
229.027	82.06
229.262	73.06
229.496	98.06
229.73	118.06
229.964	115.06
230.199	101.06
230.433	98.06
230.667	110.06
230.901	101.06
231.136	97.06
231.37	107.06
231.604	110.06
231.838	106.06
232.072	106.06
232.306	113.06
232.541	92.06
232.775	96.06
233.009	93.06
233.243	101.06
233.477	110.06
233.711	106.06
233.945	105.06
234.179	104.06
234.413	111.06
234.647	113.06
234.881	105.06
235.115	98.06
235.349	87.06
235.583	117.06
235.817	123.06
236.051	117.06
236.285	117.06
236.519	124.06
236.753	124.06
236.987	128.06
237.221	145.06
237.455	177.06
237.689	143.06
237.922	128.06
238.156	124.06
238.39	111.06
238.624	116.06
238.858	99.06
239.091	107.06
239.325	115.06
239.559	108.06
239.793	99.06
240.027	112.06
240.26	123.06
240.494	130.06
240.728	124.06
240.961	115.06
241.195	117.06
241.429	119.06
241.662	123.06
241.896	113.06
242.13	120.06
242.363	107.06
242.597	127.06
242.83	121.06
243.064	114.06
243.298	119.06
243.531	83.06
243.765	118.06
243.998	111.06
244.232	119.06
244.465	127.06
244.699	126.06
244.932	105.06
245.166	123.06
245.399	125.06
245.633	119.06
245.866	120.06
246.099	125.06
246.333	123.06
246.566	127.06
246.8	123.06
247.033	132.06
247.266	133.06
247.5	125.06
247.733	147.06
247.966	139.06
248.2	139.06
248.433	147.06
248.666	143.06
248.899	132.06
249.133	155.06
249.366	169.06
249.599	159.06
249.832	155.06
250.066	153.06
250.299	138.06
250.532	158.06
250.765	171.06
250.998	165.06
251.231	170.06
251.465	171.06
251.698	162.06
251.931	161.06
252.164	164.06
252.397	169.06
252.63	155.06
252.863	152.06
253.096	170.06
253.329	178.06
253.562	168.06
253.795	190.06
254.028	153.06
254.261	175.06
254.494	188.06
254.727	202.06
254.96	213.06
255.193	200.06
255.426	203.06
255.659	187.06
255.892	188.06
256.124	178.06
256.357	192.06
256.59	182.06
256.823	182.06
257.056	193.06
257.289	173.06
257.521	142.06
257.754	170.06
257.987	159.06
258.22	166.06
258.452	169.06
258.685	166.06
258.918	169.06
259.151	185.06
259.383	193.06
259.616	161.06
259.849	185.06
260.081	183.06
260.314	198.06
260.547	204.06
260.779	182.06
261.012	189.06
261.244	182.06
261.477	181.06
261.71	183.06
261.942	184.06
262.175	179.06
262.407	192.06
262.64	165.06
262.872	167.06
263.105	170.06
263.337	180.06
263.57	172.06
263.802	156.06
264.035	161.06
264.267	156.06
264.499	174.06
264.732	169.06
264.964	162.06
265.197	160.06
265.429	170.06
265.661	153.06
265.894	185.06
266.126	178.06
266.358	170.06
266.591	160.06
266.823	171.06
267.055	180.06
267.287	169.06
267.52	169.06
267.752	182.06
267.984	177.06
268.216	184.06
268.448	182.06
268.681	179.06
268.913	203.06
269.145	196.06
269.377	194.06
269.609	214.06
269.841	217.06
270.073	203.06
270.306	227.06
270.538	233.06
270.77	227.06
271.002	213.06
271.234	214.06
271.466	230.06
271.698	243.06
271.93	244.06
272.162	237.06
272.394	227.06
272.626	227.06
272.858	247.06
273.09	219.06
273.322	214.06
273.553	207.06
273.785	193.06
274.017	204.06
274.249	207.06
274.481	199.06
274.713	202.06
274.945	203.06
275.176	210.06
275.408	226.06
275.64	207.06
275.872	221.06
276.104	207.06
276.335	195.06
276.567	210.06
276.799	228.06
277.031	242.06
277.262	240.06
277.494	247.06
277.726	224.06
277.957	216.06
278.189	213.06
278.421	220.06
278.652	205.06
278.884	192.06
279.115	204.06
279.347	218.06
279.579	197.06
279.81	197.06
280.042	208.06
280.273	193.06
280.505	203.06
280.736	189.06
280.968	198.06
281.199	191.06
281.431	204.06
281.662	192.06
281.894	197.06
282.125	201.06
282.356	218.06
282.588	231.06
282.819	223.06
283.051	198.06
283.282	188.06
283.513	201.06
283.745	197.06
283.976	201.06
284.207	219.06
284.439	221.06
284.67	208.06
284.901	207.06
285.132	220.06
285.364	205.06
285.595	213.06
285.826	211.06
286.057	194.06
286.288	203.06
286.52	212.06
286.751	207.06
286.982	213.06
287.213	202.06
287.444	199.06
287.675	202.06
287.906	219.06
288.138	224.06
288.369	230.06
288.6	219.06
288.831	219.06
289.062	212.06
289.293	242.06
289.524	196.06
289.755	219.06
289.986	235.06
290.217	210.06
290.448	207.06
290.679	214.06
290.91	209.06
291.141	212.06
291.371	215.06
291.602	225.06
291.833	209.06
292.064	222.06
292.295	228.06
292.526	212.06
292.757	197.06
292.987	221.06
293.218	217.06
293.449	217.06
293.68	210.06
293.91	203.06
294.141	202.06
294.372	207.06
294.603	221.06
294.833	222.06
295.064	214.06
295.295	206.06
295.525	241.06
295.756	200.06
295.987	241.06
296.217	246.06
296.448	245.06
296.679	218.06
296.909	212.06
297.14	216.06
297.37	221.06
297.601	230.06
297.831	218.06
298.062	217.06
298.292	234.06
298.523	246.06
298.753	227.06
298.984	228.06
299.214	221.06
299.445	234.06
299.675	221.06
299.905	229.06
300.136	250.06
300.366	237.06
300.597	236.06
300.827	235.06
301.057	232.06
301.288	236.06
301.518	254.06
301.748	233.06
301.979	250.06
302.209	241.06
302.439	253.06
302.669	244.06
302.9	245.06
303.13	235.06
303.36	253.06
303.59	237.06
303.82	256.06
304.051	261.06
304.281	257.06
304.511	229.06
304.741	226.06
304.971	238.06
305.201	235.06
305.431	228.06
305.661	253.06
305.891	244.06
306.121	246.06
306.352	246.06
306.582	246.06
306.812	226.06
307.042	242.06
307.272	246.06
307.502	257.06
307.731	253.06
307.961	245.06
308.191	257.06
308.421	242.06
308.651	265.06
308.881	261.06
309.111	269.06
309.341	271.06
309.571	272.06
309.8	276.06
310.03	286.06
310.26	275.06
310.49	284.06
310.72	289.06
310.949	289.06
311.179	306.06
311.409	287.06
311.639	283.06
311.868	284.06
312.098	291.06
312.328	275.06
312.557	306.06
312.787	302.06
313.017	310.06
313.246	306.06
313.476	295.06
313.706	292.06
313.935	293.06
314.165	290.06
314.394	301.06
314.624	300.06
314.853	295.06
315.083	275.06
315.312	278.06
315.542	285.06
315.771	262.06
316.001	273.06
316.23	277.06
316.46	267.06
316.689	265.06
316.919	291.06
317.148	288.06
317.377	285.06
317.607	301.06
317.836	284.06
318.065	287.06
318.295	280.06
318.524	275.06
318.753	269.06
318.983	269.06
319.212	275.06
319.441	284.06
319.67	312.06
319.9	285.06
320.129	283.06
320.358	263.06
320.587	306.06
320.816	290.06
321.046	299.06
321.275	302.06
321.504	301.06
321.733	309.06
321.962	309.06
322.191	325.06
322.42	321.06
322.649	340.06
322.878	339.06
323.108	367.06
323.337	375.06
323.566	389.06
323.795	415.06
324.024	474.06
324.253	565.06
324.482	876.06
324.71	1309.06
324.939	1642.06
325.168	1375.06
325.397	734.06
325.626	507.06
325.855	437.06
326.084	408.06
326.313	402.06
326.542	381.06
326.77	439.06
326.999	524.06
327.228	769.06
327.457	1118.06
327.686	1225.06
327.914	810.06
328.143	552.06
328.372	475.06
328.6	458.06
328.829	439.06
329.058	436.06
329.287	449.06
329.515	425.06
329.744	385.06
329.972	402.06
330.201	403.06
330.43	443.06
330.658	465.06
330.887	463.06
331.115	439.06
331.344	382.06
331.572	388.06
331.801	377.06
332.03	369.06
332.258	335.06
332.486	338.06
332.715	324.06
332.943	332.06
333.172	337.06
333.4	335.06
333.629	332.06
333.857	331.06
334.085	357.06
334.314	376.06
334.542	364.06
334.771	387.06
334.999	364.06
335.227	343.06
335.455	328.06
335.684	315.06
335.912	331.06
336.14	324.06
336.369	331.06
336.597	321.06
336.825	331.06
337.053	314.06
337.281	310.06
337.51	317.06
337.738	307.06
337.966	317.06
338.194	321.06
338.422	319.06
338.65	316.06
338.878	302.06
339.106	293.06
339.334	297.06
339.562	294.06
339.79	307.06
340.018	322.06
340.246	306.06
340.474	317.06
340.702	312.06
340.93	313.06
341.158	307.06
341.386	306.06
341.614	309.06
341.842	297.06
342.07	306.06
342.298	302.06
342.526	309.06
342.754	302.06
342.981	305.06
343.209	316.06
343.437	289.06
343.665	291.06
343.893	305.06
344.12	305.06
344.348	305.06
344.576	309.06
344.804	310.06
345.031	317.06
345.259	338.06
345.487	305.06
345.714	322.06
345.942	297.06
346.17	301.06
346.397	298.06
346.625	307.06
346.853	292.06
347.08	314.06
347.308	311.06
347.535	301.06
347.763	318.06
347.99	309.06
348.218	297.06
348.445	330.06
348.673	305.06
348.9	308.06
349.128	324.06
349.355	272.06
349.583	289.06
349.81	289.06
350.037	285.06
350.265	274.06
350.492	282.06
350.72	284.06
350.947	308.06
351.174	290.06
351.402	295.06
351.629	309.06
351.856	298.06
352.083	329.06
352.311	316.06
352.538	329.06
352.765	307.06
352.992	308.06
353.22	305.06
353.447	299.06
353.674	298.06
353.901	294.06
354.128	289.06
354.355	273.06
354.583	292.06
354.81	282.06
355.037	283.06
355.264	273.06
355.491	270.06
355.718	270.06
355.945	259.06
356.172	265.06
356.399	267.06
356.626	271.06
356.853	286.06
357.08	276.06
357.307	269.06
357.534	277.06
357.761	282.06
357.988	270.06
358.215	281.06
358.441	296.06
358.668	275.06
358.895	273.06
359.122	266.06
359.349	284.06
359.576	297.06
359.802	286.06
360.029	329.06
360.256	332.06
360.483	318.06
360.709	309.06
360.936	276.06
361.163	312.06
361.39	285.06
361.616	306.06
361.843	292.06
362.07	286.06
362.296	289.06
362.523	290.06
362.749	302.06
362.976	298.06
363.203	290.06
363.429	288.06
363.656	254.06
363.882	274.06
364.109	275.06
364.335	301.06
364.562	268.06
364.788	275.06
365.015	281.06
365.241	271.06
365.468	275.06
365.694	290.06
365.92	276.06
366.147	274.06
366.373	280.06
366.599	279.06
366.826	252.06
367.052	280.06
367.278	283.06
367.505	277.06
367.731	280.06
367.957	285.06
368.184	275.06
368.41	280.06
368.636	289.06
368.862	269.06
369.089	293.06
369.315	274.06
369.541	277.06
369.767	281.06
369.993	279.06
370.219	279.06
370.445	277.06
370.672	276.06
370.898	248.06
371.124	261.06
371.35	261.06
371.576	264.06
371.802	274.06
372.028	273.06
372.254	274.06
372.48	269.06
372.706	277.06
372.932	273.06
373.158	278.06
373.384	252.06
373.61	253.06
373.835	268.06
374.061	261.06
374.287	261.06
374.513	259.06
374.739	280.06
374.965	281.06
375.191	257.06
375.416	277.06
375.642	276.06
375.868	263.06
376.094	243.06
376.319	270.06
376.545	253.06
376.771	263.06
376.997	270.06
377.222	253.06
377.448	260.06
377.674	265.06
377.899	265.06
378.125	250.06
378.35	254.06
378.576	251.06
378.802	265.06
379.027	269.06
379.253	252.06
379.478	268.06
379.704	269.06
379.929	264.06
380.155	265.06
380.38	263.06
380.606	263.06
380.831	276.06
381.057	274.06
381.282	270.06
381.507	268.06
381.733	277.06
381.958	251.06
382.184	265.06
382.409	268.06
382.634	259.06
382.86	258.06
383.085	267.06
383.31	262.06
383.535	276.06
383.761	279.06
383.986	269.06
384.211	260.06
384.436	282.06
384.662	273.06
384.887	269.06
385.112	279.06
385.337	268.06
385.562	259.06
385.787	285.06
386.013	284.06
386.238	283.06
386.463	299.06
386.688	268.06
386.913	293.06
387.138	292.06
387.363	267.06
387.588	268.06
387.813	284.06
388.038	281.06
388.263	258.06
388.488	293.06
388.713	263.06
388.938	283.06
389.163	284.06
389.387	268.06
389.612	272.06
389.837	287.06
390.062	266.06
390.287	265.06
390.512	271.06
390.736	281.06
390.961	285.06
391.186	269.06
391.411	252.06
391.636	275.06
391.86	279.06
392.085	263.06
392.31	277.06
392.534	290.06
392.759	281.06
392.984	267.06
393.208	280.06
393.433	273.06
393.658	261.06
393.882	284.06
394.107	266.06
394.331	271.06
394.556	280.06
394.78	278.06
395.005	284.06
395.229	276.06
395.454	284.06
395.678	275.06
395.903	271.06
396.127	288.06
396.352	287.06
396.576	286.06
396.801	287.06
397.025	261.06
397.249	279.06
397.474	263.06
397.698	265.06
397.922	288.06
398.147	309.06
398.371	298.06
398.595	302.06
398.82	300.06
399.044	306.06
399.268	307.06
399.492	316.06
399.717	336.06
399.941	349.06
400.165	362.06
400.389	375.06
400.613	356.06
400.837	313.06
401.062	304.06
401.286	329.06
401.51	315.06
401.734	290.06
401.958	308.06
402.182	307.06
402.406	304.06
402.63	326.06
402.854	308.06
403.078	307.06
403.302	303.06
403.526	305.06
403.75	307.06
403.974	308.06
404.198	324.06
404.422	330.06
404.645	314.06
404.869	317.06
405.093	358.06
405.317	369.06
405.541	377.06
405.765	367.06
405.988	347.06
406.212	325.06
406.436	347.06
406.66	369.06
406.883	345.06
407.107	346.06
407.331	373.06
407.555	403.06
407.778	401.06
408.002	364.06
408.226	349.06
408.449	346.06
408.673	350.06
408.896	370.06
409.12	373.06
409.344	372.06
409.567	339.06
409.791	327.06
410.014	326.06
410.238	310.06
410.461	340.06
410.685	327.06
410.908	333.06
411.132	350.06
411.355	366.06
411.578	330.06
411.802	325.06
412.025	311.06
412.249	332.06
412.472	328.06
412.695	351.06
412.919	346.06
413.142	328.06
413.365	311.06
413.589	313.06
413.812	309.06
414.035	315.06
414.258	292.06
414.482	277.06
414.705	291.06
414.928	284.06
415.151	272.06
415.374	286.06
415.597	293.06
415.821	299.06
416.044	278.06
416.267	285.06
416.49	279.06
416.713	292.06
416.936	277.06
417.159	291.06
417.382	305.06
417.605	314.06
417.828	309.06
418.051	305.06
418.274	314.06
418.497	322.06
418.72	302.06
418.943	309.06
419.166	300.06
419.389	325.06
419.611	301.06
419.834	304.06
420.057	311.06
420.28	294.06
420.503	320.06
420.726	341.06
420.948	339.06
421.171	338.06
421.394	343.06
421.617	329.06
421.839	314.06
422.062	331.06
422.285	346.06
422.507	358.06
422.73	400.06
422.953	379.06
423.175	359.06
423.398	347.06
423.621	325.06
423.843	350.06
424.066	344.06
424.288	339.06
424.511	363.06
424.733	370.06
424.956	405.06
425.178	419.06
425.401	414.06
425.623	437.06
425.846	366.06
426.068	347.06
426.291	331.06
426.513	340.06
426.735	338.06
426.958	362.06
427.18	447.06
427.402	492.06
427.625	542.06
427.847	478.06
428.069	420.06
428.292	391.06
428.514	354.06
428.736	341.06
428.958	314.06
429.181	311.06
429.403	308.06
429.625	299.06
429.847	346.06
430.069	384.06
430.292	379.06
430.514	326.06
430.736	327.06
430.958	309.06
431.18	314.06
431.402	309.06
431.624	293.06
431.846	295.06
432.068	292.06
432.29	298.06
432.512	325.06
432.734	329.06
432.956	314.06
433.178	329.06
433.4	316.06
433.622	293.06
433.844	305.06
434.066	287.06
434.287	296.06
434.509	288.06
434.731	317.06
434.953	302.06
435.175	332.06
435.397	338.06
435.618	348.06
435.84	379.06
436.062	433.06
436.284	462.06
436.505	400.06
436.727	346.06
436.949	339.06
437.17	323.06
437.392	309.06
437.614	342.06
437.835	360.06
438.057	421.06
438.278	463.06
438.5	458.06
438.721	490.06
438.943	476.06
439.165	409.06
439.386	350.06
439.608	347.06
439.829	347.06
440.05	364.06
440.272	392.06
440.493	389.06
440.715	346.06
440.936	313.06
441.158	326.06
441.379	307.06
441.6	327.06
441.822	327.06
442.043	362.06
442.264	391.06
442.486	439.06
442.707	387.06
442.928	346.06
443.149	372.06
443.371	358.06
443.592	395.06
443.813	459.06
444.034	477.06
444.255	424.06
444.476	364.06
444.698	365.06
444.919	312.06
445.14	429.06
445.361	381.06
445.582	355.06
445.803	418.06
446.024	493.06
446.245	481.06
446.466	460.06
446.687	387.06
446.908	357.06
447.129	353.06
447.35	337.06
447.571	341.06
447.792	305.06
448.013	341.06
448.234	340.06
448.455	369.06
448.675	426.06
448.896	484.06
449.117	426.06
449.338	409.06
449.559	460.06
449.779	508.06
450	442.06
450.221	356.06
450.442	311.06
450.662	286.06
450.883	313.06
451.104	332.06
451.324	327.06
451.545	324.06
451.766	303.06
451.986	283.06
452.207	274.06
452.428	299.06
452.648	291.06
452.869	294.06
453.089	305.06
453.31	302.06
453.53	297.06
453.751	283.06
453.971	300.06
454.192	313.06
454.412	308.06
454.633	293.06
454.853	289.06
455.073	299.06
455.294	311.06
455.514	341.06
455.734	340.06
455.955	279.06
456.175	285.06
456.395	279.06
456.616	290.06
456.836	265.06
457.056	262.06
457.276	264.06
457.497	264.06
457.717	271.06
457.937	268.06
458.157	278.06
458.377	283.06
458.598	300.06
458.818	341.06
459.038	390.06
459.258	383.06
459.478	326.06
459.698	299.06
459.918	277.06
460.138	288.06
460.358	287.06
460.578	289.06
460.798	309.06
461.018	299.06
461.238	295.06
461.458	292.06
461.678	285.06
461.898	315.06
462.118	284.06
462.338	305.06
462.558	308.06
462.777	279.06
462.997	298.06
463.217	283.06
463.437	282.06
463.657	300.06
463.876	299.06
464.096	317.06
464.316	293.06
464.536	315.06
464.755	307.06
464.975	312.06
465.195	335.06
465.414	393.06
465.634	356.06
465.854	324.06
466.073	315.06
466.293	291.06
466.512	282.06
466.732	309.06
466.951	302.06
467.171	289.06
467.391	281.06
467.61	299.06
467.829	302.06
468.049	315.06
468.268	321.06
468.488	300.06
468.707	269.06
468.927	295.06
469.146	270.06
469.365	261.06
469.585	272.06
469.804	291.06
470.023	303.06
470.243	296.06
470.462	284.06
470.681	317.06
470.901	309.06
471.12	293.06
471.339	293.06
471.558	294.06
471.777	275.06
471.997	310.06
472.216	286.06
472.435	313.06
472.654	311.06
472.873	293.06
473.092	287.06
473.311	307.06
473.53	310.06
473.749	290.06
473.968	331.06
474.187	405.06
474.406	412.06
474.625	349.06
474.844	303.06
475.063	306.06
475.282	300.06
475.501	296.06
475.72	302.06
475.939	309.06
476.158	294.06
476.377	298.06
476.596	315.06
476.814	297.06
477.033	291.06
477.252	313.06
477.471	317.06
477.69	297.06
477.908	325.06
478.127	309.06
478.346	308.06
478.564	320.06
478.783	318.06
479.002	322.06
479.22	336.06
479.439	329.06
479.658	351.06
479.876	345.06
480.095	370.06
480.313	381.06
480.532	360.06
480.751	350.06
480.969	354.06
481.188	396.06
481.406	435.06
481.624	369.06
481.843	370.06
482.061	353.06
482.28	356.06
482.498	345.06
482.717	343.06
482.935	321.06
483.153	334.06
483.372	346.06
483.59	333.06
483.808	346.06
484.027	340.06
484.245	344.06
484.463	345.06
484.681	347.06
484.9	346.06
485.118	353.06
485.336	337.06
485.554	336.06
485.772	324.06
485.99	376.06
486.209	337.06
486.427	355.06
486.645	371.06
486.863	380.06
487.081	374.06
487.299	361.06
487.517	359.06
487.735	369.06
487.953	378.06
488.171	391.06
488.389	364.06
488.607	381.06
488.825	352.06
489.043	350.06
489.261	365.06
489.479	376.06
489.696	355.06
489.914	369.06
490.132	373.06
490.35	381.06
490.568	374.06
490.786	367.06
491.003	379.06
491.221	377.06
491.439	396.06
491.657	395.06
491.874	401.06
492.092	409.06
492.31	415.06
492.527	421.06
492.745	421.06
492.963	428.06
493.18	411.06
493.398	428.06
493.615	430.06
493.833	432.06
494.05	422.06
494.268	425.06
494.485	430.06
494.703	415.06
494.92	439.06
495.138	413.06
495.355	435.06
495.573	446.06
495.79	433.06
496.008	441.06
496.225	419.06
496.442	433.06
496.66	428.06
496.877	425.06
497.094	446.06
497.312	428.06
497.529	433.06
497.746	443.06
497.963	448.06
498.181	460.06
498.398	466.06
498.615	466.06
498.832	461.06
499.049	460.06
499.267	475.06
499.484	484.06
499.701	483.06
499.918	517.06
500.135	517.06
500.352	535.06
500.569	514.06
500.786	531.06
501.003	494.06
501.22	516.06
501.437	521.06
501.654	512.06
501.871	499.06
502.088	501.06
502.305	469.06
