Data from 1982.PennyLincolnUp.Lamp.En5.5.200Scan.071819.P1_HRD10591_16-46-21-962.txt Node
Date: Thu Jul 18 16:46:21 EDT 2019
User: cochatt
Spectrometer: HR+D1059
Trigger mode: 1
Integration Time (sec): 1.000000E-1
Scans to average: 1
Electric dark correction enabled: true
Nonlinearity correction enabled: false
Boxcar width: 0
XAxis mode: Wavelengths
Number of Pixels in Spectrum: 2048
>>>>>Begin Spectral Data<<<<<
223.165	-21.19
223.4	-21.19
223.635	-21.19
223.869	-18.19
224.104	-24.19
224.338	-13.19
224.573	-15.19
224.808	-0.19
225.042	-10.19
225.277	-11.19
225.511	-12.19
225.746	8.81
225.98	0.81
226.215	15.81
226.449	21.81
226.683	14.81
226.918	29.81
227.152	33.81
227.387	32.81
227.621	35.81
227.856	39.81
228.09	39.81
228.324	39.81
228.559	56.81
228.793	58.81
229.027	75.81
229.262	80.81
229.496	94.81
229.73	112.81
229.964	118.81
230.199	97.81
230.433	110.81
230.667	100.81
230.901	105.81
231.136	102.81
231.37	89.81
231.604	100.81
231.838	90.81
232.072	90.81
232.306	110.81
232.541	102.81
232.775	100.81
233.009	106.81
233.243	89.81
233.477	89.81
233.711	96.81
233.945	88.81
234.179	109.81
234.413	108.81
234.647	110.81
234.881	91.81
235.115	92.81
235.349	88.81
235.583	107.81
235.817	113.81
236.051	118.81
236.285	128.81
236.519	105.81
236.753	118.81
236.987	139.81
237.221	146.81
237.455	188.81
237.689	164.81
237.922	116.81
238.156	108.81
238.39	99.81
238.624	97.81
238.858	105.81
239.091	105.81
239.325	101.81
239.559	107.81
239.793	119.81
240.027	104.81
240.26	128.81
240.494	127.81
240.728	121.81
240.961	124.81
241.195	120.81
241.429	120.81
241.662	102.81
241.896	100.81
242.13	104.81
242.363	120.81
242.597	114.81
242.83	116.81
243.064	122.81
243.298	121.81
243.531	122.81
243.765	113.81
243.998	124.81
244.232	122.81
244.465	121.81
244.699	137.81
244.932	120.81
245.166	114.81
245.399	119.81
245.633	104.81
245.866	135.81
246.099	133.81
246.333	129.81
246.566	130.81
246.8	119.81
247.033	113.81
247.266	129.81
247.5	136.81
247.733	119.81
247.966	145.81
248.2	140.81
248.433	143.81
248.666	147.81
248.899	150.81
249.133	165.81
249.366	173.81
249.599	165.81
249.832	153.81
250.066	148.81
250.299	143.81
250.532	144.81
250.765	161.81
250.998	161.81
251.231	183.81
251.465	160.81
251.698	146.81
251.931	168.81
252.164	165.81
252.397	168.81
252.63	155.81
252.863	165.81
253.096	171.81
253.329	181.81
253.562	184.81
253.795	187.81
254.028	170.81
254.261	173.81
254.494	177.81
254.727	210.81
254.96	212.81
255.193	216.81
255.426	198.81
255.659	186.81
255.892	181.81
256.124	185.81
256.357	171.81
256.59	182.81
256.823	183.81
257.056	153.81
257.289	147.81
257.521	173.81
257.754	166.81
257.987	182.81
258.22	158.81
258.452	152.81
258.685	164.81
258.918	164.81
259.151	168.81
259.383	182.81
259.616	189.81
259.849	184.81
260.081	181.81
260.314	198.81
260.547	194.81
260.779	188.81
261.012	186.81
261.244	180.81
261.477	169.81
261.71	172.81
261.942	187.81
262.175	185.81
262.407	180.81
262.64	164.81
262.872	161.81
263.105	182.81
263.337	182.81
263.57	161.81
263.802	163.81
264.035	185.81
264.267	178.81
264.499	166.81
264.732	156.81
264.964	173.81
265.197	169.81
265.429	166.81
265.661	173.81
265.894	173.81
266.126	163.81
266.358	168.81
266.591	178.81
266.823	173.81
267.055	178.81
267.287	180.81
267.52	177.81
267.752	161.81
267.984	181.81
268.216	193.81
268.448	192.81
268.681	190.81
268.913	177.81
269.145	203.81
269.377	213.81
269.609	229.81
269.841	209.81
270.073	204.81
270.306	226.81
270.538	236.81
270.77	237.81
271.002	246.81
271.234	230.81
271.466	221.81
271.698	233.81
271.93	224.81
272.162	251.81
272.394	251.81
272.626	233.81
272.858	227.81
273.09	199.81
273.322	227.81
273.553	210.81
273.785	200.81
274.017	211.81
274.249	196.81
274.481	204.81
274.713	206.81
274.945	214.81
275.176	195.81
275.408	202.81
275.64	202.81
275.872	202.81
276.104	187.81
276.335	207.81
276.567	198.81
276.799	231.81
277.031	224.81
277.262	247.81
277.494	254.81
277.726	232.81
277.957	218.81
278.189	217.81
278.421	225.81
278.652	193.81
278.884	208.81
279.115	223.81
279.347	208.81
279.579	216.81
279.81	177.81
280.042	198.81
280.273	201.81
280.505	213.81
280.736	199.81
280.968	198.81
281.199	201.81
281.431	198.81
281.662	203.81
281.894	226.81
282.125	213.81
282.356	216.81
282.588	252.81
282.819	237.81
283.051	218.81
283.282	210.81
283.513	197.81
283.745	203.81
283.976	226.81
284.207	212.81
284.439	199.81
284.67	206.81
284.901	213.81
285.132	206.81
285.364	216.81
285.595	198.81
285.826	210.81
286.057	206.81
286.288	199.81
286.52	208.81
286.751	199.81
286.982	209.81
287.213	214.81
287.444	214.81
287.675	213.81
287.906	219.81
288.138	220.81
288.369	228.81
288.6	230.81
288.831	218.81
289.062	225.81
289.293	230.81
289.524	206.81
289.755	219.81
289.986	225.81
290.217	211.81
290.448	204.81
290.679	212.81
290.91	221.81
291.141	204.81
291.371	221.81
291.602	212.81
291.833	225.81
292.064	214.81
292.295	221.81
292.526	194.81
292.757	212.81
292.987	200.81
293.218	210.81
293.449	219.81
293.68	226.81
293.91	221.81
294.141	217.81
294.372	204.81
294.603	212.81
294.833	229.81
295.064	224.81
295.295	229.81
295.525	237.81
295.756	216.81
295.987	217.81
296.217	246.81
296.448	246.81
296.679	229.81
296.909	222.81
297.14	212.81
297.37	226.81
297.601	222.81
297.831	231.81
298.062	220.81
298.292	237.81
298.523	232.81
298.753	222.81
298.984	219.81
299.214	215.81
299.445	222.81
299.675	223.81
299.905	232.81
300.136	233.81
300.366	239.81
300.597	233.81
300.827	218.81
301.057	237.81
301.288	255.81
301.518	236.81
301.748	237.81
301.979	245.81
302.209	252.81
302.439	244.81
302.669	237.81
302.9	246.81
303.13	233.81
303.36	240.81
303.59	232.81
303.82	246.81
304.051	260.81
304.281	249.81
304.511	253.81
304.741	240.81
304.971	237.81
305.201	234.81
305.431	236.81
305.661	254.81
305.891	237.81
306.121	237.81
306.352	244.81
306.582	260.81
306.812	234.81
307.042	260.81
307.272	258.81
307.502	234.81
307.731	259.81
307.961	256.81
308.191	236.81
308.421	258.81
308.651	254.81
308.881	270.81
309.111	241.81
309.341	252.81
309.571	273.81
309.8	290.81
310.03	266.81
310.26	277.81
310.49	285.81
310.72	292.81
310.949	296.81
311.179	302.81
311.409	300.81
311.639	306.81
311.868	291.81
312.098	282.81
312.328	297.81
312.557	280.81
312.787	313.81
313.017	310.81
313.246	299.81
313.476	277.81
313.706	294.81
313.935	292.81
314.165	283.81
314.394	301.81
314.624	299.81
314.853	289.81
315.083	292.81
315.312	276.81
315.542	285.81
315.771	269.81
316.001	261.81
316.23	282.81
316.46	279.81
316.689	270.81
316.919	290.81
317.148	297.81
317.377	311.81
317.607	307.81
317.836	282.81
318.065	280.81
318.295	285.81
318.524	281.81
318.753	294.81
318.983	305.81
319.212	280.81
319.441	291.81
319.67	293.81
319.9	281.81
320.129	277.81
320.358	280.81
320.587	270.81
320.816	300.81
321.046	305.81
321.275	301.81
321.504	295.81
321.733	310.81
321.962	308.81
322.191	311.81
322.42	334.81
322.649	338.81
322.878	352.81
323.108	373.81
323.337	377.81
323.566	394.81
323.795	434.81
324.024	470.81
324.253	598.81
324.482	887.81
324.71	1277.81
324.939	1706.81
325.168	1364.81
325.397	726.81
325.626	503.81
325.855	422.81
326.084	388.81
326.313	397.81
326.542	381.81
326.77	447.81
326.999	540.81
327.228	757.81
327.457	1076.81
327.686	1208.81
327.914	828.81
328.143	547.81
328.372	499.81
328.6	462.81
328.829	418.81
329.058	456.81
329.287	437.81
329.515	421.81
329.744	399.81
329.972	381.81
330.201	402.81
330.43	436.81
330.658	446.81
330.887	484.81
331.115	448.81
331.344	386.81
331.572	377.81
331.801	355.81
332.03	354.81
332.258	358.81
332.486	319.81
332.715	332.81
332.943	358.81
333.172	341.81
333.4	332.81
333.629	351.81
333.857	361.81
334.085	357.81
334.314	363.81
334.542	380.81
334.771	386.81
334.999	366.81
335.227	342.81
335.455	341.81
335.684	303.81
335.912	319.81
336.14	312.81
336.369	305.81
336.597	334.81
336.825	343.81
337.053	324.81
337.281	310.81
337.51	319.81
337.738	316.81
337.966	320.81
338.194	325.81
338.422	328.81
338.65	335.81
338.878	295.81
339.106	293.81
339.334	311.81
339.562	303.81
339.79	305.81
340.018	311.81
340.246	312.81
340.474	321.81
340.702	321.81
340.93	312.81
341.158	328.81
341.386	324.81
341.614	314.81
341.842	293.81
342.07	301.81
342.298	308.81
342.526	291.81
342.754	297.81
342.981	303.81
343.209	300.81
343.437	292.81
343.665	308.81
343.893	308.81
344.12	319.81
344.348	307.81
344.576	321.81
344.804	322.81
345.031	315.81
345.259	328.81
345.487	317.81
345.714	306.81
345.942	293.81
346.17	284.81
346.397	290.81
346.625	307.81
346.853	301.81
347.08	301.81
347.308	289.81
347.535	283.81
347.763	308.81
347.99	316.81
348.218	307.81
348.445	310.81
348.673	311.81
348.9	312.81
349.128	297.81
349.355	288.81
349.583	292.81
349.81	297.81
350.037	294.81
350.265	284.81
350.492	293.81
350.72	290.81
350.947	280.81
351.174	306.81
351.402	289.81
351.629	315.81
351.856	305.81
352.083	320.81
352.311	306.81
352.538	330.81
352.765	325.81
352.992	304.81
353.22	320.81
353.447	294.81
353.674	283.81
353.901	293.81
354.128	283.81
354.355	287.81
354.583	276.81
354.81	278.81
355.037	271.81
355.264	280.81
355.491	256.81
355.718	288.81
355.945	268.81
356.172	257.81
356.399	259.81
356.626	267.81
356.853	274.81
357.08	270.81
357.307	278.81
357.534	274.81
357.761	281.81
357.988	254.81
358.215	276.81
358.441	275.81
358.668	297.81
358.895	268.81
359.122	267.81
359.349	302.81
359.576	298.81
359.802	319.81
360.029	313.81
360.256	334.81
360.483	312.81
360.709	304.81
360.936	289.81
361.163	291.81
361.39	294.81
361.616	317.81
361.843	304.81
362.07	293.81
362.296	308.81
362.523	305.81
362.749	307.81
362.976	305.81
363.203	296.81
363.429	276.81
363.656	284.81
363.882	271.81
364.109	281.81
364.335	276.81
364.562	283.81
364.788	275.81
365.015	277.81
365.241	270.81
365.468	291.81
365.694	277.81
365.92	280.81
366.147	275.81
366.373	286.81
366.599	266.81
366.826	272.81
367.052	278.81
367.278	294.81
367.505	286.81
367.731	283.81
367.957	276.81
368.184	291.81
368.41	283.81
368.636	321.81
368.862	286.81
369.089	282.81
369.315	270.81
369.541	280.81
369.767	271.81
369.993	260.81
370.219	261.81
370.445	256.81
370.672	269.81
370.898	276.81
371.124	255.81
371.35	261.81
371.576	270.81
371.802	254.81
372.028	266.81
372.254	273.81
372.48	275.81
372.706	260.81
372.932	265.81
373.158	268.81
373.384	272.81
373.61	270.81
373.835	263.81
374.061	274.81
374.287	284.81
374.513	280.81
374.739	271.81
374.965	280.81
375.191	270.81
375.416	259.81
375.642	268.81
375.868	257.81
376.094	270.81
376.319	272.81
376.545	276.81
376.771	270.81
376.997	267.81
377.222	259.81
377.448	266.81
377.674	272.81
377.899	276.81
378.125	256.81
378.35	253.81
378.576	272.81
378.802	250.81
379.027	268.81
379.253	271.81
379.478	269.81
379.704	275.81
379.929	258.81
380.155	267.81
380.38	272.81
380.606	252.81
380.831	263.81
381.057	274.81
381.282	270.81
381.507	258.81
381.733	257.81
381.958	253.81
382.184	261.81
382.409	274.81
382.634	278.81
382.86	273.81
383.085	283.81
383.31	269.81
383.535	274.81
383.761	282.81
383.986	270.81
384.211	246.81
384.436	260.81
384.662	284.81
384.887	269.81
385.112	266.81
385.337	255.81
385.562	260.81
385.787	270.81
386.013	276.81
386.238	280.81
386.463	269.81
386.688	284.81
386.913	272.81
387.138	284.81
387.363	285.81
387.588	271.81
387.813	277.81
388.038	249.81
388.263	285.81
388.488	272.81
388.713	290.81
388.938	286.81
389.163	290.81
389.387	284.81
389.612	277.81
389.837	268.81
390.062	288.81
390.287	259.81
390.512	261.81
390.736	285.81
390.961	270.81
391.186	281.81
391.411	258.81
391.636	284.81
391.86	285.81
392.085	277.81
392.31	282.81
392.534	242.81
392.759	282.81
392.984	278.81
393.208	279.81
393.433	279.81
393.658	284.81
393.882	292.81
394.107	278.81
394.331	293.81
394.556	273.81
394.78	286.81
395.005	282.81
395.229	272.81
395.454	282.81
395.678	281.81
395.903	292.81
396.127	308.81
396.352	306.81
396.576	281.81
396.801	280.81
397.025	289.81
397.249	299.81
397.474	271.81
397.698	284.81
397.922	289.81
398.147	323.81
398.371	324.81
398.595	307.81
398.82	291.81
399.044	315.81
399.268	304.81
399.492	327.81
399.717	331.81
399.941	344.81
400.165	360.81
400.389	352.81
400.613	331.81
400.837	334.81
401.062	315.81
401.286	299.81
401.51	306.81
401.734	296.81
401.958	284.81
402.182	302.81
402.406	321.81
402.63	304.81
402.854	316.81
403.078	301.81
403.302	294.81
403.526	329.81
403.75	317.81
403.974	304.81
404.198	309.81
404.422	309.81
404.645	325.81
404.869	316.81
405.093	342.81
405.317	361.81
405.541	384.81
405.765	337.81
405.988	328.81
406.212	340.81
406.436	346.81
406.66	369.81
406.883	346.81
407.107	344.81
407.331	387.81
407.555	426.81
407.778	394.81
408.002	374.81
408.226	344.81
408.449	343.81
408.673	352.81
408.896	343.81
409.12	365.81
409.344	369.81
409.567	329.81
409.791	330.81
410.014	316.81
410.238	312.81
410.461	319.81
410.685	319.81
410.908	348.81
411.132	335.81
411.355	371.81
411.578	334.81
411.802	308.81
412.025	297.81
412.249	314.81
412.472	334.81
412.695	362.81
412.919	319.81
413.142	320.81
413.365	316.81
413.589	304.81
413.812	297.81
414.035	292.81
414.258	290.81
414.482	299.81
414.705	300.81
414.928	296.81
415.151	304.81
415.374	293.81
415.597	265.81
415.821	308.81
416.044	299.81
416.267	297.81
416.49	282.81
416.713	298.81
416.936	304.81
417.159	289.81
417.382	314.81
417.605	320.81
417.828	303.81
418.051	323.81
418.274	313.81
418.497	284.81
418.72	326.81
418.943	324.81
419.166	304.81
419.389	328.81
419.611	306.81
419.834	308.81
420.057	328.81
420.28	317.81
420.503	328.81
420.726	313.81
420.948	334.81
421.171	354.81
421.394	377.81
421.617	321.81
421.839	317.81
422.062	332.81
422.285	335.81
422.507	371.81
422.73	389.81
422.953	372.81
423.175	341.81
423.398	336.81
423.621	335.81
423.843	345.81
424.066	342.81
424.288	350.81
424.511	360.81
424.733	382.81
424.956	432.81
425.178	424.81
425.401	405.81
425.623	435.81
425.846	372.81
426.068	350.81
426.291	338.81
426.513	366.81
426.735	356.81
426.958	351.81
427.18	445.81
427.402	507.81
427.625	541.81
427.847	477.81
428.069	403.81
428.292	377.81
428.514	347.81
428.736	328.81
428.958	340.81
429.181	321.81
429.403	326.81
429.625	336.81
429.847	340.81
430.069	411.81
430.292	388.81
430.514	326.81
430.736	300.81
430.958	306.81
431.18	298.81
431.402	284.81
431.624	292.81
431.846	312.81
432.068	300.81
432.29	282.81
432.512	288.81
432.734	301.81
432.956	311.81
433.178	303.81
433.4	324.81
433.622	310.81
433.844	311.81
434.066	306.81
434.287	308.81
434.509	290.81
434.731	288.81
434.953	304.81
435.175	324.81
435.397	341.81
435.618	332.81
435.84	368.81
436.062	437.81
436.284	447.81
436.505	368.81
436.727	363.81
436.949	324.81
437.17	313.81
437.392	327.81
437.614	333.81
437.835	363.81
438.057	427.81
438.278	465.81
438.5	459.81
438.721	512.81
438.943	496.81
439.165	398.81
439.386	373.81
439.608	362.81
439.829	368.81
440.05	380.81
440.272	409.81
440.493	361.81
440.715	346.81
440.936	331.81
441.158	327.81
441.379	324.81
441.6	323.81
441.822	344.81
442.043	378.81
442.264	416.81
442.486	434.81
442.707	387.81
442.928	355.81
443.149	349.81
443.371	375.81
443.592	401.81
443.813	428.81
444.034	474.81
444.255	403.81
444.476	350.81
444.698	333.81
444.919	347.81
445.14	446.81
445.361	388.81
445.582	352.81
445.803	417.81
446.024	476.81
446.245	469.81
446.466	441.81
446.687	365.81
446.908	347.81
447.129	352.81
447.35	332.81
447.571	317.81
447.792	327.81
448.013	337.81
448.234	340.81
448.455	382.81
448.675	438.81
448.896	493.81
449.117	428.81
449.338	432.81
449.559	478.81
449.779	540.81
450	421.81
450.221	356.81
450.442	322.81
450.662	337.81
450.883	326.81
451.104	348.81
451.324	337.81
451.545	314.81
451.766	297.81
451.986	297.81
452.207	298.81
452.428	283.81
452.648	300.81
452.869	297.81
453.089	310.81
453.31	328.81
453.53	299.81
453.751	291.81
453.971	299.81
454.192	305.81
454.412	296.81
454.633	299.81
454.853	277.81
455.073	270.81
455.294	307.81
455.514	344.81
455.734	333.81
455.955	291.81
456.175	285.81
456.395	268.81
456.616	278.81
456.836	287.81
457.056	285.81
457.276	260.81
457.497	244.81
457.717	257.81
457.937	269.81
458.157	267.81
458.377	273.81
458.598	304.81
458.818	336.81
459.038	392.81
459.258	390.81
459.478	338.81
459.698	312.81
459.918	294.81
460.138	304.81
460.358	289.81
460.578	327.81
460.798	304.81
461.018	312.81
461.238	306.81
461.458	285.81
461.678	291.81
461.898	276.81
462.118	286.81
462.338	300.81
462.558	293.81
462.777	287.81
462.997	313.81
463.217	300.81
463.437	306.81
463.657	310.81
463.876	336.81
464.096	315.81
464.316	300.81
464.536	320.81
464.755	313.81
464.975	333.81
465.195	347.81
465.414	391.81
465.634	356.81
465.854	314.81
466.073	313.81
466.293	295.81
466.512	305.81
466.732	295.81
466.951	293.81
467.171	300.81
467.391	282.81
467.61	288.81
467.829	304.81
468.049	302.81
468.268	305.81
468.488	307.81
468.707	287.81
468.927	264.81
469.146	297.81
469.365	294.81
469.585	285.81
469.804	290.81
470.023	301.81
470.243	297.81
470.462	284.81
470.681	304.81
470.901	320.81
471.12	286.81
471.339	294.81
471.558	299.81
471.777	306.81
471.997	308.81
472.216	311.81
472.435	321.81
472.654	301.81
472.873	293.81
473.092	289.81
473.311	293.81
473.53	307.81
473.749	279.81
473.968	326.81
474.187	396.81
474.406	415.81
474.625	336.81
474.844	315.81
475.063	304.81
475.282	300.81
475.501	308.81
475.72	298.81
475.939	309.81
476.158	301.81
476.377	300.81
476.596	314.81
476.814	320.81
477.033	324.81
477.252	319.81
477.471	296.81
477.69	311.81
477.908	316.81
478.127	310.81
478.346	324.81
478.564	331.81
478.783	324.81
479.002	324.81
479.22	329.81
479.439	342.81
479.658	337.81
479.876	354.81
480.095	372.81
480.313	363.81
480.532	378.81
480.751	360.81
480.969	353.81
481.188	388.81
481.406	408.81
481.624	370.81
481.843	355.81
482.061	344.81
482.28	344.81
482.498	328.81
482.717	331.81
482.935	332.81
483.153	333.81
483.372	340.81
483.59	331.81
483.808	337.81
484.027	347.81
484.245	335.81
484.463	334.81
484.681	354.81
484.9	334.81
485.118	342.81
485.336	344.81
485.554	373.81
485.772	365.81
485.99	338.81
486.209	356.81
486.427	363.81
486.645	375.81
486.863	380.81
487.081	369.81
487.299	377.81
487.517	360.81
487.735	383.81
487.953	378.81
488.171	352.81
488.389	372.81
488.607	356.81
488.825	339.81
489.043	354.81
489.261	368.81
489.479	360.81
489.696	371.81
489.914	348.81
490.132	368.81
490.35	377.81
490.568	385.81
490.786	374.81
491.003	400.81
491.221	395.81
491.439	397.81
491.657	402.81
491.874	393.81
492.092	420.81
492.31	416.81
492.527	411.81
492.745	416.81
492.963	423.81
493.18	414.81
493.398	437.81
493.615	418.81
493.833	448.81
494.05	440.81
494.268	430.81
494.485	418.81
494.703	409.81
494.92	418.81
495.138	418.81
495.355	416.81
495.573	418.81
495.79	427.81
496.008	423.81
496.225	430.81
496.442	433.81
496.66	414.81
496.877	417.81
497.094	437.81
497.312	432.81
497.529	414.81
497.746	441.81
497.963	427.81
498.181	454.81
498.398	454.81
498.615	462.81
498.832	451.81
499.049	465.81
499.267	468.81
499.484	499.81
499.701	483.81
499.918	498.81
500.135	507.81
500.352	544.81
500.569	529.81
500.786	521.81
501.003	524.81
501.22	529.81
501.437	516.81
501.654	492.81
501.871	515.81
502.088	502.81
