Data from 1982.PennyLincolnUp.Lamp.En5.5.200Scan.071819.P1_HRD10591_16-46-38-962.txt Node
Date: Thu Jul 18 16:46:38 EDT 2019
User: cochatt
Spectrometer: HR+D1059
Trigger mode: 1
Integration Time (sec): 1.000000E-1
Scans to average: 1
Electric dark correction enabled: true
Nonlinearity correction enabled: false
Boxcar width: 0
XAxis mode: Wavelengths
Number of Pixels in Spectrum: 2048
>>>>>Begin Spectral Data<<<<<
223.165	-14.19
223.4	-14.19
223.635	-14.19
223.869	-21.19
224.104	-13.19
224.338	-11.19
224.573	-20.19
224.808	-11.19
225.042	-5.19
225.277	-18.19
225.511	1.81
225.746	1.81
225.98	-1.19
226.215	9.81
226.449	14.81
226.683	13.81
226.918	38.81
227.152	34.81
227.387	25.81
227.621	51.81
227.856	37.81
228.09	49.81
228.324	56.81
228.559	57.81
228.793	57.81
229.027	73.81
229.262	88.81
229.496	102.81
229.73	112.81
229.964	125.81
230.199	92.81
230.433	89.81
230.667	98.81
230.901	113.81
231.136	96.81
231.37	104.81
231.604	105.81
231.838	90.81
232.072	92.81
232.306	100.81
232.541	112.81
232.775	98.81
233.009	90.81
233.243	100.81
233.477	101.81
233.711	90.81
233.945	106.81
234.179	100.81
234.413	93.81
234.647	94.81
234.881	101.81
235.115	93.81
235.349	101.81
235.583	113.81
235.817	103.81
236.051	103.81
236.285	102.81
236.519	95.81
236.753	106.81
236.987	119.81
237.221	170.81
237.455	175.81
237.689	159.81
237.922	133.81
238.156	111.81
238.39	115.81
238.624	123.81
238.858	92.81
239.091	101.81
239.325	110.81
239.559	91.81
239.793	106.81
240.027	118.81
240.26	116.81
240.494	130.81
240.728	124.81
240.961	111.81
241.195	109.81
241.429	111.81
241.662	107.81
241.896	106.81
242.13	100.81
242.363	100.81
242.597	102.81
242.83	123.81
243.064	111.81
243.298	122.81
243.531	119.81
243.765	112.81
243.998	124.81
244.232	125.81
244.465	123.81
244.699	117.81
244.932	130.81
245.166	119.81
245.399	113.81
245.633	102.81
245.866	117.81
246.099	115.81
246.333	118.81
246.566	129.81
246.8	138.81
247.033	136.81
247.266	129.81
247.5	128.81
247.733	150.81
247.966	129.81
248.2	137.81
248.433	138.81
248.666	140.81
248.899	158.81
249.133	172.81
249.366	170.81
249.599	156.81
249.832	149.81
250.066	148.81
250.299	131.81
250.532	163.81
250.765	166.81
250.998	177.81
251.231	168.81
251.465	161.81
251.698	165.81
251.931	170.81
252.164	153.81
252.397	160.81
252.63	175.81
252.863	163.81
253.096	163.81
253.329	194.81
253.562	185.81
253.795	183.81
254.028	188.81
254.261	183.81
254.494	169.81
254.727	205.81
254.96	221.81
255.193	216.81
255.426	200.81
255.659	193.81
255.892	182.81
256.124	180.81
256.357	182.81
256.59	192.81
256.823	170.81
257.056	163.81
257.289	172.81
257.521	171.81
257.754	175.81
257.987	167.81
258.22	171.81
258.452	177.81
258.685	158.81
258.918	155.81
259.151	190.81
259.383	194.81
259.616	181.81
259.849	177.81
260.081	196.81
260.314	201.81
260.547	209.81
260.779	181.81
261.012	176.81
261.244	177.81
261.477	182.81
261.71	177.81
261.942	168.81
262.175	182.81
262.407	182.81
262.64	170.81
262.872	184.81
263.105	185.81
263.337	178.81
263.57	156.81
263.802	165.81
264.035	184.81
264.267	175.81
264.499	171.81
264.732	187.81
264.964	184.81
265.197	156.81
265.429	183.81
265.661	171.81
265.894	175.81
266.126	175.81
266.358	177.81
266.591	175.81
266.823	175.81
267.055	192.81
267.287	185.81
267.52	179.81
267.752	186.81
267.984	187.81
268.216	187.81
268.448	196.81
268.681	173.81
268.913	186.81
269.145	205.81
269.377	228.81
269.609	202.81
269.841	213.81
270.073	216.81
270.306	252.81
270.538	263.81
270.77	257.81
271.002	251.81
271.234	228.81
271.466	236.81
271.698	247.81
271.93	253.81
272.162	247.81
272.394	247.81
272.626	253.81
272.858	236.81
273.09	205.81
273.322	225.81
273.553	209.81
273.785	203.81
274.017	224.81
274.249	214.81
274.481	205.81
274.713	205.81
274.945	222.81
275.176	217.81
275.408	215.81
275.64	208.81
275.872	196.81
276.104	225.81
276.335	217.81
276.567	227.81
276.799	226.81
277.031	260.81
277.262	241.81
277.494	243.81
277.726	246.81
277.957	221.81
278.189	219.81
278.421	203.81
278.652	220.81
278.884	242.81
279.115	223.81
279.347	221.81
279.579	219.81
279.81	203.81
280.042	217.81
280.273	196.81
280.505	219.81
280.736	207.81
280.968	211.81
281.199	206.81
281.431	235.81
281.662	199.81
281.894	214.81
282.125	224.81
282.356	223.81
282.588	246.81
282.819	243.81
283.051	215.81
283.282	210.81
283.513	205.81
283.745	209.81
283.976	216.81
284.207	210.81
284.439	219.81
284.67	216.81
284.901	213.81
285.132	218.81
285.364	205.81
285.595	215.81
285.826	205.81
286.057	220.81
286.288	204.81
286.52	214.81
286.751	217.81
286.982	222.81
287.213	231.81
287.444	221.81
287.675	224.81
287.906	224.81
288.138	219.81
288.369	219.81
288.6	228.81
288.831	236.81
289.062	227.81
289.293	236.81
289.524	221.81
289.755	210.81
289.986	210.81
290.217	228.81
290.448	214.81
290.679	235.81
290.91	214.81
291.141	215.81
291.371	230.81
291.602	225.81
291.833	218.81
292.064	230.81
292.295	221.81
292.526	219.81
292.757	209.81
292.987	220.81
293.218	237.81
293.449	221.81
293.68	230.81
293.91	223.81
294.141	224.81
294.372	228.81
294.603	223.81
294.833	214.81
295.064	221.81
295.295	226.81
295.525	223.81
295.756	239.81
295.987	243.81
296.217	225.81
296.448	259.81
296.679	234.81
296.909	232.81
297.14	228.81
297.37	231.81
297.601	239.81
297.831	229.81
298.062	235.81
298.292	219.81
298.523	233.81
298.753	229.81
298.984	231.81
299.214	251.81
299.445	251.81
299.675	230.81
299.905	230.81
300.136	232.81
300.366	235.81
300.597	236.81
300.827	235.81
301.057	260.81
301.288	254.81
301.518	239.81
301.748	260.81
301.979	245.81
302.209	250.81
302.439	260.81
302.669	255.81
302.9	231.81
303.13	259.81
303.36	250.81
303.59	268.81
303.82	243.81
304.051	253.81
304.281	236.81
304.511	268.81
304.741	239.81
304.971	260.81
305.201	242.81
305.431	242.81
305.661	263.81
305.891	224.81
306.121	252.81
306.352	275.81
306.582	283.81
306.812	250.81
307.042	263.81
307.272	265.81
307.502	269.81
307.731	278.81
307.961	244.81
308.191	246.81
308.421	267.81
308.651	263.81
308.881	276.81
309.111	269.81
309.341	269.81
309.571	287.81
309.8	271.81
310.03	273.81
310.26	300.81
310.49	280.81
310.72	280.81
310.949	296.81
311.179	312.81
311.409	304.81
311.639	293.81
311.868	284.81
312.098	291.81
312.328	312.81
312.557	313.81
312.787	322.81
313.017	305.81
313.246	302.81
313.476	284.81
313.706	308.81
313.935	300.81
314.165	325.81
314.394	311.81
314.624	303.81
314.853	294.81
315.083	306.81
315.312	292.81
315.542	273.81
315.771	286.81
316.001	301.81
316.23	281.81
316.46	290.81
316.689	291.81
316.919	303.81
317.148	305.81
317.377	307.81
317.607	287.81
317.836	292.81
318.065	292.81
318.295	304.81
318.524	294.81
318.753	272.81
318.983	288.81
319.212	300.81
319.441	298.81
319.67	304.81
319.9	301.81
320.129	307.81
320.358	299.81
320.587	292.81
320.816	299.81
321.046	318.81
321.275	315.81
321.504	327.81
321.733	325.81
321.962	319.81
322.191	346.81
322.42	334.81
322.649	337.81
322.878	379.81
323.108	362.81
323.337	386.81
323.566	413.81
323.795	437.81
324.024	489.81
324.253	625.81
324.482	925.81
324.71	1365.81
324.939	1759.81
325.168	1419.81
325.397	767.81
325.626	537.81
325.855	426.81
326.084	420.81
326.313	401.81
326.542	415.81
326.77	472.81
326.999	548.81
327.228	817.81
327.457	1153.81
327.686	1308.81
327.914	849.81
328.143	565.81
328.372	497.81
328.6	458.81
328.829	463.81
329.058	446.81
329.287	487.81
329.515	435.81
329.744	417.81
329.972	392.81
330.201	421.81
330.43	470.81
330.658	484.81
330.887	488.81
331.115	476.81
331.344	407.81
331.572	380.81
331.801	403.81
332.03	385.81
332.258	365.81
332.486	364.81
332.715	356.81
332.943	351.81
333.172	346.81
333.4	340.81
333.629	366.81
333.857	368.81
334.085	357.81
334.314	374.81
334.542	419.81
334.771	406.81
334.999	398.81
335.227	346.81
335.455	343.81
335.684	375.81
335.912	349.81
336.14	342.81
336.369	325.81
336.597	340.81
336.825	333.81
337.053	337.81
337.281	329.81
337.51	327.81
337.738	320.81
337.966	313.81
338.194	335.81
338.422	334.81
338.65	317.81
338.878	319.81
339.106	328.81
339.334	324.81
339.562	336.81
339.79	331.81
340.018	327.81
340.246	322.81
340.474	325.81
340.702	345.81
340.93	314.81
341.158	319.81
341.386	319.81
341.614	336.81
341.842	338.81
342.07	317.81
342.298	304.81
342.526	308.81
342.754	324.81
342.981	301.81
343.209	317.81
343.437	333.81
343.665	329.81
343.893	324.81
344.12	304.81
344.348	321.81
344.576	322.81
344.804	337.81
345.031	349.81
345.259	330.81
345.487	332.81
345.714	327.81
345.942	310.81
346.17	313.81
346.397	323.81
346.625	303.81
346.853	308.81
347.08	294.81
347.308	323.81
347.535	312.81
347.763	332.81
347.99	317.81
348.218	330.81
348.445	318.81
348.673	337.81
348.9	331.81
349.128	311.81
349.355	296.81
349.583	313.81
349.81	300.81
350.037	295.81
350.265	293.81
350.492	291.81
350.72	301.81
350.947	296.81
351.174	316.81
351.402	334.81
351.629	325.81
351.856	308.81
352.083	324.81
352.311	318.81
352.538	324.81
352.765	327.81
352.992	314.81
353.22	294.81
353.447	299.81
353.674	316.81
353.901	288.81
354.128	279.81
354.355	308.81
354.583	268.81
354.81	281.81
355.037	278.81
355.264	287.81
355.491	277.81
355.718	282.81
355.945	290.81
356.172	280.81
356.399	298.81
356.626	298.81
356.853	289.81
357.08	284.81
357.307	283.81
357.534	278.81
357.761	275.81
357.988	297.81
358.215	303.81
358.441	296.81
358.668	286.81
358.895	289.81
359.122	279.81
359.349	298.81
359.576	321.81
359.802	330.81
360.029	340.81
360.256	367.81
360.483	327.81
360.709	321.81
360.936	329.81
361.163	317.81
361.39	291.81
361.616	304.81
361.843	294.81
362.07	297.81
362.296	299.81
362.523	311.81
362.749	308.81
362.976	310.81
363.203	276.81
363.429	297.81
363.656	307.81
363.882	282.81
364.109	280.81
364.335	277.81
364.562	289.81
364.788	284.81
365.015	280.81
365.241	285.81
365.468	310.81
365.694	292.81
365.92	323.81
366.147	289.81
366.373	310.81
366.599	297.81
366.826	275.81
367.052	275.81
367.278	275.81
367.505	293.81
367.731	288.81
367.957	276.81
368.184	303.81
368.41	273.81
368.636	294.81
368.862	303.81
369.089	287.81
369.315	294.81
369.541	266.81
369.767	283.81
369.993	286.81
370.219	297.81
370.445	279.81
370.672	288.81
370.898	267.81
371.124	276.81
371.35	296.81
371.576	283.81
371.802	286.81
372.028	289.81
372.254	288.81
372.48	280.81
372.706	283.81
372.932	265.81
373.158	274.81
373.384	291.81
373.61	277.81
373.835	276.81
374.061	277.81
374.287	294.81
374.513	279.81
374.739	289.81
374.965	279.81
375.191	282.81
375.416	281.81
375.642	280.81
375.868	279.81
376.094	286.81
376.319	283.81
376.545	287.81
376.771	262.81
376.997	266.81
377.222	277.81
377.448	266.81
377.674	266.81
377.899	281.81
378.125	263.81
378.35	281.81
378.576	298.81
378.802	288.81
379.027	290.81
379.253	278.81
379.478	265.81
379.704	259.81
379.929	280.81
380.155	275.81
380.38	284.81
380.606	282.81
380.831	297.81
381.057	289.81
381.282	271.81
381.507	289.81
381.733	258.81
381.958	293.81
382.184	266.81
382.409	263.81
382.634	289.81
382.86	262.81
383.085	293.81
383.31	291.81
383.535	286.81
383.761	262.81
383.986	283.81
384.211	289.81
384.436	291.81
384.662	280.81
384.887	274.81
385.112	272.81
385.337	281.81
385.562	279.81
385.787	287.81
386.013	287.81
386.238	295.81
386.463	299.81
386.688	275.81
386.913	291.81
387.138	296.81
387.363	284.81
387.588	303.81
387.813	291.81
388.038	295.81
388.263	283.81
388.488	276.81
388.713	279.81
388.938	303.81
389.163	309.81
389.387	288.81
389.612	291.81
389.837	275.81
390.062	282.81
390.287	309.81
390.512	288.81
390.736	295.81
390.961	288.81
391.186	292.81
391.411	298.81
391.636	298.81
391.86	301.81
392.085	303.81
392.31	298.81
392.534	285.81
392.759	284.81
392.984	279.81
393.208	284.81
393.433	273.81
393.658	293.81
393.882	296.81
394.107	299.81
394.331	277.81
394.556	281.81
394.78	299.81
395.005	287.81
395.229	289.81
395.454	291.81
395.678	300.81
395.903	294.81
396.127	321.81
396.352	300.81
396.576	280.81
396.801	304.81
397.025	295.81
397.249	285.81
397.474	300.81
397.698	303.81
397.922	323.81
398.147	310.81
398.371	309.81
398.595	325.81
398.82	308.81
399.044	325.81
399.268	325.81
399.492	339.81
399.717	347.81
399.941	373.81
400.165	385.81
400.389	384.81
400.613	359.81
400.837	340.81
401.062	352.81
401.286	328.81
401.51	325.81
401.734	319.81
401.958	320.81
402.182	337.81
402.406	345.81
402.63	339.81
402.854	311.81
403.078	327.81
403.302	332.81
403.526	338.81
403.75	348.81
403.974	325.81
404.198	315.81
404.422	321.81
404.645	345.81
404.869	337.81
405.093	348.81
405.317	385.81
405.541	400.81
405.765	381.81
405.988	336.81
406.212	336.81
406.436	382.81
406.66	383.81
406.883	366.81
407.107	372.81
407.331	398.81
407.555	427.81
407.778	419.81
408.002	388.81
408.226	361.81
408.449	366.81
408.673	365.81
408.896	373.81
409.12	385.81
409.344	376.81
409.567	352.81
409.791	356.81
410.014	331.81
410.238	307.81
410.461	311.81
410.685	333.81
410.908	354.81
411.132	365.81
411.355	385.81
411.578	354.81
411.802	328.81
412.025	317.81
412.249	333.81
412.472	353.81
412.695	384.81
412.919	367.81
413.142	336.81
413.365	299.81
413.589	324.81
413.812	323.81
414.035	306.81
414.258	322.81
414.482	305.81
414.705	304.81
414.928	287.81
415.151	304.81
415.374	317.81
415.597	315.81
415.821	311.81
416.044	306.81
416.267	319.81
416.49	296.81
416.713	313.81
416.936	299.81
417.159	315.81
417.382	302.81
417.605	310.81
417.828	324.81
418.051	305.81
418.274	331.81
418.497	320.81
418.72	315.81
418.943	313.81
419.166	321.81
419.389	328.81
419.611	323.81
419.834	335.81
420.057	339.81
420.28	314.81
420.503	323.81
420.726	343.81
420.948	360.81
421.171	385.81
421.394	359.81
421.617	348.81
421.839	322.81
422.062	321.81
422.285	331.81
422.507	358.81
422.73	418.81
422.953	401.81
423.175	344.81
423.398	334.81
423.621	328.81
423.843	360.81
424.066	367.81
424.288	351.81
424.511	377.81
424.733	401.81
424.956	446.81
425.178	419.81
425.401	441.81
425.623	448.81
425.846	383.81
426.068	367.81
426.291	364.81
426.513	344.81
426.735	379.81
426.958	391.81
427.18	449.81
427.402	520.81
427.625	571.81
427.847	501.81
428.069	447.81
428.292	407.81
428.514	363.81
428.736	351.81
428.958	335.81
429.181	333.81
429.403	330.81
429.625	332.81
429.847	352.81
430.069	389.81
430.292	403.81
430.514	337.81
430.736	325.81
430.958	322.81
431.18	321.81
431.402	315.81
431.624	307.81
431.846	305.81
432.068	284.81
432.29	301.81
432.512	314.81
432.734	292.81
432.956	307.81
433.178	330.81
433.4	325.81
433.622	307.81
433.844	312.81
434.066	297.81
434.287	311.81
434.509	314.81
434.731	314.81
434.953	319.81
435.175	315.81
435.397	346.81
435.618	354.81
435.84	384.81
436.062	449.81
436.284	472.81
436.505	404.81
436.727	374.81
436.949	355.81
437.17	348.81
437.392	333.81
437.614	336.81
437.835	386.81
438.057	442.81
438.278	481.81
438.5	495.81
438.721	521.81
438.943	504.81
439.165	416.81
439.386	377.81
439.608	365.81
439.829	368.81
440.05	402.81
440.272	399.81
440.493	389.81
440.715	342.81
440.936	343.81
441.158	340.81
441.379	330.81
441.6	334.81
441.822	359.81
442.043	395.81
442.264	422.81
442.486	466.81
442.707	408.81
442.928	372.81
443.149	385.81
443.371	385.81
443.592	420.81
443.813	468.81
444.034	502.81
444.255	413.81
444.476	367.81
444.698	355.81
444.919	339.81
445.14	426.81
445.361	394.81
445.582	383.81
445.803	454.81
446.024	499.81
446.245	495.81
446.466	462.81
446.687	380.81
446.908	360.81
447.129	343.81
447.35	328.81
447.571	332.81
447.792	316.81
448.013	345.81
448.234	337.81
448.455	405.81
448.675	450.81
448.896	535.81
449.117	468.81
449.338	436.81
449.559	524.81
449.779	534.81
450	436.81
450.221	373.81
450.442	338.81
450.662	332.81
450.883	345.81
451.104	344.81
451.324	328.81
451.545	329.81
451.766	311.81
451.986	291.81
452.207	301.81
452.428	305.81
452.648	313.81
452.869	281.81
453.089	311.81
453.31	315.81
453.53	284.81
453.751	300.81
453.971	319.81
454.192	319.81
454.412	333.81
454.633	304.81
454.853	293.81
455.073	301.81
455.294	303.81
455.514	366.81
455.734	357.81
455.955	311.81
456.175	297.81
456.395	281.81
456.616	291.81
456.836	271.81
457.056	285.81
457.276	274.81
457.497	286.81
457.717	277.81
457.937	284.81
458.157	278.81
458.377	300.81
458.598	314.81
458.818	360.81
459.038	409.81
459.258	396.81
459.478	332.81
459.698	328.81
459.918	325.81
460.138	313.81
460.358	297.81
460.578	309.81
460.798	317.81
461.018	305.81
461.238	297.81
461.458	296.81
461.678	304.81
461.898	300.81
462.118	313.81
462.338	305.81
462.558	304.81
462.777	335.81
462.997	323.81
463.217	330.81
463.437	331.81
463.657	307.81
463.876	305.81
464.096	309.81
464.316	322.81
464.536	318.81
464.755	338.81
464.975	334.81
465.195	369.81
465.414	420.81
465.634	357.81
465.854	353.81
466.073	305.81
466.293	301.81
466.512	285.81
466.732	311.81
466.951	289.81
467.171	289.81
467.391	288.81
467.61	308.81
467.829	309.81
468.049	297.81
468.268	294.81
468.488	305.81
468.707	279.81
468.927	290.81
469.146	287.81
469.365	277.81
469.585	309.81
469.804	320.81
470.023	319.81
470.243	314.81
470.462	298.81
470.681	332.81
470.901	327.81
471.12	309.81
471.339	313.81
471.558	306.81
471.777	304.81
471.997	279.81
472.216	322.81
472.435	331.81
472.654	316.81
472.873	312.81
473.092	314.81
473.311	298.81
473.53	313.81
473.749	314.81
473.968	361.81
474.187	419.81
474.406	420.81
474.625	345.81
474.844	319.81
475.063	299.81
475.282	295.81
475.501	290.81
475.72	315.81
475.939	288.81
476.158	319.81
476.377	313.81
476.596	313.81
476.814	332.81
477.033	321.81
477.252	328.81
477.471	325.81
477.69	331.81
477.908	339.81
478.127	317.81
478.346	314.81
478.564	320.81
478.783	355.81
479.002	323.81
479.22	328.81
479.439	339.81
479.658	359.81
479.876	368.81
480.095	362.81
480.313	387.81
480.532	368.81
480.751	369.81
480.969	376.81
481.188	397.81
481.406	446.81
481.624	379.81
481.843	379.81
482.061	359.81
482.28	379.81
482.498	346.81
482.717	352.81
482.935	354.81
483.153	343.81
483.372	351.81
483.59	347.81
483.808	342.81
484.027	340.81
484.245	371.81
484.463	341.81
484.681	344.81
484.9	364.81
485.118	371.81
485.336	345.81
485.554	357.81
485.772	378.81
485.99	357.81
486.209	349.81
486.427	365.81
486.645	373.81
486.863	392.81
487.081	386.81
487.299	398.81
487.517	372.81
487.735	381.81
487.953	385.81
488.171	379.81
488.389	385.81
488.607	376.81
488.825	372.81
489.043	364.81
489.261	383.81
489.479	367.81
489.696	382.81
489.914	386.81
490.132	396.81
490.35	384.81
490.568	395.81
490.786	403.81
491.003	411.81
491.221	415.81
491.439	415.81
491.657	412.81
491.874	413.81
492.092	420.81
492.31	426.81
492.527	421.81
492.745	420.81
492.963	450.81
493.18	433.81
493.398	443.81
493.615	447.81
493.833	439.81
494.05	423.81
494.268	444.81
494.485	433.81
494.703	447.81
494.92	447.81
495.138	448.81
495.355	443.81
495.573	445.81
495.79	437.81
496.008	440.81
496.225	443.81
496.442	436.81
496.66	453.81
496.877	443.81
497.094	436.81
497.312	440.81
497.529	444.81
497.746	458.81
497.963	469.81
498.181	464.81
498.398	465.81
498.615	472.81
498.832	482.81
499.049	473.81
499.267	474.81
499.484	498.81
499.701	510.81
499.918	525.81
500.135	513.81
500.352	527.81
500.569	537.81
500.786	544.81
501.003	565.81
501.22	543.81
501.437	517.81
501.654	523.81
501.871	554.81
502.088	531.81
