Data from 1982.PennyLincolnUp.Lamp.En5.5.200Scan.071819.P1_HRD10591_16-47-02-962.txt Node
Date: Thu Jul 18 16:47:02 EDT 2019
User: cochatt
Spectrometer: HR+D1059
Trigger mode: 1
Integration Time (sec): 1.000000E-1
Scans to average: 1
Electric dark correction enabled: true
Nonlinearity correction enabled: false
Boxcar width: 0
XAxis mode: Wavelengths
Number of Pixels in Spectrum: 2048
>>>>>Begin Spectral Data<<<<<
223.165	-12.38
223.4	-12.38
223.635	-12.38
223.869	0.62
224.104	-15.38
224.338	-5.38
224.573	-11.38
224.808	-19.38
225.042	-11.38
225.277	1.62
225.511	-12.38
225.746	7.62
225.98	13.62
226.215	3.62
226.449	5.62
226.683	17.62
226.918	10.62
227.152	26.62
227.387	39.62
227.621	40.62
227.856	42.62
228.09	42.62
228.324	47.62
228.559	56.62
228.793	63.62
229.027	89.62
229.262	103.62
229.496	92.62
229.73	129.62
229.964	111.62
230.199	105.62
230.433	104.62
230.667	103.62
230.901	102.62
231.136	90.62
231.37	99.62
231.604	85.62
231.838	110.62
232.072	109.62
232.306	106.62
232.541	108.62
232.775	101.62
233.009	103.62
233.243	99.62
233.477	98.62
233.711	115.62
233.945	100.62
234.179	114.62
234.413	106.62
234.647	118.62
234.881	106.62
235.115	98.62
235.349	101.62
235.583	100.62
235.817	99.62
236.051	107.62
236.285	110.62
236.519	113.62
236.753	123.62
236.987	118.62
237.221	133.62
237.455	165.62
237.689	147.62
237.922	131.62
238.156	122.62
238.39	121.62
238.624	100.62
238.858	102.62
239.091	102.62
239.325	114.62
239.559	96.62
239.793	105.62
240.027	119.62
240.26	123.62
240.494	118.62
240.728	134.62
240.961	127.62
241.195	132.62
241.429	123.62
241.662	112.62
241.896	115.62
242.13	105.62
242.363	115.62
242.597	122.62
242.83	113.62
243.064	121.62
243.298	122.62
243.531	119.62
243.765	102.62
243.998	103.62
244.232	122.62
244.465	114.62
244.699	122.62
244.932	135.62
245.166	119.62
245.399	118.62
245.633	116.62
245.866	116.62
246.099	124.62
246.333	133.62
246.566	122.62
246.8	129.62
247.033	136.62
247.266	121.62
247.5	120.62
247.733	148.62
247.966	119.62
248.2	126.62
248.433	148.62
248.666	140.62
248.899	162.62
249.133	160.62
249.366	168.62
249.599	167.62
249.832	164.62
250.066	143.62
250.299	147.62
250.532	149.62
250.765	171.62
250.998	169.62
251.231	178.62
251.465	161.62
251.698	159.62
251.931	168.62
252.164	161.62
252.397	143.62
252.63	159.62
252.863	168.62
253.096	202.62
253.329	193.62
253.562	170.62
253.795	180.62
254.028	166.62
254.261	179.62
254.494	170.62
254.727	205.62
254.96	208.62
255.193	203.62
255.426	182.62
255.659	182.62
255.892	177.62
256.124	187.62
256.357	191.62
256.59	189.62
256.823	176.62
257.056	175.62
257.289	165.62
257.521	163.62
257.754	168.62
257.987	154.62
258.22	181.62
258.452	164.62
258.685	194.62
258.918	182.62
259.151	187.62
259.383	192.62
259.616	176.62
259.849	159.62
260.081	175.62
260.314	203.62
260.547	190.62
260.779	173.62
261.012	191.62
261.244	195.62
261.477	181.62
261.71	187.62
261.942	191.62
262.175	190.62
262.407	184.62
262.64	180.62
262.872	180.62
263.105	168.62
263.337	176.62
263.57	181.62
263.802	172.62
264.035	151.62
264.267	177.62
264.499	165.62
264.732	159.62
264.964	167.62
265.197	177.62
265.429	160.62
265.661	167.62
265.894	158.62
266.126	172.62
266.358	173.62
266.591	175.62
266.823	187.62
267.055	195.62
267.287	176.62
267.52	179.62
267.752	189.62
267.984	181.62
268.216	201.62
268.448	189.62
268.681	193.62
268.913	196.62
269.145	206.62
269.377	211.62
269.609	188.62
269.841	201.62
270.073	215.62
270.306	226.62
270.538	245.62
270.77	238.62
271.002	236.62
271.234	225.62
271.466	231.62
271.698	262.62
271.93	261.62
272.162	237.62
272.394	252.62
272.626	252.62
272.858	224.62
273.09	222.62
273.322	223.62
273.553	195.62
273.785	222.62
274.017	215.62
274.249	217.62
274.481	225.62
274.713	224.62
274.945	215.62
275.176	217.62
275.408	215.62
275.64	215.62
275.872	215.62
276.104	211.62
276.335	211.62
276.567	223.62
276.799	219.62
277.031	237.62
277.262	240.62
277.494	245.62
277.726	244.62
277.957	231.62
278.189	215.62
278.421	202.62
278.652	230.62
278.884	194.62
279.115	212.62
279.347	211.62
279.579	216.62
279.81	222.62
280.042	213.62
280.273	203.62
280.505	209.62
280.736	198.62
280.968	187.62
281.199	204.62
281.431	209.62
281.662	194.62
281.894	216.62
282.125	222.62
282.356	215.62
282.588	235.62
282.819	240.62
283.051	216.62
283.282	212.62
283.513	209.62
283.745	227.62
283.976	215.62
284.207	222.62
284.439	191.62
284.67	228.62
284.901	223.62
285.132	229.62
285.364	194.62
285.595	212.62
285.826	205.62
286.057	210.62
286.288	209.62
286.52	212.62
286.751	230.62
286.982	213.62
287.213	217.62
287.444	203.62
287.675	215.62
287.906	215.62
288.138	225.62
288.369	230.62
288.6	216.62
288.831	214.62
289.062	220.62
289.293	220.62
289.524	226.62
289.755	224.62
289.986	209.62
290.217	219.62
290.448	230.62
290.679	232.62
290.91	207.62
291.141	224.62
291.371	233.62
291.602	225.62
291.833	217.62
292.064	210.62
292.295	214.62
292.526	214.62
292.757	213.62
292.987	233.62
293.218	214.62
293.449	223.62
293.68	236.62
293.91	220.62
294.141	220.62
294.372	220.62
294.603	216.62
294.833	236.62
295.064	226.62
295.295	226.62
295.525	236.62
295.756	239.62
295.987	253.62
296.217	239.62
296.448	248.62
296.679	235.62
296.909	220.62
297.14	231.62
297.37	225.62
297.601	218.62
297.831	232.62
298.062	200.62
298.292	232.62
298.523	224.62
298.753	224.62
298.984	230.62
299.214	236.62
299.445	233.62
299.675	239.62
299.905	226.62
300.136	239.62
300.366	247.62
300.597	230.62
300.827	233.62
301.057	231.62
301.288	243.62
301.518	238.62
301.748	249.62
301.979	240.62
302.209	255.62
302.439	258.62
302.669	248.62
302.9	255.62
303.13	242.62
303.36	230.62
303.59	266.62
303.82	266.62
304.051	241.62
304.281	234.62
304.511	234.62
304.741	242.62
304.971	248.62
305.201	260.62
305.431	241.62
305.661	250.62
305.891	244.62
306.121	255.62
306.352	276.62
306.582	244.62
306.812	239.62
307.042	256.62
307.272	267.62
307.502	262.62
307.731	255.62
307.961	260.62
308.191	251.62
308.421	265.62
308.651	262.62
308.881	271.62
309.111	281.62
309.341	263.62
309.571	269.62
309.8	285.62
310.03	278.62
310.26	295.62
310.49	291.62
310.72	313.62
310.949	309.62
311.179	308.62
311.409	298.62
311.639	302.62
311.868	295.62
312.098	293.62
312.328	311.62
312.557	309.62
312.787	338.62
313.017	318.62
313.246	276.62
313.476	293.62
313.706	298.62
313.935	319.62
314.165	296.62
314.394	308.62
314.624	327.62
314.853	320.62
315.083	295.62
315.312	287.62
315.542	292.62
315.771	284.62
316.001	302.62
316.23	274.62
316.46	292.62
316.689	281.62
316.919	295.62
317.148	311.62
317.377	313.62
317.607	296.62
317.836	299.62
318.065	315.62
318.295	299.62
318.524	290.62
318.753	283.62
318.983	297.62
319.212	278.62
319.441	295.62
319.67	299.62
319.9	295.62
320.129	301.62
320.358	306.62
320.587	323.62
320.816	300.62
321.046	318.62
321.275	318.62
321.504	314.62
321.733	322.62
321.962	338.62
322.191	344.62
322.42	345.62
322.649	369.62
322.878	357.62
323.108	365.62
323.337	394.62
323.566	393.62
323.795	449.62
324.024	490.62
324.253	643.62
324.482	876.62
324.71	1369.62
324.939	1768.62
325.168	1460.62
325.397	779.62
325.626	509.62
325.855	448.62
326.084	422.62
326.313	419.62
326.542	406.62
326.77	473.62
326.999	569.62
327.228	822.62
327.457	1179.62
327.686	1259.62
327.914	821.62
328.143	592.62
328.372	516.62
328.6	485.62
328.829	436.62
329.058	458.62
329.287	443.62
329.515	424.62
329.744	403.62
329.972	392.62
330.201	410.62
330.43	441.62
330.658	482.62
330.887	488.62
331.115	449.62
331.344	397.62
331.572	378.62
331.801	376.62
332.03	403.62
332.258	361.62
332.486	342.62
332.715	346.62
332.943	334.62
333.172	339.62
333.4	325.62
333.629	350.62
333.857	365.62
334.085	357.62
334.314	380.62
334.542	413.62
334.771	414.62
334.999	387.62
335.227	362.62
335.455	330.62
335.684	339.62
335.912	323.62
336.14	345.62
336.369	326.62
336.597	336.62
336.825	331.62
337.053	337.62
337.281	331.62
337.51	306.62
337.738	350.62
337.966	314.62
338.194	323.62
338.422	342.62
338.65	329.62
338.878	325.62
339.106	311.62
339.334	330.62
339.562	323.62
339.79	321.62
340.018	324.62
340.246	320.62
340.474	331.62
340.702	327.62
340.93	324.62
341.158	307.62
341.386	325.62
341.614	338.62
341.842	337.62
342.07	322.62
342.298	320.62
342.526	322.62
342.754	300.62
342.981	323.62
343.209	302.62
343.437	319.62
343.665	304.62
343.893	300.62
344.12	330.62
344.348	337.62
344.576	290.62
344.804	324.62
345.031	322.62
345.259	333.62
345.487	329.62
345.714	315.62
345.942	320.62
346.17	308.62
346.397	325.62
346.625	324.62
346.853	330.62
347.08	323.62
347.308	321.62
347.535	325.62
347.763	322.62
347.99	319.62
348.218	317.62
348.445	305.62
348.673	321.62
348.9	290.62
349.128	291.62
349.355	292.62
349.583	304.62
349.81	303.62
350.037	278.62
350.265	302.62
350.492	299.62
350.72	301.62
350.947	318.62
351.174	311.62
351.402	315.62
351.629	326.62
351.856	310.62
352.083	316.62
352.311	318.62
352.538	331.62
352.765	308.62
352.992	323.62
353.22	341.62
353.447	302.62
353.674	306.62
353.901	280.62
354.128	281.62
354.355	285.62
354.583	291.62
354.81	291.62
355.037	273.62
355.264	285.62
355.491	289.62
355.718	281.62
355.945	274.62
356.172	280.62
356.399	298.62
356.626	295.62
356.853	271.62
357.08	282.62
357.307	267.62
357.534	282.62
357.761	271.62
357.988	293.62
358.215	287.62
358.441	280.62
358.668	280.62
358.895	267.62
359.122	267.62
359.349	302.62
359.576	308.62
359.802	326.62
360.029	336.62
360.256	363.62
360.483	319.62
360.709	308.62
360.936	271.62
361.163	311.62
361.39	302.62
361.616	322.62
361.843	298.62
362.07	315.62
362.296	300.62
362.523	288.62
362.749	312.62
362.976	288.62
363.203	273.62
363.429	289.62
363.656	288.62
363.882	298.62
364.109	298.62
364.335	290.62
364.562	294.62
364.788	296.62
365.015	295.62
365.241	281.62
365.468	290.62
365.694	286.62
365.92	291.62
366.147	286.62
366.373	292.62
366.599	278.62
366.826	282.62
367.052	282.62
367.278	294.62
367.505	281.62
367.731	291.62
367.957	281.62
368.184	263.62
368.41	309.62
368.636	302.62
368.862	296.62
369.089	302.62
369.315	282.62
369.541	267.62
369.767	283.62
369.993	285.62
370.219	273.62
370.445	266.62
370.672	285.62
370.898	283.62
371.124	290.62
371.35	250.62
371.576	265.62
371.802	250.62
372.028	259.62
372.254	274.62
372.48	278.62
372.706	275.62
372.932	272.62
373.158	277.62
373.384	270.62
373.61	262.62
373.835	289.62
374.061	272.62
374.287	291.62
374.513	283.62
374.739	294.62
374.965	284.62
375.191	287.62
375.416	294.62
375.642	270.62
375.868	264.62
376.094	274.62
376.319	277.62
376.545	280.62
376.771	275.62
376.997	268.62
377.222	268.62
377.448	268.62
377.674	261.62
377.899	261.62
378.125	273.62
378.35	252.62
378.576	263.62
378.802	268.62
379.027	281.62
379.253	272.62
379.478	262.62
379.704	275.62
379.929	267.62
380.155	279.62
380.38	276.62
380.606	265.62
380.831	272.62
381.057	257.62
381.282	249.62
381.507	287.62
381.733	278.62
381.958	285.62
382.184	285.62
382.409	259.62
382.634	278.62
382.86	278.62
383.085	284.62
383.31	292.62
383.535	280.62
383.761	274.62
383.986	278.62
384.211	263.62
384.436	268.62
384.662	278.62
384.887	264.62
385.112	272.62
385.337	291.62
385.562	281.62
385.787	287.62
386.013	283.62
386.238	292.62
386.463	299.62
386.688	295.62
386.913	278.62
387.138	260.62
387.363	284.62
387.588	262.62
387.813	277.62
388.038	292.62
388.263	274.62
388.488	288.62
388.713	307.62
388.938	292.62
389.163	289.62
389.387	289.62
389.612	273.62
389.837	286.62
390.062	271.62
390.287	287.62
390.512	282.62
390.736	278.62
390.961	285.62
391.186	285.62
391.411	269.62
391.636	274.62
391.86	290.62
392.085	269.62
392.31	277.62
392.534	297.62
392.759	288.62
392.984	297.62
393.208	289.62
393.433	303.62
393.658	275.62
393.882	278.62
394.107	286.62
394.331	284.62
394.556	284.62
394.78	295.62
395.005	291.62
395.229	261.62
395.454	289.62
395.678	289.62
395.903	304.62
396.127	314.62
396.352	316.62
396.576	296.62
396.801	284.62
397.025	305.62
397.249	292.62
397.474	302.62
397.698	308.62
397.922	315.62
398.147	315.62
398.371	320.62
398.595	312.62
398.82	319.62
399.044	326.62
399.268	327.62
399.492	325.62
399.717	355.62
399.941	362.62
400.165	389.62
400.389	388.62
400.613	350.62
400.837	328.62
401.062	337.62
401.286	325.62
401.51	327.62
401.734	311.62
401.958	324.62
402.182	324.62
402.406	343.62
402.63	332.62
402.854	313.62
403.078	320.62
403.302	345.62
403.526	334.62
403.75	334.62
403.974	308.62
404.198	326.62
404.422	331.62
404.645	329.62
404.869	345.62
405.093	340.62
405.317	384.62
405.541	385.62
405.765	361.62
405.988	331.62
406.212	371.62
406.436	358.62
406.66	366.62
406.883	356.62
407.107	378.62
407.331	402.62
407.555	436.62
407.778	436.62
408.002	406.62
408.226	351.62
408.449	358.62
408.673	345.62
408.896	370.62
409.12	385.62
409.344	388.62
409.567	340.62
409.791	350.62
410.014	307.62
410.238	330.62
410.461	344.62
410.685	341.62
410.908	350.62
411.132	356.62
411.355	378.62
411.578	371.62
411.802	326.62
412.025	334.62
412.249	322.62
412.472	331.62
412.695	374.62
412.919	352.62
413.142	318.62
413.365	323.62
413.589	298.62
413.812	310.62
414.035	317.62
414.258	310.62
414.482	297.62
414.705	315.62
414.928	289.62
415.151	304.62
415.374	298.62
415.597	325.62
415.821	297.62
416.044	304.62
416.267	286.62
416.49	300.62
416.713	299.62
416.936	310.62
417.159	319.62
417.382	331.62
417.605	319.62
417.828	320.62
418.051	315.62
418.274	325.62
418.497	291.62
418.72	307.62
418.943	301.62
419.166	291.62
419.389	321.62
419.611	333.62
419.834	330.62
420.057	328.62
420.28	339.62
420.503	332.62
420.726	318.62
420.948	319.62
421.171	351.62
421.394	373.62
421.617	330.62
421.839	328.62
422.062	321.62
422.285	352.62
422.507	384.62
422.73	407.62
422.953	397.62
423.175	350.62
423.398	352.62
423.621	362.62
423.843	354.62
424.066	359.62
424.288	359.62
424.511	360.62
424.733	395.62
424.956	440.62
425.178	418.62
425.401	411.62
425.623	427.62
425.846	380.62
426.068	367.62
426.291	349.62
426.513	344.62
426.735	371.62
426.958	376.62
427.18	443.62
427.402	500.62
427.625	575.62
427.847	498.62
428.069	423.62
428.292	398.62
428.514	367.62
428.736	342.62
428.958	341.62
429.181	340.62
429.403	340.62
429.625	332.62
429.847	343.62
430.069	387.62
430.292	400.62
430.514	338.62
430.736	329.62
430.958	306.62
431.18	323.62
431.402	302.62
431.624	298.62
431.846	303.62
432.068	304.62
432.29	312.62
432.512	280.62
432.734	322.62
432.956	307.62
433.178	331.62
433.4	335.62
433.622	299.62
433.844	298.62
434.066	300.62
434.287	298.62
434.509	306.62
434.731	293.62
434.953	315.62
435.175	317.62
435.397	336.62
435.618	369.62
435.84	390.62
436.062	455.62
436.284	465.62
436.505	417.62
436.727	370.62
436.949	341.62
437.17	328.62
437.392	318.62
437.614	333.62
437.835	385.62
438.057	440.62
438.278	507.62
438.5	494.62
438.721	523.62
438.943	489.62
439.165	422.62
439.386	379.62
439.608	368.62
439.829	378.62
440.05	379.62
440.272	415.62
440.493	400.62
440.715	363.62
440.936	358.62
441.158	338.62
441.379	337.62
441.6	340.62
441.822	377.62
442.043	370.62
442.264	445.62
442.486	441.62
442.707	378.62
442.928	356.62
443.149	368.62
443.371	391.62
443.592	407.62
443.813	484.62
444.034	480.62
444.255	402.62
444.476	379.62
444.698	354.62
444.919	348.62
445.14	415.62
445.361	408.62
445.582	386.62
445.803	436.62
446.024	505.62
446.245	495.62
446.466	480.62
446.687	398.62
446.908	376.62
447.129	347.62
447.35	320.62
447.571	328.62
447.792	310.62
448.013	330.62
448.234	334.62
448.455	402.62
448.675	466.62
448.896	528.62
449.117	447.62
449.338	410.62
449.559	487.62
449.779	514.62
450	439.62
450.221	362.62
450.442	346.62
450.662	342.62
450.883	337.62
451.104	346.62
451.324	333.62
451.545	322.62
451.766	306.62
451.986	310.62
452.207	288.62
452.428	268.62
452.648	299.62
452.869	292.62
453.089	298.62
453.31	313.62
453.53	305.62
453.751	300.62
453.971	302.62
454.192	311.62
454.412	325.62
454.633	298.62
454.853	298.62
455.073	296.62
455.294	326.62
455.514	355.62
455.734	346.62
455.955	304.62
456.175	309.62
456.395	271.62
456.616	268.62
456.836	273.62
457.056	268.62
457.276	262.62
457.497	283.62
457.717	279.62
457.937	275.62
458.157	271.62
458.377	291.62
458.598	290.62
458.818	348.62
459.038	419.62
459.258	406.62
459.478	353.62
459.698	324.62
459.918	320.62
460.138	291.62
460.358	310.62
460.578	287.62
460.798	297.62
461.018	304.62
461.238	311.62
461.458	306.62
461.678	288.62
461.898	307.62
462.118	295.62
462.338	311.62
462.558	313.62
462.777	315.62
462.997	318.62
463.217	320.62
463.437	319.62
463.657	318.62
463.876	330.62
464.096	315.62
464.316	320.62
464.536	323.62
464.755	331.62
464.975	322.62
465.195	389.62
465.414	412.62
465.634	359.62
465.854	316.62
466.073	336.62
466.293	321.62
466.512	292.62
466.732	294.62
466.951	289.62
467.171	310.62
467.391	296.62
467.61	313.62
467.829	319.62
468.049	307.62
468.268	305.62
468.488	320.62
468.707	290.62
468.927	287.62
469.146	277.62
469.365	277.62
469.585	299.62
469.804	286.62
470.023	306.62
470.243	316.62
470.462	306.62
470.681	319.62
470.901	314.62
471.12	303.62
471.339	303.62
471.558	318.62
471.777	316.62
471.997	310.62
472.216	319.62
472.435	325.62
472.654	330.62
472.873	309.62
473.092	310.62
473.311	305.62
473.53	304.62
473.749	305.62
473.968	349.62
474.187	425.62
474.406	419.62
474.625	349.62
474.844	322.62
475.063	304.62
475.282	304.62
475.501	297.62
475.72	322.62
475.939	316.62
476.158	326.62
476.377	310.62
476.596	300.62
476.814	321.62
477.033	342.62
477.252	325.62
477.471	313.62
477.69	311.62
477.908	313.62
478.127	320.62
478.346	331.62
478.564	324.62
478.783	335.62
479.002	342.62
479.22	354.62
479.439	363.62
479.658	351.62
479.876	376.62
480.095	378.62
480.313	371.62
480.532	366.62
480.751	366.62
480.969	375.62
481.188	422.62
481.406	435.62
481.624	372.62
481.843	355.62
482.061	346.62
482.28	364.62
482.498	360.62
482.717	354.62
482.935	370.62
483.153	340.62
483.372	354.62
483.59	358.62
483.808	339.62
484.027	340.62
484.245	351.62
484.463	356.62
484.681	380.62
484.9	374.62
485.118	352.62
485.336	363.62
485.554	355.62
485.772	341.62
485.99	368.62
486.209	365.62
486.427	353.62
486.645	380.62
486.863	385.62
487.081	385.62
487.299	365.62
487.517	382.62
487.735	366.62
487.953	376.62
488.171	384.62
488.389	392.62
488.607	368.62
488.825	386.62
489.043	369.62
489.261	401.62
489.479	388.62
489.696	393.62
489.914	387.62
490.132	400.62
490.35	394.62
490.568	392.62
490.786	384.62
491.003	396.62
491.221	397.62
491.439	430.62
491.657	411.62
491.874	423.62
492.092	410.62
492.31	434.62
492.527	446.62
492.745	435.62
492.963	414.62
493.18	432.62
493.398	453.62
493.615	438.62
493.833	449.62
494.05	425.62
494.268	452.62
494.485	424.62
494.703	427.62
494.92	427.62
495.138	446.62
495.355	453.62
495.573	452.62
495.79	440.62
496.008	446.62
496.225	447.62
496.442	459.62
496.66	440.62
496.877	426.62
497.094	446.62
497.312	445.62
497.529	446.62
497.746	479.62
497.963	447.62
498.181	480.62
498.398	440.62
498.615	462.62
498.832	497.62
499.049	480.62
499.267	480.62
499.484	500.62
499.701	492.62
499.918	492.62
500.135	530.62
500.352	519.62
500.569	539.62
500.786	547.62
501.003	548.62
501.22	524.62
501.437	520.62
501.654	535.62
501.871	521.62
502.088	500.62
