Data from 1982.PennyLincolnUp.Lamp.En5.5.200Scan.071819.P1_HRD10591_16-46-25-961.txt Node
Date: Thu Jul 18 16:46:25 EDT 2019
User: cochatt
Spectrometer: HR+D1059
Trigger mode: 1
Integration Time (sec): 1.000000E-1
Scans to average: 1
Electric dark correction enabled: true
Nonlinearity correction enabled: false
Boxcar width: 0
XAxis mode: Wavelengths
Number of Pixels in Spectrum: 2048
>>>>>Begin Spectral Data<<<<<
223.165	-6.75
223.4	-6.75
223.635	-6.75
223.869	1.25
224.104	-13.75
224.338	-10.75
224.573	-12.75
224.808	-25.75
225.042	-15.75
225.277	-14.75
225.511	-0.75
225.746	-6.75
225.98	15.25
226.215	3.25
226.449	14.25
226.683	8.25
226.918	36.25
227.152	29.25
227.387	25.25
227.621	33.25
227.856	39.25
228.09	42.25
228.324	52.25
228.559	44.25
228.793	60.25
229.027	87.25
229.262	75.25
229.496	94.25
229.73	118.25
229.964	135.25
230.199	109.25
230.433	97.25
230.667	106.25
230.901	106.25
231.136	106.25
231.37	101.25
231.604	114.25
231.838	116.25
232.072	97.25
232.306	113.25
232.541	102.25
232.775	105.25
233.009	98.25
233.243	106.25
233.477	109.25
233.711	107.25
233.945	103.25
234.179	106.25
234.413	104.25
234.647	121.25
234.881	103.25
235.115	95.25
235.349	111.25
235.583	107.25
235.817	99.25
236.051	115.25
236.285	101.25
236.519	113.25
236.753	113.25
236.987	117.25
237.221	148.25
237.455	173.25
237.689	167.25
237.922	114.25
238.156	120.25
238.39	95.25
238.624	96.25
238.858	97.25
239.091	104.25
239.325	108.25
239.559	117.25
239.793	95.25
240.027	118.25
240.26	124.25
240.494	122.25
240.728	117.25
240.961	136.25
241.195	122.25
241.429	122.25
241.662	116.25
241.896	117.25
242.13	107.25
242.363	118.25
242.597	114.25
242.83	118.25
243.064	122.25
243.298	106.25
243.531	99.25
243.765	114.25
243.998	120.25
244.232	118.25
244.465	125.25
244.699	124.25
244.932	109.25
245.166	125.25
245.399	121.25
245.633	118.25
245.866	117.25
246.099	117.25
246.333	133.25
246.566	121.25
246.8	108.25
247.033	145.25
247.266	134.25
247.5	122.25
247.733	138.25
247.966	147.25
248.2	141.25
248.433	137.25
248.666	139.25
248.899	155.25
249.133	156.25
249.366	172.25
249.599	155.25
249.832	147.25
250.066	147.25
250.299	143.25
250.532	144.25
250.765	174.25
250.998	175.25
251.231	187.25
251.465	174.25
251.698	156.25
251.931	178.25
252.164	158.25
252.397	170.25
252.63	164.25
252.863	169.25
253.096	188.25
253.329	165.25
253.562	157.25
253.795	177.25
254.028	184.25
254.261	180.25
254.494	194.25
254.727	214.25
254.96	207.25
255.193	213.25
255.426	184.25
255.659	188.25
255.892	198.25
256.124	189.25
256.357	182.25
256.59	177.25
256.823	150.25
257.056	156.25
257.289	165.25
257.521	162.25
257.754	170.25
257.987	182.25
258.22	161.25
258.452	165.25
258.685	173.25
258.918	177.25
259.151	177.25
259.383	178.25
259.616	190.25
259.849	170.25
260.081	178.25
260.314	209.25
260.547	206.25
260.779	193.25
261.012	173.25
261.244	190.25
261.477	179.25
261.71	173.25
261.942	179.25
262.175	201.25
262.407	171.25
262.64	170.25
262.872	189.25
263.105	165.25
263.337	155.25
263.57	167.25
263.802	167.25
264.035	185.25
264.267	166.25
264.499	155.25
264.732	162.25
264.964	174.25
265.197	185.25
265.429	173.25
265.661	163.25
265.894	173.25
266.126	170.25
266.358	175.25
266.591	164.25
266.823	161.25
267.055	189.25
267.287	183.25
267.52	189.25
267.752	179.25
267.984	175.25
268.216	181.25
268.448	185.25
268.681	196.25
268.913	205.25
269.145	212.25
269.377	216.25
269.609	209.25
269.841	213.25
270.073	203.25
270.306	236.25
270.538	241.25
270.77	249.25
271.002	231.25
271.234	230.25
271.466	229.25
271.698	238.25
271.93	226.25
272.162	250.25
272.394	237.25
272.626	254.25
272.858	220.25
273.09	241.25
273.322	217.25
273.553	202.25
273.785	199.25
274.017	203.25
274.249	205.25
274.481	217.25
274.713	213.25
274.945	227.25
275.176	225.25
275.408	208.25
275.64	196.25
275.872	201.25
276.104	204.25
276.335	217.25
276.567	193.25
276.799	223.25
277.031	257.25
277.262	249.25
277.494	246.25
277.726	233.25
277.957	228.25
278.189	222.25
278.421	225.25
278.652	217.25
278.884	236.25
279.115	215.25
279.347	208.25
279.579	201.25
279.81	206.25
280.042	193.25
280.273	204.25
280.505	209.25
280.736	204.25
280.968	197.25
281.199	214.25
281.431	221.25
281.662	215.25
281.894	214.25
282.125	196.25
282.356	230.25
282.588	248.25
282.819	214.25
283.051	215.25
283.282	217.25
283.513	217.25
283.745	227.25
283.976	211.25
284.207	225.25
284.439	242.25
284.67	219.25
284.901	211.25
285.132	217.25
285.364	206.25
285.595	215.25
285.826	231.25
286.057	219.25
286.288	206.25
286.52	219.25
286.751	201.25
286.982	215.25
287.213	208.25
287.444	226.25
287.675	212.25
287.906	229.25
288.138	226.25
288.369	217.25
288.6	207.25
288.831	206.25
289.062	222.25
289.293	235.25
289.524	220.25
289.755	227.25
289.986	217.25
290.217	206.25
290.448	213.25
290.679	216.25
290.91	227.25
291.141	200.25
291.371	222.25
291.602	223.25
291.833	227.25
292.064	233.25
292.295	207.25
292.526	223.25
292.757	230.25
292.987	221.25
293.218	226.25
293.449	228.25
293.68	219.25
293.91	209.25
294.141	216.25
294.372	213.25
294.603	196.25
294.833	204.25
295.064	222.25
295.295	216.25
295.525	221.25
295.756	229.25
295.987	243.25
296.217	247.25
296.448	257.25
296.679	235.25
296.909	230.25
297.14	222.25
297.37	211.25
297.601	231.25
297.831	213.25
298.062	225.25
298.292	236.25
298.523	231.25
298.753	217.25
298.984	209.25
299.214	241.25
299.445	243.25
299.675	242.25
299.905	259.25
300.136	236.25
300.366	218.25
300.597	241.25
300.827	250.25
301.057	271.25
301.288	235.25
301.518	236.25
301.748	227.25
301.979	251.25
302.209	249.25
302.439	244.25
302.669	254.25
302.9	250.25
303.13	228.25
303.36	251.25
303.59	277.25
303.82	249.25
304.051	267.25
304.281	249.25
304.511	242.25
304.741	239.25
304.971	234.25
305.201	242.25
305.431	244.25
305.661	243.25
305.891	247.25
306.121	245.25
306.352	259.25
306.582	244.25
306.812	257.25
307.042	241.25
307.272	261.25
307.502	253.25
307.731	264.25
307.961	233.25
308.191	257.25
308.421	266.25
308.651	259.25
308.881	266.25
309.111	268.25
309.341	274.25
309.571	281.25
309.8	293.25
310.03	268.25
310.26	290.25
310.49	279.25
310.72	303.25
310.949	314.25
311.179	309.25
311.409	289.25
311.639	289.25
311.868	289.25
312.098	291.25
312.328	305.25
312.557	287.25
312.787	315.25
313.017	314.25
313.246	280.25
313.476	290.25
313.706	287.25
313.935	290.25
314.165	299.25
314.394	293.25
314.624	300.25
314.853	292.25
315.083	289.25
315.312	290.25
315.542	260.25
315.771	293.25
316.001	273.25
316.23	285.25
316.46	269.25
316.689	287.25
316.919	305.25
317.148	294.25
317.377	320.25
317.607	307.25
317.836	289.25
318.065	289.25
318.295	294.25
318.524	277.25
318.753	278.25
318.983	295.25
319.212	308.25
319.441	283.25
319.67	309.25
319.9	297.25
320.129	293.25
320.358	269.25
320.587	280.25
320.816	303.25
321.046	305.25
321.275	309.25
321.504	301.25
321.733	310.25
321.962	325.25
322.191	330.25
322.42	340.25
322.649	347.25
322.878	347.25
323.108	356.25
323.337	384.25
323.566	406.25
323.795	426.25
324.024	487.25
324.253	598.25
324.482	881.25
324.71	1293.25
324.939	1680.25
325.168	1406.25
325.397	763.25
325.626	518.25
325.855	443.25
326.084	403.25
326.313	416.25
326.542	409.25
326.77	431.25
326.999	554.25
327.228	776.25
327.457	1115.25
327.686	1242.25
327.914	828.25
328.143	579.25
328.372	483.25
328.6	455.25
328.829	436.25
329.058	463.25
329.287	452.25
329.515	411.25
329.744	395.25
329.972	397.25
330.201	419.25
330.43	449.25
330.658	464.25
330.887	468.25
331.115	468.25
331.344	393.25
331.572	377.25
331.801	383.25
332.03	354.25
332.258	365.25
332.486	340.25
332.715	342.25
332.943	323.25
333.172	332.25
333.4	329.25
333.629	342.25
333.857	359.25
334.085	352.25
334.314	373.25
334.542	405.25
334.771	403.25
334.999	365.25
335.227	345.25
335.455	334.25
335.684	322.25
335.912	314.25
336.14	317.25
336.369	315.25
336.597	327.25
336.825	333.25
337.053	325.25
337.281	311.25
337.51	304.25
337.738	317.25
337.966	321.25
338.194	303.25
338.422	305.25
338.65	311.25
338.878	321.25
339.106	307.25
339.334	321.25
339.562	295.25
339.79	312.25
340.018	309.25
340.246	316.25
340.474	331.25
340.702	307.25
340.93	325.25
341.158	323.25
341.386	324.25
341.614	317.25
341.842	314.25
342.07	306.25
342.298	316.25
342.526	302.25
342.754	296.25
342.981	285.25
343.209	273.25
343.437	304.25
343.665	312.25
343.893	302.25
344.12	311.25
344.348	314.25
344.576	334.25
344.804	328.25
345.031	338.25
345.259	329.25
345.487	336.25
345.714	325.25
345.942	295.25
346.17	298.25
346.397	307.25
346.625	303.25
346.853	302.25
347.08	301.25
347.308	316.25
347.535	311.25
347.763	329.25
347.99	313.25
348.218	336.25
348.445	302.25
348.673	329.25
348.9	310.25
349.128	298.25
349.355	286.25
349.583	293.25
349.81	293.25
350.037	309.25
350.265	310.25
350.492	290.25
350.72	282.25
350.947	305.25
351.174	309.25
351.402	311.25
351.629	302.25
351.856	316.25
352.083	324.25
352.311	337.25
352.538	321.25
352.765	301.25
352.992	326.25
353.22	296.25
353.447	300.25
353.674	306.25
353.901	291.25
354.128	294.25
354.355	279.25
354.583	276.25
354.81	280.25
355.037	286.25
355.264	275.25
355.491	277.25
355.718	274.25
355.945	278.25
356.172	256.25
356.399	268.25
356.626	282.25
356.853	267.25
357.08	294.25
357.307	282.25
357.534	269.25
357.761	273.25
357.988	289.25
358.215	276.25
358.441	275.25
358.668	295.25
358.895	275.25
359.122	294.25
359.349	283.25
359.576	305.25
359.802	319.25
360.029	314.25
360.256	334.25
360.483	328.25
360.709	308.25
360.936	294.25
361.163	299.25
361.39	286.25
361.616	303.25
361.843	318.25
362.07	309.25
362.296	286.25
362.523	309.25
362.749	277.25
362.976	286.25
363.203	286.25
363.429	286.25
363.656	280.25
363.882	282.25
364.109	298.25
364.335	289.25
364.562	294.25
364.788	289.25
365.015	284.25
365.241	283.25
365.468	290.25
365.694	293.25
365.92	302.25
366.147	289.25
366.373	299.25
366.599	287.25
366.826	293.25
367.052	281.25
367.278	280.25
367.505	288.25
367.731	277.25
367.957	308.25
368.184	289.25
368.41	281.25
368.636	306.25
368.862	294.25
369.089	277.25
369.315	302.25
369.541	266.25
369.767	289.25
369.993	284.25
370.219	279.25
370.445	280.25
370.672	284.25
370.898	265.25
371.124	271.25
371.35	276.25
371.576	285.25
371.802	271.25
372.028	281.25
372.254	283.25
372.48	275.25
372.706	269.25
372.932	284.25
373.158	270.25
373.384	271.25
373.61	255.25
373.835	267.25
374.061	260.25
374.287	285.25
374.513	291.25
374.739	290.25
374.965	283.25
375.191	271.25
375.416	276.25
375.642	253.25
375.868	281.25
376.094	271.25
376.319	268.25
376.545	269.25
376.771	274.25
376.997	265.25
377.222	284.25
377.448	263.25
377.674	281.25
377.899	269.25
378.125	247.25
378.35	254.25
378.576	277.25
378.802	262.25
379.027	264.25
379.253	262.25
379.478	280.25
379.704	271.25
379.929	272.25
380.155	244.25
380.38	247.25
380.606	263.25
380.831	275.25
381.057	292.25
381.282	270.25
381.507	259.25
381.733	265.25
381.958	278.25
382.184	262.25
382.409	286.25
382.634	278.25
382.86	285.25
383.085	276.25
383.31	294.25
383.535	283.25
383.761	264.25
383.986	270.25
384.211	261.25
384.436	269.25
384.662	275.25
384.887	289.25
385.112	298.25
385.337	278.25
385.562	290.25
385.787	275.25
386.013	285.25
386.238	283.25
386.463	281.25
386.688	289.25
386.913	259.25
387.138	285.25
387.363	274.25
387.588	300.25
387.813	285.25
388.038	273.25
388.263	267.25
388.488	273.25
388.713	288.25
388.938	290.25
389.163	287.25
389.387	285.25
389.612	262.25
389.837	278.25
390.062	268.25
390.287	284.25
390.512	314.25
390.736	275.25
390.961	275.25
391.186	293.25
391.411	263.25
391.636	312.25
391.86	277.25
392.085	285.25
392.31	300.25
392.534	295.25
392.759	286.25
392.984	276.25
393.208	281.25
393.433	285.25
393.658	267.25
393.882	267.25
394.107	274.25
394.331	261.25
394.556	261.25
394.78	271.25
395.005	282.25
395.229	273.25
395.454	282.25
395.678	295.25
395.903	285.25
396.127	297.25
396.352	302.25
396.576	286.25
396.801	284.25
397.025	302.25
397.249	307.25
397.474	296.25
397.698	298.25
397.922	311.25
398.147	305.25
398.371	314.25
398.595	315.25
398.82	306.25
399.044	321.25
399.268	329.25
399.492	338.25
399.717	317.25
399.941	349.25
400.165	351.25
400.389	378.25
400.613	355.25
400.837	325.25
401.062	313.25
401.286	310.25
401.51	319.25
401.734	311.25
401.958	318.25
402.182	301.25
402.406	313.25
402.63	314.25
402.854	317.25
403.078	311.25
403.302	330.25
403.526	319.25
403.75	340.25
403.974	320.25
404.198	313.25
404.422	315.25
404.645	336.25
404.869	320.25
405.093	349.25
405.317	374.25
405.541	394.25
405.765	379.25
405.988	356.25
406.212	356.25
406.436	374.25
406.66	379.25
406.883	349.25
407.107	368.25
407.331	382.25
407.555	411.25
407.778	415.25
408.002	379.25
408.226	357.25
408.449	343.25
408.673	341.25
408.896	365.25
409.12	399.25
409.344	379.25
409.567	351.25
409.791	331.25
410.014	314.25
410.238	316.25
410.461	326.25
410.685	322.25
410.908	344.25
411.132	348.25
411.355	374.25
411.578	364.25
411.802	323.25
412.025	309.25
412.249	322.25
412.472	350.25
412.695	366.25
412.919	361.25
413.142	344.25
413.365	317.25
413.589	293.25
413.812	306.25
414.035	298.25
414.258	300.25
414.482	311.25
414.705	309.25
414.928	307.25
415.151	292.25
415.374	284.25
415.597	290.25
415.821	311.25
416.044	303.25
416.267	305.25
416.49	310.25
416.713	318.25
416.936	309.25
417.159	297.25
417.382	321.25
417.605	307.25
417.828	313.25
418.051	330.25
418.274	325.25
418.497	322.25
418.72	307.25
418.943	308.25
419.166	298.25
419.389	330.25
419.611	309.25
419.834	306.25
420.057	331.25
420.28	305.25
420.503	316.25
420.726	309.25
420.948	334.25
421.171	354.25
421.394	364.25
421.617	349.25
421.839	322.25
422.062	332.25
422.285	338.25
422.507	386.25
422.73	395.25
422.953	398.25
423.175	350.25
423.398	339.25
423.621	352.25
423.843	333.25
424.066	342.25
424.288	343.25
424.511	366.25
424.733	397.25
424.956	457.25
425.178	410.25
425.401	413.25
425.623	423.25
425.846	371.25
426.068	351.25
426.291	325.25
426.513	346.25
426.735	350.25
426.958	390.25
427.18	451.25
427.402	512.25
427.625	557.25
427.847	501.25
428.069	428.25
428.292	383.25
428.514	357.25
428.736	345.25
428.958	330.25
429.181	325.25
429.403	317.25
429.625	343.25
429.847	359.25
430.069	381.25
430.292	381.25
430.514	341.25
430.736	331.25
430.958	339.25
431.18	302.25
431.402	316.25
431.624	313.25
431.846	300.25
432.068	319.25
432.29	319.25
432.512	301.25
432.734	298.25
432.956	314.25
433.178	338.25
433.4	311.25
433.622	301.25
433.844	311.25
434.066	321.25
434.287	298.25
434.509	311.25
434.731	308.25
434.953	322.25
435.175	311.25
435.397	349.25
435.618	345.25
435.84	385.25
436.062	433.25
436.284	472.25
436.505	406.25
436.727	374.25
436.949	335.25
437.17	325.25
437.392	330.25
437.614	346.25
437.835	357.25
438.057	429.25
438.278	472.25
438.5	482.25
438.721	523.25
438.943	471.25
439.165	408.25
439.386	370.25
439.608	352.25
439.829	367.25
440.05	356.25
440.272	403.25
440.493	383.25
440.715	361.25
440.936	337.25
441.158	351.25
441.379	353.25
441.6	350.25
441.822	359.25
442.043	364.25
442.264	409.25
442.486	450.25
442.707	397.25
442.928	360.25
443.149	360.25
443.371	390.25
443.592	405.25
443.813	473.25
444.034	497.25
444.255	413.25
444.476	343.25
444.698	358.25
444.919	362.25
445.14	435.25
445.361	408.25
445.582	391.25
445.803	435.25
446.024	501.25
446.245	483.25
446.466	467.25
446.687	382.25
446.908	335.25
447.129	347.25
447.35	327.25
447.571	330.25
447.792	336.25
448.013	318.25
448.234	348.25
448.455	372.25
448.675	462.25
448.896	483.25
449.117	437.25
449.338	437.25
449.559	500.25
449.779	526.25
450	438.25
450.221	363.25
450.442	322.25
450.662	327.25
450.883	322.25
451.104	354.25
451.324	333.25
451.545	307.25
451.766	327.25
451.986	310.25
452.207	273.25
452.428	273.25
452.648	270.25
452.869	303.25
453.089	300.25
453.31	293.25
453.53	305.25
453.751	282.25
453.971	307.25
454.192	304.25
454.412	304.25
454.633	278.25
454.853	318.25
455.073	313.25
455.294	324.25
455.514	357.25
455.734	346.25
455.955	311.25
456.175	279.25
456.395	282.25
456.616	280.25
456.836	277.25
457.056	270.25
457.276	276.25
457.497	281.25
457.717	277.25
457.937	285.25
458.157	284.25
458.377	283.25
458.598	302.25
458.818	349.25
459.038	377.25
459.258	398.25
459.478	334.25
459.698	299.25
459.918	289.25
460.138	306.25
460.358	290.25
460.578	317.25
460.798	287.25
461.018	307.25
461.238	303.25
461.458	317.25
461.678	307.25
461.898	301.25
462.118	294.25
462.338	323.25
462.558	329.25
462.777	302.25
462.997	309.25
463.217	302.25
463.437	294.25
463.657	308.25
463.876	322.25
464.096	317.25
464.316	314.25
464.536	324.25
464.755	318.25
464.975	326.25
465.195	356.25
465.414	411.25
465.634	348.25
465.854	325.25
466.073	320.25
466.293	294.25
466.512	294.25
466.732	288.25
466.951	288.25
467.171	261.25
467.391	297.25
467.61	302.25
467.829	317.25
468.049	321.25
468.268	310.25
468.488	272.25
468.707	283.25
468.927	300.25
469.146	277.25
469.365	301.25
469.585	296.25
469.804	281.25
470.023	315.25
470.243	305.25
470.462	322.25
470.681	321.25
470.901	298.25
471.12	318.25
471.339	300.25
471.558	309.25
471.777	291.25
471.997	280.25
472.216	301.25
472.435	321.25
472.654	322.25
472.873	316.25
473.092	290.25
473.311	296.25
473.53	297.25
473.749	312.25
473.968	332.25
474.187	422.25
474.406	411.25
474.625	350.25
474.844	319.25
475.063	295.25
475.282	300.25
475.501	295.25
475.72	330.25
475.939	324.25
476.158	306.25
476.377	289.25
476.596	290.25
476.814	308.25
477.033	312.25
477.252	308.25
477.471	331.25
477.69	330.25
477.908	317.25
478.127	327.25
478.346	311.25
478.564	322.25
478.783	327.25
479.002	327.25
479.22	320.25
479.439	358.25
479.658	355.25
479.876	357.25
480.095	356.25
480.313	367.25
480.532	357.25
480.751	360.25
480.969	356.25
481.188	410.25
481.406	419.25
481.624	373.25
481.843	354.25
482.061	367.25
482.28	349.25
482.498	346.25
482.717	330.25
482.935	351.25
483.153	357.25
483.372	351.25
483.59	333.25
483.808	349.25
484.027	349.25
484.245	342.25
484.463	355.25
484.681	374.25
484.9	341.25
485.118	359.25
485.336	354.25
485.554	362.25
485.772	363.25
485.99	347.25
486.209	369.25
486.427	354.25
486.645	366.25
486.863	382.25
487.081	380.25
487.299	358.25
487.517	367.25
487.735	359.25
487.953	357.25
488.171	357.25
488.389	381.25
488.607	360.25
488.825	389.25
489.043	377.25
489.261	371.25
489.479	381.25
489.696	385.25
489.914	365.25
490.132	377.25
490.35	373.25
490.568	375.25
490.786	395.25
491.003	401.25
491.221	414.25
491.439	414.25
491.657	410.25
491.874	422.25
492.092	428.25
492.31	423.25
492.527	434.25
492.745	441.25
492.963	422.25
493.18	430.25
493.398	423.25
493.615	435.25
493.833	427.25
494.05	442.25
494.268	436.25
494.485	431.25
494.703	443.25
494.92	442.25
495.138	430.25
495.355	452.25
495.573	442.25
495.79	451.25
496.008	439.25
496.225	437.25
496.442	449.25
496.66	429.25
496.877	439.25
497.094	458.25
497.312	441.25
497.529	457.25
497.746	446.25
497.963	451.25
498.181	457.25
498.398	461.25
498.615	467.25
498.832	467.25
499.049	454.25
499.267	475.25
499.484	489.25
499.701	484.25
499.918	494.25
500.135	543.25
500.352	550.25
500.569	523.25
500.786	548.25
501.003	534.25
501.22	521.25
501.437	523.25
501.654	524.25
501.871	523.25
502.088	498.25
