Data from 1982.PennyLincolnUp.Lamp.En5.5.200Scan.071819.P1_HRD10591_16-46-34-962.txt Node
Date: Thu Jul 18 16:46:34 EDT 2019
User: cochatt
Spectrometer: HR+D1059
Trigger mode: 1
Integration Time (sec): 1.000000E-1
Scans to average: 1
Electric dark correction enabled: true
Nonlinearity correction enabled: false
Boxcar width: 0
XAxis mode: Wavelengths
Number of Pixels in Spectrum: 2048
>>>>>Begin Spectral Data<<<<<
223.165	-24.56
223.4	-24.56
223.635	-24.56
223.869	-10.56
224.104	-24.56
224.338	-8.56
224.573	-5.56
224.808	-12.56
225.042	-15.56
225.277	-4.56
225.511	-4.56
225.746	9.44
225.98	6.44
226.215	8.44
226.449	3.44
226.683	23.44
226.918	28.44
227.152	31.44
227.387	33.44
227.621	31.44
227.856	28.44
228.09	59.44
228.324	51.44
228.559	84.44
228.793	76.44
229.027	85.44
229.262	86.44
229.496	101.44
229.73	123.44
229.964	123.44
230.199	125.44
230.433	99.44
230.667	89.44
230.901	109.44
231.136	90.44
231.37	97.44
231.604	118.44
231.838	104.44
232.072	92.44
232.306	108.44
232.541	86.44
232.775	104.44
233.009	116.44
233.243	92.44
233.477	107.44
233.711	98.44
233.945	92.44
234.179	109.44
234.413	106.44
234.647	101.44
234.881	105.44
235.115	107.44
235.349	107.44
235.583	104.44
235.817	108.44
236.051	108.44
236.285	110.44
236.519	120.44
236.753	115.44
236.987	113.44
237.221	152.44
237.455	168.44
237.689	146.44
237.922	118.44
238.156	124.44
238.39	110.44
238.624	127.44
238.858	117.44
239.091	115.44
239.325	104.44
239.559	104.44
239.793	114.44
240.027	118.44
240.26	132.44
240.494	128.44
240.728	117.44
240.961	121.44
241.195	118.44
241.429	107.44
241.662	104.44
241.896	112.44
242.13	111.44
242.363	119.44
242.597	124.44
242.83	116.44
243.064	112.44
243.298	109.44
243.531	132.44
243.765	106.44
243.998	104.44
244.232	129.44
244.465	129.44
244.699	116.44
244.932	135.44
245.166	118.44
245.399	119.44
245.633	133.44
245.866	129.44
246.099	117.44
246.333	132.44
246.566	111.44
246.8	135.44
247.033	134.44
247.266	131.44
247.5	134.44
247.733	151.44
247.966	152.44
248.2	148.44
248.433	141.44
248.666	147.44
248.899	158.44
249.133	161.44
249.366	165.44
249.599	163.44
249.832	141.44
250.066	151.44
250.299	153.44
250.532	155.44
250.765	149.44
250.998	165.44
251.231	175.44
251.465	156.44
251.698	173.44
251.931	154.44
252.164	161.44
252.397	160.44
252.63	158.44
252.863	168.44
253.096	175.44
253.329	163.44
253.562	204.44
253.795	168.44
254.028	163.44
254.261	183.44
254.494	193.44
254.727	206.44
254.96	201.44
255.193	187.44
255.426	175.44
255.659	200.44
255.892	191.44
256.124	173.44
256.357	180.44
256.59	179.44
256.823	181.44
257.056	181.44
257.289	160.44
257.521	181.44
257.754	166.44
257.987	200.44
258.22	175.44
258.452	163.44
258.685	166.44
258.918	194.44
259.151	176.44
259.383	168.44
259.616	169.44
259.849	171.44
260.081	193.44
260.314	195.44
260.547	198.44
260.779	190.44
261.012	191.44
261.244	173.44
261.477	191.44
261.71	170.44
261.942	192.44
262.175	201.44
262.407	175.44
262.64	186.44
262.872	171.44
263.105	171.44
263.337	185.44
263.57	182.44
263.802	171.44
264.035	163.44
264.267	172.44
264.499	180.44
264.732	170.44
264.964	152.44
265.197	181.44
265.429	170.44
265.661	153.44
265.894	181.44
266.126	180.44
266.358	182.44
266.591	158.44
266.823	186.44
267.055	177.44
267.287	199.44
267.52	175.44
267.752	186.44
267.984	193.44
268.216	195.44
268.448	182.44
268.681	202.44
268.913	205.44
269.145	208.44
269.377	204.44
269.609	214.44
269.841	209.44
270.073	222.44
270.306	234.44
270.538	225.44
270.77	241.44
271.002	214.44
271.234	225.44
271.466	241.44
271.698	254.44
271.93	245.44
272.162	246.44
272.394	236.44
272.626	241.44
272.858	212.44
273.09	217.44
273.322	224.44
273.553	196.44
273.785	218.44
274.017	208.44
274.249	195.44
274.481	207.44
274.713	213.44
274.945	193.44
275.176	206.44
275.408	206.44
275.64	192.44
275.872	195.44
276.104	220.44
276.335	216.44
276.567	212.44
276.799	209.44
277.031	236.44
277.262	235.44
277.494	256.44
277.726	243.44
277.957	229.44
278.189	224.44
278.421	205.44
278.652	213.44
278.884	199.44
279.115	218.44
279.347	200.44
279.579	196.44
279.81	210.44
280.042	211.44
280.273	197.44
280.505	200.44
280.736	199.44
280.968	216.44
281.199	208.44
281.431	213.44
281.662	207.44
281.894	199.44
282.125	207.44
282.356	224.44
282.588	236.44
282.819	236.44
283.051	227.44
283.282	208.44
283.513	211.44
283.745	219.44
283.976	224.44
284.207	229.44
284.439	207.44
284.67	219.44
284.901	212.44
285.132	215.44
285.364	191.44
285.595	209.44
285.826	212.44
286.057	200.44
286.288	232.44
286.52	216.44
286.751	225.44
286.982	225.44
287.213	212.44
287.444	224.44
287.675	207.44
287.906	207.44
288.138	221.44
288.369	235.44
288.6	216.44
288.831	221.44
289.062	230.44
289.293	226.44
289.524	221.44
289.755	238.44
289.986	209.44
290.217	211.44
290.448	223.44
290.679	218.44
290.91	206.44
291.141	208.44
291.371	217.44
291.602	215.44
291.833	219.44
292.064	221.44
292.295	213.44
292.526	218.44
292.757	227.44
292.987	214.44
293.218	207.44
293.449	222.44
293.68	221.44
293.91	217.44
294.141	214.44
294.372	217.44
294.603	215.44
294.833	234.44
295.064	231.44
295.295	224.44
295.525	208.44
295.756	204.44
295.987	219.44
296.217	254.44
296.448	240.44
296.679	237.44
296.909	231.44
297.14	236.44
297.37	230.44
297.601	233.44
297.831	216.44
298.062	225.44
298.292	230.44
298.523	221.44
298.753	224.44
298.984	240.44
299.214	216.44
299.445	238.44
299.675	247.44
299.905	230.44
300.136	240.44
300.366	251.44
300.597	234.44
300.827	236.44
301.057	248.44
301.288	255.44
301.518	254.44
301.748	226.44
301.979	233.44
302.209	243.44
302.439	243.44
302.669	227.44
302.9	239.44
303.13	229.44
303.36	240.44
303.59	237.44
303.82	240.44
304.051	241.44
304.281	249.44
304.511	246.44
304.741	228.44
304.971	250.44
305.201	247.44
305.431	247.44
305.661	247.44
305.891	247.44
306.121	248.44
306.352	257.44
306.582	252.44
306.812	234.44
307.042	246.44
307.272	242.44
307.502	243.44
307.731	249.44
307.961	241.44
308.191	260.44
308.421	252.44
308.651	256.44
308.881	247.44
309.111	270.44
309.341	280.44
309.571	271.44
309.8	279.44
310.03	288.44
310.26	291.44
310.49	279.44
310.72	303.44
310.949	289.44
311.179	287.44
311.409	315.44
311.639	291.44
311.868	279.44
312.098	281.44
312.328	299.44
312.557	292.44
312.787	277.44
313.017	307.44
313.246	299.44
313.476	288.44
313.706	273.44
313.935	298.44
314.165	288.44
314.394	297.44
314.624	291.44
314.853	299.44
315.083	283.44
315.312	285.44
315.542	247.44
315.771	292.44
316.001	270.44
316.23	281.44
316.46	289.44
316.689	296.44
316.919	277.44
317.148	283.44
317.377	287.44
317.607	302.44
317.836	296.44
318.065	285.44
318.295	272.44
318.524	286.44
318.753	272.44
318.983	280.44
319.212	278.44
319.441	290.44
319.67	275.44
319.9	306.44
320.129	280.44
320.358	281.44
320.587	289.44
320.816	288.44
321.046	307.44
321.275	333.44
321.504	316.44
321.733	293.44
321.962	300.44
322.191	323.44
322.42	333.44
322.649	347.44
322.878	344.44
323.108	355.44
323.337	383.44
323.566	391.44
323.795	417.44
324.024	459.44
324.253	575.44
324.482	862.44
324.71	1277.44
324.939	1637.44
325.168	1345.44
325.397	717.44
325.626	521.44
325.855	424.44
326.084	400.44
326.313	398.44
326.542	407.44
326.77	458.44
326.999	542.44
327.228	740.44
327.457	1069.44
327.686	1205.44
327.914	812.44
328.143	557.44
328.372	475.44
328.6	454.44
328.829	430.44
329.058	442.44
329.287	430.44
329.515	409.44
329.744	397.44
329.972	383.44
330.201	405.44
330.43	413.44
330.658	453.44
330.887	487.44
331.115	443.44
331.344	406.44
331.572	376.44
331.801	389.44
332.03	354.44
332.258	345.44
332.486	331.44
332.715	307.44
332.943	317.44
333.172	301.44
333.4	328.44
333.629	335.44
333.857	345.44
334.085	360.44
334.314	367.44
334.542	372.44
334.771	388.44
334.999	343.44
335.227	341.44
335.455	317.44
335.684	320.44
335.912	306.44
336.14	304.44
336.369	317.44
336.597	317.44
336.825	319.44
337.053	312.44
337.281	328.44
337.51	319.44
337.738	326.44
337.966	321.44
338.194	321.44
338.422	320.44
338.65	296.44
338.878	303.44
339.106	305.44
339.334	287.44
339.562	316.44
339.79	314.44
340.018	294.44
340.246	307.44
340.474	311.44
340.702	296.44
340.93	321.44
341.158	307.44
341.386	323.44
341.614	308.44
341.842	304.44
342.07	296.44
342.298	297.44
342.526	307.44
342.754	297.44
342.981	302.44
343.209	298.44
343.437	299.44
343.665	305.44
343.893	312.44
344.12	304.44
344.348	311.44
344.576	334.44
344.804	311.44
345.031	331.44
345.259	326.44
345.487	339.44
345.714	325.44
345.942	309.44
346.17	310.44
346.397	302.44
346.625	293.44
346.853	292.44
347.08	288.44
347.308	291.44
347.535	304.44
347.763	303.44
347.99	316.44
348.218	312.44
348.445	329.44
348.673	317.44
348.9	281.44
349.128	307.44
349.355	277.44
349.583	295.44
349.81	293.44
350.037	302.44
350.265	290.44
350.492	282.44
350.72	288.44
350.947	307.44
351.174	313.44
351.402	298.44
351.629	308.44
351.856	313.44
352.083	311.44
352.311	292.44
352.538	318.44
352.765	316.44
352.992	302.44
353.22	303.44
353.447	287.44
353.674	285.44
353.901	281.44
354.128	303.44
354.355	280.44
354.583	271.44
354.81	290.44
355.037	290.44
355.264	258.44
355.491	291.44
355.718	267.44
355.945	258.44
356.172	282.44
356.399	280.44
356.626	251.44
356.853	263.44
357.08	284.44
357.307	285.44
357.534	276.44
357.761	277.44
357.988	281.44
358.215	272.44
358.441	272.44
358.668	268.44
358.895	287.44
359.122	285.44
359.349	288.44
359.576	296.44
359.802	303.44
360.029	327.44
360.256	348.44
360.483	315.44
360.709	307.44
360.936	302.44
361.163	295.44
361.39	279.44
361.616	282.44
361.843	273.44
362.07	292.44
362.296	299.44
362.523	288.44
362.749	293.44
362.976	279.44
363.203	287.44
363.429	281.44
363.656	289.44
363.882	293.44
364.109	280.44
364.335	275.44
364.562	291.44
364.788	264.44
365.015	292.44
365.241	272.44
365.468	278.44
365.694	280.44
365.92	276.44
366.147	292.44
366.373	275.44
366.599	273.44
366.826	263.44
367.052	261.44
367.278	278.44
367.505	277.44
367.731	286.44
367.957	276.44
368.184	274.44
368.41	281.44
368.636	291.44
368.862	287.44
369.089	296.44
369.315	263.44
369.541	280.44
369.767	260.44
369.993	271.44
370.219	272.44
370.445	278.44
370.672	272.44
370.898	260.44
371.124	253.44
371.35	278.44
371.576	267.44
371.802	275.44
372.028	259.44
372.254	268.44
372.48	296.44
372.706	252.44
372.932	283.44
373.158	268.44
373.384	265.44
373.61	285.44
373.835	261.44
374.061	257.44
374.287	275.44
374.513	276.44
374.739	261.44
374.965	270.44
375.191	275.44
375.416	274.44
375.642	265.44
375.868	285.44
376.094	264.44
376.319	273.44
376.545	267.44
376.771	272.44
376.997	276.44
377.222	274.44
377.448	263.44
377.674	259.44
377.899	272.44
378.125	265.44
378.35	245.44
378.576	267.44
378.802	259.44
379.027	272.44
379.253	278.44
379.478	269.44
379.704	261.44
379.929	277.44
380.155	272.44
380.38	267.44
380.606	259.44
380.831	261.44
381.057	281.44
381.282	285.44
381.507	267.44
381.733	270.44
381.958	267.44
382.184	267.44
382.409	278.44
382.634	269.44
382.86	263.44
383.085	267.44
383.31	254.44
383.535	262.44
383.761	270.44
383.986	264.44
384.211	279.44
384.436	285.44
384.662	283.44
384.887	274.44
385.112	294.44
385.337	285.44
385.562	270.44
385.787	280.44
386.013	292.44
386.238	298.44
386.463	281.44
386.688	283.44
386.913	284.44
387.138	288.44
387.363	293.44
387.588	289.44
387.813	291.44
388.038	291.44
388.263	266.44
388.488	266.44
388.713	283.44
388.938	292.44
389.163	282.44
389.387	275.44
389.612	273.44
389.837	250.44
390.062	268.44
390.287	280.44
390.512	278.44
390.736	292.44
390.961	287.44
391.186	278.44
391.411	266.44
391.636	277.44
391.86	296.44
392.085	283.44
392.31	279.44
392.534	269.44
392.759	297.44
392.984	277.44
393.208	286.44
393.433	261.44
393.658	291.44
393.882	273.44
394.107	283.44
394.331	275.44
394.556	277.44
394.78	281.44
395.005	266.44
395.229	277.44
395.454	279.44
395.678	283.44
395.903	285.44
396.127	299.44
396.352	292.44
396.576	287.44
396.801	275.44
397.025	294.44
397.249	311.44
397.474	313.44
397.698	282.44
397.922	290.44
398.147	298.44
398.371	311.44
398.595	299.44
398.82	298.44
399.044	300.44
399.268	323.44
399.492	337.44
399.717	362.44
399.941	350.44
400.165	357.44
400.389	368.44
400.613	337.44
400.837	319.44
401.062	318.44
401.286	319.44
401.51	310.44
401.734	281.44
401.958	295.44
402.182	310.44
402.406	310.44
402.63	312.44
402.854	301.44
403.078	313.44
403.302	326.44
403.526	315.44
403.75	316.44
403.974	321.44
404.198	305.44
404.422	324.44
404.645	311.44
404.869	320.44
405.093	328.44
405.317	374.44
405.541	367.44
405.765	341.44
405.988	339.44
406.212	340.44
406.436	357.44
406.66	367.44
406.883	351.44
407.107	364.44
407.331	384.44
407.555	404.44
407.778	407.44
408.002	378.44
408.226	363.44
408.449	335.44
408.673	355.44
408.896	372.44
409.12	383.44
409.344	347.44
409.567	323.44
409.791	316.44
410.014	323.44
410.238	302.44
410.461	315.44
410.685	301.44
410.908	324.44
411.132	341.44
411.355	350.44
411.578	347.44
411.802	309.44
412.025	318.44
412.249	319.44
412.472	328.44
412.695	358.44
412.919	343.44
413.142	303.44
413.365	320.44
413.589	307.44
413.812	315.44
414.035	293.44
414.258	295.44
414.482	312.44
414.705	293.44
414.928	264.44
415.151	282.44
415.374	277.44
415.597	323.44
415.821	315.44
416.044	282.44
416.267	299.44
416.49	305.44
416.713	309.44
416.936	298.44
417.159	285.44
417.382	312.44
417.605	314.44
417.828	311.44
418.051	336.44
418.274	303.44
418.497	299.44
418.72	310.44
418.943	299.44
419.166	308.44
419.389	300.44
419.611	296.44
419.834	298.44
420.057	314.44
420.28	318.44
420.503	327.44
420.726	309.44
420.948	315.44
421.171	349.44
421.394	352.44
421.617	328.44
421.839	324.44
422.062	319.44
422.285	324.44
422.507	362.44
422.73	401.44
422.953	397.44
423.175	344.44
423.398	337.44
423.621	333.44
423.843	345.44
424.066	336.44
424.288	343.44
424.511	354.44
424.733	394.44
424.956	445.44
425.178	415.44
425.401	431.44
425.623	419.44
425.846	354.44
426.068	345.44
426.291	332.44
426.513	359.44
426.735	348.44
426.958	395.44
427.18	421.44
427.402	503.44
427.625	539.44
427.847	496.44
428.069	411.44
428.292	382.44
428.514	345.44
428.736	327.44
428.958	338.44
429.181	335.44
429.403	324.44
429.625	330.44
429.847	334.44
430.069	374.44
430.292	380.44
430.514	336.44
430.736	335.44
430.958	299.44
431.18	312.44
431.402	310.44
431.624	287.44
431.846	296.44
432.068	295.44
432.29	304.44
432.512	321.44
432.734	297.44
432.956	307.44
433.178	293.44
433.4	323.44
433.622	311.44
433.844	311.44
434.066	294.44
434.287	298.44
434.509	317.44
434.731	293.44
434.953	313.44
435.175	331.44
435.397	340.44
435.618	337.44
435.84	383.44
436.062	421.44
436.284	480.44
436.505	395.44
436.727	357.44
436.949	335.44
437.17	338.44
437.392	322.44
437.614	330.44
437.835	357.44
438.057	407.44
438.278	478.44
438.5	465.44
438.721	479.44
438.943	479.44
439.165	401.44
439.386	381.44
439.608	356.44
439.829	361.44
440.05	374.44
440.272	411.44
440.493	364.44
440.715	338.44
440.936	333.44
441.158	319.44
441.379	294.44
441.6	334.44
441.822	346.44
442.043	360.44
442.264	423.44
442.486	435.44
442.707	369.44
442.928	371.44
443.149	361.44
443.371	375.44
443.592	417.44
443.813	472.44
444.034	486.44
444.255	395.44
444.476	359.44
444.698	327.44
444.919	343.44
445.14	424.44
445.361	403.44
445.582	379.44
445.803	424.44
446.024	495.44
446.245	473.44
446.466	453.44
446.687	370.44
446.908	352.44
447.129	334.44
447.35	326.44
447.571	308.44
447.792	321.44
448.013	318.44
448.234	348.44
448.455	373.44
448.675	439.44
448.896	487.44
449.117	445.44
449.338	415.44
449.559	483.44
449.779	519.44
450	430.44
450.221	356.44
450.442	343.44
450.662	332.44
450.883	323.44
451.104	336.44
451.324	307.44
451.545	301.44
451.766	311.44
451.986	284.44
452.207	288.44
452.428	301.44
452.648	297.44
452.869	298.44
453.089	302.44
453.31	305.44
453.53	316.44
453.751	287.44
453.971	310.44
454.192	311.44
454.412	288.44
454.633	298.44
454.853	296.44
455.073	296.44
455.294	317.44
455.514	360.44
455.734	345.44
455.955	298.44
456.175	298.44
456.395	268.44
456.616	291.44
456.836	272.44
457.056	268.44
457.276	274.44
457.497	274.44
457.717	278.44
457.937	266.44
458.157	276.44
458.377	285.44
458.598	301.44
458.818	338.44
459.038	396.44
459.258	407.44
459.478	334.44
459.698	293.44
459.918	291.44
460.138	291.44
460.358	290.44
460.578	284.44
460.798	293.44
461.018	294.44
461.238	291.44
461.458	293.44
461.678	300.44
461.898	305.44
462.118	292.44
462.338	295.44
462.558	297.44
462.777	303.44
462.997	312.44
463.217	289.44
463.437	313.44
463.657	301.44
463.876	315.44
464.096	304.44
464.316	304.44
464.536	324.44
464.755	303.44
464.975	325.44
465.195	351.44
465.414	391.44
465.634	357.44
465.854	324.44
466.073	299.44
466.293	299.44
466.512	294.44
466.732	294.44
466.951	296.44
467.171	277.44
467.391	285.44
467.61	299.44
467.829	298.44
468.049	302.44
468.268	294.44
468.488	296.44
468.707	281.44
468.927	272.44
469.146	263.44
469.365	289.44
469.585	280.44
469.804	293.44
470.023	301.44
470.243	290.44
470.462	289.44
470.681	319.44
470.901	305.44
471.12	293.44
471.339	322.44
471.558	300.44
471.777	295.44
471.997	276.44
472.216	295.44
472.435	321.44
472.654	312.44
472.873	299.44
473.092	286.44
473.311	301.44
473.53	281.44
473.749	325.44
473.968	331.44
474.187	403.44
474.406	400.44
474.625	349.44
474.844	333.44
475.063	313.44
475.282	299.44
475.501	312.44
475.72	312.44
475.939	298.44
476.158	309.44
476.377	300.44
476.596	304.44
476.814	323.44
477.033	318.44
477.252	311.44
477.471	326.44
477.69	318.44
477.908	323.44
478.127	326.44
478.346	343.44
478.564	323.44
478.783	302.44
479.002	317.44
479.22	330.44
479.439	340.44
479.658	345.44
479.876	344.44
480.095	362.44
480.313	383.44
480.532	357.44
480.751	356.44
480.969	366.44
481.188	408.44
481.406	409.44
481.624	373.44
481.843	357.44
482.061	347.44
482.28	324.44
482.498	366.44
482.717	320.44
482.935	357.44
483.153	336.44
483.372	326.44
483.59	328.44
483.808	357.44
484.027	332.44
484.245	342.44
484.463	341.44
484.681	361.44
484.9	350.44
485.118	361.44
485.336	357.44
485.554	348.44
485.772	345.44
485.99	339.44
486.209	350.44
486.427	383.44
486.645	357.44
486.863	363.44
487.081	372.44
487.299	379.44
487.517	361.44
487.735	364.44
487.953	351.44
488.171	361.44
488.389	373.44
488.607	357.44
488.825	359.44
489.043	360.44
489.261	349.44
489.479	361.44
489.696	378.44
489.914	381.44
490.132	389.44
490.35	369.44
490.568	377.44
490.786	382.44
491.003	397.44
491.221	407.44
491.439	415.44
491.657	383.44
491.874	432.44
492.092	413.44
492.31	411.44
492.527	424.44
492.745	417.44
492.963	401.44
493.18	418.44
493.398	449.44
493.615	417.44
493.833	430.44
494.05	438.44
494.268	441.44
494.485	447.44
494.703	420.44
494.92	437.44
495.138	431.44
495.355	412.44
495.573	435.44
495.79	437.44
496.008	432.44
496.225	417.44
496.442	413.44
496.66	420.44
496.877	410.44
497.094	427.44
497.312	437.44
497.529	414.44
497.746	439.44
497.963	446.44
498.181	454.44
498.398	448.44
498.615	473.44
498.832	478.44
499.049	465.44
499.267	447.44
499.484	453.44
499.701	483.44
499.918	501.44
500.135	503.44
500.352	520.44
500.569	538.44
500.786	538.44
501.003	506.44
501.22	518.44
501.437	513.44
501.654	500.44
501.871	522.44
502.088	489.44
