Data from 1982.PennyLincolnUp.Lamp.En5.5.200Scan.071819.P1_HRD10591_16-46-00-963.txt Node
Date: Thu Jul 18 16:46:00 EDT 2019
User: cochatt
Spectrometer: HR+D1059
Trigger mode: 1
Integration Time (sec): 1.000000E-1
Scans to average: 1
Electric dark correction enabled: true
Nonlinearity correction enabled: false
Boxcar width: 0
XAxis mode: Wavelengths
Number of Pixels in Spectrum: 2048
>>>>>Begin Spectral Data<<<<<
223.165	-8.81
223.4	-8.81
223.635	-8.81
223.869	-16.81
224.104	-10.81
224.338	-16.81
224.573	-19.81
224.808	-25.81
225.042	-0.81
225.277	0.19
225.511	1.19
225.746	4.19
225.98	-0.81
226.215	1.19
226.449	8.19
226.683	11.19
226.918	36.19
227.152	38.19
227.387	43.19
227.621	33.19
227.856	52.19
228.09	51.19
228.324	58.19
228.559	49.19
228.793	68.19
229.027	92.19
229.262	89.19
229.496	88.19
229.73	125.19
229.964	130.19
230.199	112.19
230.433	93.19
230.667	107.19
230.901	118.19
231.136	105.19
231.37	108.19
231.604	108.19
231.838	90.19
232.072	97.19
232.306	77.19
232.541	93.19
232.775	95.19
233.009	108.19
233.243	91.19
233.477	92.19
233.711	104.19
233.945	107.19
234.179	107.19
234.413	105.19
234.647	123.19
234.881	105.19
235.115	94.19
235.349	96.19
235.583	120.19
235.817	125.19
236.051	120.19
236.285	109.19
236.519	104.19
236.753	132.19
236.987	128.19
237.221	151.19
237.455	187.19
237.689	142.19
237.922	114.19
238.156	111.19
238.39	116.19
238.624	110.19
238.858	113.19
239.091	100.19
239.325	117.19
239.559	105.19
239.793	110.19
240.027	117.19
240.26	116.19
240.494	131.19
240.728	129.19
240.961	134.19
241.195	132.19
241.429	111.19
241.662	108.19
241.896	124.19
242.13	114.19
242.363	115.19
242.597	109.19
242.83	117.19
243.064	109.19
243.298	122.19
243.531	126.19
243.765	124.19
243.998	118.19
244.232	115.19
244.465	108.19
244.699	118.19
244.932	128.19
245.166	127.19
245.399	123.19
245.633	117.19
245.866	132.19
246.099	119.19
246.333	126.19
246.566	148.19
246.8	136.19
247.033	125.19
247.266	133.19
247.5	130.19
247.733	135.19
247.966	140.19
248.2	142.19
248.433	141.19
248.666	152.19
248.899	142.19
249.133	157.19
249.366	163.19
249.599	140.19
249.832	136.19
250.066	152.19
250.299	137.19
250.532	167.19
250.765	154.19
250.998	167.19
251.231	163.19
251.465	187.19
251.698	158.19
251.931	155.19
252.164	158.19
252.397	164.19
252.63	164.19
252.863	171.19
253.096	181.19
253.329	159.19
253.562	173.19
253.795	169.19
254.028	182.19
254.261	176.19
254.494	179.19
254.727	210.19
254.96	223.19
255.193	218.19
255.426	183.19
255.659	181.19
255.892	185.19
256.124	177.19
256.357	188.19
256.59	181.19
256.823	189.19
257.056	169.19
257.289	163.19
257.521	186.19
257.754	173.19
257.987	160.19
258.22	156.19
258.452	162.19
258.685	168.19
258.918	177.19
259.151	173.19
259.383	166.19
259.616	183.19
259.849	189.19
260.081	203.19
260.314	193.19
260.547	215.19
260.779	213.19
261.012	208.19
261.244	180.19
261.477	183.19
261.71	188.19
261.942	181.19
262.175	191.19
262.407	174.19
262.64	165.19
262.872	164.19
263.105	175.19
263.337	177.19
263.57	166.19
263.802	166.19
264.035	174.19
264.267	169.19
264.499	158.19
264.732	163.19
264.964	163.19
265.197	165.19
265.429	171.19
265.661	175.19
265.894	165.19
266.126	172.19
266.358	152.19
266.591	170.19
266.823	191.19
267.055	183.19
267.287	176.19
267.52	180.19
267.752	183.19
267.984	187.19
268.216	188.19
268.448	170.19
268.681	197.19
268.913	202.19
269.145	203.19
269.377	217.19
269.609	229.19
269.841	222.19
270.073	230.19
270.306	234.19
270.538	243.19
270.77	231.19
271.002	251.19
271.234	227.19
271.466	241.19
271.698	203.19
271.93	243.19
272.162	264.19
272.394	263.19
272.626	223.19
272.858	206.19
273.09	213.19
273.322	229.19
273.553	209.19
273.785	219.19
274.017	198.19
274.249	218.19
274.481	214.19
274.713	193.19
274.945	210.19
275.176	201.19
275.408	210.19
275.64	205.19
275.872	213.19
276.104	201.19
276.335	210.19
276.567	219.19
276.799	191.19
277.031	227.19
277.262	245.19
277.494	227.19
277.726	220.19
277.957	218.19
278.189	207.19
278.421	207.19
278.652	203.19
278.884	184.19
279.115	202.19
279.347	203.19
279.579	201.19
279.81	217.19
280.042	207.19
280.273	206.19
280.505	196.19
280.736	202.19
280.968	204.19
281.199	215.19
281.431	212.19
281.662	199.19
281.894	222.19
282.125	218.19
282.356	212.19
282.588	223.19
282.819	229.19
283.051	213.19
283.282	201.19
283.513	206.19
283.745	203.19
283.976	227.19
284.207	213.19
284.439	213.19
284.67	206.19
284.901	191.19
285.132	208.19
285.364	228.19
285.595	206.19
285.826	227.19
286.057	225.19
286.288	200.19
286.52	241.19
286.751	198.19
286.982	217.19
287.213	200.19
287.444	199.19
287.675	217.19
287.906	224.19
288.138	233.19
288.369	224.19
288.6	218.19
288.831	215.19
289.062	223.19
289.293	236.19
289.524	226.19
289.755	216.19
289.986	216.19
290.217	199.19
290.448	216.19
290.679	230.19
290.91	211.19
291.141	202.19
291.371	210.19
291.602	210.19
291.833	212.19
292.064	209.19
292.295	209.19
292.526	233.19
292.757	220.19
292.987	225.19
293.218	219.19
293.449	229.19
293.68	219.19
293.91	215.19
294.141	194.19
294.372	223.19
294.603	214.19
294.833	212.19
295.064	225.19
295.295	216.19
295.525	220.19
295.756	226.19
295.987	220.19
296.217	239.19
296.448	257.19
296.679	223.19
296.909	220.19
297.14	228.19
297.37	229.19
297.601	220.19
297.831	224.19
298.062	228.19
298.292	227.19
298.523	212.19
298.753	223.19
298.984	221.19
299.214	229.19
299.445	203.19
299.675	240.19
299.905	227.19
300.136	231.19
300.366	232.19
300.597	225.19
300.827	231.19
301.057	236.19
301.288	247.19
301.518	243.19
301.748	224.19
301.979	245.19
302.209	244.19
302.439	239.19
302.669	255.19
302.9	229.19
303.13	245.19
303.36	250.19
303.59	233.19
303.82	240.19
304.051	261.19
304.281	251.19
304.511	229.19
304.741	247.19
304.971	230.19
305.201	236.19
305.431	245.19
305.661	247.19
305.891	240.19
306.121	236.19
306.352	253.19
306.582	243.19
306.812	251.19
307.042	245.19
307.272	239.19
307.502	261.19
307.731	248.19
307.961	256.19
308.191	248.19
308.421	233.19
308.651	246.19
308.881	240.19
309.111	254.19
309.341	256.19
309.571	267.19
309.8	275.19
310.03	278.19
310.26	283.19
310.49	270.19
310.72	307.19
310.949	291.19
311.179	280.19
311.409	274.19
311.639	305.19
311.868	290.19
312.098	288.19
312.328	281.19
312.557	292.19
312.787	298.19
313.017	298.19
313.246	280.19
313.476	279.19
313.706	271.19
313.935	279.19
314.165	286.19
314.394	315.19
314.624	285.19
314.853	297.19
315.083	275.19
315.312	275.19
315.542	286.19
315.771	272.19
316.001	275.19
316.23	277.19
316.46	289.19
316.689	280.19
316.919	299.19
317.148	285.19
317.377	294.19
317.607	294.19
317.836	309.19
318.065	279.19
318.295	291.19
318.524	273.19
318.753	293.19
318.983	288.19
319.212	281.19
319.441	309.19
319.67	299.19
319.9	295.19
320.129	289.19
320.358	284.19
320.587	295.19
320.816	285.19
321.046	294.19
321.275	308.19
321.504	303.19
321.733	321.19
321.962	287.19
322.191	325.19
322.42	332.19
322.649	342.19
322.878	349.19
323.108	338.19
323.337	391.19
323.566	394.19
323.795	414.19
324.024	471.19
324.253	561.19
324.482	830.19
324.71	1224.19
324.939	1646.19
325.168	1343.19
325.397	717.19
325.626	488.19
325.855	409.19
326.084	396.19
326.313	386.19
326.542	391.19
326.77	428.19
326.999	529.19
327.228	740.19
327.457	1069.19
327.686	1192.19
327.914	788.19
328.143	529.19
328.372	480.19
328.6	445.19
328.829	431.19
329.058	431.19
329.287	452.19
329.515	416.19
329.744	401.19
329.972	385.19
330.201	379.19
330.43	419.19
330.658	441.19
330.887	447.19
331.115	417.19
331.344	381.19
331.572	365.19
331.801	367.19
332.03	354.19
332.258	344.19
332.486	340.19
332.715	335.19
332.943	330.19
333.172	327.19
333.4	312.19
333.629	334.19
333.857	341.19
334.085	329.19
334.314	356.19
334.542	364.19
334.771	364.19
334.999	355.19
335.227	335.19
335.455	319.19
335.684	316.19
335.912	320.19
336.14	317.19
336.369	318.19
336.597	345.19
336.825	330.19
337.053	313.19
337.281	332.19
337.51	311.19
337.738	315.19
337.966	316.19
338.194	310.19
338.422	327.19
338.65	312.19
338.878	299.19
339.106	311.19
339.334	295.19
339.562	280.19
339.79	310.19
340.018	295.19
340.246	302.19
340.474	310.19
340.702	312.19
340.93	316.19
341.158	311.19
341.386	310.19
341.614	296.19
341.842	302.19
342.07	279.19
342.298	312.19
342.526	295.19
342.754	295.19
342.981	298.19
343.209	278.19
343.437	317.19
343.665	280.19
343.893	321.19
344.12	302.19
344.348	313.19
344.576	310.19
344.804	287.19
345.031	323.19
345.259	346.19
345.487	299.19
345.714	315.19
345.942	309.19
346.17	310.19
346.397	307.19
346.625	293.19
346.853	296.19
347.08	294.19
347.308	317.19
347.535	303.19
347.763	302.19
347.99	291.19
348.218	300.19
348.445	302.19
348.673	309.19
348.9	299.19
349.128	293.19
349.355	288.19
349.583	288.19
349.81	281.19
350.037	299.19
350.265	291.19
350.492	283.19
350.72	284.19
350.947	303.19
351.174	300.19
351.402	302.19
351.629	315.19
351.856	316.19
352.083	305.19
352.311	309.19
352.538	304.19
352.765	305.19
352.992	299.19
353.22	281.19
353.447	276.19
353.674	293.19
353.901	267.19
354.128	268.19
354.355	284.19
354.583	279.19
354.81	265.19
355.037	278.19
355.264	283.19
355.491	280.19
355.718	271.19
355.945	274.19
356.172	272.19
356.399	255.19
356.626	287.19
356.853	261.19
357.08	265.19
357.307	253.19
357.534	287.19
357.761	268.19
357.988	263.19
358.215	279.19
358.441	267.19
358.668	263.19
358.895	289.19
359.122	287.19
359.349	288.19
359.576	296.19
359.802	304.19
360.029	323.19
360.256	331.19
360.483	320.19
360.709	283.19
360.936	289.19
361.163	298.19
361.39	311.19
361.616	297.19
361.843	283.19
362.07	306.19
362.296	287.19
362.523	297.19
362.749	297.19
362.976	281.19
363.203	276.19
363.429	274.19
363.656	291.19
363.882	278.19
364.109	281.19
364.335	282.19
364.562	264.19
364.788	273.19
365.015	253.19
365.241	283.19
365.468	283.19
365.694	297.19
365.92	296.19
366.147	279.19
366.373	264.19
366.599	275.19
366.826	251.19
367.052	274.19
367.278	277.19
367.505	267.19
367.731	282.19
367.957	279.19
368.184	269.19
368.41	288.19
368.636	301.19
368.862	287.19
369.089	269.19
369.315	283.19
369.541	277.19
369.767	265.19
369.993	264.19
370.219	271.19
370.445	288.19
370.672	261.19
370.898	270.19
371.124	274.19
371.35	255.19
371.576	251.19
371.802	264.19
372.028	263.19
372.254	263.19
372.48	270.19
372.706	259.19
372.932	268.19
373.158	270.19
373.384	288.19
373.61	275.19
373.835	274.19
374.061	262.19
374.287	269.19
374.513	267.19
374.739	281.19
374.965	271.19
375.191	257.19
375.416	260.19
375.642	277.19
375.868	265.19
376.094	280.19
376.319	266.19
376.545	253.19
376.771	256.19
376.997	262.19
377.222	272.19
377.448	244.19
377.674	254.19
377.899	259.19
378.125	248.19
378.35	269.19
378.576	268.19
378.802	264.19
379.027	280.19
379.253	260.19
379.478	271.19
379.704	266.19
379.929	273.19
380.155	269.19
380.38	268.19
380.606	263.19
380.831	275.19
381.057	275.19
381.282	281.19
381.507	259.19
381.733	265.19
381.958	253.19
382.184	271.19
382.409	267.19
382.634	266.19
382.86	276.19
383.085	268.19
383.31	270.19
383.535	263.19
383.761	280.19
383.986	254.19
384.211	266.19
384.436	243.19
384.662	266.19
384.887	277.19
385.112	281.19
385.337	268.19
385.562	267.19
385.787	279.19
386.013	288.19
386.238	285.19
386.463	278.19
386.688	278.19
386.913	280.19
387.138	284.19
387.363	283.19
387.588	261.19
387.813	274.19
388.038	277.19
388.263	278.19
388.488	275.19
388.713	260.19
388.938	287.19
389.163	291.19
389.387	278.19
389.612	266.19
389.837	263.19
390.062	267.19
390.287	288.19
390.512	275.19
390.736	277.19
390.961	249.19
391.186	283.19
391.411	280.19
391.636	292.19
391.86	289.19
392.085	271.19
392.31	286.19
392.534	266.19
392.759	279.19
392.984	273.19
393.208	281.19
393.433	280.19
393.658	277.19
393.882	264.19
394.107	261.19
394.331	262.19
394.556	271.19
394.78	281.19
395.005	271.19
395.229	270.19
395.454	279.19
395.678	283.19
395.903	297.19
396.127	297.19
396.352	304.19
396.576	271.19
396.801	284.19
397.025	300.19
397.249	280.19
397.474	286.19
397.698	289.19
397.922	298.19
398.147	321.19
398.371	308.19
398.595	294.19
398.82	285.19
399.044	299.19
399.268	317.19
399.492	314.19
399.717	330.19
399.941	363.19
400.165	351.19
400.389	358.19
400.613	340.19
400.837	315.19
401.062	303.19
401.286	301.19
401.51	320.19
401.734	297.19
401.958	294.19
402.182	323.19
402.406	320.19
402.63	314.19
402.854	330.19
403.078	303.19
403.302	295.19
403.526	313.19
403.75	308.19
403.974	314.19
404.198	314.19
404.422	336.19
404.645	315.19
404.869	304.19
405.093	315.19
405.317	365.19
405.541	371.19
405.765	345.19
405.988	313.19
406.212	333.19
406.436	319.19
406.66	362.19
406.883	326.19
407.107	364.19
407.331	374.19
407.555	399.19
407.778	411.19
408.002	381.19
408.226	339.19
408.449	341.19
408.673	358.19
408.896	353.19
409.12	382.19
409.344	360.19
409.567	323.19
409.791	321.19
410.014	324.19
410.238	321.19
410.461	304.19
410.685	296.19
410.908	324.19
411.132	319.19
411.355	357.19
411.578	339.19
411.802	318.19
412.025	330.19
412.249	329.19
412.472	323.19
412.695	345.19
412.919	334.19
413.142	321.19
413.365	324.19
413.589	286.19
413.812	273.19
414.035	287.19
414.258	289.19
414.482	305.19
414.705	299.19
414.928	281.19
415.151	298.19
415.374	301.19
415.597	284.19
415.821	293.19
416.044	304.19
416.267	308.19
416.49	296.19
416.713	300.19
416.936	297.19
417.159	283.19
417.382	313.19
417.605	293.19
417.828	296.19
418.051	299.19
418.274	302.19
418.497	296.19
418.72	306.19
418.943	287.19
419.166	281.19
419.389	323.19
419.611	315.19
419.834	317.19
420.057	296.19
420.28	305.19
420.503	311.19
420.726	310.19
420.948	332.19
421.171	355.19
421.394	349.19
421.617	305.19
421.839	308.19
422.062	301.19
422.285	308.19
422.507	355.19
422.73	415.19
422.953	364.19
423.175	347.19
423.398	315.19
423.621	317.19
423.843	325.19
424.066	341.19
424.288	341.19
424.511	359.19
424.733	385.19
424.956	432.19
425.178	420.19
425.401	400.19
425.623	423.19
425.846	375.19
426.068	341.19
426.291	323.19
426.513	338.19
426.735	335.19
426.958	381.19
427.18	429.19
427.402	504.19
427.625	537.19
427.847	496.19
428.069	395.19
428.292	387.19
428.514	344.19
428.736	333.19
428.958	334.19
429.181	325.19
429.403	294.19
429.625	316.19
429.847	343.19
430.069	394.19
430.292	363.19
430.514	318.19
430.736	300.19
430.958	321.19
431.18	303.19
431.402	289.19
431.624	286.19
431.846	296.19
432.068	296.19
432.29	302.19
432.512	305.19
432.734	314.19
432.956	300.19
433.178	302.19
433.4	333.19
433.622	305.19
433.844	295.19
434.066	310.19
434.287	280.19
434.509	297.19
434.731	302.19
434.953	295.19
435.175	311.19
435.397	329.19
435.618	353.19
435.84	368.19
436.062	423.19
436.284	475.19
436.505	402.19
436.727	358.19
436.949	337.19
437.17	319.19
437.392	323.19
437.614	349.19
437.835	341.19
438.057	389.19
438.278	473.19
438.5	462.19
438.721	513.19
438.943	486.19
439.165	383.19
439.386	335.19
439.608	348.19
439.829	365.19
440.05	363.19
440.272	394.19
440.493	372.19
440.715	334.19
440.936	343.19
441.158	328.19
441.379	309.19
441.6	318.19
441.822	341.19
442.043	351.19
442.264	411.19
442.486	431.19
442.707	364.19
442.928	343.19
443.149	347.19
443.371	367.19
443.592	400.19
443.813	457.19
444.034	460.19
444.255	391.19
444.476	345.19
444.698	317.19
444.919	331.19
445.14	424.19
445.361	377.19
445.582	374.19
445.803	417.19
446.024	488.19
446.245	476.19
446.466	446.19
446.687	361.19
446.908	344.19
447.129	330.19
447.35	317.19
447.571	307.19
447.792	326.19
448.013	316.19
448.234	333.19
448.455	372.19
448.675	420.19
448.896	479.19
449.117	416.19
449.338	401.19
449.559	476.19
449.779	484.19
450	412.19
450.221	353.19
450.442	336.19
450.662	320.19
450.883	323.19
451.104	338.19
451.324	334.19
451.545	320.19
451.766	308.19
451.986	300.19
452.207	293.19
452.428	293.19
452.648	299.19
452.869	279.19
453.089	302.19
453.31	311.19
453.53	291.19
453.751	277.19
453.971	299.19
454.192	304.19
454.412	296.19
454.633	299.19
454.853	275.19
455.073	291.19
455.294	304.19
455.514	333.19
455.734	329.19
455.955	271.19
456.175	270.19
456.395	275.19
456.616	271.19
456.836	246.19
457.056	254.19
457.276	250.19
457.497	261.19
457.717	256.19
457.937	267.19
458.157	278.19
458.377	273.19
458.598	293.19
458.818	357.19
459.038	384.19
459.258	391.19
459.478	332.19
459.698	304.19
459.918	297.19
460.138	300.19
460.358	282.19
460.578	272.19
460.798	289.19
461.018	279.19
461.238	308.19
461.458	279.19
461.678	294.19
461.898	286.19
462.118	290.19
462.338	291.19
462.558	304.19
462.777	290.19
462.997	283.19
463.217	304.19
463.437	292.19
463.657	299.19
463.876	311.19
464.096	299.19
464.316	289.19
464.536	307.19
464.755	319.19
464.975	301.19
465.195	365.19
465.414	380.19
465.634	343.19
465.854	315.19
466.073	311.19
466.293	301.19
466.512	280.19
466.732	279.19
466.951	277.19
467.171	281.19
467.391	317.19
467.61	292.19
467.829	312.19
468.049	291.19
468.268	289.19
468.488	279.19
468.707	291.19
468.927	283.19
469.146	287.19
469.365	283.19
469.585	293.19
469.804	298.19
470.023	294.19
470.243	279.19
470.462	294.19
470.681	303.19
470.901	304.19
471.12	272.19
471.339	295.19
471.558	286.19
471.777	301.19
471.997	288.19
472.216	299.19
472.435	312.19
472.654	291.19
472.873	287.19
473.092	294.19
473.311	282.19
473.53	311.19
473.749	310.19
473.968	342.19
474.187	389.19
474.406	414.19
474.625	337.19
474.844	301.19
475.063	299.19
475.282	287.19
475.501	288.19
475.72	304.19
475.939	287.19
476.158	301.19
476.377	304.19
476.596	308.19
476.814	325.19
477.033	300.19
477.252	320.19
477.471	306.19
477.69	323.19
477.908	328.19
478.127	313.19
478.346	312.19
478.564	304.19
478.783	289.19
479.002	292.19
479.22	322.19
479.439	349.19
479.658	346.19
479.876	368.19
480.095	347.19
480.313	378.19
480.532	362.19
480.751	358.19
480.969	363.19
481.188	407.19
481.406	419.19
481.624	376.19
481.843	338.19
482.061	351.19
482.28	350.19
482.498	323.19
482.717	344.19
482.935	343.19
483.153	331.19
483.372	337.19
483.59	337.19
483.808	318.19
484.027	328.19
484.245	327.19
484.463	345.19
484.681	342.19
484.9	345.19
485.118	356.19
485.336	353.19
485.554	352.19
485.772	360.19
485.99	364.19
486.209	350.19
486.427	358.19
486.645	351.19
486.863	378.19
487.081	383.19
487.299	357.19
487.517	344.19
487.735	363.19
487.953	363.19
488.171	359.19
488.389	349.19
488.607	367.19
488.825	374.19
489.043	375.19
489.261	362.19
489.479	360.19
489.696	358.19
489.914	374.19
490.132	378.19
490.35	380.19
490.568	387.19
490.786	381.19
491.003	393.19
491.221	385.19
491.439	401.19
491.657	396.19
491.874	385.19
492.092	391.19
492.31	411.19
492.527	400.19
492.745	406.19
492.963	413.19
493.18	416.19
493.398	426.19
493.615	417.19
493.833	416.19
494.05	436.19
494.268	421.19
494.485	417.19
494.703	430.19
494.92	423.19
495.138	413.19
495.355	428.19
495.573	427.19
495.79	411.19
496.008	431.19
496.225	419.19
496.442	428.19
496.66	430.19
496.877	412.19
497.094	414.19
497.312	425.19
497.529	433.19
497.746	431.19
497.963	448.19
498.181	457.19
498.398	460.19
498.615	456.19
498.832	471.19
499.049	471.19
499.267	470.19
499.484	478.19
499.701	482.19
499.918	497.19
500.135	516.19
500.352	507.19
500.569	520.19
500.786	505.19
501.003	515.19
501.22	525.19
501.437	509.19
501.654	488.19
501.871	507.19
502.088	494.19
