Data from 1982.PennyLincolnUp.Lamp.En5.5.200Scan.071819.P1_HRD10591_16-47-55-962.txt Node
Date: Thu Jul 18 16:47:55 EDT 2019
User: cochatt
Spectrometer: HR+D1059
Trigger mode: 1
Integration Time (sec): 1.000000E-1
Scans to average: 1
Electric dark correction enabled: true
Nonlinearity correction enabled: false
Boxcar width: 0
XAxis mode: Wavelengths
Number of Pixels in Spectrum: 2048
>>>>>Begin Spectral Data<<<<<
223.165	-7.38
223.4	-7.38
223.635	-7.38
223.869	-21.38
224.104	-12.38
224.338	-4.38
224.573	-1.38
224.808	-17.38
225.042	4.62
225.277	-6.38
225.511	-4.38
225.746	-18.38
225.98	5.62
226.215	5.62
226.449	13.62
226.683	14.62
226.918	15.62
227.152	33.62
227.387	34.62
227.621	16.62
227.856	49.62
228.09	47.62
228.324	46.62
228.559	42.62
228.793	69.62
229.027	87.62
229.262	91.62
229.496	114.62
229.73	109.62
229.964	119.62
230.199	105.62
230.433	103.62
230.667	111.62
230.901	91.62
231.136	80.62
231.37	96.62
231.604	99.62
231.838	94.62
232.072	93.62
232.306	93.62
232.541	101.62
232.775	86.62
233.009	116.62
233.243	96.62
233.477	102.62
233.711	98.62
233.945	100.62
234.179	106.62
234.413	102.62
234.647	96.62
234.881	95.62
235.115	106.62
235.349	116.62
235.583	113.62
235.817	105.62
236.051	100.62
236.285	102.62
236.519	101.62
236.753	121.62
236.987	110.62
237.221	140.62
237.455	183.62
237.689	140.62
237.922	122.62
238.156	114.62
238.39	114.62
238.624	96.62
238.858	91.62
239.091	104.62
239.325	117.62
239.559	94.62
239.793	111.62
240.027	112.62
240.26	120.62
240.494	132.62
240.728	128.62
240.961	120.62
241.195	122.62
241.429	120.62
241.662	106.62
241.896	111.62
242.13	105.62
242.363	101.62
242.597	102.62
242.83	97.62
243.064	114.62
243.298	109.62
243.531	129.62
243.765	116.62
243.998	116.62
244.232	132.62
244.465	126.62
244.699	120.62
244.932	136.62
245.166	126.62
245.399	127.62
245.633	123.62
245.866	118.62
246.099	133.62
246.333	118.62
246.566	119.62
246.8	132.62
247.033	121.62
247.266	132.62
247.5	127.62
247.733	134.62
247.966	132.62
248.2	119.62
248.433	136.62
248.666	143.62
248.899	146.62
249.133	168.62
249.366	158.62
249.599	165.62
249.832	138.62
250.066	141.62
250.299	135.62
250.532	153.62
250.765	165.62
250.998	176.62
251.231	181.62
251.465	178.62
251.698	159.62
251.931	155.62
252.164	155.62
252.397	167.62
252.63	161.62
252.863	166.62
253.096	177.62
253.329	169.62
253.562	198.62
253.795	189.62
254.028	186.62
254.261	179.62
254.494	184.62
254.727	206.62
254.96	229.62
255.193	207.62
255.426	209.62
255.659	186.62
255.892	190.62
256.124	197.62
256.357	194.62
256.59	196.62
256.823	167.62
257.056	161.62
257.289	168.62
257.521	173.62
257.754	165.62
257.987	169.62
258.22	181.62
258.452	175.62
258.685	179.62
258.918	171.62
259.151	175.62
259.383	177.62
259.616	167.62
259.849	166.62
260.081	175.62
260.314	204.62
260.547	191.62
260.779	193.62
261.012	190.62
261.244	187.62
261.477	169.62
261.71	174.62
261.942	164.62
262.175	178.62
262.407	179.62
262.64	161.62
262.872	154.62
263.105	173.62
263.337	168.62
263.57	164.62
263.802	163.62
264.035	175.62
264.267	160.62
264.499	176.62
264.732	159.62
264.964	173.62
265.197	171.62
265.429	172.62
265.661	165.62
265.894	168.62
266.126	167.62
266.358	175.62
266.591	152.62
266.823	170.62
267.055	177.62
267.287	167.62
267.52	187.62
267.752	191.62
267.984	193.62
268.216	174.62
268.448	183.62
268.681	185.62
268.913	198.62
269.145	219.62
269.377	222.62
269.609	227.62
269.841	211.62
270.073	216.62
270.306	233.62
270.538	234.62
270.77	257.62
271.002	247.62
271.234	240.62
271.466	231.62
271.698	233.62
271.93	229.62
272.162	246.62
272.394	258.62
272.626	238.62
272.858	232.62
273.09	207.62
273.322	213.62
273.553	198.62
273.785	225.62
274.017	203.62
274.249	211.62
274.481	197.62
274.713	198.62
274.945	218.62
275.176	211.62
275.408	199.62
275.64	198.62
275.872	186.62
276.104	200.62
276.335	213.62
276.567	212.62
276.799	233.62
277.031	244.62
277.262	273.62
277.494	244.62
277.726	227.62
277.957	225.62
278.189	204.62
278.421	214.62
278.652	203.62
278.884	198.62
279.115	220.62
279.347	213.62
279.579	208.62
279.81	198.62
280.042	200.62
280.273	195.62
280.505	189.62
280.736	211.62
280.968	200.62
281.199	202.62
281.431	200.62
281.662	206.62
281.894	212.62
282.125	200.62
282.356	232.62
282.588	217.62
282.819	233.62
283.051	210.62
283.282	200.62
283.513	213.62
283.745	206.62
283.976	207.62
284.207	217.62
284.439	195.62
284.67	223.62
284.901	199.62
285.132	223.62
285.364	209.62
285.595	212.62
285.826	206.62
286.057	223.62
286.288	224.62
286.52	210.62
286.751	219.62
286.982	215.62
287.213	211.62
287.444	220.62
287.675	223.62
287.906	215.62
288.138	244.62
288.369	192.62
288.6	223.62
288.831	219.62
289.062	220.62
289.293	209.62
289.524	213.62
289.755	200.62
289.986	219.62
290.217	226.62
290.448	212.62
290.679	218.62
290.91	219.62
291.141	216.62
291.371	225.62
291.602	227.62
291.833	224.62
292.064	221.62
292.295	222.62
292.526	218.62
292.757	218.62
292.987	216.62
293.218	222.62
293.449	221.62
293.68	229.62
293.91	206.62
294.141	222.62
294.372	222.62
294.603	219.62
294.833	219.62
295.064	213.62
295.295	229.62
295.525	230.62
295.756	226.62
295.987	226.62
296.217	257.62
296.448	238.62
296.679	224.62
296.909	229.62
297.14	220.62
297.37	212.62
297.601	218.62
297.831	238.62
298.062	218.62
298.292	223.62
298.523	206.62
298.753	227.62
298.984	217.62
299.214	219.62
299.445	244.62
299.675	239.62
299.905	240.62
300.136	226.62
300.366	245.62
300.597	228.62
300.827	228.62
301.057	240.62
301.288	267.62
301.518	245.62
301.748	237.62
301.979	243.62
302.209	234.62
302.439	239.62
302.669	239.62
302.9	257.62
303.13	265.62
303.36	220.62
303.59	255.62
303.82	250.62
304.051	240.62
304.281	223.62
304.511	245.62
304.741	243.62
304.971	251.62
305.201	237.62
305.431	256.62
305.661	239.62
305.891	248.62
306.121	257.62
306.352	249.62
306.582	264.62
306.812	245.62
307.042	257.62
307.272	238.62
307.502	266.62
307.731	252.62
307.961	256.62
308.191	250.62
308.421	257.62
308.651	244.62
308.881	259.62
309.111	268.62
309.341	275.62
309.571	265.62
309.8	282.62
310.03	275.62
310.26	288.62
310.49	307.62
310.72	303.62
310.949	288.62
311.179	302.62
311.409	307.62
311.639	287.62
311.868	294.62
312.098	292.62
312.328	285.62
312.557	315.62
312.787	314.62
313.017	319.62
313.246	302.62
313.476	288.62
313.706	308.62
313.935	293.62
314.165	288.62
314.394	298.62
314.624	310.62
314.853	293.62
315.083	279.62
315.312	290.62
315.542	289.62
315.771	287.62
316.001	287.62
316.23	280.62
316.46	291.62
316.689	281.62
316.919	289.62
317.148	307.62
317.377	292.62
317.607	304.62
317.836	290.62
318.065	267.62
318.295	292.62
318.524	275.62
318.753	279.62
318.983	291.62
319.212	284.62
319.441	314.62
319.67	322.62
319.9	313.62
320.129	295.62
320.358	299.62
320.587	302.62
320.816	294.62
321.046	322.62
321.275	311.62
321.504	317.62
321.733	318.62
321.962	339.62
322.191	320.62
322.42	339.62
322.649	344.62
322.878	361.62
323.108	371.62
323.337	395.62
323.566	402.62
323.795	433.62
324.024	498.62
324.253	633.62
324.482	908.62
324.71	1413.62
324.939	1781.62
325.168	1458.62
325.397	775.62
325.626	526.62
325.855	437.62
326.084	397.62
326.313	429.62
326.542	411.62
326.77	455.62
326.999	580.62
327.228	799.62
327.457	1167.62
327.686	1305.62
327.914	866.62
328.143	601.62
328.372	490.62
328.6	471.62
328.829	464.62
329.058	472.62
329.287	467.62
329.515	446.62
329.744	406.62
329.972	398.62
330.201	428.62
330.43	455.62
330.658	475.62
330.887	477.62
331.115	468.62
331.344	394.62
331.572	391.62
331.801	401.62
332.03	398.62
332.258	379.62
332.486	355.62
332.715	334.62
332.943	338.62
333.172	361.62
333.4	327.62
333.629	352.62
333.857	358.62
334.085	357.62
334.314	376.62
334.542	405.62
334.771	395.62
334.999	375.62
335.227	346.62
335.455	351.62
335.684	356.62
335.912	321.62
336.14	331.62
336.369	319.62
336.597	350.62
336.825	353.62
337.053	328.62
337.281	326.62
337.51	334.62
337.738	324.62
337.966	335.62
338.194	330.62
338.422	328.62
338.65	341.62
338.878	324.62
339.106	314.62
339.334	305.62
339.562	302.62
339.79	307.62
340.018	314.62
340.246	315.62
340.474	318.62
340.702	328.62
340.93	310.62
341.158	318.62
341.386	303.62
341.614	317.62
341.842	309.62
342.07	298.62
342.298	324.62
342.526	310.62
342.754	306.62
342.981	311.62
343.209	301.62
343.437	296.62
343.665	297.62
343.893	298.62
344.12	318.62
344.348	309.62
344.576	310.62
344.804	333.62
345.031	309.62
345.259	342.62
345.487	330.62
345.714	318.62
345.942	295.62
346.17	305.62
346.397	307.62
346.625	314.62
346.853	308.62
347.08	314.62
347.308	295.62
347.535	307.62
347.763	323.62
347.99	309.62
348.218	303.62
348.445	324.62
348.673	335.62
348.9	307.62
349.128	290.62
349.355	308.62
349.583	313.62
349.81	307.62
350.037	286.62
350.265	292.62
350.492	285.62
350.72	305.62
350.947	313.62
351.174	306.62
351.402	321.62
351.629	320.62
351.856	304.62
352.083	307.62
352.311	321.62
352.538	324.62
352.765	342.62
352.992	310.62
353.22	320.62
353.447	322.62
353.674	293.62
353.901	300.62
354.128	276.62
354.355	288.62
354.583	277.62
354.81	277.62
355.037	280.62
355.264	285.62
355.491	273.62
355.718	265.62
355.945	265.62
356.172	275.62
356.399	266.62
356.626	279.62
356.853	280.62
357.08	294.62
357.307	276.62
357.534	271.62
357.761	276.62
357.988	281.62
358.215	285.62
358.441	265.62
358.668	298.62
358.895	279.62
359.122	303.62
359.349	305.62
359.576	304.62
359.802	317.62
360.029	354.62
360.256	336.62
360.483	336.62
360.709	325.62
360.936	291.62
361.163	304.62
361.39	313.62
361.616	305.62
361.843	288.62
362.07	299.62
362.296	319.62
362.523	282.62
362.749	298.62
362.976	289.62
363.203	291.62
363.429	280.62
363.656	275.62
363.882	275.62
364.109	264.62
364.335	271.62
364.562	261.62
364.788	268.62
365.015	276.62
365.241	281.62
365.468	297.62
365.694	297.62
365.92	307.62
366.147	286.62
366.373	271.62
366.599	278.62
366.826	266.62
367.052	276.62
367.278	283.62
367.505	293.62
367.731	282.62
367.957	281.62
368.184	262.62
368.41	296.62
368.636	271.62
368.862	282.62
369.089	295.62
369.315	293.62
369.541	282.62
369.767	292.62
369.993	277.62
370.219	250.62
370.445	277.62
370.672	258.62
370.898	266.62
371.124	265.62
371.35	256.62
371.576	274.62
371.802	260.62
372.028	265.62
372.254	272.62
372.48	277.62
372.706	267.62
372.932	266.62
373.158	274.62
373.384	271.62
373.61	257.62
373.835	262.62
374.061	268.62
374.287	267.62
374.513	286.62
374.739	282.62
374.965	245.62
375.191	273.62
375.416	285.62
375.642	270.62
375.868	297.62
376.094	274.62
376.319	275.62
376.545	267.62
376.771	277.62
376.997	263.62
377.222	265.62
377.448	265.62
377.674	278.62
377.899	261.62
378.125	284.62
378.35	265.62
378.576	268.62
378.802	267.62
379.027	266.62
379.253	281.62
379.478	251.62
379.704	244.62
379.929	265.62
380.155	262.62
380.38	271.62
380.606	277.62
380.831	257.62
381.057	272.62
381.282	277.62
381.507	267.62
381.733	278.62
381.958	261.62
382.184	253.62
382.409	271.62
382.634	275.62
382.86	246.62
383.085	264.62
383.31	260.62
383.535	265.62
383.761	265.62
383.986	267.62
384.211	271.62
384.436	283.62
384.662	271.62
384.887	268.62
385.112	291.62
385.337	255.62
385.562	294.62
385.787	297.62
386.013	287.62
386.238	268.62
386.463	279.62
386.688	267.62
386.913	271.62
387.138	272.62
387.363	266.62
387.588	280.62
387.813	263.62
388.038	287.62
388.263	282.62
388.488	281.62
388.713	286.62
388.938	275.62
389.163	271.62
389.387	272.62
389.612	274.62
389.837	293.62
390.062	276.62
390.287	267.62
390.512	273.62
390.736	286.62
390.961	274.62
391.186	265.62
391.411	289.62
391.636	286.62
391.86	289.62
392.085	279.62
392.31	287.62
392.534	284.62
392.759	294.62
392.984	264.62
393.208	291.62
393.433	277.62
393.658	272.62
393.882	271.62
394.107	274.62
394.331	296.62
394.556	286.62
394.78	272.62
395.005	288.62
395.229	281.62
395.454	262.62
395.678	265.62
395.903	311.62
396.127	295.62
396.352	291.62
396.576	283.62
396.801	301.62
397.025	309.62
397.249	280.62
397.474	293.62
397.698	270.62
397.922	295.62
398.147	303.62
398.371	303.62
398.595	297.62
398.82	309.62
399.044	295.62
399.268	312.62
399.492	307.62
399.717	337.62
399.941	346.62
400.165	371.62
400.389	375.62
400.613	334.62
400.837	325.62
401.062	329.62
401.286	310.62
401.51	307.62
401.734	309.62
401.958	320.62
402.182	317.62
402.406	314.62
402.63	320.62
402.854	311.62
403.078	289.62
403.302	315.62
403.526	317.62
403.75	331.62
403.974	306.62
404.198	294.62
404.422	317.62
404.645	329.62
404.869	345.62
405.093	361.62
405.317	351.62
405.541	379.62
405.765	360.62
405.988	333.62
406.212	332.62
406.436	356.62
406.66	353.62
406.883	344.62
407.107	353.62
407.331	385.62
407.555	444.62
407.778	436.62
408.002	399.62
408.226	361.62
408.449	347.62
408.673	355.62
408.896	376.62
409.12	378.62
409.344	375.62
409.567	360.62
409.791	323.62
410.014	319.62
410.238	328.62
410.461	317.62
410.685	328.62
410.908	349.62
411.132	356.62
411.355	369.62
411.578	369.62
411.802	328.62
412.025	309.62
412.249	328.62
412.472	354.62
412.695	352.62
412.919	363.62
413.142	312.62
413.365	326.62
413.589	309.62
413.812	308.62
414.035	304.62
414.258	267.62
414.482	296.62
414.705	299.62
414.928	310.62
415.151	285.62
415.374	299.62
415.597	287.62
415.821	305.62
416.044	301.62
416.267	299.62
416.49	317.62
416.713	306.62
416.936	307.62
417.159	295.62
417.382	290.62
417.605	311.62
417.828	307.62
418.051	320.62
418.274	303.62
418.497	305.62
418.72	297.62
418.943	305.62
419.166	299.62
419.389	307.62
419.611	313.62
419.834	307.62
420.057	335.62
420.28	307.62
420.503	322.62
420.726	305.62
420.948	328.62
421.171	357.62
421.394	361.62
421.617	345.62
421.839	313.62
422.062	324.62
422.285	324.62
422.507	359.62
422.73	397.62
422.953	387.62
423.175	339.62
423.398	311.62
423.621	341.62
423.843	335.62
424.066	333.62
424.288	334.62
424.511	362.62
424.733	378.62
424.956	449.62
425.178	431.62
425.401	416.62
425.623	416.62
425.846	386.62
426.068	345.62
426.291	346.62
426.513	321.62
426.735	350.62
426.958	384.62
427.18	432.62
427.402	500.62
427.625	567.62
427.847	500.62
428.069	445.62
428.292	367.62
428.514	360.62
428.736	309.62
428.958	331.62
429.181	317.62
429.403	315.62
429.625	329.62
429.847	357.62
430.069	402.62
430.292	381.62
430.514	323.62
430.736	328.62
430.958	311.62
431.18	296.62
431.402	299.62
431.624	295.62
431.846	305.62
432.068	287.62
432.29	294.62
432.512	293.62
432.734	305.62
432.956	307.62
433.178	321.62
433.4	298.62
433.622	302.62
433.844	284.62
434.066	308.62
434.287	301.62
434.509	302.62
434.731	306.62
434.953	320.62
435.175	327.62
435.397	322.62
435.618	358.62
435.84	373.62
436.062	433.62
436.284	477.62
436.505	407.62
436.727	344.62
436.949	314.62
437.17	325.62
437.392	319.62
437.614	330.62
437.835	369.62
438.057	427.62
438.278	483.62
438.5	480.62
438.721	526.62
438.943	487.62
439.165	384.62
439.386	352.62
439.608	357.62
439.829	354.62
440.05	374.62
440.272	419.62
440.493	384.62
440.715	351.62
440.936	336.62
441.158	334.62
441.379	336.62
441.6	329.62
441.822	335.62
442.043	375.62
442.264	422.62
442.486	440.62
442.707	376.62
442.928	363.62
443.149	366.62
443.371	356.62
443.592	403.62
443.813	460.62
444.034	485.62
444.255	425.62
444.476	370.62
444.698	342.62
444.919	350.62
445.14	423.62
445.361	401.62
445.582	391.62
445.803	450.62
446.024	510.62
446.245	490.62
446.466	449.62
446.687	394.62
446.908	357.62
447.129	317.62
447.35	323.62
447.571	337.62
447.792	329.62
448.013	342.62
448.234	333.62
448.455	373.62
448.675	448.62
448.896	534.62
449.117	419.62
449.338	421.62
449.559	488.62
449.779	532.62
450	418.62
450.221	357.62
450.442	337.62
450.662	323.62
450.883	342.62
451.104	326.62
451.324	328.62
451.545	313.62
451.766	319.62
451.986	293.62
452.207	295.62
452.428	297.62
452.648	301.62
452.869	285.62
453.089	287.62
453.31	299.62
453.53	286.62
453.751	293.62
453.971	281.62
454.192	318.62
454.412	299.62
454.633	308.62
454.853	282.62
455.073	275.62
455.294	324.62
455.514	371.62
455.734	357.62
455.955	287.62
456.175	274.62
456.395	266.62
456.616	279.62
456.836	287.62
457.056	257.62
457.276	264.62
457.497	268.62
457.717	268.62
457.937	277.62
458.157	286.62
458.377	295.62
458.598	309.62
458.818	343.62
459.038	414.62
459.258	411.62
459.478	325.62
459.698	283.62
459.918	298.62
460.138	297.62
460.358	297.62
460.578	297.62
460.798	305.62
461.018	311.62
461.238	305.62
461.458	294.62
461.678	298.62
461.898	287.62
462.118	272.62
462.338	299.62
462.558	293.62
462.777	308.62
462.997	320.62
463.217	324.62
463.437	276.62
463.657	298.62
463.876	297.62
464.096	325.62
464.316	310.62
464.536	320.62
464.755	316.62
464.975	323.62
465.195	357.62
465.414	397.62
465.634	377.62
465.854	330.62
466.073	322.62
466.293	295.62
466.512	296.62
466.732	279.62
466.951	291.62
467.171	306.62
467.391	291.62
467.61	290.62
467.829	298.62
468.049	315.62
468.268	313.62
468.488	279.62
468.707	278.62
468.927	300.62
469.146	277.62
469.365	278.62
469.585	272.62
469.804	304.62
470.023	293.62
470.243	288.62
470.462	314.62
470.681	311.62
470.901	301.62
471.12	287.62
471.339	293.62
471.558	295.62
471.777	305.62
471.997	288.62
472.216	299.62
472.435	344.62
472.654	324.62
472.873	296.62
473.092	296.62
473.311	316.62
473.53	291.62
473.749	307.62
473.968	336.62
474.187	412.62
474.406	409.62
474.625	341.62
474.844	314.62
475.063	301.62
475.282	302.62
475.501	307.62
475.72	317.62
475.939	311.62
476.158	291.62
476.377	301.62
476.596	295.62
476.814	316.62
477.033	309.62
477.252	323.62
477.471	318.62
477.69	312.62
477.908	301.62
478.127	318.62
478.346	337.62
478.564	305.62
478.783	313.62
479.002	322.62
479.22	334.62
479.439	344.62
479.658	345.62
479.876	354.62
480.095	363.62
480.313	378.62
480.532	373.62
480.751	362.62
480.969	371.62
481.188	405.62
481.406	443.62
481.624	406.62
481.843	373.62
482.061	361.62
482.28	371.62
482.498	347.62
482.717	343.62
482.935	341.62
483.153	344.62
483.372	332.62
483.59	355.62
483.808	344.62
484.027	353.62
484.245	350.62
484.463	357.62
484.681	365.62
484.9	343.62
485.118	337.62
485.336	345.62
485.554	334.62
485.772	353.62
485.99	338.62
486.209	385.62
486.427	374.62
486.645	363.62
486.863	369.62
487.081	362.62
487.299	373.62
487.517	362.62
487.735	375.62
487.953	377.62
488.171	358.62
488.389	374.62
488.607	358.62
488.825	386.62
489.043	369.62
489.261	384.62
489.479	372.62
489.696	383.62
489.914	377.62
490.132	368.62
490.35	382.62
490.568	402.62
490.786	391.62
491.003	396.62
491.221	395.62
491.439	384.62
491.657	420.62
491.874	428.62
492.092	429.62
492.31	396.62
492.527	410.62
492.745	430.62
492.963	432.62
493.18	436.62
493.398	425.62
493.615	425.62
493.833	431.62
494.05	420.62
494.268	453.62
494.485	443.62
494.703	418.62
494.92	427.62
495.138	433.62
495.355	422.62
495.573	445.62
495.79	427.62
496.008	409.62
496.225	438.62
496.442	416.62
496.66	442.62
496.877	435.62
497.094	448.62
497.312	447.62
497.529	446.62
497.746	450.62
497.963	433.62
498.181	455.62
498.398	447.62
498.615	468.62
498.832	476.62
499.049	466.62
499.267	476.62
499.484	475.62
499.701	490.62
499.918	501.62
500.135	522.62
500.352	509.62
500.569	509.62
500.786	520.62
501.003	550.62
501.22	510.62
501.437	513.62
501.654	511.62
501.871	528.62
502.088	499.62
502.305	479.62
