Data from 1982.PennyLincolnUp.Lamp.En5.5.200Scan.071819.P1_HRD10591_16-45-59-963.txt Node
Date: Thu Jul 18 16:45:59 EDT 2019
User: cochatt
Spectrometer: HR+D1059
Trigger mode: 1
Integration Time (sec): 1.000000E-1
Scans to average: 1
Electric dark correction enabled: true
Nonlinearity correction enabled: false
Boxcar width: 0
XAxis mode: Wavelengths
Number of Pixels in Spectrum: 2048
>>>>>Begin Spectral Data<<<<<
223.165	-7.25
223.4	-7.25
223.635	-7.25
223.869	-3.25
224.104	-29.25
224.338	-14.25
224.573	-10.25
224.808	-15.25
225.042	-11.25
225.277	2.75
225.511	-7.25
225.746	-5.25
225.98	6.75
226.215	3.75
226.449	20.75
226.683	24.75
226.918	27.75
227.152	16.75
227.387	34.75
227.621	42.75
227.856	47.75
228.09	36.75
228.324	58.75
228.559	67.75
228.793	64.75
229.027	95.75
229.262	96.75
229.496	92.75
229.73	99.75
229.964	124.75
230.199	110.75
230.433	115.75
230.667	107.75
230.901	105.75
231.136	88.75
231.37	100.75
231.604	115.75
231.838	107.75
232.072	83.75
232.306	97.75
232.541	90.75
232.775	102.75
233.009	99.75
233.243	95.75
233.477	107.75
233.711	99.75
233.945	100.75
234.179	107.75
234.413	103.75
234.647	115.75
234.881	95.75
235.115	104.75
235.349	106.75
235.583	104.75
235.817	102.75
236.051	103.75
236.285	114.75
236.519	107.75
236.753	108.75
236.987	103.75
237.221	146.75
237.455	178.75
237.689	155.75
237.922	115.75
238.156	108.75
238.39	114.75
238.624	107.75
238.858	105.75
239.091	110.75
239.325	97.75
239.559	110.75
239.793	111.75
240.027	125.75
240.26	122.75
240.494	125.75
240.728	131.75
240.961	111.75
241.195	117.75
241.429	107.75
241.662	108.75
241.896	111.75
242.13	108.75
242.363	128.75
242.597	105.75
242.83	117.75
243.064	104.75
243.298	118.75
243.531	124.75
243.765	117.75
243.998	131.75
244.232	117.75
244.465	127.75
244.699	120.75
244.932	122.75
245.166	110.75
245.399	141.75
245.633	114.75
245.866	126.75
246.099	128.75
246.333	130.75
246.566	124.75
246.8	132.75
247.033	127.75
247.266	126.75
247.5	141.75
247.733	134.75
247.966	134.75
248.2	152.75
248.433	139.75
248.666	156.75
248.899	139.75
249.133	153.75
249.366	169.75
249.599	152.75
249.832	137.75
250.066	148.75
250.299	160.75
250.532	150.75
250.765	159.75
250.998	183.75
251.231	170.75
251.465	170.75
251.698	167.75
251.931	168.75
252.164	156.75
252.397	162.75
252.63	161.75
252.863	138.75
253.096	176.75
253.329	184.75
253.562	194.75
253.795	181.75
254.028	176.75
254.261	175.75
254.494	173.75
254.727	209.75
254.96	199.75
255.193	201.75
255.426	193.75
255.659	167.75
255.892	186.75
256.124	178.75
256.357	176.75
256.59	180.75
256.823	173.75
257.056	163.75
257.289	156.75
257.521	168.75
257.754	171.75
257.987	172.75
258.22	164.75
258.452	167.75
258.685	155.75
258.918	154.75
259.151	156.75
259.383	151.75
259.616	176.75
259.849	168.75
260.081	175.75
260.314	185.75
260.547	191.75
260.779	206.75
261.012	184.75
261.244	189.75
261.477	183.75
261.71	183.75
261.942	190.75
262.175	184.75
262.407	188.75
262.64	183.75
262.872	183.75
263.105	194.75
263.337	150.75
263.57	168.75
263.802	187.75
264.035	171.75
264.267	156.75
264.499	173.75
264.732	150.75
264.964	168.75
265.197	171.75
265.429	178.75
265.661	152.75
265.894	168.75
266.126	182.75
266.358	161.75
266.591	150.75
266.823	163.75
267.055	182.75
267.287	189.75
267.52	192.75
267.752	182.75
267.984	191.75
268.216	191.75
268.448	202.75
268.681	186.75
268.913	174.75
269.145	199.75
269.377	205.75
269.609	207.75
269.841	207.75
270.073	214.75
270.306	244.75
270.538	246.75
270.77	234.75
271.002	219.75
271.234	233.75
271.466	221.75
271.698	242.75
271.93	250.75
272.162	233.75
272.394	236.75
272.626	233.75
272.858	231.75
273.09	213.75
273.322	207.75
273.553	217.75
273.785	214.75
274.017	200.75
274.249	214.75
274.481	207.75
274.713	194.75
274.945	196.75
275.176	218.75
275.408	212.75
275.64	216.75
275.872	211.75
276.104	204.75
276.335	202.75
276.567	207.75
276.799	218.75
277.031	235.75
277.262	233.75
277.494	232.75
277.726	238.75
277.957	210.75
278.189	212.75
278.421	218.75
278.652	211.75
278.884	220.75
279.115	202.75
279.347	204.75
279.579	215.75
279.81	202.75
280.042	219.75
280.273	204.75
280.505	190.75
280.736	204.75
280.968	199.75
281.199	199.75
281.431	200.75
281.662	211.75
281.894	217.75
282.125	220.75
282.356	221.75
282.588	222.75
282.819	238.75
283.051	218.75
283.282	216.75
283.513	219.75
283.745	205.75
283.976	209.75
284.207	219.75
284.439	216.75
284.67	215.75
284.901	211.75
285.132	205.75
285.364	204.75
285.595	211.75
285.826	215.75
286.057	202.75
286.288	214.75
286.52	212.75
286.751	212.75
286.982	208.75
287.213	208.75
287.444	212.75
287.675	206.75
287.906	224.75
288.138	233.75
288.369	239.75
288.6	221.75
288.831	218.75
289.062	222.75
289.293	225.75
289.524	220.75
289.755	236.75
289.986	211.75
290.217	213.75
290.448	202.75
290.679	214.75
290.91	211.75
291.141	222.75
291.371	213.75
291.602	214.75
291.833	219.75
292.064	205.75
292.295	210.75
292.526	220.75
292.757	220.75
292.987	210.75
293.218	212.75
293.449	211.75
293.68	229.75
293.91	222.75
294.141	217.75
294.372	212.75
294.603	220.75
294.833	232.75
295.064	211.75
295.295	218.75
295.525	205.75
295.756	219.75
295.987	223.75
296.217	230.75
296.448	240.75
296.679	229.75
296.909	220.75
297.14	212.75
297.37	216.75
297.601	216.75
297.831	223.75
298.062	208.75
298.292	209.75
298.523	212.75
298.753	230.75
298.984	221.75
299.214	218.75
299.445	239.75
299.675	264.75
299.905	238.75
300.136	237.75
300.366	236.75
300.597	242.75
300.827	250.75
301.057	242.75
301.288	231.75
301.518	249.75
301.748	238.75
301.979	235.75
302.209	240.75
302.439	246.75
302.669	238.75
302.9	245.75
303.13	250.75
303.36	246.75
303.59	256.75
303.82	238.75
304.051	234.75
304.281	218.75
304.511	242.75
304.741	237.75
304.971	244.75
305.201	231.75
305.431	242.75
305.661	235.75
305.891	234.75
306.121	255.75
306.352	255.75
306.582	246.75
306.812	247.75
307.042	253.75
307.272	255.75
307.502	247.75
307.731	272.75
307.961	249.75
308.191	258.75
308.421	266.75
308.651	236.75
308.881	264.75
309.111	250.75
309.341	262.75
309.571	282.75
309.8	264.75
310.03	253.75
310.26	280.75
310.49	268.75
310.72	282.75
310.949	321.75
311.179	286.75
311.409	279.75
311.639	290.75
311.868	285.75
312.098	270.75
312.328	281.75
312.557	290.75
312.787	297.75
313.017	295.75
313.246	296.75
313.476	280.75
313.706	267.75
313.935	281.75
314.165	287.75
314.394	302.75
314.624	296.75
314.853	282.75
315.083	281.75
315.312	267.75
315.542	290.75
315.771	270.75
316.001	268.75
316.23	277.75
316.46	252.75
316.689	266.75
316.919	286.75
317.148	292.75
317.377	292.75
317.607	283.75
317.836	287.75
318.065	280.75
318.295	287.75
318.524	266.75
318.753	283.75
318.983	277.75
319.212	283.75
319.441	286.75
319.67	287.75
319.9	282.75
320.129	293.75
320.358	298.75
320.587	300.75
320.816	302.75
321.046	307.75
321.275	309.75
321.504	306.75
321.733	286.75
321.962	322.75
322.191	324.75
322.42	339.75
322.649	332.75
322.878	344.75
323.108	354.75
323.337	382.75
323.566	392.75
323.795	419.75
324.024	441.75
324.253	583.75
324.482	825.75
324.71	1204.75
324.939	1591.75
325.168	1321.75
325.397	690.75
325.626	478.75
325.855	398.75
326.084	378.75
326.313	384.75
326.542	394.75
326.77	451.75
326.999	526.75
327.228	739.75
327.457	1028.75
327.686	1140.75
327.914	744.75
328.143	545.75
328.372	474.75
328.6	460.75
328.829	412.75
329.058	425.75
329.287	428.75
329.515	401.75
329.744	393.75
329.972	392.75
330.201	405.75
330.43	439.75
330.658	437.75
330.887	476.75
331.115	459.75
331.344	382.75
331.572	367.75
331.801	370.75
332.03	353.75
332.258	331.75
332.486	339.75
332.715	333.75
332.943	321.75
333.172	315.75
333.4	322.75
333.629	333.75
333.857	344.75
334.085	344.75
334.314	354.75
334.542	381.75
334.771	386.75
334.999	356.75
335.227	352.75
335.455	305.75
335.684	320.75
335.912	306.75
336.14	308.75
336.369	315.75
336.597	320.75
336.825	321.75
337.053	312.75
337.281	309.75
337.51	318.75
337.738	326.75
337.966	320.75
338.194	329.75
338.422	325.75
338.65	311.75
338.878	314.75
339.106	298.75
339.334	311.75
339.562	289.75
339.79	305.75
340.018	305.75
340.246	302.75
340.474	299.75
340.702	312.75
340.93	306.75
341.158	287.75
341.386	303.75
341.614	308.75
341.842	323.75
342.07	296.75
342.298	297.75
342.526	298.75
342.754	300.75
342.981	307.75
343.209	291.75
343.437	309.75
343.665	293.75
343.893	310.75
344.12	324.75
344.348	312.75
344.576	310.75
344.804	318.75
345.031	323.75
345.259	330.75
345.487	322.75
345.714	307.75
345.942	288.75
346.17	294.75
346.397	302.75
346.625	308.75
346.853	319.75
347.08	313.75
347.308	298.75
347.535	305.75
347.763	318.75
347.99	318.75
348.218	306.75
348.445	294.75
348.673	308.75
348.9	283.75
349.128	298.75
349.355	293.75
349.583	293.75
349.81	280.75
350.037	283.75
350.265	281.75
350.492	275.75
350.72	294.75
350.947	303.75
351.174	297.75
351.402	314.75
351.629	297.75
351.856	286.75
352.083	293.75
352.311	310.75
352.538	300.75
352.765	316.75
352.992	311.75
353.22	303.75
353.447	306.75
353.674	293.75
353.901	291.75
354.128	270.75
354.355	268.75
354.583	270.75
354.81	271.75
355.037	274.75
355.264	289.75
355.491	270.75
355.718	277.75
355.945	259.75
356.172	264.75
356.399	265.75
356.626	270.75
356.853	258.75
357.08	273.75
357.307	270.75
357.534	278.75
357.761	264.75
357.988	279.75
358.215	267.75
358.441	285.75
358.668	271.75
358.895	268.75
359.122	267.75
359.349	282.75
359.576	308.75
359.802	300.75
360.029	328.75
360.256	340.75
360.483	307.75
360.709	292.75
360.936	285.75
361.163	276.75
361.39	305.75
361.616	281.75
361.843	303.75
362.07	311.75
362.296	284.75
362.523	278.75
362.749	300.75
362.976	285.75
363.203	265.75
363.429	282.75
363.656	291.75
363.882	291.75
364.109	269.75
364.335	260.75
364.562	258.75
364.788	264.75
365.015	268.75
365.241	272.75
365.468	276.75
365.694	282.75
365.92	280.75
366.147	275.75
366.373	260.75
366.599	275.75
366.826	254.75
367.052	263.75
367.278	267.75
367.505	258.75
367.731	283.75
367.957	267.75
368.184	264.75
368.41	294.75
368.636	291.75
368.862	282.75
369.089	295.75
369.315	282.75
369.541	268.75
369.767	282.75
369.993	278.75
370.219	266.75
370.445	293.75
370.672	279.75
370.898	269.75
371.124	270.75
371.35	273.75
371.576	269.75
371.802	270.75
372.028	262.75
372.254	278.75
372.48	279.75
372.706	259.75
372.932	259.75
373.158	243.75
373.384	279.75
373.61	281.75
373.835	267.75
374.061	259.75
374.287	274.75
374.513	262.75
374.739	253.75
374.965	273.75
375.191	272.75
375.416	266.75
375.642	269.75
375.868	257.75
376.094	263.75
376.319	264.75
376.545	252.75
376.771	266.75
376.997	263.75
377.222	266.75
377.448	262.75
377.674	259.75
377.899	261.75
378.125	237.75
378.35	255.75
378.576	248.75
378.802	260.75
379.027	271.75
379.253	262.75
379.478	270.75
379.704	272.75
379.929	285.75
380.155	242.75
380.38	265.75
380.606	266.75
380.831	253.75
381.057	270.75
381.282	253.75
381.507	275.75
381.733	266.75
381.958	290.75
382.184	282.75
382.409	264.75
382.634	280.75
382.86	256.75
383.085	276.75
383.31	267.75
383.535	271.75
383.761	267.75
383.986	254.75
384.211	262.75
384.436	284.75
384.662	260.75
384.887	270.75
385.112	283.75
385.337	258.75
385.562	286.75
385.787	259.75
386.013	279.75
386.238	268.75
386.463	269.75
386.688	271.75
386.913	282.75
387.138	256.75
387.363	282.75
387.588	268.75
387.813	296.75
388.038	280.75
388.263	277.75
388.488	285.75
388.713	278.75
388.938	280.75
389.163	282.75
389.387	257.75
389.612	264.75
389.837	270.75
390.062	295.75
390.287	267.75
390.512	265.75
390.736	262.75
390.961	272.75
391.186	277.75
391.411	250.75
391.636	277.75
391.86	281.75
392.085	291.75
392.31	293.75
392.534	268.75
392.759	292.75
392.984	292.75
393.208	259.75
393.433	272.75
393.658	280.75
393.882	288.75
394.107	269.75
394.331	281.75
394.556	280.75
394.78	276.75
395.005	260.75
395.229	295.75
395.454	282.75
395.678	270.75
395.903	291.75
396.127	306.75
396.352	302.75
396.576	279.75
396.801	298.75
397.025	301.75
397.249	282.75
397.474	291.75
397.698	292.75
397.922	281.75
398.147	308.75
398.371	302.75
398.595	300.75
398.82	293.75
399.044	307.75
399.268	300.75
399.492	326.75
399.717	349.75
399.941	359.75
400.165	358.75
400.389	367.75
400.613	330.75
400.837	328.75
401.062	322.75
401.286	311.75
401.51	324.75
401.734	295.75
401.958	308.75
402.182	300.75
402.406	320.75
402.63	297.75
402.854	316.75
403.078	300.75
403.302	326.75
403.526	314.75
403.75	317.75
403.974	323.75
404.198	311.75
404.422	328.75
404.645	323.75
404.869	296.75
405.093	327.75
405.317	368.75
405.541	377.75
405.765	348.75
405.988	336.75
406.212	321.75
406.436	358.75
406.66	370.75
406.883	341.75
407.107	348.75
407.331	378.75
407.555	416.75
407.778	410.75
408.002	359.75
408.226	332.75
408.449	344.75
408.673	350.75
408.896	371.75
409.12	373.75
409.344	364.75
409.567	320.75
409.791	334.75
410.014	330.75
410.238	290.75
410.461	297.75
410.685	327.75
410.908	324.75
411.132	346.75
411.355	363.75
411.578	354.75
411.802	327.75
412.025	322.75
412.249	315.75
412.472	295.75
412.695	351.75
412.919	344.75
413.142	319.75
413.365	296.75
413.589	303.75
413.812	299.75
414.035	300.75
414.258	302.75
414.482	302.75
414.705	282.75
414.928	292.75
415.151	300.75
415.374	286.75
415.597	278.75
415.821	281.75
416.044	295.75
416.267	286.75
416.49	303.75
416.713	296.75
416.936	315.75
417.159	288.75
417.382	311.75
417.605	308.75
417.828	296.75
418.051	314.75
418.274	307.75
418.497	302.75
418.72	292.75
418.943	284.75
419.166	303.75
419.389	322.75
419.611	316.75
419.834	311.75
420.057	310.75
420.28	317.75
420.503	314.75
420.726	310.75
420.948	323.75
421.171	341.75
421.394	362.75
421.617	314.75
421.839	313.75
422.062	318.75
422.285	318.75
422.507	349.75
422.73	399.75
422.953	390.75
423.175	359.75
423.398	302.75
423.621	327.75
423.843	324.75
424.066	348.75
424.288	351.75
424.511	334.75
424.733	370.75
424.956	412.75
425.178	406.75
425.401	428.75
425.623	420.75
425.846	348.75
426.068	349.75
426.291	326.75
426.513	357.75
426.735	339.75
426.958	367.75
427.18	436.75
427.402	517.75
427.625	516.75
427.847	483.75
428.069	429.75
428.292	381.75
428.514	339.75
428.736	331.75
428.958	302.75
429.181	331.75
429.403	321.75
429.625	327.75
429.847	335.75
430.069	388.75
430.292	380.75
430.514	333.75
430.736	329.75
430.958	315.75
431.18	307.75
431.402	298.75
431.624	288.75
431.846	291.75
432.068	302.75
432.29	270.75
432.512	286.75
432.734	303.75
432.956	311.75
433.178	310.75
433.4	298.75
433.622	299.75
433.844	284.75
434.066	287.75
434.287	302.75
434.509	304.75
434.731	295.75
434.953	310.75
435.175	326.75
435.397	331.75
435.618	358.75
435.84	364.75
436.062	423.75
436.284	439.75
436.505	392.75
436.727	350.75
436.949	324.75
437.17	318.75
437.392	313.75
437.614	327.75
437.835	341.75
438.057	409.75
438.278	474.75
438.5	469.75
438.721	496.75
438.943	478.75
439.165	370.75
439.386	361.75
439.608	360.75
439.829	370.75
440.05	386.75
440.272	401.75
440.493	366.75
440.715	340.75
440.936	316.75
441.158	312.75
441.379	313.75
441.6	331.75
441.822	314.75
442.043	375.75
442.264	415.75
442.486	418.75
442.707	406.75
442.928	351.75
443.149	345.75
443.371	359.75
443.592	398.75
443.813	442.75
444.034	478.75
444.255	393.75
444.476	347.75
444.698	333.75
444.919	331.75
445.14	398.75
445.361	394.75
445.582	373.75
445.803	415.75
446.024	467.75
446.245	492.75
446.466	448.75
446.687	379.75
446.908	342.75
447.129	344.75
447.35	333.75
447.571	318.75
447.792	317.75
448.013	330.75
448.234	327.75
448.455	389.75
448.675	416.75
448.896	474.75
449.117	414.75
449.338	405.75
449.559	461.75
449.779	524.75
450	428.75
450.221	344.75
450.442	331.75
450.662	352.75
450.883	336.75
451.104	322.75
451.324	308.75
451.545	315.75
451.766	310.75
451.986	300.75
452.207	286.75
452.428	289.75
452.648	279.75
452.869	287.75
453.089	274.75
453.31	289.75
453.53	304.75
453.751	291.75
453.971	294.75
454.192	306.75
454.412	301.75
454.633	298.75
454.853	279.75
455.073	279.75
455.294	309.75
455.514	333.75
455.734	327.75
455.955	281.75
456.175	280.75
456.395	273.75
456.616	258.75
456.836	274.75
457.056	264.75
457.276	256.75
457.497	262.75
457.717	253.75
457.937	263.75
458.157	280.75
458.377	281.75
458.598	312.75
458.818	339.75
459.038	375.75
459.258	387.75
459.478	336.75
459.698	310.75
459.918	295.75
460.138	288.75
460.358	289.75
460.578	296.75
460.798	302.75
461.018	294.75
461.238	280.75
461.458	305.75
461.678	289.75
461.898	286.75
462.118	298.75
462.338	298.75
462.558	302.75
462.777	298.75
462.997	299.75
463.217	317.75
463.437	323.75
463.657	322.75
463.876	288.75
464.096	325.75
464.316	293.75
464.536	313.75
464.755	296.75
464.975	302.75
465.195	339.75
465.414	384.75
465.634	353.75
465.854	322.75
466.073	300.75
466.293	288.75
466.512	315.75
466.732	292.75
466.951	276.75
467.171	295.75
467.391	284.75
467.61	310.75
467.829	294.75
468.049	289.75
468.268	275.75
468.488	278.75
468.707	267.75
468.927	276.75
469.146	266.75
469.365	286.75
469.585	290.75
469.804	279.75
470.023	285.75
470.243	280.75
470.462	314.75
470.681	320.75
470.901	315.75
471.12	279.75
471.339	316.75
471.558	314.75
471.777	309.75
471.997	301.75
472.216	278.75
472.435	309.75
472.654	310.75
472.873	282.75
473.092	276.75
473.311	291.75
473.53	291.75
473.749	296.75
473.968	333.75
474.187	388.75
474.406	404.75
474.625	339.75
474.844	292.75
475.063	290.75
475.282	305.75
475.501	313.75
475.72	298.75
475.939	290.75
476.158	293.75
476.377	317.75
476.596	325.75
476.814	320.75
477.033	308.75
477.252	307.75
477.471	301.75
477.69	298.75
477.908	323.75
478.127	308.75
478.346	319.75
478.564	320.75
478.783	338.75
479.002	324.75
479.22	329.75
479.439	322.75
479.658	327.75
479.876	341.75
480.095	352.75
480.313	370.75
480.532	350.75
480.751	328.75
480.969	359.75
481.188	399.75
481.406	404.75
481.624	347.75
481.843	356.75
482.061	351.75
482.28	350.75
482.498	342.75
482.717	356.75
482.935	346.75
483.153	347.75
483.372	322.75
483.59	326.75
483.808	340.75
484.027	340.75
484.245	330.75
484.463	340.75
484.681	336.75
484.9	325.75
485.118	341.75
485.336	343.75
485.554	355.75
485.772	331.75
485.99	335.75
486.209	356.75
486.427	346.75
486.645	356.75
486.863	372.75
487.081	384.75
487.299	349.75
487.517	358.75
487.735	366.75
487.953	354.75
488.171	377.75
488.389	366.75
488.607	342.75
488.825	367.75
489.043	358.75
489.261	370.75
489.479	338.75
489.696	361.75
489.914	353.75
490.132	351.75
490.35	381.75
490.568	376.75
490.786	377.75
491.003	383.75
491.221	391.75
491.439	380.75
491.657	393.75
491.874	414.75
492.092	408.75
492.31	415.75
492.527	414.75
492.745	421.75
492.963	422.75
493.18	419.75
493.398	412.75
493.615	428.75
493.833	424.75
494.05	432.75
494.268	436.75
494.485	410.75
494.703	417.75
494.92	413.75
495.138	412.75
495.355	404.75
495.573	420.75
495.79	431.75
496.008	403.75
496.225	420.75
496.442	418.75
496.66	412.75
496.877	425.75
497.094	418.75
497.312	429.75
497.529	453.75
497.746	444.75
497.963	450.75
498.181	458.75
498.398	444.75
498.615	460.75
498.832	472.75
499.049	458.75
499.267	479.75
499.484	466.75
499.701	501.75
499.918	515.75
500.135	501.75
500.352	516.75
500.569	526.75
500.786	523.75
501.003	515.75
501.22	531.75
501.437	504.75
501.654	522.75
501.871	490.75
502.088	495.75
