Data from 1982.PennyLincolnUp.Lamp.En5.5.200Scan.071819.P1_HRD10591_16-45-42-962.txt Node
Date: Thu Jul 18 16:45:42 EDT 2019
User: cochatt
Spectrometer: HR+D1059
Trigger mode: 1
Integration Time (sec): 1.000000E-1
Scans to average: 1
Electric dark correction enabled: true
Nonlinearity correction enabled: false
Boxcar width: 0
XAxis mode: Wavelengths
Number of Pixels in Spectrum: 2048
>>>>>Begin Spectral Data<<<<<
223.165	-14.06
223.4	-14.06
223.635	-14.06
223.869	-23.06
224.104	-16.06
224.338	-1.06
224.573	-10.06
224.808	-13.06
225.042	-10.06
225.277	-10.06
225.511	4.94
225.746	-3.06
225.98	3.94
226.215	18.94
226.449	10.94
226.683	0.94
226.918	28.94
227.152	31.94
227.387	19.94
227.621	25.94
227.856	42.94
228.09	53.94
228.324	47.94
228.559	52.94
228.793	70.94
229.027	100.94
229.262	95.94
229.496	91.94
229.73	109.94
229.964	110.94
230.199	110.94
230.433	107.94
230.667	115.94
230.901	104.94
231.136	81.94
231.37	105.94
231.604	112.94
231.838	104.94
232.072	96.94
232.306	105.94
232.541	103.94
232.775	122.94
233.009	114.94
233.243	107.94
233.477	111.94
233.711	115.94
233.945	108.94
234.179	103.94
234.413	112.94
234.647	99.94
234.881	119.94
235.115	105.94
235.349	111.94
235.583	116.94
235.817	105.94
236.051	103.94
236.285	101.94
236.519	102.94
236.753	109.94
236.987	132.94
237.221	146.94
237.455	169.94
237.689	133.94
237.922	116.94
238.156	116.94
238.39	118.94
238.624	116.94
238.858	111.94
239.091	110.94
239.325	108.94
239.559	93.94
239.793	128.94
240.027	113.94
240.26	112.94
240.494	125.94
240.728	118.94
240.961	126.94
241.195	138.94
241.429	125.94
241.662	125.94
241.896	105.94
242.13	116.94
242.363	116.94
242.597	114.94
242.83	116.94
243.064	117.94
243.298	122.94
243.531	123.94
243.765	124.94
243.998	119.94
244.232	126.94
244.465	132.94
244.699	120.94
244.932	122.94
245.166	126.94
245.399	128.94
245.633	125.94
245.866	116.94
246.099	124.94
246.333	130.94
246.566	120.94
246.8	129.94
247.033	130.94
247.266	118.94
247.5	147.94
247.733	132.94
247.966	136.94
248.2	143.94
248.433	133.94
248.666	157.94
248.899	154.94
249.133	154.94
249.366	160.94
249.599	154.94
249.832	143.94
250.066	156.94
250.299	158.94
250.532	160.94
250.765	154.94
250.998	170.94
251.231	177.94
251.465	172.94
251.698	160.94
251.931	154.94
252.164	151.94
252.397	164.94
252.63	169.94
252.863	178.94
253.096	164.94
253.329	155.94
253.562	177.94
253.795	172.94
254.028	168.94
254.261	184.94
254.494	206.94
254.727	193.94
254.96	220.94
255.193	210.94
255.426	212.94
255.659	164.94
255.892	197.94
256.124	180.94
256.357	169.94
256.59	177.94
256.823	165.94
257.056	156.94
257.289	169.94
257.521	172.94
257.754	170.94
257.987	172.94
258.22	175.94
258.452	154.94
258.685	163.94
258.918	161.94
259.151	175.94
259.383	176.94
259.616	160.94
259.849	168.94
260.081	184.94
260.314	189.94
260.547	223.94
260.779	191.94
261.012	198.94
261.244	188.94
261.477	177.94
261.71	165.94
261.942	162.94
262.175	175.94
262.407	192.94
262.64	164.94
262.872	180.94
263.105	161.94
263.337	178.94
263.57	177.94
263.802	178.94
264.035	165.94
264.267	165.94
264.499	172.94
264.732	156.94
264.964	173.94
265.197	160.94
265.429	173.94
265.661	172.94
265.894	162.94
266.126	171.94
266.358	156.94
266.591	175.94
266.823	166.94
267.055	173.94
267.287	180.94
267.52	170.94
267.752	180.94
267.984	190.94
268.216	193.94
268.448	186.94
268.681	219.94
268.913	204.94
269.145	201.94
269.377	193.94
269.609	202.94
269.841	208.94
270.073	203.94
270.306	218.94
270.538	218.94
270.77	239.94
271.002	223.94
271.234	232.94
271.466	244.94
271.698	247.94
271.93	221.94
272.162	241.94
272.394	252.94
272.626	231.94
272.858	229.94
273.09	200.94
273.322	209.94
273.553	193.94
273.785	214.94
274.017	213.94
274.249	214.94
274.481	198.94
274.713	194.94
274.945	217.94
275.176	201.94
275.408	199.94
275.64	203.94
275.872	194.94
276.104	215.94
276.335	210.94
276.567	220.94
276.799	223.94
277.031	248.94
277.262	237.94
277.494	242.94
277.726	225.94
277.957	223.94
278.189	218.94
278.421	210.94
278.652	199.94
278.884	224.94
279.115	208.94
279.347	194.94
279.579	209.94
279.81	200.94
280.042	191.94
280.273	191.94
280.505	213.94
280.736	203.94
280.968	206.94
281.199	192.94
281.431	204.94
281.662	200.94
281.894	189.94
282.125	211.94
282.356	229.94
282.588	229.94
282.819	226.94
283.051	223.94
283.282	216.94
283.513	210.94
283.745	212.94
283.976	212.94
284.207	214.94
284.439	227.94
284.67	216.94
284.901	217.94
285.132	204.94
285.364	207.94
285.595	214.94
285.826	201.94
286.057	218.94
286.288	212.94
286.52	213.94
286.751	210.94
286.982	218.94
287.213	229.94
287.444	204.94
287.675	214.94
287.906	226.94
288.138	234.94
288.369	237.94
288.6	221.94
288.831	221.94
289.062	204.94
289.293	221.94
289.524	219.94
289.755	228.94
289.986	231.94
290.217	226.94
290.448	199.94
290.679	235.94
290.91	219.94
291.141	219.94
291.371	213.94
291.602	214.94
291.833	206.94
292.064	218.94
292.295	208.94
292.526	218.94
292.757	215.94
292.987	207.94
293.218	221.94
293.449	225.94
293.68	202.94
293.91	204.94
294.141	210.94
294.372	212.94
294.603	222.94
294.833	233.94
295.064	225.94
295.295	232.94
295.525	226.94
295.756	223.94
295.987	224.94
296.217	260.94
296.448	265.94
296.679	242.94
296.909	232.94
297.14	236.94
297.37	236.94
297.601	220.94
297.831	233.94
298.062	218.94
298.292	214.94
298.523	221.94
298.753	248.94
298.984	213.94
299.214	244.94
299.445	240.94
299.675	227.94
299.905	214.94
300.136	230.94
300.366	222.94
300.597	261.94
300.827	232.94
301.057	239.94
301.288	240.94
301.518	227.94
301.748	239.94
301.979	250.94
302.209	250.94
302.439	230.94
302.669	240.94
302.9	237.94
303.13	232.94
303.36	249.94
303.59	238.94
303.82	238.94
304.051	244.94
304.281	246.94
304.511	239.94
304.741	248.94
304.971	239.94
305.201	256.94
305.431	231.94
305.661	246.94
305.891	257.94
306.121	237.94
306.352	264.94
306.582	233.94
306.812	248.94
307.042	264.94
307.272	248.94
307.502	233.94
307.731	268.94
307.961	260.94
308.191	255.94
308.421	260.94
308.651	268.94
308.881	245.94
309.111	262.94
309.341	242.94
309.571	248.94
309.8	271.94
310.03	269.94
310.26	284.94
310.49	275.94
310.72	296.94
310.949	292.94
311.179	287.94
311.409	280.94
311.639	281.94
311.868	266.94
312.098	268.94
312.328	292.94
312.557	293.94
312.787	302.94
313.017	303.94
313.246	295.94
313.476	290.94
313.706	278.94
313.935	285.94
314.165	295.94
314.394	285.94
314.624	304.94
314.853	288.94
315.083	275.94
315.312	287.94
315.542	266.94
315.771	270.94
316.001	275.94
316.23	274.94
316.46	284.94
316.689	304.94
316.919	285.94
317.148	299.94
317.377	286.94
317.607	275.94
317.836	293.94
318.065	285.94
318.295	285.94
318.524	291.94
318.753	275.94
318.983	285.94
319.212	290.94
319.441	289.94
319.67	292.94
319.9	284.94
320.129	290.94
320.358	288.94
320.587	296.94
320.816	280.94
321.046	308.94
321.275	296.94
321.504	312.94
321.733	302.94
321.962	292.94
322.191	320.94
322.42	343.94
322.649	328.94
322.878	336.94
323.108	359.94
323.337	359.94
323.566	385.94
323.795	423.94
324.024	459.94
324.253	564.94
324.482	824.94
324.71	1208.94
324.939	1579.94
325.168	1300.94
325.397	689.94
325.626	487.94
325.855	407.94
326.084	383.94
326.313	384.94
326.542	387.94
326.77	430.94
326.999	530.94
327.228	737.94
327.457	1028.94
327.686	1146.94
327.914	778.94
328.143	534.94
328.372	459.94
328.6	433.94
328.829	410.94
329.058	423.94
329.287	418.94
329.515	383.94
329.744	346.94
329.972	402.94
330.201	400.94
330.43	401.94
330.658	430.94
330.887	454.94
331.115	428.94
331.344	383.94
331.572	358.94
331.801	354.94
332.03	337.94
332.258	350.94
332.486	323.94
332.715	328.94
332.943	347.94
333.172	348.94
333.4	332.94
333.629	336.94
333.857	351.94
334.085	348.94
334.314	370.94
334.542	355.94
334.771	374.94
334.999	352.94
335.227	336.94
335.455	329.94
335.684	322.94
335.912	319.94
336.14	309.94
336.369	296.94
336.597	310.94
336.825	327.94
337.053	322.94
337.281	312.94
337.51	303.94
337.738	343.94
337.966	320.94
338.194	328.94
338.422	316.94
338.65	297.94
338.878	330.94
339.106	311.94
339.334	311.94
339.562	311.94
339.79	314.94
340.018	308.94
340.246	314.94
340.474	326.94
340.702	313.94
340.93	312.94
341.158	313.94
341.386	326.94
341.614	305.94
341.842	310.94
342.07	312.94
342.298	305.94
342.526	316.94
342.754	290.94
342.981	289.94
343.209	308.94
343.437	304.94
343.665	298.94
343.893	309.94
344.12	316.94
344.348	311.94
344.576	305.94
344.804	317.94
345.031	328.94
345.259	311.94
345.487	305.94
345.714	293.94
345.942	296.94
346.17	316.94
346.397	293.94
346.625	317.94
346.853	313.94
347.08	302.94
347.308	287.94
347.535	316.94
347.763	299.94
347.99	308.94
348.218	316.94
348.445	320.94
348.673	301.94
348.9	305.94
349.128	314.94
349.355	308.94
349.583	288.94
349.81	278.94
350.037	281.94
350.265	279.94
350.492	294.94
350.72	276.94
350.947	300.94
351.174	318.94
351.402	312.94
351.629	314.94
351.856	294.94
352.083	316.94
352.311	298.94
352.538	324.94
352.765	314.94
352.992	298.94
353.22	297.94
353.447	284.94
353.674	274.94
353.901	268.94
354.128	274.94
354.355	269.94
354.583	275.94
354.81	264.94
355.037	261.94
355.264	283.94
355.491	270.94
355.718	276.94
355.945	256.94
356.172	268.94
356.399	266.94
356.626	276.94
356.853	255.94
357.08	270.94
357.307	273.94
357.534	264.94
357.761	288.94
357.988	271.94
358.215	274.94
358.441	282.94
358.668	268.94
358.895	292.94
359.122	270.94
359.349	274.94
359.576	294.94
359.802	308.94
360.029	342.94
360.256	318.94
360.483	297.94
360.709	282.94
360.936	300.94
361.163	295.94
361.39	270.94
361.616	305.94
361.843	305.94
362.07	290.94
362.296	322.94
362.523	288.94
362.749	278.94
362.976	283.94
363.203	272.94
363.429	274.94
363.656	286.94
363.882	275.94
364.109	284.94
364.335	286.94
364.562	280.94
364.788	269.94
365.015	275.94
365.241	275.94
365.468	293.94
365.694	275.94
365.92	293.94
366.147	270.94
366.373	293.94
366.599	283.94
366.826	266.94
367.052	284.94
367.278	258.94
367.505	266.94
367.731	276.94
367.957	281.94
368.184	274.94
368.41	293.94
368.636	299.94
368.862	298.94
369.089	254.94
369.315	283.94
369.541	282.94
369.767	276.94
369.993	285.94
370.219	269.94
370.445	261.94
370.672	280.94
370.898	272.94
371.124	269.94
371.35	285.94
371.576	281.94
371.802	268.94
372.028	278.94
372.254	252.94
372.48	279.94
372.706	277.94
372.932	269.94
373.158	266.94
373.384	279.94
373.61	280.94
373.835	268.94
374.061	278.94
374.287	270.94
374.513	273.94
374.739	255.94
374.965	269.94
375.191	277.94
375.416	278.94
375.642	270.94
375.868	287.94
376.094	284.94
376.319	260.94
376.545	284.94
376.771	269.94
376.997	266.94
377.222	252.94
377.448	260.94
377.674	268.94
377.899	261.94
378.125	253.94
378.35	276.94
378.576	275.94
378.802	268.94
379.027	268.94
379.253	267.94
379.478	271.94
379.704	274.94
379.929	276.94
380.155	280.94
380.38	260.94
380.606	281.94
380.831	267.94
381.057	266.94
381.282	276.94
381.507	276.94
381.733	280.94
381.958	273.94
382.184	278.94
382.409	272.94
382.634	265.94
382.86	266.94
383.085	288.94
383.31	266.94
383.535	272.94
383.761	267.94
383.986	269.94
384.211	254.94
384.436	275.94
384.662	260.94
384.887	287.94
385.112	277.94
385.337	290.94
385.562	268.94
385.787	278.94
386.013	282.94
386.238	273.94
386.463	286.94
386.688	280.94
386.913	279.94
387.138	290.94
387.363	280.94
387.588	282.94
387.813	276.94
388.038	265.94
388.263	285.94
388.488	267.94
388.713	304.94
388.938	279.94
389.163	275.94
389.387	291.94
389.612	272.94
389.837	284.94
390.062	264.94
390.287	272.94
390.512	295.94
390.736	284.94
390.961	286.94
391.186	271.94
391.411	280.94
391.636	268.94
391.86	279.94
392.085	293.94
392.31	288.94
392.534	277.94
392.759	278.94
392.984	291.94
393.208	284.94
393.433	311.94
393.658	274.94
393.882	276.94
394.107	282.94
394.331	268.94
394.556	278.94
394.78	266.94
395.005	272.94
395.229	278.94
395.454	277.94
395.678	286.94
395.903	275.94
396.127	288.94
396.352	308.94
396.576	298.94
396.801	288.94
397.025	275.94
397.249	288.94
397.474	297.94
397.698	306.94
397.922	313.94
398.147	304.94
398.371	305.94
398.595	307.94
398.82	316.94
399.044	311.94
399.268	301.94
399.492	329.94
399.717	345.94
399.941	347.94
400.165	353.94
400.389	376.94
400.613	350.94
400.837	340.94
401.062	325.94
401.286	325.94
401.51	311.94
401.734	319.94
401.958	306.94
402.182	332.94
402.406	295.94
402.63	322.94
402.854	302.94
403.078	311.94
403.302	324.94
403.526	327.94
403.75	315.94
403.974	312.94
404.198	309.94
404.422	321.94
404.645	344.94
404.869	332.94
405.093	353.94
405.317	365.94
405.541	380.94
405.765	352.94
405.988	326.94
406.212	335.94
406.436	359.94
406.66	346.94
406.883	343.94
407.107	330.94
407.331	387.94
407.555	427.94
407.778	402.94
408.002	355.94
408.226	362.94
408.449	336.94
408.673	356.94
408.896	364.94
409.12	378.94
409.344	364.94
409.567	333.94
409.791	321.94
410.014	346.94
410.238	312.94
410.461	289.94
410.685	311.94
410.908	325.94
411.132	351.94
411.355	376.94
411.578	356.94
411.802	314.94
412.025	308.94
412.249	325.94
412.472	341.94
412.695	332.94
412.919	338.94
413.142	321.94
413.365	293.94
413.589	296.94
413.812	314.94
414.035	301.94
414.258	300.94
414.482	309.94
414.705	290.94
414.928	279.94
415.151	302.94
415.374	292.94
415.597	297.94
415.821	310.94
416.044	300.94
416.267	293.94
416.49	301.94
416.713	303.94
416.936	296.94
417.159	302.94
417.382	296.94
417.605	299.94
417.828	293.94
418.051	329.94
418.274	312.94
418.497	293.94
418.72	324.94
418.943	292.94
419.166	299.94
419.389	317.94
419.611	309.94
419.834	300.94
420.057	309.94
420.28	313.94
420.503	328.94
420.726	311.94
420.948	332.94
421.171	343.94
421.394	359.94
421.617	340.94
421.839	320.94
422.062	304.94
422.285	319.94
422.507	362.94
422.73	378.94
422.953	372.94
423.175	334.94
423.398	319.94
423.621	330.94
423.843	330.94
424.066	323.94
424.288	346.94
424.511	372.94
424.733	378.94
424.956	430.94
425.178	410.94
425.401	417.94
425.623	410.94
425.846	367.94
426.068	358.94
426.291	327.94
426.513	352.94
426.735	357.94
426.958	383.94
427.18	402.94
427.402	473.94
427.625	556.94
427.847	482.94
428.069	406.94
428.292	374.94
428.514	335.94
428.736	323.94
428.958	343.94
429.181	334.94
429.403	314.94
429.625	330.94
429.847	344.94
430.069	397.94
430.292	368.94
430.514	334.94
430.736	313.94
430.958	306.94
431.18	305.94
431.402	316.94
431.624	291.94
431.846	294.94
432.068	287.94
432.29	296.94
432.512	298.94
432.734	298.94
432.956	328.94
433.178	333.94
433.4	309.94
433.622	317.94
433.844	290.94
434.066	296.94
434.287	308.94
434.509	296.94
434.731	312.94
434.953	312.94
435.175	310.94
435.397	340.94
435.618	351.94
435.84	376.94
436.062	429.94
436.284	466.94
436.505	382.94
436.727	353.94
436.949	331.94
437.17	332.94
437.392	323.94
437.614	359.94
437.835	359.94
438.057	408.94
438.278	458.94
438.5	456.94
438.721	476.94
438.943	475.94
439.165	381.94
439.386	352.94
439.608	342.94
439.829	330.94
440.05	373.94
440.272	409.94
440.493	372.94
440.715	321.94
440.936	316.94
441.158	332.94
441.379	331.94
441.6	321.94
441.822	337.94
442.043	366.94
442.264	415.94
442.486	417.94
442.707	405.94
442.928	351.94
443.149	364.94
443.371	364.94
443.592	407.94
443.813	446.94
444.034	482.94
444.255	383.94
444.476	353.94
444.698	336.94
444.919	315.94
445.14	429.94
445.361	396.94
445.582	363.94
445.803	415.94
446.024	471.94
446.245	476.94
446.466	430.94
446.687	376.94
446.908	353.94
447.129	324.94
447.35	326.94
447.571	324.94
447.792	320.94
448.013	329.94
448.234	327.94
448.455	381.94
448.675	440.94
448.896	500.94
449.117	420.94
449.338	412.94
449.559	482.94
449.779	504.94
450	403.94
450.221	352.94
450.442	324.94
450.662	337.94
450.883	338.94
451.104	334.94
451.324	319.94
451.545	294.94
451.766	292.94
451.986	298.94
452.207	294.94
452.428	274.94
452.648	302.94
452.869	285.94
453.089	307.94
453.31	317.94
453.53	301.94
453.751	290.94
453.971	303.94
454.192	308.94
454.412	285.94
454.633	289.94
454.853	297.94
455.073	296.94
455.294	298.94
455.514	341.94
455.734	334.94
455.955	289.94
456.175	285.94
456.395	291.94
456.616	261.94
456.836	266.94
457.056	267.94
457.276	268.94
457.497	266.94
457.717	286.94
457.937	285.94
458.157	285.94
458.377	290.94
458.598	297.94
458.818	347.94
459.038	388.94
459.258	367.94
459.478	310.94
459.698	315.94
459.918	306.94
460.138	290.94
460.358	290.94
460.578	305.94
460.798	289.94
461.018	302.94
461.238	303.94
461.458	298.94
461.678	292.94
461.898	304.94
462.118	304.94
462.338	311.94
462.558	300.94
462.777	290.94
462.997	306.94
463.217	312.94
463.437	325.94
463.657	303.94
463.876	316.94
464.096	318.94
464.316	324.94
464.536	315.94
464.755	337.94
464.975	334.94
465.195	351.94
465.414	408.94
465.634	359.94
465.854	305.94
466.073	318.94
466.293	292.94
466.512	308.94
466.732	293.94
466.951	272.94
467.171	300.94
467.391	289.94
467.61	313.94
467.829	300.94
468.049	305.94
468.268	297.94
468.488	288.94
468.707	285.94
468.927	295.94
469.146	282.94
469.365	308.94
469.585	289.94
469.804	291.94
470.023	321.94
470.243	318.94
470.462	321.94
470.681	308.94
470.901	301.94
471.12	299.94
471.339	300.94
471.558	275.94
471.777	288.94
471.997	289.94
472.216	294.94
472.435	328.94
472.654	314.94
472.873	300.94
473.092	292.94
473.311	291.94
473.53	296.94
473.749	306.94
473.968	339.94
474.187	389.94
474.406	410.94
474.625	351.94
474.844	315.94
475.063	297.94
475.282	309.94
475.501	291.94
475.72	313.94
475.939	310.94
476.158	300.94
476.377	312.94
476.596	303.94
476.814	292.94
477.033	295.94
477.252	311.94
477.471	320.94
477.69	304.94
477.908	304.94
478.127	318.94
478.346	311.94
478.564	330.94
478.783	302.94
479.002	310.94
479.22	332.94
479.439	338.94
479.658	362.94
479.876	352.94
480.095	332.94
480.313	336.94
480.532	348.94
480.751	353.94
480.969	350.94
481.188	390.94
481.406	398.94
481.624	372.94
481.843	365.94
482.061	349.94
482.28	335.94
482.498	344.94
482.717	318.94
482.935	333.94
483.153	337.94
483.372	326.94
483.59	351.94
483.808	348.94
484.027	329.94
484.245	350.94
484.463	344.94
484.681	339.94
484.9	334.94
485.118	358.94
485.336	349.94
485.554	347.94
485.772	353.94
485.99	343.94
486.209	349.94
486.427	364.94
486.645	354.94
486.863	389.94
487.081	364.94
487.299	348.94
487.517	351.94
487.735	358.94
487.953	363.94
488.171	376.94
488.389	354.94
488.607	347.94
488.825	365.94
489.043	343.94
489.261	360.94
489.479	377.94
489.696	357.94
489.914	361.94
490.132	356.94
490.35	377.94
490.568	381.94
490.786	394.94
491.003	388.94
491.221	395.94
491.439	416.94
491.657	411.94
491.874	399.94
492.092	408.94
492.31	392.94
492.527	412.94
492.745	416.94
492.963	425.94
493.18	413.94
493.398	412.94
493.615	420.94
493.833	431.94
494.05	397.94
494.268	433.94
494.485	428.94
494.703	438.94
494.92	406.94
495.138	400.94
495.355	414.94
495.573	418.94
495.79	426.94
496.008	422.94
496.225	416.94
496.442	415.94
496.66	432.94
496.877	422.94
497.094	429.94
497.312	413.94
497.529	423.94
497.746	426.94
497.963	433.94
498.181	475.94
498.398	457.94
498.615	454.94
498.832	464.94
499.049	463.94
499.267	498.94
499.484	494.94
499.701	501.94
499.918	504.94
500.135	526.94
500.352	514.94
500.569	519.94
500.786	524.94
501.003	509.94
501.22	518.94
501.437	483.94
501.654	496.94
501.871	497.94
502.088	504.94
