Data from 1982.PennyLincolnUp.Lamp.En5.5.200Scan.071819.P1_HRD10591_16-47-51-961.txt Node
Date: Thu Jul 18 16:47:51 EDT 2019
User: cochatt
Spectrometer: HR+D1059
Trigger mode: 1
Integration Time (sec): 1.000000E-1
Scans to average: 1
Electric dark correction enabled: true
Nonlinearity correction enabled: false
Boxcar width: 0
XAxis mode: Wavelengths
Number of Pixels in Spectrum: 2048
>>>>>Begin Spectral Data<<<<<
223.165	-14.06
223.4	-14.06
223.635	-14.06
223.869	-20.06
224.104	-24.06
224.338	-17.06
224.573	-21.06
224.808	-16.06
225.042	-13.06
225.277	-15.06
225.511	6.94
225.746	0.94
225.98	7.94
226.215	16.94
226.449	16.94
226.683	11.94
226.918	41.94
227.152	36.94
227.387	18.94
227.621	35.94
227.856	38.94
228.09	47.94
228.324	23.94
228.559	65.94
228.793	75.94
229.027	77.94
229.262	98.94
229.496	106.94
229.73	100.94
229.964	140.94
230.199	102.94
230.433	92.94
230.667	102.94
230.901	100.94
231.136	87.94
231.37	101.94
231.604	95.94
231.838	102.94
232.072	91.94
232.306	77.94
232.541	111.94
232.775	94.94
233.009	93.94
233.243	93.94
233.477	107.94
233.711	114.94
233.945	116.94
234.179	101.94
234.413	97.94
234.647	99.94
234.881	92.94
235.115	112.94
235.349	105.94
235.583	104.94
235.817	118.94
236.051	111.94
236.285	128.94
236.519	112.94
236.753	132.94
236.987	132.94
237.221	154.94
237.455	184.94
237.689	153.94
237.922	132.94
238.156	131.94
238.39	94.94
238.624	108.94
238.858	110.94
239.091	118.94
239.325	116.94
239.559	119.94
239.793	110.94
240.027	110.94
240.26	125.94
240.494	117.94
240.728	134.94
240.961	132.94
241.195	130.94
241.429	118.94
241.662	110.94
241.896	100.94
242.13	114.94
242.363	117.94
242.597	123.94
242.83	110.94
243.064	119.94
243.298	122.94
243.531	108.94
243.765	128.94
243.998	124.94
244.232	122.94
244.465	119.94
244.699	129.94
244.932	121.94
245.166	120.94
245.399	132.94
245.633	120.94
245.866	120.94
246.099	121.94
246.333	139.94
246.566	122.94
246.8	124.94
247.033	130.94
247.266	115.94
247.5	145.94
247.733	158.94
247.966	137.94
248.2	144.94
248.433	146.94
248.666	140.94
248.899	155.94
249.133	159.94
249.366	174.94
249.599	154.94
249.832	158.94
250.066	150.94
250.299	157.94
250.532	171.94
250.765	163.94
250.998	190.94
251.231	165.94
251.465	166.94
251.698	158.94
251.931	150.94
252.164	160.94
252.397	159.94
252.63	168.94
252.863	168.94
253.096	172.94
253.329	184.94
253.562	182.94
253.795	182.94
254.028	172.94
254.261	190.94
254.494	190.94
254.727	219.94
254.96	227.94
255.193	211.94
255.426	207.94
255.659	203.94
255.892	216.94
256.124	180.94
256.357	179.94
256.59	180.94
256.823	178.94
257.056	172.94
257.289	181.94
257.521	182.94
257.754	178.94
257.987	159.94
258.22	185.94
258.452	193.94
258.685	167.94
258.918	176.94
259.151	178.94
259.383	174.94
259.616	190.94
259.849	201.94
260.081	195.94
260.314	207.94
260.547	209.94
260.779	205.94
261.012	190.94
261.244	190.94
261.477	178.94
261.71	195.94
261.942	190.94
262.175	196.94
262.407	167.94
262.64	176.94
262.872	175.94
263.105	162.94
263.337	181.94
263.57	191.94
263.802	164.94
264.035	187.94
264.267	180.94
264.499	166.94
264.732	167.94
264.964	187.94
265.197	176.94
265.429	172.94
265.661	172.94
265.894	186.94
266.126	182.94
266.358	185.94
266.591	185.94
266.823	180.94
267.055	176.94
267.287	200.94
267.52	182.94
267.752	182.94
267.984	179.94
268.216	186.94
268.448	187.94
268.681	187.94
268.913	214.94
269.145	215.94
269.377	225.94
269.609	235.94
269.841	212.94
270.073	223.94
270.306	238.94
270.538	264.94
270.77	256.94
271.002	239.94
271.234	242.94
271.466	251.94
271.698	267.94
271.93	265.94
272.162	251.94
272.394	261.94
272.626	248.94
272.858	238.94
273.09	223.94
273.322	229.94
273.553	214.94
273.785	220.94
274.017	208.94
274.249	203.94
274.481	215.94
274.713	227.94
274.945	224.94
275.176	226.94
275.408	223.94
275.64	229.94
275.872	218.94
276.104	226.94
276.335	220.94
276.567	219.94
276.799	235.94
277.031	259.94
277.262	262.94
277.494	254.94
277.726	260.94
277.957	235.94
278.189	225.94
278.421	211.94
278.652	216.94
278.884	229.94
279.115	229.94
279.347	219.94
279.579	228.94
279.81	206.94
280.042	212.94
280.273	223.94
280.505	196.94
280.736	197.94
280.968	211.94
281.199	230.94
281.431	204.94
281.662	224.94
281.894	202.94
282.125	225.94
282.356	226.94
282.588	230.94
282.819	263.94
283.051	225.94
283.282	222.94
283.513	208.94
283.745	218.94
283.976	213.94
284.207	202.94
284.439	203.94
284.67	225.94
284.901	217.94
285.132	225.94
285.364	196.94
285.595	220.94
285.826	201.94
286.057	235.94
286.288	211.94
286.52	212.94
286.751	216.94
286.982	234.94
287.213	213.94
287.444	220.94
287.675	228.94
287.906	231.94
288.138	245.94
288.369	243.94
288.6	235.94
288.831	230.94
289.062	239.94
289.293	230.94
289.524	223.94
289.755	217.94
289.986	234.94
290.217	227.94
290.448	251.94
290.679	218.94
290.91	232.94
291.141	233.94
291.371	230.94
291.602	233.94
291.833	224.94
292.064	233.94
292.295	250.94
292.526	226.94
292.757	232.94
292.987	230.94
293.218	218.94
293.449	225.94
293.68	230.94
293.91	232.94
294.141	220.94
294.372	212.94
294.603	227.94
294.833	214.94
295.064	228.94
295.295	238.94
295.525	225.94
295.756	229.94
295.987	230.94
296.217	242.94
296.448	242.94
296.679	252.94
296.909	227.94
297.14	228.94
297.37	239.94
297.601	212.94
297.831	218.94
298.062	262.94
298.292	226.94
298.523	236.94
298.753	238.94
298.984	244.94
299.214	230.94
299.445	235.94
299.675	231.94
299.905	238.94
300.136	258.94
300.366	229.94
300.597	255.94
300.827	270.94
301.057	248.94
301.288	264.94
301.518	260.94
301.748	288.94
301.979	255.94
302.209	273.94
302.439	255.94
302.669	258.94
302.9	265.94
303.13	252.94
303.36	264.94
303.59	259.94
303.82	262.94
304.051	262.94
304.281	279.94
304.511	269.94
304.741	251.94
304.971	259.94
305.201	247.94
305.431	254.94
305.661	263.94
305.891	261.94
306.121	256.94
306.352	260.94
306.582	263.94
306.812	263.94
307.042	255.94
307.272	260.94
307.502	265.94
307.731	275.94
307.961	271.94
308.191	272.94
308.421	258.94
308.651	259.94
308.881	267.94
309.111	274.94
309.341	267.94
309.571	268.94
309.8	292.94
310.03	279.94
310.26	307.94
310.49	302.94
310.72	321.94
310.949	315.94
311.179	307.94
311.409	296.94
311.639	316.94
311.868	308.94
312.098	294.94
312.328	310.94
312.557	337.94
312.787	334.94
313.017	319.94
313.246	315.94
313.476	308.94
313.706	305.94
313.935	320.94
314.165	318.94
314.394	308.94
314.624	321.94
314.853	292.94
315.083	302.94
315.312	315.94
315.542	308.94
315.771	293.94
316.001	302.94
316.23	307.94
316.46	297.94
316.689	296.94
316.919	292.94
317.148	305.94
317.377	304.94
317.607	302.94
317.836	294.94
318.065	308.94
318.295	307.94
318.524	288.94
318.753	281.94
318.983	290.94
319.212	295.94
319.441	300.94
319.67	313.94
319.9	308.94
320.129	287.94
320.358	286.94
320.587	308.94
320.816	311.94
321.046	332.94
321.275	313.94
321.504	322.94
321.733	303.94
321.962	336.94
322.191	354.94
322.42	370.94
322.649	368.94
322.878	370.94
323.108	403.94
323.337	393.94
323.566	442.94
323.795	444.94
324.024	529.94
324.253	640.94
324.482	960.94
324.71	1436.94
324.939	1919.94
325.168	1533.94
325.397	800.94
325.626	546.94
325.855	483.94
326.084	443.94
326.313	411.94
326.542	427.94
326.77	459.94
326.999	591.94
327.228	844.94
327.457	1252.94
327.686	1340.94
327.914	911.94
328.143	586.94
328.372	525.94
328.6	495.94
328.829	480.94
329.058	487.94
329.287	476.94
329.515	443.94
329.744	434.94
329.972	424.94
330.201	464.94
330.43	471.94
330.658	480.94
330.887	500.94
331.115	472.94
331.344	424.94
331.572	386.94
331.801	390.94
332.03	381.94
332.258	374.94
332.486	360.94
332.715	366.94
332.943	380.94
333.172	343.94
333.4	345.94
333.629	353.94
333.857	371.94
334.085	385.94
334.314	389.94
334.542	415.94
334.771	419.94
334.999	377.94
335.227	358.94
335.455	358.94
335.684	352.94
335.912	340.94
336.14	345.94
336.369	345.94
336.597	354.94
336.825	335.94
337.053	344.94
337.281	345.94
337.51	344.94
337.738	346.94
337.966	332.94
338.194	341.94
338.422	341.94
338.65	337.94
338.878	316.94
339.106	336.94
339.334	332.94
339.562	323.94
339.79	318.94
340.018	344.94
340.246	330.94
340.474	329.94
340.702	332.94
340.93	323.94
341.158	327.94
341.386	341.94
341.614	339.94
341.842	331.94
342.07	326.94
342.298	333.94
342.526	324.94
342.754	296.94
342.981	308.94
343.209	312.94
343.437	311.94
343.665	322.94
343.893	322.94
344.12	324.94
344.348	328.94
344.576	319.94
344.804	342.94
345.031	337.94
345.259	331.94
345.487	335.94
345.714	335.94
345.942	322.94
346.17	327.94
346.397	307.94
346.625	301.94
346.853	336.94
347.08	312.94
347.308	328.94
347.535	310.94
347.763	335.94
347.99	321.94
348.218	327.94
348.445	319.94
348.673	325.94
348.9	326.94
349.128	314.94
349.355	312.94
349.583	302.94
349.81	319.94
350.037	316.94
350.265	297.94
350.492	306.94
350.72	312.94
350.947	315.94
351.174	321.94
351.402	332.94
351.629	332.94
351.856	328.94
352.083	338.94
352.311	331.94
352.538	320.94
352.765	333.94
352.992	338.94
353.22	306.94
353.447	311.94
353.674	293.94
353.901	306.94
354.128	289.94
354.355	290.94
354.583	268.94
354.81	295.94
355.037	291.94
355.264	286.94
355.491	287.94
355.718	278.94
355.945	273.94
356.172	274.94
356.399	293.94
356.626	270.94
356.853	286.94
357.08	278.94
357.307	287.94
357.534	266.94
357.761	290.94
357.988	273.94
358.215	296.94
358.441	295.94
358.668	291.94
358.895	297.94
359.122	308.94
359.349	310.94
359.576	303.94
359.802	337.94
360.029	348.94
360.256	363.94
360.483	339.94
360.709	295.94
360.936	318.94
361.163	294.94
361.39	325.94
361.616	312.94
361.843	304.94
362.07	295.94
362.296	308.94
362.523	295.94
362.749	308.94
362.976	306.94
363.203	311.94
363.429	309.94
363.656	318.94
363.882	295.94
364.109	307.94
364.335	279.94
364.562	280.94
364.788	283.94
365.015	293.94
365.241	312.94
365.468	313.94
365.694	302.94
365.92	306.94
366.147	297.94
366.373	283.94
366.599	302.94
366.826	288.94
367.052	286.94
367.278	278.94
367.505	293.94
367.731	296.94
367.957	270.94
368.184	283.94
368.41	288.94
368.636	302.94
368.862	296.94
369.089	290.94
369.315	297.94
369.541	263.94
369.767	308.94
369.993	300.94
370.219	290.94
370.445	288.94
370.672	273.94
370.898	289.94
371.124	263.94
371.35	288.94
371.576	282.94
371.802	288.94
372.028	272.94
372.254	263.94
372.48	291.94
372.706	290.94
372.932	289.94
373.158	290.94
373.384	289.94
373.61	280.94
373.835	287.94
374.061	257.94
374.287	285.94
374.513	283.94
374.739	264.94
374.965	275.94
375.191	278.94
375.416	295.94
375.642	281.94
375.868	291.94
376.094	282.94
376.319	262.94
376.545	283.94
376.771	266.94
376.997	263.94
377.222	262.94
377.448	287.94
377.674	254.94
377.899	266.94
378.125	260.94
378.35	283.94
378.576	259.94
378.802	256.94
379.027	294.94
379.253	268.94
379.478	289.94
379.704	298.94
379.929	268.94
380.155	266.94
380.38	270.94
380.606	279.94
380.831	295.94
381.057	294.94
381.282	271.94
381.507	276.94
381.733	266.94
381.958	272.94
382.184	278.94
382.409	275.94
382.634	267.94
382.86	273.94
383.085	270.94
383.31	274.94
383.535	286.94
383.761	281.94
383.986	293.94
384.211	264.94
384.436	263.94
384.662	279.94
384.887	289.94
385.112	288.94
385.337	288.94
385.562	286.94
385.787	294.94
386.013	299.94
386.238	298.94
386.463	294.94
386.688	290.94
386.913	272.94
387.138	277.94
387.363	280.94
387.588	295.94
387.813	288.94
388.038	287.94
388.263	282.94
388.488	267.94
388.713	291.94
388.938	299.94
389.163	301.94
389.387	286.94
389.612	287.94
389.837	282.94
390.062	288.94
390.287	286.94
390.512	278.94
390.736	288.94
390.961	273.94
391.186	288.94
391.411	306.94
391.636	262.94
391.86	276.94
392.085	288.94
392.31	294.94
392.534	294.94
392.759	297.94
392.984	294.94
393.208	297.94
393.433	277.94
393.658	275.94
393.882	286.94
394.107	293.94
394.331	290.94
394.556	278.94
394.78	293.94
395.005	291.94
395.229	284.94
395.454	314.94
395.678	303.94
395.903	294.94
396.127	313.94
396.352	315.94
396.576	297.94
396.801	291.94
397.025	298.94
397.249	299.94
397.474	299.94
397.698	297.94
397.922	313.94
398.147	305.94
398.371	292.94
398.595	321.94
398.82	304.94
399.044	313.94
399.268	329.94
399.492	336.94
399.717	353.94
399.941	368.94
400.165	387.94
400.389	392.94
400.613	367.94
400.837	340.94
401.062	320.94
401.286	314.94
401.51	320.94
401.734	319.94
401.958	330.94
402.182	307.94
402.406	321.94
402.63	326.94
402.854	339.94
403.078	330.94
403.302	309.94
403.526	338.94
403.75	311.94
403.974	318.94
404.198	337.94
404.422	326.94
404.645	321.94
404.869	328.94
405.093	344.94
405.317	362.94
405.541	394.94
405.765	362.94
405.988	364.94
406.212	372.94
406.436	368.94
406.66	371.94
406.883	370.94
407.107	401.94
407.331	391.94
407.555	441.94
407.778	416.94
408.002	394.94
408.226	372.94
408.449	369.94
408.673	370.94
408.896	395.94
409.12	399.94
409.344	377.94
409.567	352.94
409.791	332.94
410.014	337.94
410.238	328.94
410.461	337.94
410.685	339.94
410.908	354.94
411.132	360.94
411.355	382.94
411.578	372.94
411.802	339.94
412.025	336.94
412.249	343.94
412.472	351.94
412.695	369.94
412.919	373.94
413.142	351.94
413.365	323.94
413.589	331.94
413.812	318.94
414.035	320.94
414.258	303.94
414.482	313.94
414.705	300.94
414.928	314.94
415.151	291.94
415.374	306.94
415.597	314.94
415.821	299.94
416.044	299.94
416.267	311.94
416.49	302.94
416.713	310.94
416.936	295.94
417.159	299.94
417.382	348.94
417.605	299.94
417.828	338.94
418.051	338.94
418.274	315.94
418.497	310.94
418.72	312.94
418.943	293.94
419.166	318.94
419.389	324.94
419.611	334.94
419.834	315.94
420.057	332.94
420.28	330.94
420.503	329.94
420.726	346.94
420.948	356.94
421.171	354.94
421.394	373.94
421.617	340.94
421.839	322.94
422.062	328.94
422.285	346.94
422.507	373.94
422.73	424.94
422.953	403.94
423.175	358.94
423.398	355.94
423.621	336.94
423.843	352.94
424.066	354.94
424.288	352.94
424.511	379.94
424.733	394.94
424.956	439.94
425.178	427.94
425.401	448.94
425.623	445.94
425.846	391.94
426.068	358.94
426.291	353.94
426.513	352.94
426.735	370.94
426.958	389.94
427.18	464.94
427.402	518.94
427.625	583.94
427.847	520.94
428.069	462.94
428.292	400.94
428.514	375.94
428.736	371.94
428.958	346.94
429.181	326.94
429.403	332.94
429.625	330.94
429.847	379.94
430.069	402.94
430.292	385.94
430.514	340.94
430.736	334.94
430.958	327.94
431.18	326.94
431.402	303.94
431.624	298.94
431.846	317.94
432.068	296.94
432.29	289.94
432.512	310.94
432.734	314.94
432.956	296.94
433.178	312.94
433.4	316.94
433.622	324.94
433.844	305.94
434.066	311.94
434.287	312.94
434.509	279.94
434.731	327.94
434.953	324.94
435.175	334.94
435.397	359.94
435.618	368.94
435.84	376.94
436.062	465.94
436.284	498.94
436.505	400.94
436.727	381.94
436.949	363.94
437.17	328.94
437.392	347.94
437.614	341.94
437.835	375.94
438.057	434.94
438.278	503.94
438.5	496.94
438.721	552.94
438.943	515.94
439.165	411.94
439.386	366.94
439.608	371.94
439.829	387.94
440.05	407.94
440.272	410.94
440.493	410.94
440.715	361.94
440.936	336.94
441.158	345.94
441.379	332.94
441.6	344.94
441.822	376.94
442.043	398.94
442.264	450.94
442.486	465.94
442.707	413.94
442.928	375.94
443.149	391.94
443.371	411.94
443.592	410.94
443.813	464.94
444.034	511.94
444.255	411.94
444.476	348.94
444.698	379.94
444.919	355.94
445.14	462.94
445.361	404.94
445.582	407.94
445.803	471.94
446.024	484.94
446.245	546.94
446.466	490.94
446.687	404.94
446.908	366.94
447.129	351.94
447.35	337.94
447.571	330.94
447.792	330.94
448.013	358.94
448.234	353.94
448.455	392.94
448.675	466.94
448.896	510.94
449.117	448.94
449.338	440.94
449.559	520.94
449.779	561.94
450	451.94
450.221	372.94
450.442	338.94
450.662	342.94
450.883	351.94
451.104	350.94
451.324	320.94
451.545	314.94
451.766	302.94
451.986	306.94
452.207	302.94
452.428	304.94
452.648	309.94
452.869	310.94
453.089	300.94
453.31	307.94
453.53	309.94
453.751	315.94
453.971	299.94
454.192	321.94
454.412	309.94
454.633	290.94
454.853	308.94
455.073	289.94
455.294	304.94
455.514	356.94
455.734	360.94
455.955	287.94
456.175	300.94
456.395	290.94
456.616	283.94
456.836	272.94
457.056	281.94
457.276	266.94
457.497	279.94
457.717	275.94
457.937	294.94
458.157	272.94
458.377	291.94
458.598	333.94
458.818	383.94
459.038	432.94
459.258	416.94
459.478	341.94
459.698	324.94
459.918	320.94
460.138	296.94
460.358	319.94
460.578	303.94
460.798	311.94
461.018	299.94
461.238	306.94
461.458	327.94
461.678	303.94
461.898	300.94
462.118	306.94
462.338	314.94
462.558	297.94
462.777	306.94
462.997	318.94
463.217	302.94
463.437	314.94
463.657	323.94
463.876	307.94
464.096	294.94
464.316	299.94
464.536	308.94
464.755	335.94
464.975	325.94
465.195	375.94
465.414	425.94
465.634	358.94
465.854	341.94
466.073	329.94
466.293	333.94
466.512	298.94
466.732	310.94
466.951	288.94
467.171	288.94
467.391	303.94
467.61	322.94
467.829	313.94
468.049	310.94
468.268	308.94
468.488	320.94
468.707	293.94
468.927	305.94
469.146	290.94
469.365	294.94
469.585	291.94
469.804	282.94
470.023	316.94
470.243	324.94
470.462	311.94
470.681	306.94
470.901	322.94
471.12	318.94
471.339	303.94
471.558	306.94
471.777	306.94
471.997	306.94
472.216	312.94
472.435	345.94
472.654	318.94
472.873	309.94
473.092	311.94
473.311	295.94
473.53	300.94
473.749	313.94
473.968	346.94
474.187	438.94
474.406	426.94
474.625	360.94
474.844	330.94
475.063	326.94
475.282	299.94
475.501	305.94
475.72	311.94
475.939	310.94
476.158	302.94
476.377	324.94
476.596	322.94
476.814	319.94
477.033	317.94
477.252	306.94
477.471	337.94
477.69	326.94
477.908	332.94
478.127	318.94
478.346	327.94
478.564	348.94
478.783	352.94
479.002	337.94
479.22	338.94
479.439	349.94
479.658	368.94
479.876	369.94
480.095	388.94
480.313	389.94
480.532	362.94
480.751	362.94
480.969	367.94
481.188	430.94
481.406	453.94
481.624	409.94
481.843	390.94
482.061	356.94
482.28	350.94
482.498	354.94
482.717	360.94
482.935	350.94
483.153	328.94
483.372	355.94
483.59	359.94
483.808	355.94
484.027	326.94
484.245	348.94
484.463	369.94
484.681	358.94
484.9	358.94
485.118	353.94
485.336	380.94
485.554	368.94
485.772	354.94
485.99	367.94
486.209	363.94
486.427	366.94
486.645	378.94
486.863	394.94
487.081	397.94
487.299	384.94
487.517	378.94
487.735	374.94
487.953	370.94
488.171	388.94
488.389	374.94
488.607	397.94
488.825	391.94
489.043	369.94
489.261	349.94
489.479	378.94
489.696	399.94
489.914	406.94
490.132	410.94
490.35	406.94
490.568	408.94
490.786	390.94
491.003	416.94
491.221	418.94
491.439	411.94
491.657	424.94
491.874	438.94
492.092	418.94
492.31	423.94
492.527	440.94
492.745	452.94
492.963	451.94
493.18	442.94
493.398	444.94
493.615	440.94
493.833	439.94
494.05	422.94
494.268	467.94
494.485	446.94
494.703	451.94
494.92	441.94
495.138	426.94
495.355	427.94
495.573	469.94
495.79	442.94
496.008	462.94
496.225	437.94
496.442	437.94
496.66	452.94
496.877	454.94
497.094	437.94
497.312	464.94
497.529	450.94
497.746	450.94
497.963	471.94
498.181	464.94
498.398	464.94
498.615	483.94
498.832	480.94
499.049	499.94
499.267	468.94
499.484	498.94
499.701	491.94
499.918	524.94
500.135	538.94
500.352	549.94
500.569	542.94
500.786	561.94
501.003	538.94
501.22	551.94
501.437	524.94
501.654	541.94
501.871	556.94
502.088	532.94
