Data from 1982.PennyLincolnUp.Lamp.En5.5.200Scan.071819.P1_HRD10591_16-47-58-963.txt Node
Date: Thu Jul 18 16:47:58 EDT 2019
User: cochatt
Spectrometer: HR+D1059
Trigger mode: 1
Integration Time (sec): 1.000000E-1
Scans to average: 1
Electric dark correction enabled: true
Nonlinearity correction enabled: false
Boxcar width: 0
XAxis mode: Wavelengths
Number of Pixels in Spectrum: 2048
>>>>>Begin Spectral Data<<<<<
223.165	-20.06
223.4	-20.06
223.635	-20.06
223.869	-17.06
224.104	-24.06
224.338	-3.06
224.573	-11.06
224.808	-12.06
225.042	-3.06
225.277	-5.06
225.511	-1.06
225.746	-3.06
225.98	-3.06
226.215	17.94
226.449	14.94
226.683	15.94
226.918	25.94
227.152	27.94
227.387	35.94
227.621	33.94
227.856	34.94
228.09	43.94
228.324	40.94
228.559	51.94
228.793	59.94
229.027	94.94
229.262	82.94
229.496	88.94
229.73	122.94
229.964	132.94
230.199	110.94
230.433	87.94
230.667	90.94
230.901	87.94
231.136	112.94
231.37	99.94
231.604	100.94
231.838	102.94
232.072	115.94
232.306	97.94
232.541	100.94
232.775	109.94
233.009	96.94
233.243	114.94
233.477	103.94
233.711	102.94
233.945	103.94
234.179	109.94
234.413	90.94
234.647	95.94
234.881	102.94
235.115	115.94
235.349	107.94
235.583	113.94
235.817	114.94
236.051	111.94
236.285	116.94
236.519	111.94
236.753	127.94
236.987	128.94
237.221	144.94
237.455	178.94
237.689	144.94
237.922	108.94
238.156	118.94
238.39	105.94
238.624	104.94
238.858	103.94
239.091	121.94
239.325	113.94
239.559	100.94
239.793	107.94
240.027	107.94
240.26	104.94
240.494	140.94
240.728	117.94
240.961	134.94
241.195	136.94
241.429	126.94
241.662	112.94
241.896	126.94
242.13	114.94
242.363	99.94
242.597	122.94
242.83	118.94
243.064	104.94
243.298	118.94
243.531	114.94
243.765	121.94
243.998	118.94
244.232	120.94
244.465	110.94
244.699	122.94
244.932	127.94
245.166	128.94
245.399	118.94
245.633	110.94
245.866	131.94
246.099	125.94
246.333	110.94
246.566	117.94
246.8	117.94
247.033	121.94
247.266	119.94
247.5	138.94
247.733	114.94
247.966	141.94
248.2	134.94
248.433	132.94
248.666	137.94
248.899	163.94
249.133	169.94
249.366	165.94
249.599	155.94
249.832	163.94
250.066	149.94
250.299	159.94
250.532	140.94
250.765	169.94
250.998	182.94
251.231	170.94
251.465	164.94
251.698	171.94
251.931	159.94
252.164	155.94
252.397	163.94
252.63	173.94
252.863	174.94
253.096	165.94
253.329	171.94
253.562	166.94
253.795	183.94
254.028	178.94
254.261	180.94
254.494	183.94
254.727	207.94
254.96	225.94
255.193	223.94
255.426	204.94
255.659	180.94
255.892	183.94
256.124	196.94
256.357	193.94
256.59	177.94
256.823	174.94
257.056	180.94
257.289	174.94
257.521	168.94
257.754	159.94
257.987	169.94
258.22	191.94
258.452	168.94
258.685	158.94
258.918	165.94
259.151	183.94
259.383	174.94
259.616	186.94
259.849	181.94
260.081	195.94
260.314	208.94
260.547	214.94
260.779	194.94
261.012	193.94
261.244	184.94
261.477	182.94
261.71	187.94
261.942	178.94
262.175	184.94
262.407	180.94
262.64	177.94
262.872	171.94
263.105	163.94
263.337	166.94
263.57	177.94
263.802	173.94
264.035	169.94
264.267	188.94
264.499	165.94
264.732	160.94
264.964	178.94
265.197	172.94
265.429	168.94
265.661	163.94
265.894	165.94
266.126	166.94
266.358	172.94
266.591	165.94
266.823	176.94
267.055	183.94
267.287	178.94
267.52	189.94
267.752	172.94
267.984	181.94
268.216	184.94
268.448	197.94
268.681	193.94
268.913	215.94
269.145	216.94
269.377	201.94
269.609	216.94
269.841	209.94
270.073	211.94
270.306	232.94
270.538	238.94
270.77	257.94
271.002	240.94
271.234	228.94
271.466	245.94
271.698	238.94
271.93	244.94
272.162	235.94
272.394	252.94
272.626	238.94
272.858	219.94
273.09	221.94
273.322	215.94
273.553	199.94
273.785	188.94
274.017	200.94
274.249	206.94
274.481	195.94
274.713	212.94
274.945	218.94
275.176	208.94
275.408	213.94
275.64	209.94
275.872	202.94
276.104	219.94
276.335	212.94
276.567	213.94
276.799	232.94
277.031	240.94
277.262	260.94
277.494	248.94
277.726	230.94
277.957	227.94
278.189	208.94
278.421	218.94
278.652	209.94
278.884	218.94
279.115	185.94
279.347	218.94
279.579	218.94
279.81	203.94
280.042	219.94
280.273	199.94
280.505	213.94
280.736	205.94
280.968	196.94
281.199	183.94
281.431	196.94
281.662	201.94
281.894	204.94
282.125	218.94
282.356	227.94
282.588	238.94
282.819	225.94
283.051	215.94
283.282	204.94
283.513	208.94
283.745	196.94
283.976	223.94
284.207	230.94
284.439	218.94
284.67	223.94
284.901	213.94
285.132	202.94
285.364	204.94
285.595	209.94
285.826	203.94
286.057	203.94
286.288	213.94
286.52	219.94
286.751	212.94
286.982	212.94
287.213	208.94
287.444	217.94
287.675	213.94
287.906	223.94
288.138	232.94
288.369	231.94
288.6	228.94
288.831	227.94
289.062	233.94
289.293	223.94
289.524	224.94
289.755	223.94
289.986	214.94
290.217	212.94
290.448	200.94
290.679	210.94
290.91	198.94
291.141	216.94
291.371	219.94
291.602	219.94
291.833	217.94
292.064	228.94
292.295	214.94
292.526	224.94
292.757	223.94
292.987	213.94
293.218	215.94
293.449	217.94
293.68	213.94
293.91	206.94
294.141	218.94
294.372	209.94
294.603	209.94
294.833	198.94
295.064	212.94
295.295	206.94
295.525	216.94
295.756	217.94
295.987	212.94
296.217	254.94
296.448	244.94
296.679	238.94
296.909	219.94
297.14	225.94
297.37	239.94
297.601	220.94
297.831	219.94
298.062	227.94
298.292	229.94
298.523	222.94
298.753	221.94
298.984	238.94
299.214	241.94
299.445	227.94
299.675	216.94
299.905	234.94
300.136	231.94
300.366	230.94
300.597	223.94
300.827	232.94
301.057	227.94
301.288	232.94
301.518	228.94
301.748	243.94
301.979	239.94
302.209	224.94
302.439	230.94
302.669	241.94
302.9	238.94
303.13	230.94
303.36	247.94
303.59	246.94
303.82	246.94
304.051	250.94
304.281	244.94
304.511	233.94
304.741	246.94
304.971	234.94
305.201	234.94
305.431	249.94
305.661	235.94
305.891	251.94
306.121	251.94
306.352	255.94
306.582	255.94
306.812	244.94
307.042	233.94
307.272	257.94
307.502	241.94
307.731	238.94
307.961	241.94
308.191	260.94
308.421	243.94
308.651	259.94
308.881	246.94
309.111	248.94
309.341	253.94
309.571	255.94
309.8	287.94
310.03	292.94
310.26	283.94
310.49	302.94
310.72	304.94
310.949	300.94
311.179	307.94
311.409	295.94
311.639	295.94
311.868	285.94
312.098	298.94
312.328	306.94
312.557	308.94
312.787	314.94
313.017	322.94
313.246	291.94
313.476	272.94
313.706	299.94
313.935	296.94
314.165	300.94
314.394	302.94
314.624	312.94
314.853	291.94
315.083	295.94
315.312	280.94
315.542	280.94
315.771	272.94
316.001	277.94
316.23	276.94
316.46	282.94
316.689	289.94
316.919	303.94
317.148	297.94
317.377	286.94
317.607	310.94
317.836	284.94
318.065	291.94
318.295	290.94
318.524	282.94
318.753	285.94
318.983	278.94
319.212	298.94
319.441	289.94
319.67	306.94
319.9	290.94
320.129	273.94
320.358	304.94
320.587	291.94
320.816	290.94
321.046	301.94
321.275	312.94
321.504	321.94
321.733	312.94
321.962	319.94
322.191	314.94
322.42	345.94
322.649	362.94
322.878	369.94
323.108	366.94
323.337	371.94
323.566	400.94
323.795	440.94
324.024	488.94
324.253	632.94
324.482	964.94
324.71	1375.94
324.939	1845.94
325.168	1490.94
325.397	773.94
325.626	531.94
325.855	458.94
326.084	426.94
326.313	376.94
326.542	424.94
326.77	468.94
326.999	577.94
327.228	851.94
327.457	1184.94
327.686	1287.94
327.914	884.94
328.143	583.94
328.372	510.94
328.6	466.94
328.829	470.94
329.058	483.94
329.287	464.94
329.515	414.94
329.744	397.94
329.972	414.94
330.201	428.94
330.43	482.94
330.658	470.94
330.887	508.94
331.115	469.94
331.344	406.94
331.572	378.94
331.801	375.94
332.03	371.94
332.258	347.94
332.486	334.94
332.715	336.94
332.943	344.94
333.172	347.94
333.4	357.94
333.629	349.94
333.857	352.94
334.085	363.94
334.314	384.94
334.542	387.94
334.771	407.94
334.999	371.94
335.227	352.94
335.455	347.94
335.684	324.94
335.912	310.94
336.14	313.94
336.369	315.94
336.597	339.94
336.825	338.94
337.053	331.94
337.281	310.94
337.51	313.94
337.738	323.94
337.966	309.94
338.194	321.94
338.422	314.94
338.65	319.94
338.878	312.94
339.106	322.94
339.334	313.94
339.562	314.94
339.79	302.94
340.018	325.94
340.246	310.94
340.474	310.94
340.702	324.94
340.93	292.94
341.158	313.94
341.386	315.94
341.614	319.94
341.842	305.94
342.07	310.94
342.298	309.94
342.526	297.94
342.754	297.94
342.981	291.94
343.209	286.94
343.437	294.94
343.665	297.94
343.893	311.94
344.12	318.94
344.348	308.94
344.576	314.94
344.804	315.94
345.031	343.94
345.259	339.94
345.487	316.94
345.714	321.94
345.942	322.94
346.17	316.94
346.397	318.94
346.625	310.94
346.853	292.94
347.08	296.94
347.308	314.94
347.535	306.94
347.763	311.94
347.99	297.94
348.218	301.94
348.445	295.94
348.673	326.94
348.9	306.94
349.128	299.94
349.355	295.94
349.583	284.94
349.81	288.94
350.037	305.94
350.265	288.94
350.492	290.94
350.72	273.94
350.947	306.94
351.174	310.94
351.402	310.94
351.629	311.94
351.856	308.94
352.083	310.94
352.311	316.94
352.538	319.94
352.765	322.94
352.992	303.94
353.22	315.94
353.447	312.94
353.674	314.94
353.901	295.94
354.128	283.94
354.355	278.94
354.583	291.94
354.81	280.94
355.037	272.94
355.264	259.94
355.491	272.94
355.718	279.94
355.945	275.94
356.172	245.94
356.399	270.94
356.626	268.94
356.853	267.94
357.08	275.94
357.307	258.94
357.534	257.94
357.761	268.94
357.988	271.94
358.215	257.94
358.441	269.94
358.668	263.94
358.895	274.94
359.122	292.94
359.349	284.94
359.576	305.94
359.802	311.94
360.029	351.94
360.256	356.94
360.483	324.94
360.709	300.94
360.936	313.94
361.163	296.94
361.39	298.94
361.616	321.94
361.843	293.94
362.07	304.94
362.296	283.94
362.523	296.94
362.749	298.94
362.976	293.94
363.203	269.94
363.429	286.94
363.656	278.94
363.882	274.94
364.109	282.94
364.335	282.94
364.562	284.94
364.788	259.94
365.015	271.94
365.241	276.94
365.468	275.94
365.694	283.94
365.92	282.94
366.147	279.94
366.373	294.94
366.599	294.94
366.826	275.94
367.052	270.94
367.278	264.94
367.505	273.94
367.731	272.94
367.957	264.94
368.184	275.94
368.41	268.94
368.636	291.94
368.862	304.94
369.089	268.94
369.315	273.94
369.541	276.94
369.767	263.94
369.993	276.94
370.219	271.94
370.445	260.94
370.672	283.94
370.898	264.94
371.124	284.94
371.35	284.94
371.576	280.94
371.802	277.94
372.028	265.94
372.254	270.94
372.48	264.94
372.706	244.94
372.932	259.94
373.158	282.94
373.384	270.94
373.61	280.94
373.835	270.94
374.061	279.94
374.287	244.94
374.513	268.94
374.739	258.94
374.965	256.94
375.191	250.94
375.416	289.94
375.642	260.94
375.868	272.94
376.094	258.94
376.319	267.94
376.545	284.94
376.771	267.94
376.997	275.94
377.222	253.94
377.448	267.94
377.674	249.94
377.899	251.94
378.125	247.94
378.35	254.94
378.576	260.94
378.802	240.94
379.027	258.94
379.253	263.94
379.478	265.94
379.704	262.94
379.929	260.94
380.155	277.94
380.38	278.94
380.606	246.94
380.831	272.94
381.057	278.94
381.282	248.94
381.507	268.94
381.733	260.94
381.958	264.94
382.184	267.94
382.409	274.94
382.634	264.94
382.86	260.94
383.085	267.94
383.31	267.94
383.535	268.94
383.761	278.94
383.986	266.94
384.211	277.94
384.436	269.94
384.662	258.94
384.887	267.94
385.112	277.94
385.337	243.94
385.562	282.94
385.787	254.94
386.013	280.94
386.238	290.94
386.463	288.94
386.688	270.94
386.913	278.94
387.138	246.94
387.363	261.94
387.588	275.94
387.813	278.94
388.038	272.94
388.263	276.94
388.488	278.94
388.713	260.94
388.938	263.94
389.163	263.94
389.387	283.94
389.612	278.94
389.837	254.94
390.062	267.94
390.287	252.94
390.512	287.94
390.736	272.94
390.961	270.94
391.186	273.94
391.411	290.94
391.636	292.94
391.86	291.94
392.085	269.94
392.31	259.94
392.534	274.94
392.759	282.94
392.984	286.94
393.208	254.94
393.433	283.94
393.658	272.94
393.882	276.94
394.107	261.94
394.331	279.94
394.556	275.94
394.78	275.94
395.005	266.94
395.229	273.94
395.454	278.94
395.678	280.94
395.903	298.94
396.127	295.94
396.352	290.94
396.576	283.94
396.801	272.94
397.025	273.94
397.249	286.94
397.474	276.94
397.698	297.94
397.922	282.94
398.147	302.94
398.371	302.94
398.595	300.94
398.82	285.94
399.044	290.94
399.268	308.94
399.492	320.94
399.717	330.94
399.941	345.94
400.165	367.94
400.389	367.94
400.613	341.94
400.837	326.94
401.062	323.94
401.286	296.94
401.51	313.94
401.734	292.94
401.958	313.94
402.182	299.94
402.406	319.94
402.63	308.94
402.854	302.94
403.078	312.94
403.302	308.94
403.526	310.94
403.75	320.94
403.974	299.94
404.198	297.94
404.422	313.94
404.645	312.94
404.869	324.94
405.093	327.94
405.317	351.94
405.541	352.94
405.765	337.94
405.988	331.94
406.212	346.94
406.436	350.94
406.66	348.94
406.883	354.94
407.107	348.94
407.331	382.94
407.555	418.94
407.778	397.94
408.002	362.94
408.226	328.94
408.449	342.94
408.673	319.94
408.896	368.94
409.12	373.94
409.344	361.94
409.567	340.94
409.791	328.94
410.014	312.94
410.238	308.94
410.461	310.94
410.685	307.94
410.908	332.94
411.132	359.94
411.355	361.94
411.578	334.94
411.802	337.94
412.025	309.94
412.249	319.94
412.472	341.94
412.695	368.94
412.919	347.94
413.142	321.94
413.365	329.94
413.589	306.94
413.812	284.94
414.035	304.94
414.258	292.94
414.482	303.94
414.705	286.94
414.928	290.94
415.151	299.94
415.374	312.94
415.597	308.94
415.821	289.94
416.044	298.94
416.267	303.94
416.49	289.94
416.713	288.94
416.936	285.94
417.159	278.94
417.382	313.94
417.605	320.94
417.828	315.94
418.051	311.94
418.274	324.94
418.497	290.94
418.72	304.94
418.943	292.94
419.166	306.94
419.389	321.94
419.611	289.94
419.834	317.94
420.057	320.94
420.28	306.94
420.503	310.94
420.726	297.94
420.948	317.94
421.171	330.94
421.394	367.94
421.617	322.94
421.839	320.94
422.062	343.94
422.285	326.94
422.507	347.94
422.73	406.94
422.953	394.94
423.175	336.94
423.398	319.94
423.621	312.94
423.843	339.94
424.066	336.94
424.288	347.94
424.511	371.94
424.733	392.94
424.956	418.94
425.178	416.94
425.401	398.94
425.623	414.94
425.846	358.94
426.068	345.94
426.291	327.94
426.513	331.94
426.735	347.94
426.958	381.94
427.18	451.94
427.402	518.94
427.625	556.94
427.847	496.94
428.069	449.94
428.292	378.94
428.514	348.94
428.736	334.94
428.958	325.94
429.181	327.94
429.403	313.94
429.625	331.94
429.847	357.94
430.069	399.94
430.292	386.94
430.514	335.94
430.736	316.94
430.958	313.94
431.18	293.94
431.402	306.94
431.624	297.94
431.846	299.94
432.068	288.94
432.29	296.94
432.512	290.94
432.734	294.94
432.956	315.94
433.178	321.94
433.4	308.94
433.622	302.94
433.844	292.94
434.066	290.94
434.287	289.94
434.509	297.94
434.731	283.94
434.953	312.94
435.175	316.94
435.397	351.94
435.618	352.94
435.84	373.94
436.062	441.94
436.284	478.94
436.505	400.94
436.727	343.94
436.949	328.94
437.17	331.94
437.392	307.94
437.614	327.94
437.835	345.94
438.057	406.94
438.278	494.94
438.5	474.94
438.721	510.94
438.943	500.94
439.165	407.94
439.386	363.94
439.608	367.94
439.829	366.94
440.05	402.94
440.272	423.94
440.493	378.94
440.715	328.94
440.936	332.94
441.158	330.94
441.379	302.94
441.6	326.94
441.822	339.94
442.043	385.94
442.264	416.94
442.486	425.94
442.707	394.94
442.928	356.94
443.149	386.94
443.371	362.94
443.592	393.94
443.813	443.94
444.034	490.94
444.255	391.94
444.476	364.94
444.698	332.94
444.919	327.94
445.14	436.94
445.361	392.94
445.582	379.94
445.803	411.94
446.024	474.94
446.245	490.94
446.466	467.94
446.687	399.94
446.908	350.94
447.129	352.94
447.35	329.94
447.571	325.94
447.792	326.94
448.013	333.94
448.234	325.94
448.455	384.94
448.675	456.94
448.896	498.94
449.117	431.94
449.338	407.94
449.559	462.94
449.779	520.94
450	423.94
450.221	361.94
450.442	329.94
450.662	332.94
450.883	341.94
451.104	337.94
451.324	336.94
451.545	316.94
451.766	310.94
451.986	273.94
452.207	279.94
452.428	291.94
452.648	294.94
452.869	293.94
453.089	305.94
453.31	300.94
453.53	294.94
453.751	290.94
453.971	288.94
454.192	298.94
454.412	287.94
454.633	288.94
454.853	298.94
455.073	308.94
455.294	312.94
455.514	343.94
455.734	330.94
455.955	296.94
456.175	276.94
456.395	279.94
456.616	263.94
456.836	277.94
457.056	260.94
457.276	273.94
457.497	285.94
457.717	252.94
457.937	262.94
458.157	294.94
458.377	275.94
458.598	310.94
458.818	351.94
459.038	384.94
459.258	381.94
459.478	344.94
459.698	307.94
459.918	291.94
460.138	295.94
460.358	315.94
460.578	309.94
460.798	300.94
461.018	296.94
461.238	291.94
461.458	276.94
461.678	278.94
461.898	297.94
462.118	306.94
462.338	284.94
462.558	303.94
462.777	303.94
462.997	315.94
463.217	304.94
463.437	310.94
463.657	293.94
463.876	304.94
464.096	330.94
464.316	312.94
464.536	312.94
464.755	307.94
464.975	319.94
465.195	366.94
465.414	390.94
465.634	355.94
465.854	321.94
466.073	311.94
466.293	280.94
466.512	297.94
466.732	297.94
466.951	312.94
467.171	293.94
467.391	297.94
467.61	309.94
467.829	287.94
468.049	298.94
468.268	297.94
468.488	312.94
468.707	293.94
468.927	288.94
469.146	282.94
469.365	297.94
469.585	300.94
469.804	282.94
470.023	295.94
470.243	300.94
470.462	303.94
470.681	313.94
470.901	302.94
471.12	285.94
471.339	274.94
471.558	274.94
471.777	287.94
471.997	287.94
472.216	315.94
472.435	335.94
472.654	322.94
472.873	299.94
473.092	279.94
473.311	287.94
473.53	294.94
473.749	299.94
473.968	352.94
474.187	403.94
474.406	416.94
474.625	331.94
474.844	320.94
475.063	297.94
475.282	292.94
475.501	295.94
475.72	305.94
475.939	287.94
476.158	299.94
476.377	308.94
476.596	285.94
476.814	322.94
477.033	316.94
477.252	315.94
477.471	292.94
477.69	314.94
477.908	310.94
478.127	313.94
478.346	324.94
478.564	326.94
478.783	324.94
479.002	314.94
479.22	337.94
479.439	331.94
479.658	351.94
479.876	358.94
480.095	341.94
480.313	386.94
480.532	350.94
480.751	356.94
480.969	371.94
481.188	418.94
481.406	422.94
481.624	387.94
481.843	359.94
482.061	362.94
482.28	347.94
482.498	318.94
482.717	333.94
482.935	331.94
483.153	347.94
483.372	338.94
483.59	342.94
483.808	337.94
484.027	347.94
484.245	339.94
484.463	340.94
484.681	335.94
484.9	328.94
485.118	338.94
485.336	355.94
485.554	360.94
485.772	357.94
485.99	331.94
486.209	339.94
486.427	352.94
486.645	342.94
486.863	390.94
487.081	374.94
487.299	372.94
487.517	352.94
487.735	341.94
487.953	366.94
488.171	358.94
488.389	353.94
488.607	362.94
488.825	383.94
489.043	364.94
489.261	351.94
489.479	371.94
489.696	374.94
489.914	368.94
490.132	363.94
490.35	388.94
490.568	386.94
490.786	393.94
491.003	391.94
491.221	414.94
491.439	399.94
491.657	391.94
491.874	395.94
492.092	431.94
492.31	421.94
492.527	425.94
492.745	412.94
492.963	422.94
493.18	436.94
493.398	424.94
493.615	437.94
493.833	443.94
494.05	415.94
494.268	404.94
494.485	417.94
494.703	417.94
494.92	417.94
495.138	445.94
495.355	434.94
495.573	433.94
495.79	441.94
496.008	455.94
496.225	414.94
496.442	421.94
496.66	430.94
496.877	436.94
497.094	427.94
497.312	416.94
497.529	422.94
497.746	453.94
497.963	440.94
498.181	473.94
498.398	450.94
498.615	454.94
498.832	461.94
499.049	453.94
499.267	458.94
499.484	467.94
499.701	474.94
499.918	502.94
500.135	508.94
500.352	528.94
500.569	504.94
500.786	528.94
501.003	539.94
501.22	516.94
501.437	518.94
501.654	514.94
501.871	512.94
502.088	481.94
