Data from 1982.PennyLincolnUp.Lamp.En5.5.200Scan.071819.P1_HRD10591_16-47-29-962.txt Node
Date: Thu Jul 18 16:47:29 EDT 2019
User: cochatt
Spectrometer: HR+D1059
Trigger mode: 1
Integration Time (sec): 1.000000E-1
Scans to average: 1
Electric dark correction enabled: true
Nonlinearity correction enabled: false
Boxcar width: 0
XAxis mode: Wavelengths
Number of Pixels in Spectrum: 2048
>>>>>Begin Spectral Data<<<<<
223.165	-15.38
223.4	-15.38
223.635	-15.38
223.869	-18.38
224.104	-25.38
224.338	-20.38
224.573	-7.38
224.808	-10.38
225.042	-6.38
225.277	-4.38
225.511	2.62
225.746	3.62
225.98	12.62
226.215	-2.38
226.449	17.62
226.683	22.62
226.918	14.62
227.152	36.62
227.387	42.62
227.621	36.62
227.856	33.62
228.09	69.62
228.324	52.62
228.559	55.62
228.793	62.62
229.027	81.62
229.262	105.62
229.496	116.62
229.73	123.62
229.964	133.62
230.199	112.62
230.433	121.62
230.667	108.62
230.901	106.62
231.136	99.62
231.37	96.62
231.604	108.62
231.838	92.62
232.072	91.62
232.306	104.62
232.541	104.62
232.775	111.62
233.009	100.62
233.243	102.62
233.477	100.62
233.711	91.62
233.945	107.62
234.179	97.62
234.413	91.62
234.647	106.62
234.881	127.62
235.115	98.62
235.349	101.62
235.583	110.62
235.817	117.62
236.051	115.62
236.285	102.62
236.519	100.62
236.753	110.62
236.987	128.62
237.221	153.62
237.455	191.62
237.689	165.62
237.922	119.62
238.156	123.62
238.39	116.62
238.624	121.62
238.858	133.62
239.091	106.62
239.325	94.62
239.559	108.62
239.793	124.62
240.027	123.62
240.26	126.62
240.494	137.62
240.728	131.62
240.961	116.62
241.195	132.62
241.429	109.62
241.662	125.62
241.896	113.62
242.13	129.62
242.363	127.62
242.597	124.62
242.83	134.62
243.064	124.62
243.298	134.62
243.531	114.62
243.765	120.62
243.998	118.62
244.232	129.62
244.465	145.62
244.699	131.62
244.932	126.62
245.166	117.62
245.399	127.62
245.633	131.62
245.866	127.62
246.099	122.62
246.333	133.62
246.566	111.62
246.8	137.62
247.033	153.62
247.266	140.62
247.5	149.62
247.733	137.62
247.966	155.62
248.2	148.62
248.433	160.62
248.666	141.62
248.899	153.62
249.133	170.62
249.366	172.62
249.599	179.62
249.832	145.62
250.066	152.62
250.299	149.62
250.532	166.62
250.765	173.62
250.998	180.62
251.231	173.62
251.465	191.62
251.698	179.62
251.931	157.62
252.164	161.62
252.397	172.62
252.63	161.62
252.863	160.62
253.096	186.62
253.329	200.62
253.562	178.62
253.795	183.62
254.028	188.62
254.261	178.62
254.494	175.62
254.727	212.62
254.96	245.62
255.193	213.62
255.426	213.62
255.659	194.62
255.892	196.62
256.124	213.62
256.357	203.62
256.59	181.62
256.823	178.62
257.056	195.62
257.289	175.62
257.521	175.62
257.754	175.62
257.987	179.62
258.22	172.62
258.452	175.62
258.685	185.62
258.918	187.62
259.151	185.62
259.383	177.62
259.616	183.62
259.849	181.62
260.081	197.62
260.314	201.62
260.547	223.62
260.779	189.62
261.012	175.62
261.244	173.62
261.477	182.62
261.71	209.62
261.942	204.62
262.175	197.62
262.407	185.62
262.64	188.62
262.872	186.62
263.105	181.62
263.337	169.62
263.57	166.62
263.802	182.62
264.035	154.62
264.267	177.62
264.499	165.62
264.732	174.62
264.964	164.62
265.197	170.62
265.429	172.62
265.661	189.62
265.894	169.62
266.126	194.62
266.358	181.62
266.591	189.62
266.823	174.62
267.055	189.62
267.287	195.62
267.52	186.62
267.752	193.62
267.984	189.62
268.216	188.62
268.448	200.62
268.681	202.62
268.913	197.62
269.145	211.62
269.377	207.62
269.609	233.62
269.841	207.62
270.073	215.62
270.306	247.62
270.538	259.62
270.77	251.62
271.002	218.62
271.234	239.62
271.466	249.62
271.698	265.62
271.93	271.62
272.162	267.62
272.394	269.62
272.626	262.62
272.858	240.62
273.09	241.62
273.322	218.62
273.553	210.62
273.785	209.62
274.017	217.62
274.249	229.62
274.481	211.62
274.713	199.62
274.945	223.62
275.176	213.62
275.408	216.62
275.64	211.62
275.872	223.62
276.104	212.62
276.335	220.62
276.567	234.62
276.799	233.62
277.031	237.62
277.262	263.62
277.494	254.62
277.726	250.62
277.957	218.62
278.189	224.62
278.421	200.62
278.652	210.62
278.884	209.62
279.115	219.62
279.347	225.62
279.579	210.62
279.81	220.62
280.042	218.62
280.273	213.62
280.505	204.62
280.736	220.62
280.968	220.62
281.199	219.62
281.431	219.62
281.662	214.62
281.894	236.62
282.125	252.62
282.356	215.62
282.588	259.62
282.819	243.62
283.051	234.62
283.282	227.62
283.513	208.62
283.745	224.62
283.976	211.62
284.207	230.62
284.439	224.62
284.67	240.62
284.901	232.62
285.132	238.62
285.364	216.62
285.595	248.62
285.826	219.62
286.057	239.62
286.288	219.62
286.52	232.62
286.751	221.62
286.982	226.62
287.213	222.62
287.444	241.62
287.675	236.62
287.906	249.62
288.138	247.62
288.369	249.62
288.6	241.62
288.831	234.62
289.062	226.62
289.293	223.62
289.524	233.62
289.755	228.62
289.986	231.62
290.217	225.62
290.448	223.62
290.679	235.62
290.91	259.62
291.141	213.62
291.371	211.62
291.602	221.62
291.833	238.62
292.064	246.62
292.295	233.62
292.526	219.62
292.757	230.62
292.987	232.62
293.218	216.62
293.449	241.62
293.68	230.62
293.91	233.62
294.141	231.62
294.372	237.62
294.603	235.62
294.833	232.62
295.064	227.62
295.295	216.62
295.525	215.62
295.756	233.62
295.987	239.62
296.217	258.62
296.448	276.62
296.679	247.62
296.909	245.62
297.14	224.62
297.37	225.62
297.601	235.62
297.831	236.62
298.062	249.62
298.292	233.62
298.523	229.62
298.753	238.62
298.984	227.62
299.214	236.62
299.445	235.62
299.675	239.62
299.905	237.62
300.136	251.62
300.366	252.62
300.597	244.62
300.827	248.62
301.057	270.62
301.288	254.62
301.518	243.62
301.748	269.62
301.979	241.62
302.209	266.62
302.439	263.62
302.669	248.62
302.9	271.62
303.13	252.62
303.36	254.62
303.59	247.62
303.82	263.62
304.051	265.62
304.281	259.62
304.511	257.62
304.741	244.62
304.971	246.62
305.201	253.62
305.431	254.62
305.661	236.62
305.891	244.62
306.121	259.62
306.352	257.62
306.582	286.62
306.812	263.62
307.042	278.62
307.272	269.62
307.502	272.62
307.731	265.62
307.961	259.62
308.191	264.62
308.421	269.62
308.651	277.62
308.881	263.62
309.111	277.62
309.341	271.62
309.571	277.62
309.8	296.62
310.03	299.62
310.26	299.62
310.49	298.62
310.72	305.62
310.949	315.62
311.179	317.62
311.409	303.62
311.639	293.62
311.868	315.62
312.098	302.62
312.328	311.62
312.557	316.62
312.787	333.62
313.017	327.62
313.246	303.62
313.476	296.62
313.706	292.62
313.935	312.62
314.165	319.62
314.394	333.62
314.624	320.62
314.853	314.62
315.083	305.62
315.312	297.62
315.542	294.62
315.771	285.62
316.001	279.62
316.23	309.62
316.46	300.62
316.689	306.62
316.919	313.62
317.148	297.62
317.377	315.62
317.607	315.62
317.836	318.62
318.065	300.62
318.295	317.62
318.524	308.62
318.753	309.62
318.983	291.62
319.212	302.62
319.441	303.62
319.67	313.62
319.9	297.62
320.129	292.62
320.358	317.62
320.587	301.62
320.816	307.62
321.046	315.62
321.275	316.62
321.504	313.62
321.733	325.62
321.962	322.62
322.191	342.62
322.42	351.62
322.649	369.62
322.878	364.62
323.108	387.62
323.337	421.62
323.566	435.62
323.795	451.62
324.024	546.62
324.253	668.62
324.482	942.62
324.71	1438.62
324.939	1873.62
325.168	1521.62
325.397	794.62
325.626	549.62
325.855	463.62
326.084	411.62
326.313	416.62
326.542	428.62
326.77	456.62
326.999	591.62
327.228	841.62
327.457	1217.62
327.686	1366.62
327.914	874.62
328.143	591.62
328.372	533.62
328.6	495.62
328.829	479.62
329.058	458.62
329.287	492.62
329.515	441.62
329.744	431.62
329.972	404.62
330.201	455.62
330.43	460.62
330.658	475.62
330.887	486.62
331.115	484.62
331.344	414.62
331.572	411.62
331.801	413.62
332.03	385.62
332.258	369.62
332.486	363.62
332.715	343.62
332.943	336.62
333.172	314.62
333.4	348.62
333.629	358.62
333.857	377.62
334.085	379.62
334.314	405.62
334.542	413.62
334.771	399.62
334.999	391.62
335.227	364.62
335.455	351.62
335.684	355.62
335.912	350.62
336.14	350.62
336.369	356.62
336.597	348.62
336.825	350.62
337.053	345.62
337.281	345.62
337.51	338.62
337.738	351.62
337.966	346.62
338.194	331.62
338.422	346.62
338.65	326.62
338.878	329.62
339.106	317.62
339.334	326.62
339.562	321.62
339.79	326.62
340.018	320.62
340.246	330.62
340.474	354.62
340.702	337.62
340.93	337.62
341.158	329.62
341.386	333.62
341.614	339.62
341.842	313.62
342.07	348.62
342.298	339.62
342.526	323.62
342.754	336.62
342.981	313.62
343.209	320.62
343.437	319.62
343.665	310.62
343.893	321.62
344.12	302.62
344.348	346.62
344.576	323.62
344.804	330.62
345.031	320.62
345.259	344.62
345.487	344.62
345.714	343.62
345.942	321.62
346.17	324.62
346.397	322.62
346.625	333.62
346.853	310.62
347.08	302.62
347.308	326.62
347.535	341.62
347.763	330.62
347.99	327.62
348.218	322.62
348.445	343.62
348.673	322.62
348.9	316.62
349.128	323.62
349.355	298.62
349.583	311.62
349.81	307.62
350.037	306.62
350.265	293.62
350.492	308.62
350.72	321.62
350.947	325.62
351.174	298.62
351.402	342.62
351.629	334.62
351.856	330.62
352.083	332.62
352.311	323.62
352.538	325.62
352.765	332.62
352.992	342.62
353.22	322.62
353.447	314.62
353.674	325.62
353.901	302.62
354.128	300.62
354.355	297.62
354.583	281.62
354.81	298.62
355.037	282.62
355.264	282.62
355.491	263.62
355.718	299.62
355.945	299.62
356.172	283.62
356.399	286.62
356.626	293.62
356.853	288.62
357.08	287.62
357.307	271.62
357.534	300.62
357.761	285.62
357.988	296.62
358.215	306.62
358.441	299.62
358.668	300.62
358.895	299.62
359.122	296.62
359.349	307.62
359.576	323.62
359.802	343.62
360.029	352.62
360.256	380.62
360.483	344.62
360.709	327.62
360.936	313.62
361.163	309.62
361.39	303.62
361.616	325.62
361.843	307.62
362.07	297.62
362.296	314.62
362.523	326.62
362.749	297.62
362.976	314.62
363.203	307.62
363.429	315.62
363.656	298.62
363.882	309.62
364.109	301.62
364.335	323.62
364.562	295.62
364.788	289.62
365.015	296.62
365.241	296.62
365.468	296.62
365.694	308.62
365.92	301.62
366.147	289.62
366.373	296.62
366.599	277.62
366.826	298.62
367.052	295.62
367.278	283.62
367.505	280.62
367.731	311.62
367.957	278.62
368.184	300.62
368.41	297.62
368.636	312.62
368.862	303.62
369.089	286.62
369.315	275.62
369.541	289.62
369.767	288.62
369.993	285.62
370.219	285.62
370.445	286.62
370.672	280.62
370.898	255.62
371.124	269.62
371.35	283.62
371.576	280.62
371.802	284.62
372.028	277.62
372.254	287.62
372.48	298.62
372.706	267.62
372.932	274.62
373.158	275.62
373.384	284.62
373.61	270.62
373.835	286.62
374.061	285.62
374.287	277.62
374.513	282.62
374.739	297.62
374.965	282.62
375.191	282.62
375.416	274.62
375.642	276.62
375.868	294.62
376.094	279.62
376.319	283.62
376.545	281.62
376.771	267.62
376.997	281.62
377.222	278.62
377.448	275.62
377.674	307.62
377.899	267.62
378.125	258.62
378.35	276.62
378.576	276.62
378.802	280.62
379.027	257.62
379.253	287.62
379.478	279.62
379.704	277.62
379.929	278.62
380.155	276.62
380.38	283.62
380.606	286.62
380.831	273.62
381.057	285.62
381.282	275.62
381.507	299.62
381.733	268.62
381.958	285.62
382.184	266.62
382.409	276.62
382.634	271.62
382.86	284.62
383.085	279.62
383.31	282.62
383.535	287.62
383.761	294.62
383.986	296.62
384.211	291.62
384.436	282.62
384.662	283.62
384.887	288.62
385.112	277.62
385.337	300.62
385.562	284.62
385.787	292.62
386.013	307.62
386.238	290.62
386.463	281.62
386.688	291.62
386.913	291.62
387.138	290.62
387.363	271.62
387.588	292.62
387.813	289.62
388.038	298.62
388.263	284.62
388.488	291.62
388.713	310.62
388.938	286.62
389.163	299.62
389.387	295.62
389.612	269.62
389.837	298.62
390.062	295.62
390.287	281.62
390.512	299.62
390.736	287.62
390.961	285.62
391.186	293.62
391.411	274.62
391.636	304.62
391.86	305.62
392.085	307.62
392.31	313.62
392.534	283.62
392.759	304.62
392.984	278.62
393.208	311.62
393.433	289.62
393.658	289.62
393.882	291.62
394.107	290.62
394.331	295.62
394.556	281.62
394.78	284.62
395.005	297.62
395.229	297.62
395.454	319.62
395.678	303.62
395.903	312.62
396.127	329.62
396.352	322.62
396.576	319.62
396.801	308.62
397.025	298.62
397.249	299.62
397.474	298.62
397.698	297.62
397.922	301.62
398.147	332.62
398.371	322.62
398.595	328.62
398.82	317.62
399.044	342.62
399.268	353.62
399.492	352.62
399.717	350.62
399.941	356.62
400.165	383.62
400.389	395.62
400.613	372.62
400.837	343.62
401.062	332.62
401.286	326.62
401.51	333.62
401.734	322.62
401.958	325.62
402.182	318.62
402.406	324.62
402.63	335.62
402.854	324.62
403.078	333.62
403.302	334.62
403.526	331.62
403.75	338.62
403.974	344.62
404.198	357.62
404.422	335.62
404.645	344.62
404.869	358.62
405.093	359.62
405.317	391.62
405.541	407.62
405.765	382.62
405.988	355.62
406.212	374.62
406.436	387.62
406.66	373.62
406.883	370.62
407.107	399.62
407.331	406.62
407.555	441.62
407.778	435.62
408.002	394.62
408.226	363.62
408.449	375.62
408.673	371.62
408.896	403.62
409.12	419.62
409.344	375.62
409.567	345.62
409.791	346.62
410.014	327.62
410.238	343.62
410.461	328.62
410.685	347.62
410.908	377.62
411.132	385.62
411.355	384.62
411.578	381.62
411.802	343.62
412.025	321.62
412.249	334.62
412.472	342.62
412.695	380.62
412.919	358.62
413.142	323.62
413.365	325.62
413.589	327.62
413.812	316.62
414.035	327.62
414.258	321.62
414.482	297.62
414.705	303.62
414.928	316.62
415.151	315.62
415.374	303.62
415.597	319.62
415.821	301.62
416.044	309.62
416.267	302.62
416.49	302.62
416.713	317.62
416.936	334.62
417.159	318.62
417.382	312.62
417.605	319.62
417.828	319.62
418.051	331.62
418.274	303.62
418.497	317.62
418.72	304.62
418.943	317.62
419.166	315.62
419.389	318.62
419.611	338.62
419.834	335.62
420.057	340.62
420.28	324.62
420.503	340.62
420.726	345.62
420.948	332.62
421.171	375.62
421.394	402.62
421.617	364.62
421.839	337.62
422.062	332.62
422.285	334.62
422.507	385.62
422.73	417.62
422.953	401.62
423.175	365.62
423.398	345.62
423.621	340.62
423.843	355.62
424.066	371.62
424.288	359.62
424.511	383.62
424.733	412.62
424.956	456.62
425.178	459.62
425.401	439.62
425.623	450.62
425.846	383.62
426.068	357.62
426.291	347.62
426.513	372.62
426.735	353.62
426.958	411.62
427.18	462.62
427.402	523.62
427.625	601.62
427.847	515.62
428.069	449.62
428.292	405.62
428.514	387.62
428.736	363.62
428.958	347.62
429.181	324.62
429.403	334.62
429.625	354.62
429.847	378.62
430.069	427.62
430.292	411.62
430.514	352.62
430.736	357.62
430.958	318.62
431.18	347.62
431.402	311.62
431.624	319.62
431.846	295.62
432.068	312.62
432.29	319.62
432.512	324.62
432.734	312.62
432.956	302.62
433.178	321.62
433.4	343.62
433.622	310.62
433.844	317.62
434.066	327.62
434.287	321.62
434.509	314.62
434.731	302.62
434.953	328.62
435.175	355.62
435.397	356.62
435.618	352.62
435.84	411.62
436.062	463.62
436.284	513.62
436.505	405.62
436.727	365.62
436.949	346.62
437.17	350.62
437.392	326.62
437.614	353.62
437.835	363.62
438.057	439.62
438.278	522.62
438.5	531.62
438.721	549.62
438.943	494.62
439.165	427.62
439.386	383.62
439.608	379.62
439.829	370.62
440.05	397.62
440.272	447.62
440.493	407.62
440.715	356.62
440.936	339.62
441.158	349.62
441.379	350.62
441.6	365.62
441.822	364.62
442.043	382.62
442.264	457.62
442.486	478.62
442.707	413.62
442.928	394.62
443.149	397.62
443.371	399.62
443.592	447.62
443.813	480.62
444.034	506.62
444.255	421.62
444.476	374.62
444.698	362.62
444.919	357.62
445.14	460.62
445.361	438.62
445.582	418.62
445.803	470.62
446.024	503.62
446.245	531.62
446.466	464.62
446.687	413.62
446.908	398.62
447.129	370.62
447.35	348.62
447.571	350.62
447.792	320.62
448.013	360.62
448.234	343.62
448.455	382.62
448.675	478.62
448.896	534.62
449.117	472.62
449.338	438.62
449.559	521.62
449.779	550.62
450	441.62
450.221	382.62
450.442	350.62
450.662	340.62
450.883	336.62
451.104	345.62
451.324	330.62
451.545	348.62
451.766	318.62
451.986	299.62
452.207	304.62
452.428	292.62
452.648	314.62
452.869	321.62
453.089	317.62
453.31	317.62
453.53	319.62
453.751	307.62
453.971	296.62
454.192	315.62
454.412	315.62
454.633	311.62
454.853	308.62
455.073	299.62
455.294	322.62
455.514	380.62
455.734	363.62
455.955	303.62
456.175	300.62
456.395	284.62
456.616	280.62
456.836	262.62
457.056	283.62
457.276	269.62
457.497	274.62
457.717	289.62
457.937	303.62
458.157	301.62
458.377	297.62
458.598	313.62
458.818	368.62
459.038	417.62
459.258	415.62
459.478	359.62
459.698	329.62
459.918	305.62
460.138	305.62
460.358	314.62
460.578	302.62
460.798	329.62
461.018	329.62
461.238	308.62
461.458	314.62
461.678	308.62
461.898	301.62
462.118	312.62
462.338	319.62
462.558	301.62
462.777	311.62
462.997	314.62
463.217	333.62
463.437	311.62
463.657	320.62
463.876	333.62
464.096	337.62
464.316	331.62
464.536	316.62
464.755	324.62
464.975	353.62
465.195	375.62
465.414	435.62
465.634	375.62
465.854	347.62
466.073	345.62
466.293	315.62
466.512	322.62
466.732	314.62
466.951	300.62
467.171	314.62
467.391	312.62
467.61	310.62
467.829	311.62
468.049	325.62
468.268	309.62
468.488	307.62
468.707	324.62
468.927	286.62
469.146	280.62
469.365	307.62
469.585	295.62
469.804	287.62
470.023	299.62
470.243	315.62
470.462	307.62
470.681	324.62
470.901	323.62
471.12	290.62
471.339	315.62
471.558	322.62
471.777	326.62
471.997	313.62
472.216	308.62
472.435	352.62
472.654	336.62
472.873	325.62
473.092	314.62
473.311	300.62
473.53	329.62
473.749	317.62
473.968	374.62
474.187	424.62
474.406	430.62
474.625	353.62
474.844	315.62
475.063	323.62
475.282	314.62
475.501	320.62
475.72	304.62
475.939	346.62
476.158	323.62
476.377	306.62
476.596	335.62
476.814	325.62
477.033	341.62
477.252	350.62
477.471	335.62
477.69	336.62
477.908	318.62
478.127	335.62
478.346	333.62
478.564	353.62
478.783	347.62
479.002	350.62
479.22	342.62
479.439	341.62
479.658	383.62
479.876	358.62
480.095	360.62
480.313	393.62
480.532	381.62
480.751	369.62
480.969	371.62
481.188	422.62
481.406	470.62
481.624	390.62
481.843	393.62
482.061	358.62
482.28	364.62
482.498	365.62
482.717	356.62
482.935	368.62
483.153	366.62
483.372	377.62
483.59	364.62
483.808	364.62
484.027	356.62
484.245	370.62
484.463	369.62
484.681	354.62
484.9	373.62
485.118	366.62
485.336	353.62
485.554	364.62
485.772	376.62
485.99	373.62
486.209	367.62
486.427	357.62
486.645	381.62
486.863	383.62
487.081	389.62
487.299	382.62
487.517	395.62
487.735	379.62
487.953	392.62
488.171	391.62
488.389	405.62
488.607	381.62
488.825	393.62
489.043	384.62
489.261	399.62
489.479	405.62
489.696	407.62
489.914	384.62
490.132	400.62
490.35	392.62
490.568	403.62
490.786	392.62
491.003	407.62
491.221	405.62
491.439	415.62
491.657	425.62
491.874	445.62
492.092	445.62
492.31	445.62
492.527	449.62
492.745	435.62
492.963	429.62
493.18	451.62
493.398	461.62
493.615	458.62
493.833	473.62
494.05	452.62
494.268	458.62
494.485	442.62
494.703	458.62
494.92	438.62
495.138	449.62
495.355	464.62
495.573	455.62
495.79	458.62
496.008	434.62
496.225	466.62
496.442	464.62
496.66	472.62
496.877	447.62
497.094	466.62
497.312	455.62
497.529	447.62
497.746	443.62
497.963	478.62
498.181	487.62
498.398	475.62
498.615	475.62
498.832	513.62
499.049	505.62
499.267	490.62
499.484	494.62
499.701	511.62
499.918	517.62
500.135	525.62
500.352	546.62
500.569	588.62
500.786	579.62
501.003	586.62
501.22	536.62
501.437	562.62
501.654	548.62
501.871	539.62
502.088	532.62
