Data from 1982.PennyLincolnUp.Lamp.En5.5.200Scan.071819.P1_HRD10591_16-44-42-961.txt Node
Date: Thu Jul 18 16:44:42 EDT 2019
User: cochatt
Spectrometer: HR+D1059
Trigger mode: 1
Integration Time (sec): 1.000000E-1
Scans to average: 1
Electric dark correction enabled: true
Nonlinearity correction enabled: false
Boxcar width: 0
XAxis mode: Wavelengths
Number of Pixels in Spectrum: 2048
>>>>>Begin Spectral Data<<<<<
223.165	-10.19
223.4	-10.19
223.635	-10.19
223.869	-23.19
224.104	-26.19
224.338	-17.19
224.573	-23.19
224.808	-5.19
225.042	-11.19
225.277	-8.19
225.511	-0.19
225.746	-0.19
225.98	-0.19
226.215	15.81
226.449	20.81
226.683	23.81
226.918	24.81
227.152	39.81
227.387	24.81
227.621	34.81
227.856	35.81
228.09	33.81
228.324	32.81
228.559	59.81
228.793	54.81
229.027	73.81
229.262	68.81
229.496	81.81
229.73	95.81
229.964	91.81
230.199	95.81
230.433	89.81
230.667	101.81
230.901	80.81
231.136	89.81
231.37	88.81
231.604	92.81
231.838	98.81
232.072	97.81
232.306	96.81
232.541	92.81
232.775	90.81
233.009	97.81
233.243	101.81
233.477	99.81
233.711	89.81
233.945	89.81
234.179	104.81
234.413	102.81
234.647	84.81
234.881	87.81
235.115	82.81
235.349	93.81
235.583	89.81
235.817	88.81
236.051	97.81
236.285	98.81
236.519	99.81
236.753	99.81
236.987	114.81
237.221	122.81
237.455	137.81
237.689	116.81
237.922	101.81
238.156	94.81
238.39	100.81
238.624	97.81
238.858	103.81
239.091	93.81
239.325	96.81
239.559	86.81
239.793	101.81
240.027	114.81
240.26	114.81
240.494	112.81
240.728	112.81
240.961	107.81
241.195	115.81
241.429	100.81
241.662	123.81
241.896	105.81
242.13	92.81
242.363	103.81
242.597	91.81
242.83	114.81
243.064	103.81
243.298	105.81
243.531	92.81
243.765	93.81
243.998	106.81
244.232	116.81
244.465	104.81
244.699	112.81
244.932	107.81
245.166	117.81
245.399	124.81
245.633	113.81
245.866	106.81
246.099	116.81
246.333	128.81
246.566	107.81
246.8	105.81
247.033	117.81
247.266	106.81
247.5	122.81
247.733	103.81
247.966	122.81
248.2	114.81
248.433	125.81
248.666	123.81
248.899	116.81
249.133	134.81
249.366	137.81
249.599	130.81
249.832	125.81
250.066	131.81
250.299	131.81
250.532	129.81
250.765	141.81
250.998	148.81
251.231	151.81
251.465	144.81
251.698	133.81
251.931	128.81
252.164	135.81
252.397	130.81
252.63	134.81
252.863	132.81
253.096	152.81
253.329	134.81
253.562	143.81
253.795	172.81
254.028	146.81
254.261	144.81
254.494	144.81
254.727	163.81
254.96	165.81
255.193	185.81
255.426	168.81
255.659	147.81
255.892	135.81
256.124	146.81
256.357	146.81
256.59	147.81
256.823	139.81
257.056	146.81
257.289	146.81
257.521	140.81
257.754	128.81
257.987	139.81
258.22	134.81
258.452	144.81
258.685	150.81
258.918	134.81
259.151	135.81
259.383	138.81
259.616	151.81
259.849	169.81
260.081	160.81
260.314	154.81
260.547	174.81
260.779	159.81
261.012	168.81
261.244	138.81
261.477	152.81
261.71	151.81
261.942	160.81
262.175	153.81
262.407	163.81
262.64	161.81
262.872	149.81
263.105	151.81
263.337	146.81
263.57	145.81
263.802	149.81
264.035	150.81
264.267	146.81
264.499	138.81
264.732	131.81
264.964	130.81
265.197	144.81
265.429	146.81
265.661	138.81
265.894	151.81
266.126	156.81
266.358	147.81
266.591	162.81
266.823	148.81
267.055	147.81
267.287	144.81
267.52	137.81
267.752	146.81
267.984	154.81
268.216	173.81
268.448	138.81
268.681	154.81
268.913	169.81
269.145	164.81
269.377	175.81
269.609	176.81
269.841	179.81
270.073	147.81
270.306	182.81
270.538	172.81
270.77	187.81
271.002	191.81
271.234	178.81
271.466	170.81
271.698	194.81
271.93	171.81
272.162	182.81
272.394	205.81
272.626	186.81
272.858	181.81
273.09	164.81
273.322	170.81
273.553	171.81
273.785	181.81
274.017	176.81
274.249	176.81
274.481	176.81
274.713	180.81
274.945	175.81
275.176	193.81
275.408	168.81
275.64	171.81
275.872	177.81
276.104	184.81
276.335	178.81
276.567	167.81
276.799	178.81
277.031	183.81
277.262	196.81
277.494	199.81
277.726	187.81
277.957	191.81
278.189	189.81
278.421	185.81
278.652	182.81
278.884	180.81
279.115	184.81
279.347	174.81
279.579	208.81
279.81	193.81
280.042	204.81
280.273	192.81
280.505	190.81
280.736	174.81
280.968	179.81
281.199	171.81
281.431	161.81
281.662	183.81
281.894	170.81
282.125	191.81
282.356	187.81
282.588	179.81
282.819	185.81
283.051	186.81
283.282	174.81
283.513	191.81
283.745	177.81
283.976	177.81
284.207	176.81
284.439	186.81
284.67	181.81
284.901	188.81
285.132	182.81
285.364	180.81
285.595	178.81
285.826	188.81
286.057	180.81
286.288	172.81
286.52	176.81
286.751	187.81
286.982	198.81
287.213	175.81
287.444	172.81
287.675	196.81
287.906	194.81
288.138	190.81
288.369	211.81
288.6	191.81
288.831	178.81
289.062	187.81
289.293	185.81
289.524	183.81
289.755	198.81
289.986	181.81
290.217	200.81
290.448	186.81
290.679	193.81
290.91	174.81
291.141	185.81
291.371	190.81
291.602	194.81
291.833	188.81
292.064	197.81
292.295	174.81
292.526	191.81
292.757	185.81
292.987	174.81
293.218	187.81
293.449	176.81
293.68	180.81
293.91	189.81
294.141	184.81
294.372	178.81
294.603	186.81
294.833	174.81
295.064	194.81
295.295	178.81
295.525	184.81
295.756	190.81
295.987	211.81
296.217	213.81
296.448	193.81
296.679	198.81
296.909	194.81
297.14	181.81
297.37	194.81
297.601	202.81
297.831	178.81
298.062	202.81
298.292	198.81
298.523	201.81
298.753	195.81
298.984	204.81
299.214	210.81
299.445	197.81
299.675	185.81
299.905	207.81
300.136	199.81
300.366	209.81
300.597	196.81
300.827	194.81
301.057	197.81
301.288	199.81
301.518	214.81
301.748	189.81
301.979	207.81
302.209	223.81
302.439	204.81
302.669	210.81
302.9	192.81
303.13	197.81
303.36	197.81
303.59	217.81
303.82	207.81
304.051	208.81
304.281	217.81
304.511	203.81
304.741	203.81
304.971	199.81
305.201	178.81
305.431	195.81
305.661	201.81
305.891	208.81
306.121	199.81
306.352	200.81
306.582	214.81
306.812	207.81
307.042	228.81
307.272	210.81
307.502	207.81
307.731	206.81
307.961	215.81
308.191	211.81
308.421	215.81
308.651	223.81
308.881	215.81
309.111	219.81
309.341	221.81
309.571	220.81
309.8	228.81
310.03	228.81
310.26	231.81
310.49	218.81
310.72	217.81
310.949	240.81
311.179	234.81
311.409	235.81
311.639	227.81
311.868	226.81
312.098	240.81
312.328	238.81
312.557	226.81
312.787	238.81
313.017	246.81
313.246	227.81
313.476	238.81
313.706	218.81
313.935	224.81
314.165	244.81
314.394	244.81
314.624	225.81
314.853	233.81
315.083	241.81
315.312	250.81
315.542	235.81
315.771	215.81
316.001	219.81
316.23	221.81
316.46	230.81
316.689	249.81
316.919	230.81
317.148	248.81
317.377	246.81
317.607	261.81
317.836	234.81
318.065	245.81
318.295	212.81
318.524	232.81
318.753	235.81
318.983	207.81
319.212	227.81
319.441	242.81
319.67	229.81
319.9	238.81
320.129	220.81
320.358	226.81
320.587	233.81
320.816	258.81
321.046	257.81
321.275	230.81
321.504	250.81
321.733	228.81
321.962	257.81
322.191	249.81
322.42	247.81
322.649	258.81
322.878	267.81
323.108	251.81
323.337	276.81
323.566	299.81
323.795	302.81
324.024	344.81
324.253	389.81
324.482	568.81
324.71	798.81
324.939	1040.81
325.168	844.81
325.397	469.81
325.626	332.81
325.855	297.81
326.084	296.81
326.313	282.81
326.542	297.81
326.77	313.81
326.999	373.81
327.228	501.81
327.457	711.81
327.686	763.81
327.914	513.81
328.143	376.81
328.372	321.81
328.6	329.81
328.829	328.81
329.058	314.81
329.287	329.81
329.515	306.81
329.744	289.81
329.972	295.81
330.201	295.81
330.43	302.81
330.658	313.81
330.887	328.81
331.115	331.81
331.344	281.81
331.572	290.81
331.801	302.81
332.03	289.81
332.258	273.81
332.486	268.81
332.715	279.81
332.943	275.81
333.172	264.81
333.4	258.81
333.629	289.81
333.857	272.81
334.085	268.81
334.314	296.81
334.542	272.81
334.771	283.81
334.999	277.81
335.227	278.81
335.455	278.81
335.684	263.81
335.912	267.81
336.14	252.81
336.369	262.81
336.597	260.81
336.825	267.81
337.053	266.81
337.281	263.81
337.51	252.81
337.738	268.81
337.966	262.81
338.194	267.81
338.422	271.81
338.65	262.81
338.878	256.81
339.106	250.81
339.334	258.81
339.562	265.81
339.79	255.81
340.018	246.81
340.246	252.81
340.474	257.81
340.702	258.81
340.93	260.81
341.158	250.81
341.386	260.81
341.614	251.81
341.842	257.81
342.07	252.81
342.298	251.81
342.526	276.81
342.754	233.81
342.981	246.81
343.209	250.81
343.437	242.81
343.665	262.81
343.893	263.81
344.12	251.81
344.348	249.81
344.576	257.81
344.804	246.81
345.031	252.81
345.259	252.81
345.487	259.81
345.714	241.81
345.942	259.81
346.17	263.81
346.397	254.81
346.625	240.81
346.853	240.81
347.08	247.81
347.308	259.81
347.535	268.81
347.763	259.81
347.99	243.81
348.218	261.81
348.445	263.81
348.673	274.81
348.9	266.81
349.128	243.81
349.355	218.81
349.583	262.81
349.81	234.81
350.037	239.81
350.265	230.81
350.492	210.81
350.72	231.81
350.947	229.81
351.174	259.81
351.402	255.81
351.629	241.81
351.856	243.81
352.083	247.81
352.311	251.81
352.538	243.81
352.765	235.81
352.992	235.81
353.22	257.81
353.447	245.81
353.674	241.81
353.901	244.81
354.128	226.81
354.355	229.81
354.583	228.81
354.81	250.81
355.037	238.81
355.264	244.81
355.491	238.81
355.718	214.81
355.945	232.81
356.172	250.81
356.399	216.81
356.626	228.81
356.853	244.81
357.08	240.81
357.307	224.81
357.534	227.81
357.761	238.81
357.988	236.81
358.215	254.81
358.441	226.81
358.668	230.81
358.895	215.81
359.122	245.81
359.349	239.81
359.576	253.81
359.802	257.81
360.029	274.81
360.256	267.81
360.483	259.81
360.709	239.81
360.936	227.81
361.163	256.81
361.39	258.81
361.616	235.81
361.843	231.81
362.07	242.81
362.296	242.81
362.523	260.81
362.749	248.81
362.976	230.81
363.203	241.81
363.429	230.81
363.656	229.81
363.882	227.81
364.109	252.81
364.335	247.81
364.562	224.81
364.788	238.81
365.015	244.81
365.241	240.81
365.468	239.81
365.694	242.81
365.92	256.81
366.147	230.81
366.373	227.81
366.599	215.81
366.826	221.81
367.052	223.81
367.278	241.81
367.505	248.81
367.731	228.81
367.957	222.81
368.184	220.81
368.41	243.81
368.636	239.81
368.862	242.81
369.089	232.81
369.315	218.81
369.541	236.81
369.767	227.81
369.993	231.81
370.219	224.81
370.445	233.81
370.672	247.81
370.898	247.81
371.124	240.81
371.35	256.81
371.576	240.81
371.802	241.81
372.028	234.81
372.254	238.81
372.48	225.81
372.706	235.81
372.932	235.81
373.158	238.81
373.384	229.81
373.61	234.81
373.835	242.81
374.061	238.81
374.287	238.81
374.513	218.81
374.739	238.81
374.965	228.81
375.191	238.81
375.416	235.81
375.642	245.81
375.868	226.81
376.094	235.81
376.319	231.81
376.545	234.81
376.771	231.81
376.997	242.81
377.222	246.81
377.448	255.81
377.674	227.81
377.899	225.81
378.125	227.81
378.35	218.81
378.576	227.81
378.802	231.81
379.027	229.81
379.253	216.81
379.478	235.81
379.704	226.81
379.929	234.81
380.155	262.81
380.38	230.81
380.606	233.81
380.831	230.81
381.057	243.81
381.282	240.81
381.507	244.81
381.733	241.81
381.958	245.81
382.184	219.81
382.409	238.81
382.634	257.81
382.86	230.81
383.085	241.81
383.31	232.81
383.535	249.81
383.761	234.81
383.986	247.81
384.211	252.81
384.436	252.81
384.662	256.81
384.887	233.81
385.112	243.81
385.337	256.81
385.562	255.81
385.787	251.81
386.013	262.81
386.238	248.81
386.463	256.81
386.688	260.81
386.913	251.81
387.138	243.81
387.363	253.81
387.588	230.81
387.813	240.81
388.038	240.81
388.263	261.81
388.488	268.81
388.713	255.81
388.938	256.81
389.163	260.81
389.387	250.81
389.612	244.81
389.837	243.81
390.062	245.81
390.287	247.81
390.512	243.81
390.736	246.81
390.961	241.81
391.186	256.81
391.411	247.81
391.636	250.81
391.86	256.81
392.085	243.81
392.31	242.81
392.534	260.81
392.759	254.81
392.984	250.81
393.208	270.81
393.433	271.81
393.658	280.81
393.882	254.81
394.107	261.81
394.331	258.81
394.556	252.81
394.78	252.81
395.005	234.81
395.229	255.81
395.454	269.81
395.678	250.81
395.903	260.81
396.127	275.81
396.352	274.81
396.576	261.81
396.801	274.81
397.025	266.81
397.249	272.81
397.474	271.81
397.698	260.81
397.922	274.81
398.147	254.81
398.371	262.81
398.595	276.81
398.82	258.81
399.044	283.81
399.268	264.81
399.492	299.81
399.717	306.81
399.941	302.81
400.165	294.81
400.389	325.81
400.613	308.81
400.837	271.81
401.062	281.81
401.286	268.81
401.51	280.81
401.734	279.81
401.958	276.81
402.182	269.81
402.406	290.81
402.63	275.81
402.854	272.81
403.078	247.81
403.302	282.81
403.526	281.81
403.75	275.81
403.974	269.81
404.198	266.81
404.422	273.81
404.645	289.81
404.869	278.81
405.093	287.81
405.317	307.81
405.541	310.81
405.765	295.81
405.988	296.81
406.212	299.81
406.436	288.81
406.66	304.81
406.883	292.81
407.107	330.81
407.331	324.81
407.555	345.81
407.778	327.81
408.002	325.81
408.226	313.81
408.449	297.81
408.673	303.81
408.896	324.81
409.12	330.81
409.344	319.81
409.567	290.81
409.791	286.81
410.014	275.81
410.238	269.81
410.461	287.81
410.685	284.81
410.908	282.81
411.132	309.81
411.355	309.81
411.578	290.81
411.802	262.81
412.025	264.81
412.249	269.81
412.472	280.81
412.695	291.81
412.919	302.81
413.142	264.81
413.365	278.81
413.589	269.81
413.812	279.81
414.035	273.81
414.258	260.81
414.482	259.81
414.705	259.81
414.928	276.81
415.151	258.81
415.374	276.81
415.597	271.81
415.821	248.81
416.044	260.81
416.267	270.81
416.49	266.81
416.713	246.81
416.936	271.81
417.159	260.81
417.382	264.81
417.605	253.81
417.828	267.81
418.051	261.81
418.274	263.81
418.497	263.81
418.72	246.81
418.943	268.81
419.166	255.81
419.389	269.81
419.611	274.81
419.834	269.81
420.057	278.81
420.28	274.81
420.503	266.81
420.726	273.81
420.948	265.81
421.171	280.81
421.394	299.81
421.617	286.81
421.839	275.81
422.062	271.81
422.285	302.81
422.507	312.81
422.73	322.81
422.953	314.81
423.175	291.81
423.398	286.81
423.621	279.81
423.843	289.81
424.066	284.81
424.288	306.81
424.511	302.81
424.733	320.81
424.956	364.81
425.178	352.81
425.401	325.81
425.623	350.81
425.846	299.81
426.068	294.81
426.291	282.81
426.513	289.81
426.735	304.81
426.958	316.81
427.18	363.81
427.402	416.81
427.625	463.81
427.847	396.81
428.069	344.81
428.292	307.81
428.514	281.81
428.736	295.81
428.958	269.81
429.181	281.81
429.403	290.81
429.625	283.81
429.847	283.81
430.069	312.81
430.292	306.81
430.514	271.81
430.736	276.81
430.958	256.81
431.18	272.81
431.402	273.81
431.624	245.81
431.846	245.81
432.068	281.81
432.29	272.81
432.512	249.81
432.734	276.81
432.956	257.81
433.178	261.81
433.4	254.81
433.622	270.81
433.844	288.81
434.066	275.81
434.287	246.81
434.509	250.81
434.731	243.81
434.953	268.81
435.175	270.81
435.397	286.81
435.618	309.81
435.84	296.81
436.062	348.81
436.284	389.81
436.505	334.81
436.727	289.81
436.949	290.81
437.17	290.81
437.392	264.81
437.614	270.81
437.835	294.81
438.057	360.81
438.278	380.81
438.5	390.81
438.721	412.81
438.943	402.81
439.165	334.81
439.386	306.81
439.608	310.81
439.829	302.81
440.05	316.81
440.272	323.81
440.493	299.81
440.715	275.81
440.936	304.81
441.158	299.81
441.379	274.81
441.6	284.81
441.822	275.81
442.043	302.81
442.264	332.81
442.486	359.81
442.707	321.81
442.928	306.81
443.149	290.81
443.371	314.81
443.592	350.81
443.813	363.81
444.034	373.81
444.255	345.81
444.476	292.81
444.698	290.81
444.919	289.81
445.14	377.81
445.361	349.81
445.582	312.81
445.803	340.81
446.024	396.81
446.245	388.81
446.466	353.81
446.687	322.81
446.908	309.81
447.129	264.81
447.35	268.81
447.571	269.81
447.792	256.81
448.013	254.81
448.234	284.81
448.455	328.81
448.675	347.81
448.896	396.81
449.117	348.81
449.338	322.81
449.559	366.81
449.779	430.81
450	350.81
450.221	281.81
450.442	273.81
450.662	274.81
450.883	272.81
451.104	254.81
451.324	273.81
451.545	262.81
451.766	264.81
451.986	241.81
452.207	248.81
452.428	242.81
452.648	238.81
452.869	251.81
453.089	239.81
453.31	271.81
453.53	248.81
453.751	248.81
453.971	253.81
454.192	264.81
454.412	240.81
454.633	227.81
454.853	231.81
455.073	223.81
455.294	244.81
455.514	280.81
455.734	275.81
455.955	228.81
456.175	234.81
456.395	228.81
456.616	224.81
456.836	228.81
457.056	236.81
457.276	245.81
457.497	240.81
457.717	235.81
457.937	241.81
458.157	256.81
458.377	241.81
458.598	244.81
458.818	266.81
459.038	283.81
459.258	326.81
459.478	257.81
459.698	260.81
459.918	244.81
460.138	255.81
460.358	251.81
460.578	260.81
460.798	249.81
461.018	265.81
461.238	269.81
461.458	259.81
461.678	267.81
461.898	281.81
462.118	264.81
462.338	276.81
462.558	274.81
462.777	271.81
462.997	291.81
463.217	276.81
463.437	271.81
463.657	295.81
463.876	277.81
464.096	284.81
464.316	286.81
464.536	287.81
464.755	267.81
464.975	269.81
465.195	274.81
465.414	296.81
465.634	283.81
465.854	280.81
466.073	243.81
466.293	254.81
466.512	251.81
466.732	251.81
466.951	244.81
467.171	267.81
467.391	266.81
467.61	274.81
467.829	273.81
468.049	257.81
468.268	252.81
468.488	247.81
468.707	243.81
468.927	266.81
469.146	241.81
469.365	258.81
469.585	247.81
469.804	270.81
470.023	264.81
470.243	258.81
470.462	272.81
470.681	277.81
470.901	247.81
471.12	247.81
471.339	251.81
471.558	251.81
471.777	268.81
471.997	249.81
472.216	261.81
472.435	251.81
472.654	268.81
472.873	258.81
473.092	240.81
473.311	258.81
473.53	256.81
473.749	266.81
473.968	290.81
474.187	333.81
474.406	326.81
474.625	289.81
474.844	256.81
475.063	258.81
475.282	252.81
475.501	257.81
475.72	272.81
475.939	260.81
476.158	266.81
476.377	273.81
476.596	247.81
476.814	258.81
477.033	274.81
477.252	259.81
477.471	266.81
477.69	260.81
477.908	264.81
478.127	289.81
478.346	286.81
478.564	277.81
478.783	275.81
479.002	279.81
479.22	304.81
479.439	294.81
479.658	309.81
479.876	299.81
480.095	304.81
480.313	315.81
480.532	304.81
480.751	305.81
480.969	300.81
481.188	306.81
481.406	326.81
481.624	280.81
481.843	313.81
482.061	294.81
482.28	283.81
482.498	295.81
482.717	295.81
482.935	312.81
483.153	298.81
483.372	282.81
483.59	297.81
483.808	292.81
484.027	297.81
484.245	310.81
484.463	314.81
484.681	302.81
484.9	296.81
485.118	310.81
485.336	311.81
485.554	302.81
485.772	309.81
485.99	299.81
486.209	281.81
486.427	299.81
486.645	327.81
486.863	316.81
487.081	312.81
487.299	307.81
487.517	299.81
487.735	332.81
487.953	319.81
488.171	308.81
488.389	331.81
488.607	307.81
488.825	314.81
489.043	292.81
489.261	320.81
489.479	310.81
489.696	313.81
489.914	309.81
490.132	304.81
490.35	324.81
490.568	327.81
490.786	327.81
491.003	331.81
491.221	348.81
491.439	357.81
491.657	337.81
491.874	358.81
492.092	345.81
492.31	350.81
492.527	362.81
492.745	350.81
492.963	339.81
493.18	350.81
493.398	350.81
493.615	327.81
493.833	340.81
494.05	380.81
494.268	354.81
494.485	354.81
494.703	359.81
494.92	351.81
495.138	376.81
495.355	363.81
495.573	378.81
495.79	363.81
496.008	350.81
496.225	362.81
496.442	353.81
496.66	355.81
496.877	357.81
497.094	371.81
497.312	364.81
497.529	395.81
497.746	368.81
497.963	377.81
498.181	378.81
498.398	386.81
498.615	413.81
498.832	400.81
499.049	414.81
499.267	412.81
499.484	416.81
499.701	426.81
499.918	442.81
500.135	455.81
500.352	471.81
500.569	491.81
500.786	486.81
501.003	457.81
501.22	430.81
501.437	472.81
501.654	442.81
501.871	414.81
502.088	425.81
502.305	399.81
502.522	401.81
