Data from 1982.PennyLincolnUp.Lamp.En5.5.200Scan.071819.P1_HRD10591_16-46-06-961.txt Node
Date: Thu Jul 18 16:46:06 EDT 2019
User: cochatt
Spectrometer: HR+D1059
Trigger mode: 1
Integration Time (sec): 1.000000E-1
Scans to average: 1
Electric dark correction enabled: true
Nonlinearity correction enabled: false
Boxcar width: 0
XAxis mode: Wavelengths
Number of Pixels in Spectrum: 2048
>>>>>Begin Spectral Data<<<<<
223.165	-15.62
223.4	-15.62
223.635	-15.62
223.869	-16.62
224.104	-24.62
224.338	-7.62
224.573	-8.62
224.808	-12.62
225.042	2.38
225.277	-12.62
225.511	-11.62
225.746	5.38
225.98	-4.62
226.215	10.38
226.449	18.38
226.683	20.38
226.918	35.38
227.152	22.38
227.387	26.38
227.621	35.38
227.856	41.38
228.09	58.38
228.324	51.38
228.559	57.38
228.793	52.38
229.027	78.38
229.262	79.38
229.496	103.38
229.73	104.38
229.964	119.38
230.199	119.38
230.433	105.38
230.667	99.38
230.901	90.38
231.136	100.38
231.37	111.38
231.604	92.38
231.838	96.38
232.072	109.38
232.306	101.38
232.541	103.38
232.775	105.38
233.009	99.38
233.243	100.38
233.477	102.38
233.711	84.38
233.945	107.38
234.179	87.38
234.413	101.38
234.647	113.38
234.881	98.38
235.115	111.38
235.349	111.38
235.583	107.38
235.817	103.38
236.051	107.38
236.285	103.38
236.519	115.38
236.753	117.38
236.987	123.38
237.221	160.38
237.455	169.38
237.689	134.38
237.922	112.38
238.156	115.38
238.39	109.38
238.624	107.38
238.858	117.38
239.091	113.38
239.325	97.38
239.559	106.38
239.793	116.38
240.027	106.38
240.26	107.38
240.494	136.38
240.728	116.38
240.961	105.38
241.195	118.38
241.429	121.38
241.662	106.38
241.896	117.38
242.13	113.38
242.363	112.38
242.597	114.38
242.83	118.38
243.064	112.38
243.298	109.38
243.531	117.38
243.765	104.38
243.998	121.38
244.232	123.38
244.465	123.38
244.699	128.38
244.932	116.38
245.166	101.38
245.399	115.38
245.633	96.38
245.866	124.38
246.099	115.38
246.333	122.38
246.566	111.38
246.8	122.38
247.033	120.38
247.266	136.38
247.5	142.38
247.733	134.38
247.966	124.38
248.2	145.38
248.433	138.38
248.666	140.38
248.899	126.38
249.133	152.38
249.366	172.38
249.599	151.38
249.832	147.38
250.066	154.38
250.299	153.38
250.532	156.38
250.765	164.38
250.998	154.38
251.231	179.38
251.465	168.38
251.698	164.38
251.931	159.38
252.164	167.38
252.397	171.38
252.63	166.38
252.863	165.38
253.096	181.38
253.329	194.38
253.562	191.38
253.795	189.38
254.028	187.38
254.261	175.38
254.494	182.38
254.727	176.38
254.96	203.38
255.193	196.38
255.426	182.38
255.659	196.38
255.892	175.38
256.124	194.38
256.357	181.38
256.59	185.38
256.823	199.38
257.056	181.38
257.289	161.38
257.521	171.38
257.754	179.38
257.987	165.38
258.22	172.38
258.452	169.38
258.685	171.38
258.918	161.38
259.151	164.38
259.383	173.38
259.616	183.38
259.849	178.38
260.081	187.38
260.314	203.38
260.547	192.38
260.779	189.38
261.012	176.38
261.244	176.38
261.477	169.38
261.71	174.38
261.942	189.38
262.175	176.38
262.407	189.38
262.64	167.38
262.872	161.38
263.105	183.38
263.337	165.38
263.57	168.38
263.802	153.38
264.035	163.38
264.267	160.38
264.499	163.38
264.732	162.38
264.964	176.38
265.197	164.38
265.429	156.38
265.661	180.38
265.894	173.38
266.126	181.38
266.358	171.38
266.591	171.38
266.823	179.38
267.055	166.38
267.287	159.38
267.52	165.38
267.752	178.38
267.984	182.38
268.216	170.38
268.448	175.38
268.681	178.38
268.913	187.38
269.145	204.38
269.377	217.38
269.609	194.38
269.841	187.38
270.073	200.38
270.306	223.38
270.538	239.38
270.77	247.38
271.002	222.38
271.234	221.38
271.466	220.38
271.698	217.38
271.93	239.38
272.162	229.38
272.394	227.38
272.626	245.38
272.858	214.38
273.09	205.38
273.322	212.38
273.553	204.38
273.785	206.38
274.017	200.38
274.249	207.38
274.481	211.38
274.713	208.38
274.945	216.38
275.176	217.38
275.408	203.38
275.64	196.38
275.872	211.38
276.104	207.38
276.335	205.38
276.567	209.38
276.799	203.38
277.031	240.38
277.262	238.38
277.494	210.38
277.726	226.38
277.957	236.38
278.189	217.38
278.421	219.38
278.652	199.38
278.884	208.38
279.115	204.38
279.347	213.38
279.579	218.38
279.81	192.38
280.042	214.38
280.273	197.38
280.505	197.38
280.736	204.38
280.968	198.38
281.199	212.38
281.431	220.38
281.662	203.38
281.894	201.38
282.125	204.38
282.356	206.38
282.588	243.38
282.819	220.38
283.051	213.38
283.282	209.38
283.513	208.38
283.745	203.38
283.976	209.38
284.207	217.38
284.439	211.38
284.67	217.38
284.901	224.38
285.132	213.38
285.364	208.38
285.595	209.38
285.826	224.38
286.057	218.38
286.288	216.38
286.52	216.38
286.751	209.38
286.982	207.38
287.213	219.38
287.444	213.38
287.675	220.38
287.906	211.38
288.138	235.38
288.369	225.38
288.6	228.38
288.831	222.38
289.062	231.38
289.293	222.38
289.524	213.38
289.755	225.38
289.986	230.38
290.217	221.38
290.448	210.38
290.679	213.38
290.91	222.38
291.141	213.38
291.371	228.38
291.602	218.38
291.833	216.38
292.064	208.38
292.295	216.38
292.526	227.38
292.757	224.38
292.987	208.38
293.218	205.38
293.449	218.38
293.68	222.38
293.91	237.38
294.141	213.38
294.372	213.38
294.603	220.38
294.833	215.38
295.064	225.38
295.295	206.38
295.525	223.38
295.756	215.38
295.987	217.38
296.217	238.38
296.448	231.38
296.679	225.38
296.909	229.38
297.14	234.38
297.37	225.38
297.601	239.38
297.831	215.38
298.062	220.38
298.292	222.38
298.523	222.38
298.753	225.38
298.984	228.38
299.214	221.38
299.445	227.38
299.675	223.38
299.905	212.38
300.136	231.38
300.366	217.38
300.597	228.38
300.827	231.38
301.057	221.38
301.288	245.38
301.518	245.38
301.748	234.38
301.979	245.38
302.209	237.38
302.439	232.38
302.669	243.38
302.9	231.38
303.13	225.38
303.36	230.38
303.59	238.38
303.82	255.38
304.051	241.38
304.281	235.38
304.511	232.38
304.741	219.38
304.971	248.38
305.201	241.38
305.431	240.38
305.661	241.38
305.891	239.38
306.121	247.38
306.352	243.38
306.582	247.38
306.812	245.38
307.042	248.38
307.272	248.38
307.502	248.38
307.731	238.38
307.961	231.38
308.191	236.38
308.421	232.38
308.651	236.38
308.881	257.38
309.111	271.38
309.341	251.38
309.571	277.38
309.8	274.38
310.03	290.38
310.26	299.38
310.49	291.38
310.72	298.38
310.949	288.38
311.179	315.38
311.409	284.38
311.639	289.38
311.868	279.38
312.098	294.38
312.328	279.38
312.557	327.38
312.787	298.38
313.017	315.38
313.246	277.38
313.476	291.38
313.706	279.38
313.935	275.38
314.165	278.38
314.394	283.38
314.624	284.38
314.853	288.38
315.083	297.38
315.312	273.38
315.542	275.38
315.771	269.38
316.001	273.38
316.23	275.38
316.46	293.38
316.689	279.38
316.919	287.38
317.148	291.38
317.377	304.38
317.607	280.38
317.836	286.38
318.065	278.38
318.295	305.38
318.524	291.38
318.753	266.38
318.983	270.38
319.212	289.38
319.441	280.38
319.67	286.38
319.9	311.38
320.129	288.38
320.358	281.38
320.587	294.38
320.816	298.38
321.046	316.38
321.275	306.38
321.504	288.38
321.733	316.38
321.962	287.38
322.191	321.38
322.42	313.38
322.649	352.38
322.878	339.38
323.108	370.38
323.337	364.38
323.566	387.38
323.795	435.38
324.024	473.38
324.253	589.38
324.482	842.38
324.71	1259.38
324.939	1639.38
325.168	1318.38
325.397	737.38
325.626	504.38
325.855	438.38
326.084	385.38
326.313	395.38
326.542	401.38
326.77	433.38
326.999	545.38
327.228	725.38
327.457	1087.38
327.686	1210.38
327.914	810.38
328.143	563.38
328.372	460.38
328.6	439.38
328.829	453.38
329.058	435.38
329.287	449.38
329.515	425.38
329.744	389.38
329.972	381.38
330.201	400.38
330.43	414.38
330.658	433.38
330.887	449.38
331.115	423.38
331.344	395.38
331.572	380.38
331.801	369.38
332.03	364.38
332.258	360.38
332.486	319.38
332.715	329.38
332.943	340.38
333.172	329.38
333.4	333.38
333.629	345.38
333.857	346.38
334.085	353.38
334.314	360.38
334.542	383.38
334.771	397.38
334.999	368.38
335.227	347.38
335.455	333.38
335.684	338.38
335.912	328.38
336.14	327.38
336.369	304.38
336.597	317.38
336.825	314.38
337.053	319.38
337.281	303.38
337.51	322.38
337.738	308.38
337.966	334.38
338.194	331.38
338.422	327.38
338.65	326.38
338.878	313.38
339.106	283.38
339.334	305.38
339.562	318.38
339.79	303.38
340.018	321.38
340.246	321.38
340.474	310.38
340.702	332.38
340.93	324.38
341.158	288.38
341.386	312.38
341.614	315.38
341.842	326.38
342.07	295.38
342.298	301.38
342.526	293.38
342.754	313.38
342.981	296.38
343.209	313.38
343.437	297.38
343.665	308.38
343.893	283.38
344.12	316.38
344.348	301.38
344.576	313.38
344.804	298.38
345.031	311.38
345.259	323.38
345.487	322.38
345.714	312.38
345.942	320.38
346.17	311.38
346.397	308.38
346.625	306.38
346.853	310.38
347.08	300.38
347.308	296.38
347.535	310.38
347.763	319.38
347.99	315.38
348.218	303.38
348.445	297.38
348.673	307.38
348.9	298.38
349.128	276.38
349.355	294.38
349.583	287.38
349.81	291.38
350.037	308.38
350.265	292.38
350.492	286.38
350.72	283.38
350.947	305.38
351.174	275.38
351.402	311.38
351.629	311.38
351.856	296.38
352.083	303.38
352.311	299.38
352.538	312.38
352.765	290.38
352.992	309.38
353.22	290.38
353.447	295.38
353.674	298.38
353.901	292.38
354.128	272.38
354.355	267.38
354.583	295.38
354.81	286.38
355.037	264.38
355.264	267.38
355.491	255.38
355.718	272.38
355.945	282.38
356.172	263.38
356.399	281.38
356.626	264.38
356.853	262.38
357.08	289.38
357.307	277.38
357.534	274.38
357.761	280.38
357.988	276.38
358.215	279.38
358.441	250.38
358.668	282.38
358.895	284.38
359.122	286.38
359.349	281.38
359.576	295.38
359.802	317.38
360.029	340.38
360.256	323.38
360.483	325.38
360.709	301.38
360.936	303.38
361.163	280.38
361.39	277.38
361.616	296.38
361.843	297.38
362.07	314.38
362.296	310.38
362.523	298.38
362.749	281.38
362.976	285.38
363.203	264.38
363.429	290.38
363.656	291.38
363.882	260.38
364.109	280.38
364.335	282.38
364.562	274.38
364.788	278.38
365.015	280.38
365.241	274.38
365.468	282.38
365.694	280.38
365.92	292.38
366.147	261.38
366.373	270.38
366.599	278.38
366.826	270.38
367.052	248.38
367.278	273.38
367.505	269.38
367.731	275.38
367.957	285.38
368.184	287.38
368.41	286.38
368.636	291.38
368.862	304.38
369.089	272.38
369.315	281.38
369.541	267.38
369.767	283.38
369.993	270.38
370.219	273.38
370.445	270.38
370.672	281.38
370.898	252.38
371.124	278.38
371.35	268.38
371.576	273.38
371.802	274.38
372.028	257.38
372.254	256.38
372.48	266.38
372.706	245.38
372.932	253.38
373.158	264.38
373.384	269.38
373.61	277.38
373.835	265.38
374.061	268.38
374.287	276.38
374.513	282.38
374.739	279.38
374.965	285.38
375.191	285.38
375.416	280.38
375.642	265.38
375.868	256.38
376.094	262.38
376.319	243.38
376.545	272.38
376.771	287.38
376.997	261.38
377.222	266.38
377.448	264.38
377.674	264.38
377.899	269.38
378.125	244.38
378.35	271.38
378.576	259.38
378.802	279.38
379.027	261.38
379.253	258.38
379.478	259.38
379.704	267.38
379.929	272.38
380.155	281.38
380.38	280.38
380.606	272.38
380.831	266.38
381.057	283.38
381.282	272.38
381.507	266.38
381.733	275.38
381.958	268.38
382.184	269.38
382.409	282.38
382.634	265.38
382.86	252.38
383.085	264.38
383.31	260.38
383.535	291.38
383.761	279.38
383.986	273.38
384.211	273.38
384.436	274.38
384.662	283.38
384.887	277.38
385.112	273.38
385.337	287.38
385.562	274.38
385.787	291.38
386.013	269.38
386.238	268.38
386.463	280.38
386.688	279.38
386.913	276.38
387.138	283.38
387.363	276.38
387.588	291.38
387.813	281.38
388.038	276.38
388.263	279.38
388.488	283.38
388.713	278.38
388.938	261.38
389.163	272.38
389.387	283.38
389.612	270.38
389.837	263.38
390.062	280.38
390.287	275.38
390.512	265.38
390.736	266.38
390.961	279.38
391.186	294.38
391.411	298.38
391.636	275.38
391.86	279.38
392.085	297.38
392.31	281.38
392.534	269.38
392.759	288.38
392.984	264.38
393.208	278.38
393.433	270.38
393.658	265.38
393.882	268.38
394.107	283.38
394.331	272.38
394.556	288.38
394.78	276.38
395.005	277.38
395.229	277.38
395.454	270.38
395.678	288.38
395.903	298.38
396.127	323.38
396.352	304.38
396.576	292.38
396.801	289.38
397.025	283.38
397.249	277.38
397.474	285.38
397.698	303.38
397.922	303.38
398.147	300.38
398.371	303.38
398.595	303.38
398.82	298.38
399.044	311.38
399.268	317.38
399.492	324.38
399.717	331.38
399.941	348.38
400.165	359.38
400.389	352.38
400.613	329.38
400.837	330.38
401.062	304.38
401.286	308.38
401.51	311.38
401.734	281.38
401.958	292.38
402.182	313.38
402.406	325.38
402.63	323.38
402.854	317.38
403.078	316.38
403.302	317.38
403.526	310.38
403.75	311.38
403.974	312.38
404.198	303.38
404.422	309.38
404.645	325.38
404.869	330.38
405.093	339.38
405.317	369.38
405.541	375.38
405.765	357.38
405.988	345.38
406.212	334.38
406.436	342.38
406.66	355.38
406.883	358.38
407.107	372.38
407.331	389.38
407.555	404.38
407.778	383.38
408.002	399.38
408.226	362.38
408.449	349.38
408.673	342.38
408.896	340.38
409.12	372.38
409.344	383.38
409.567	328.38
409.791	317.38
410.014	315.38
410.238	323.38
410.461	320.38
410.685	328.38
410.908	326.38
411.132	361.38
411.355	374.38
411.578	354.38
411.802	323.38
412.025	329.38
412.249	318.38
412.472	331.38
412.695	337.38
412.919	330.38
413.142	321.38
413.365	297.38
413.589	307.38
413.812	313.38
414.035	303.38
414.258	285.38
414.482	310.38
414.705	300.38
414.928	297.38
415.151	298.38
415.374	301.38
415.597	287.38
415.821	290.38
416.044	292.38
416.267	297.38
416.49	290.38
416.713	294.38
416.936	288.38
417.159	310.38
417.382	303.38
417.605	317.38
417.828	327.38
418.051	294.38
418.274	317.38
418.497	316.38
418.72	291.38
418.943	315.38
419.166	307.38
419.389	315.38
419.611	309.38
419.834	336.38
420.057	310.38
420.28	314.38
420.503	316.38
420.726	303.38
420.948	332.38
421.171	375.38
421.394	364.38
421.617	342.38
421.839	315.38
422.062	322.38
422.285	329.38
422.507	378.38
422.73	399.38
422.953	397.38
423.175	358.38
423.398	334.38
423.621	325.38
423.843	351.38
424.066	331.38
424.288	316.38
424.511	340.38
424.733	381.38
424.956	427.38
425.178	415.38
425.401	412.38
425.623	426.38
425.846	351.38
426.068	355.38
426.291	330.38
426.513	319.38
426.735	340.38
426.958	362.38
427.18	432.38
427.402	495.38
427.625	560.38
427.847	485.38
428.069	409.38
428.292	378.38
428.514	344.38
428.736	324.38
428.958	321.38
429.181	316.38
429.403	315.38
429.625	312.38
429.847	344.38
430.069	395.38
430.292	375.38
430.514	326.38
430.736	328.38
430.958	315.38
431.18	303.38
431.402	291.38
431.624	294.38
431.846	290.38
432.068	287.38
432.29	304.38
432.512	278.38
432.734	285.38
432.956	311.38
433.178	311.38
433.4	312.38
433.622	299.38
433.844	312.38
434.066	294.38
434.287	268.38
434.509	322.38
434.731	312.38
434.953	310.38
435.175	320.38
435.397	341.38
435.618	345.38
435.84	374.38
436.062	427.38
436.284	439.38
436.505	385.38
436.727	363.38
436.949	348.38
437.17	316.38
437.392	333.38
437.614	326.38
437.835	345.38
438.057	418.38
438.278	475.38
438.5	486.38
438.721	504.38
438.943	479.38
439.165	391.38
439.386	364.38
439.608	354.38
439.829	360.38
440.05	373.38
440.272	405.38
440.493	381.38
440.715	361.38
440.936	324.38
441.158	341.38
441.379	324.38
441.6	331.38
441.822	350.38
442.043	372.38
442.264	421.38
442.486	414.38
442.707	378.38
442.928	354.38
443.149	355.38
443.371	368.38
443.592	391.38
443.813	443.38
444.034	474.38
444.255	411.38
444.476	351.38
444.698	332.38
444.919	347.38
445.14	431.38
445.361	383.38
445.582	376.38
445.803	420.38
446.024	461.38
446.245	481.38
446.466	414.38
446.687	378.38
446.908	357.38
447.129	337.38
447.35	325.38
447.571	319.38
447.792	327.38
448.013	328.38
448.234	323.38
448.455	372.38
448.675	444.38
448.896	495.38
449.117	429.38
449.338	374.38
449.559	473.38
449.779	498.38
450	417.38
450.221	360.38
450.442	323.38
450.662	331.38
450.883	320.38
451.104	324.38
451.324	312.38
451.545	311.38
451.766	312.38
451.986	296.38
452.207	308.38
452.428	290.38
452.648	280.38
452.869	281.38
453.089	281.38
453.31	314.38
453.53	295.38
453.751	283.38
453.971	295.38
454.192	304.38
454.412	292.38
454.633	279.38
454.853	291.38
455.073	291.38
455.294	315.38
455.514	353.38
455.734	333.38
455.955	314.38
456.175	265.38
456.395	270.38
456.616	264.38
456.836	257.38
457.056	259.38
457.276	265.38
457.497	274.38
457.717	279.38
457.937	277.38
458.157	279.38
458.377	309.38
458.598	281.38
458.818	343.38
459.038	378.38
459.258	399.38
459.478	335.38
459.698	313.38
459.918	278.38
460.138	289.38
460.358	273.38
460.578	295.38
460.798	306.38
461.018	281.38
461.238	279.38
461.458	289.38
461.678	266.38
461.898	292.38
462.118	310.38
462.338	294.38
462.558	300.38
462.777	318.38
462.997	306.38
463.217	314.38
463.437	303.38
463.657	292.38
463.876	290.38
464.096	300.38
464.316	320.38
464.536	312.38
464.755	322.38
464.975	324.38
465.195	353.38
465.414	391.38
465.634	343.38
465.854	315.38
466.073	297.38
466.293	305.38
466.512	287.38
466.732	270.38
466.951	280.38
467.171	297.38
467.391	273.38
467.61	280.38
467.829	290.38
468.049	291.38
468.268	279.38
468.488	285.38
468.707	273.38
468.927	275.38
469.146	296.38
469.365	290.38
469.585	273.38
469.804	284.38
470.023	269.38
470.243	298.38
470.462	295.38
470.681	294.38
470.901	301.38
471.12	296.38
471.339	310.38
471.558	283.38
471.777	307.38
471.997	299.38
472.216	294.38
472.435	328.38
472.654	303.38
472.873	292.38
473.092	283.38
473.311	298.38
473.53	323.38
473.749	315.38
473.968	345.38
474.187	402.38
474.406	388.38
474.625	332.38
474.844	293.38
475.063	296.38
475.282	287.38
475.501	289.38
475.72	296.38
475.939	297.38
476.158	312.38
476.377	294.38
476.596	289.38
476.814	297.38
477.033	291.38
477.252	297.38
477.471	328.38
477.69	303.38
477.908	332.38
478.127	314.38
478.346	319.38
478.564	309.38
478.783	294.38
479.002	331.38
479.22	329.38
479.439	310.38
479.658	338.38
479.876	336.38
480.095	339.38
480.313	369.38
480.532	356.38
480.751	353.38
480.969	369.38
481.188	409.38
481.406	415.38
481.624	378.38
481.843	356.38
482.061	365.38
482.28	352.38
482.498	337.38
482.717	336.38
482.935	336.38
483.153	328.38
483.372	352.38
483.59	340.38
483.808	324.38
484.027	332.38
484.245	344.38
484.463	364.38
484.681	370.38
484.9	349.38
485.118	332.38
485.336	337.38
485.554	353.38
485.772	353.38
485.99	347.38
486.209	358.38
486.427	345.38
486.645	359.38
486.863	360.38
487.081	364.38
487.299	373.38
487.517	360.38
487.735	353.38
487.953	365.38
488.171	374.38
488.389	377.38
488.607	364.38
488.825	368.38
489.043	375.38
489.261	383.38
489.479	352.38
489.696	379.38
489.914	377.38
490.132	373.38
490.35	385.38
490.568	391.38
490.786	385.38
491.003	388.38
491.221	379.38
491.439	395.38
491.657	407.38
491.874	395.38
492.092	411.38
492.31	415.38
492.527	401.38
492.745	422.38
492.963	412.38
493.18	404.38
493.398	424.38
493.615	422.38
493.833	449.38
494.05	414.38
494.268	419.38
494.485	395.38
494.703	419.38
494.92	438.38
495.138	428.38
495.355	406.38
495.573	439.38
495.79	399.38
496.008	420.38
496.225	426.38
496.442	434.38
496.66	412.38
496.877	405.38
497.094	438.38
497.312	437.38
497.529	434.38
497.746	442.38
497.963	443.38
498.181	440.38
498.398	468.38
498.615	454.38
498.832	459.38
499.049	451.38
499.267	481.38
499.484	485.38
499.701	472.38
499.918	489.38
500.135	513.38
500.352	511.38
500.569	506.38
500.786	524.38
501.003	523.38
501.22	525.38
501.437	524.38
501.654	508.38
501.871	507.38
502.088	486.38
