Data from 1982.PennyLincolnUp.Lamp.En5.5.200Scan.071819.P1_HRD10591_16-44-54-961.txt Node
Date: Thu Jul 18 16:44:54 EDT 2019
User: cochatt
Spectrometer: HR+D1059
Trigger mode: 1
Integration Time (sec): 1.000000E-1
Scans to average: 1
Electric dark correction enabled: true
Nonlinearity correction enabled: false
Boxcar width: 0
XAxis mode: Wavelengths
Number of Pixels in Spectrum: 2048
>>>>>Begin Spectral Data<<<<<
223.165	-12.25
223.4	-12.25
223.635	-12.25
223.869	-18.25
224.104	-22.25
224.338	-17.25
224.573	-19.25
224.808	-11.25
225.042	3.75
225.277	-2.25
225.511	1.75
225.746	14.75
225.98	-6.25
226.215	-5.25
226.449	16.75
226.683	24.75
226.918	23.75
227.152	28.75
227.387	34.75
227.621	34.75
227.856	39.75
228.09	35.75
228.324	41.75
228.559	59.75
228.793	65.75
229.027	79.75
229.262	89.75
229.496	95.75
229.73	104.75
229.964	108.75
230.199	95.75
230.433	104.75
230.667	103.75
230.901	97.75
231.136	101.75
231.37	82.75
231.604	92.75
231.838	101.75
232.072	96.75
232.306	106.75
232.541	91.75
232.775	80.75
233.009	89.75
233.243	102.75
233.477	96.75
233.711	98.75
233.945	109.75
234.179	112.75
234.413	121.75
234.647	105.75
234.881	115.75
235.115	91.75
235.349	109.75
235.583	101.75
235.817	95.75
236.051	103.75
236.285	106.75
236.519	105.75
236.753	91.75
236.987	119.75
237.221	125.75
237.455	162.75
237.689	135.75
237.922	119.75
238.156	112.75
238.39	100.75
238.624	117.75
238.858	127.75
239.091	109.75
239.325	113.75
239.559	97.75
239.793	109.75
240.027	111.75
240.26	119.75
240.494	119.75
240.728	118.75
240.961	97.75
241.195	106.75
241.429	115.75
241.662	104.75
241.896	93.75
242.13	106.75
242.363	114.75
242.597	117.75
242.83	108.75
243.064	104.75
243.298	102.75
243.531	121.75
243.765	105.75
243.998	117.75
244.232	107.75
244.465	91.75
244.699	119.75
244.932	124.75
245.166	103.75
245.399	118.75
245.633	107.75
245.866	115.75
246.099	138.75
246.333	107.75
246.566	120.75
246.8	122.75
247.033	139.75
247.266	134.75
247.5	126.75
247.733	137.75
247.966	131.75
248.2	124.75
248.433	146.75
248.666	142.75
248.899	127.75
249.133	136.75
249.366	146.75
249.599	136.75
249.832	143.75
250.066	123.75
250.299	140.75
250.532	136.75
250.765	150.75
250.998	166.75
251.231	156.75
251.465	131.75
251.698	138.75
251.931	145.75
252.164	137.75
252.397	134.75
252.63	147.75
252.863	157.75
253.096	163.75
253.329	162.75
253.562	150.75
253.795	153.75
254.028	137.75
254.261	149.75
254.494	181.75
254.727	159.75
254.96	177.75
255.193	176.75
255.426	178.75
255.659	168.75
255.892	155.75
256.124	155.75
256.357	156.75
256.59	155.75
256.823	155.75
257.056	152.75
257.289	154.75
257.521	159.75
257.754	155.75
257.987	145.75
258.22	159.75
258.452	128.75
258.685	154.75
258.918	152.75
259.151	153.75
259.383	164.75
259.616	163.75
259.849	153.75
260.081	163.75
260.314	166.75
260.547	168.75
260.779	162.75
261.012	166.75
261.244	169.75
261.477	172.75
261.71	154.75
261.942	172.75
262.175	173.75
262.407	163.75
262.64	150.75
262.872	141.75
263.105	152.75
263.337	148.75
263.57	155.75
263.802	150.75
264.035	170.75
264.267	139.75
264.499	149.75
264.732	147.75
264.964	142.75
265.197	155.75
265.429	145.75
265.661	155.75
265.894	158.75
266.126	158.75
266.358	160.75
266.591	149.75
266.823	170.75
267.055	153.75
267.287	170.75
267.52	155.75
267.752	163.75
267.984	163.75
268.216	163.75
268.448	156.75
268.681	159.75
268.913	163.75
269.145	179.75
269.377	180.75
269.609	196.75
269.841	176.75
270.073	189.75
270.306	182.75
270.538	218.75
270.77	202.75
271.002	207.75
271.234	185.75
271.466	200.75
271.698	206.75
271.93	210.75
272.162	211.75
272.394	200.75
272.626	201.75
272.858	191.75
273.09	183.75
273.322	179.75
273.553	180.75
273.785	184.75
274.017	168.75
274.249	179.75
274.481	171.75
274.713	187.75
274.945	187.75
275.176	183.75
275.408	164.75
275.64	183.75
275.872	163.75
276.104	199.75
276.335	183.75
276.567	188.75
276.799	194.75
277.031	189.75
277.262	192.75
277.494	216.75
277.726	218.75
277.957	197.75
278.189	197.75
278.421	184.75
278.652	196.75
278.884	170.75
279.115	175.75
279.347	184.75
279.579	180.75
279.81	191.75
280.042	186.75
280.273	187.75
280.505	183.75
280.736	189.75
280.968	177.75
281.199	176.75
281.431	191.75
281.662	194.75
281.894	187.75
282.125	166.75
282.356	205.75
282.588	196.75
282.819	191.75
283.051	190.75
283.282	185.75
283.513	182.75
283.745	178.75
283.976	207.75
284.207	204.75
284.439	203.75
284.67	196.75
284.901	200.75
285.132	199.75
285.364	187.75
285.595	192.75
285.826	184.75
286.057	190.75
286.288	185.75
286.52	188.75
286.751	171.75
286.982	202.75
287.213	185.75
287.444	182.75
287.675	202.75
287.906	201.75
288.138	202.75
288.369	201.75
288.6	216.75
288.831	200.75
289.062	209.75
289.293	212.75
289.524	188.75
289.755	204.75
289.986	204.75
290.217	175.75
290.448	190.75
290.679	197.75
290.91	201.75
291.141	189.75
291.371	212.75
291.602	197.75
291.833	178.75
292.064	181.75
292.295	197.75
292.526	209.75
292.757	200.75
292.987	186.75
293.218	197.75
293.449	191.75
293.68	223.75
293.91	201.75
294.141	206.75
294.372	187.75
294.603	201.75
294.833	193.75
295.064	199.75
295.295	204.75
295.525	199.75
295.756	191.75
295.987	188.75
296.217	207.75
296.448	218.75
296.679	199.75
296.909	201.75
297.14	215.75
297.37	198.75
297.601	213.75
297.831	194.75
298.062	212.75
298.292	201.75
298.523	204.75
298.753	220.75
298.984	208.75
299.214	194.75
299.445	186.75
299.675	205.75
299.905	215.75
300.136	201.75
300.366	200.75
300.597	213.75
300.827	207.75
301.057	207.75
301.288	201.75
301.518	212.75
301.748	207.75
301.979	209.75
302.209	205.75
302.439	210.75
302.669	219.75
302.9	211.75
303.13	216.75
303.36	215.75
303.59	203.75
303.82	214.75
304.051	208.75
304.281	212.75
304.511	216.75
304.741	211.75
304.971	222.75
305.201	219.75
305.431	219.75
305.661	207.75
305.891	215.75
306.121	207.75
306.352	215.75
306.582	217.75
306.812	217.75
307.042	229.75
307.272	226.75
307.502	219.75
307.731	221.75
307.961	217.75
308.191	208.75
308.421	212.75
308.651	230.75
308.881	222.75
309.111	213.75
309.341	223.75
309.571	223.75
309.8	231.75
310.03	238.75
310.26	239.75
310.49	217.75
310.72	240.75
310.949	250.75
311.179	256.75
311.409	228.75
311.639	240.75
311.868	241.75
312.098	238.75
312.328	246.75
312.557	268.75
312.787	261.75
313.017	263.75
313.246	250.75
313.476	236.75
313.706	243.75
313.935	225.75
314.165	252.75
314.394	260.75
314.624	249.75
314.853	254.75
315.083	247.75
315.312	253.75
315.542	254.75
315.771	245.75
316.001	230.75
316.23	231.75
316.46	236.75
316.689	222.75
316.919	246.75
317.148	240.75
317.377	267.75
317.607	252.75
317.836	221.75
318.065	241.75
318.295	246.75
318.524	245.75
318.753	245.75
318.983	241.75
319.212	255.75
319.441	247.75
319.67	238.75
319.9	257.75
320.129	255.75
320.358	246.75
320.587	240.75
320.816	240.75
321.046	252.75
321.275	263.75
321.504	248.75
321.733	279.75
321.962	262.75
322.191	260.75
322.42	289.75
322.649	279.75
322.878	286.75
323.108	278.75
323.337	292.75
323.566	338.75
323.795	319.75
324.024	358.75
324.253	422.75
324.482	604.75
324.71	901.75
324.939	1152.75
325.168	955.75
325.397	517.75
325.626	391.75
325.855	328.75
326.084	301.75
326.313	316.75
326.542	303.75
326.77	359.75
326.999	405.75
327.228	556.75
327.457	764.75
327.686	854.75
327.914	583.75
328.143	389.75
328.372	367.75
328.6	361.75
328.829	339.75
329.058	339.75
329.287	346.75
329.515	324.75
329.744	309.75
329.972	315.75
330.201	316.75
330.43	340.75
330.658	350.75
330.887	352.75
331.115	346.75
331.344	316.75
331.572	307.75
331.801	292.75
332.03	293.75
332.258	296.75
332.486	293.75
332.715	296.75
332.943	273.75
333.172	281.75
333.4	269.75
333.629	281.75
333.857	284.75
334.085	292.75
334.314	304.75
334.542	304.75
334.771	312.75
334.999	305.75
335.227	296.75
335.455	283.75
335.684	277.75
335.912	291.75
336.14	291.75
336.369	274.75
336.597	280.75
336.825	264.75
337.053	267.75
337.281	270.75
337.51	260.75
337.738	257.75
337.966	255.75
338.194	281.75
338.422	280.75
338.65	259.75
338.878	272.75
339.106	268.75
339.334	272.75
339.562	287.75
339.79	285.75
340.018	267.75
340.246	254.75
340.474	274.75
340.702	267.75
340.93	267.75
341.158	261.75
341.386	276.75
341.614	277.75
341.842	264.75
342.07	265.75
342.298	269.75
342.526	276.75
342.754	252.75
342.981	247.75
343.209	249.75
343.437	271.75
343.665	271.75
343.893	270.75
344.12	287.75
344.348	271.75
344.576	269.75
344.804	258.75
345.031	268.75
345.259	270.75
345.487	277.75
345.714	281.75
345.942	261.75
346.17	264.75
346.397	256.75
346.625	258.75
346.853	259.75
347.08	256.75
347.308	261.75
347.535	279.75
347.763	278.75
347.99	278.75
348.218	284.75
348.445	269.75
348.673	264.75
348.9	252.75
349.128	247.75
349.355	247.75
349.583	244.75
349.81	244.75
350.037	248.75
350.265	250.75
350.492	239.75
350.72	269.75
350.947	254.75
351.174	259.75
351.402	267.75
351.629	267.75
351.856	261.75
352.083	252.75
352.311	244.75
352.538	268.75
352.765	269.75
352.992	272.75
353.22	253.75
353.447	256.75
353.674	250.75
353.901	258.75
354.128	246.75
354.355	247.75
354.583	249.75
354.81	246.75
355.037	232.75
355.264	251.75
355.491	238.75
355.718	238.75
355.945	260.75
356.172	269.75
356.399	237.75
356.626	230.75
356.853	246.75
357.08	242.75
357.307	252.75
357.534	245.75
357.761	255.75
357.988	259.75
358.215	251.75
358.441	236.75
358.668	245.75
358.895	261.75
359.122	232.75
359.349	245.75
359.576	252.75
359.802	259.75
360.029	270.75
360.256	279.75
360.483	269.75
360.709	261.75
360.936	265.75
361.163	277.75
361.39	262.75
361.616	253.75
361.843	262.75
362.07	259.75
362.296	252.75
362.523	262.75
362.749	243.75
362.976	240.75
363.203	258.75
363.429	249.75
363.656	245.75
363.882	237.75
364.109	251.75
364.335	247.75
364.562	243.75
364.788	240.75
365.015	243.75
365.241	251.75
365.468	243.75
365.694	249.75
365.92	230.75
366.147	225.75
366.373	233.75
366.599	243.75
366.826	254.75
367.052	238.75
367.278	247.75
367.505	238.75
367.731	245.75
367.957	243.75
368.184	224.75
368.41	245.75
368.636	251.75
368.862	254.75
369.089	260.75
369.315	254.75
369.541	247.75
369.767	233.75
369.993	233.75
370.219	243.75
370.445	251.75
370.672	243.75
370.898	236.75
371.124	245.75
371.35	238.75
371.576	234.75
371.802	235.75
372.028	252.75
372.254	242.75
372.48	247.75
372.706	249.75
372.932	232.75
373.158	233.75
373.384	251.75
373.61	238.75
373.835	259.75
374.061	227.75
374.287	238.75
374.513	240.75
374.739	261.75
374.965	234.75
375.191	236.75
375.416	229.75
375.642	237.75
375.868	263.75
376.094	257.75
376.319	257.75
376.545	235.75
376.771	237.75
376.997	236.75
377.222	227.75
377.448	229.75
377.674	238.75
377.899	227.75
378.125	268.75
378.35	255.75
378.576	225.75
378.802	238.75
379.027	246.75
379.253	225.75
379.478	236.75
379.704	237.75
379.929	238.75
380.155	255.75
380.38	243.75
380.606	252.75
380.831	267.75
381.057	267.75
381.282	237.75
381.507	241.75
381.733	240.75
381.958	233.75
382.184	237.75
382.409	229.75
382.634	249.75
382.86	234.75
383.085	232.75
383.31	238.75
383.535	245.75
383.761	235.75
383.986	248.75
384.211	243.75
384.436	233.75
384.662	259.75
384.887	245.75
385.112	252.75
385.337	262.75
385.562	255.75
385.787	266.75
386.013	267.75
386.238	245.75
386.463	271.75
386.688	266.75
386.913	255.75
387.138	243.75
387.363	251.75
387.588	260.75
387.813	252.75
388.038	258.75
388.263	251.75
388.488	262.75
388.713	256.75
388.938	251.75
389.163	254.75
389.387	237.75
389.612	246.75
389.837	263.75
390.062	265.75
390.287	246.75
390.512	252.75
390.736	260.75
390.961	243.75
391.186	279.75
391.411	265.75
391.636	252.75
391.86	249.75
392.085	254.75
392.31	247.75
392.534	248.75
392.759	246.75
392.984	264.75
393.208	272.75
393.433	250.75
393.658	245.75
393.882	243.75
394.107	253.75
394.331	271.75
394.556	259.75
394.78	238.75
395.005	238.75
395.229	263.75
395.454	246.75
395.678	258.75
395.903	283.75
396.127	283.75
396.352	287.75
396.576	251.75
396.801	253.75
397.025	258.75
397.249	263.75
397.474	270.75
397.698	258.75
397.922	270.75
398.147	280.75
398.371	269.75
398.595	251.75
398.82	267.75
399.044	273.75
399.268	282.75
399.492	307.75
399.717	307.75
399.941	317.75
400.165	342.75
400.389	335.75
400.613	315.75
400.837	279.75
401.062	281.75
401.286	290.75
401.51	291.75
401.734	267.75
401.958	280.75
402.182	277.75
402.406	286.75
402.63	262.75
402.854	289.75
403.078	284.75
403.302	266.75
403.526	285.75
403.75	258.75
403.974	291.75
404.198	280.75
404.422	286.75
404.645	286.75
404.869	272.75
405.093	311.75
405.317	319.75
405.541	308.75
405.765	303.75
405.988	291.75
406.212	283.75
406.436	302.75
406.66	302.75
406.883	298.75
407.107	300.75
407.331	327.75
407.555	355.75
407.778	368.75
408.002	347.75
408.226	308.75
408.449	316.75
408.673	314.75
408.896	323.75
409.12	330.75
409.344	324.75
409.567	295.75
409.791	300.75
410.014	275.75
410.238	277.75
410.461	279.75
410.685	277.75
410.908	274.75
411.132	301.75
411.355	311.75
411.578	303.75
411.802	281.75
412.025	282.75
412.249	297.75
412.472	293.75
412.695	307.75
412.919	303.75
413.142	264.75
413.365	276.75
413.589	286.75
413.812	280.75
414.035	265.75
414.258	267.75
414.482	262.75
414.705	264.75
414.928	257.75
415.151	279.75
415.374	267.75
415.597	277.75
415.821	277.75
416.044	282.75
416.267	283.75
416.49	265.75
416.713	271.75
416.936	265.75
417.159	270.75
417.382	276.75
417.605	275.75
417.828	285.75
418.051	273.75
418.274	264.75
418.497	270.75
418.72	281.75
418.943	271.75
419.166	260.75
419.389	283.75
419.611	279.75
419.834	290.75
420.057	281.75
420.28	273.75
420.503	277.75
420.726	296.75
420.948	281.75
421.171	315.75
421.394	327.75
421.617	287.75
421.839	280.75
422.062	283.75
422.285	289.75
422.507	321.75
422.73	348.75
422.953	320.75
423.175	304.75
423.398	283.75
423.621	291.75
423.843	302.75
424.066	287.75
424.288	300.75
424.511	311.75
424.733	347.75
424.956	377.75
425.178	364.75
425.401	332.75
425.623	355.75
425.846	317.75
426.068	294.75
426.291	293.75
426.513	300.75
426.735	302.75
426.958	331.75
427.18	366.75
427.402	424.75
427.625	465.75
427.847	405.75
428.069	340.75
428.292	319.75
428.514	287.75
428.736	289.75
428.958	287.75
429.181	281.75
429.403	270.75
429.625	269.75
429.847	303.75
430.069	332.75
430.292	336.75
430.514	292.75
430.736	279.75
430.958	293.75
431.18	285.75
431.402	265.75
431.624	272.75
431.846	254.75
432.068	255.75
432.29	274.75
432.512	277.75
432.734	265.75
432.956	284.75
433.178	256.75
433.4	286.75
433.622	278.75
433.844	284.75
434.066	262.75
434.287	267.75
434.509	265.75
434.731	254.75
434.953	273.75
435.175	291.75
435.397	295.75
435.618	300.75
435.84	309.75
436.062	375.75
436.284	379.75
436.505	334.75
436.727	297.75
436.949	285.75
437.17	273.75
437.392	271.75
437.614	304.75
437.835	314.75
438.057	375.75
438.278	391.75
438.5	422.75
438.721	447.75
438.943	396.75
439.165	339.75
439.386	309.75
439.608	296.75
439.829	311.75
440.05	313.75
440.272	335.75
440.493	336.75
440.715	303.75
440.936	281.75
441.158	297.75
441.379	282.75
441.6	291.75
441.822	319.75
442.043	327.75
442.264	344.75
442.486	384.75
442.707	309.75
442.928	324.75
443.149	304.75
443.371	328.75
443.592	351.75
443.813	389.75
444.034	424.75
444.255	359.75
444.476	319.75
444.698	302.75
444.919	303.75
445.14	384.75
445.361	358.75
445.582	322.75
445.803	355.75
446.024	414.75
446.245	411.75
446.466	365.75
446.687	325.75
446.908	308.75
447.129	291.75
447.35	270.75
447.571	278.75
447.792	279.75
448.013	284.75
448.234	297.75
448.455	316.75
448.675	376.75
448.896	415.75
449.117	348.75
449.338	351.75
449.559	398.75
449.779	444.75
450	358.75
450.221	293.75
450.442	284.75
450.662	272.75
450.883	291.75
451.104	301.75
451.324	272.75
451.545	275.75
451.766	272.75
451.986	259.75
452.207	234.75
452.428	249.75
452.648	262.75
452.869	248.75
453.089	267.75
453.31	271.75
453.53	240.75
453.751	256.75
453.971	263.75
454.192	268.75
454.412	264.75
454.633	260.75
454.853	262.75
455.073	247.75
455.294	266.75
455.514	292.75
455.734	283.75
455.955	265.75
456.175	236.75
456.395	246.75
456.616	235.75
456.836	243.75
457.056	244.75
457.276	244.75
457.497	233.75
457.717	238.75
457.937	236.75
458.157	245.75
458.377	261.75
458.598	252.75
458.818	292.75
459.038	299.75
459.258	337.75
459.478	307.75
459.698	275.75
459.918	273.75
460.138	272.75
460.358	273.75
460.578	270.75
460.798	270.75
461.018	267.75
461.238	259.75
461.458	269.75
461.678	266.75
461.898	268.75
462.118	269.75
462.338	272.75
462.558	269.75
462.777	277.75
462.997	293.75
463.217	279.75
463.437	298.75
463.657	285.75
463.876	280.75
464.096	285.75
464.316	271.75
464.536	283.75
464.755	284.75
464.975	284.75
465.195	310.75
465.414	343.75
465.634	294.75
465.854	268.75
466.073	271.75
466.293	269.75
466.512	257.75
466.732	277.75
466.951	274.75
467.171	244.75
467.391	252.75
467.61	259.75
467.829	268.75
468.049	267.75
468.268	282.75
468.488	245.75
468.707	238.75
468.927	256.75
469.146	259.75
469.365	257.75
469.585	262.75
469.804	272.75
470.023	276.75
470.243	287.75
470.462	265.75
470.681	285.75
470.901	273.75
471.12	244.75
471.339	261.75
471.558	262.75
471.777	262.75
471.997	266.75
472.216	262.75
472.435	279.75
472.654	278.75
472.873	269.75
473.092	270.75
473.311	267.75
473.53	266.75
473.749	263.75
473.968	282.75
474.187	343.75
474.406	351.75
474.625	286.75
474.844	271.75
475.063	266.75
475.282	265.75
475.501	269.75
475.72	295.75
475.939	273.75
476.158	274.75
476.377	267.75
476.596	273.75
476.814	269.75
477.033	268.75
477.252	272.75
477.471	286.75
477.69	281.75
477.908	286.75
478.127	313.75
478.346	274.75
478.564	286.75
478.783	298.75
479.002	292.75
479.22	281.75
479.439	319.75
479.658	319.75
479.876	318.75
480.095	295.75
480.313	325.75
480.532	295.75
480.751	310.75
480.969	319.75
481.188	334.75
481.406	356.75
481.624	303.75
481.843	307.75
482.061	302.75
482.28	308.75
482.498	291.75
482.717	297.75
482.935	288.75
483.153	305.75
483.372	310.75
483.59	296.75
483.808	282.75
484.027	294.75
484.245	309.75
484.463	298.75
484.681	314.75
484.9	309.75
485.118	312.75
485.336	310.75
485.554	299.75
485.772	321.75
485.99	297.75
486.209	308.75
486.427	321.75
486.645	312.75
486.863	315.75
487.081	321.75
487.299	327.75
487.517	308.75
487.735	339.75
487.953	325.75
488.171	336.75
488.389	328.75
488.607	340.75
488.825	318.75
489.043	326.75
489.261	338.75
489.479	327.75
489.696	338.75
489.914	319.75
490.132	335.75
490.35	339.75
490.568	332.75
490.786	340.75
491.003	336.75
491.221	355.75
491.439	345.75
491.657	335.75
491.874	352.75
492.092	343.75
492.31	366.75
492.527	362.75
492.745	364.75
492.963	360.75
493.18	375.75
493.398	371.75
493.615	372.75
493.833	339.75
494.05	355.75
494.268	371.75
494.485	382.75
494.703	372.75
494.92	365.75
495.138	362.75
495.355	361.75
495.573	361.75
495.79	358.75
496.008	360.75
496.225	369.75
496.442	381.75
496.66	375.75
496.877	383.75
497.094	374.75
497.312	367.75
497.529	375.75
497.746	382.75
497.963	396.75
498.181	390.75
498.398	393.75
498.615	384.75
498.832	416.75
499.049	405.75
499.267	426.75
499.484	427.75
499.701	434.75
499.918	432.75
500.135	455.75
500.352	463.75
500.569	458.75
500.786	446.75
501.003	460.75
501.22	460.75
501.437	466.75
501.654	455.75
501.871	472.75
502.088	447.75
502.305	397.75
