Data from 1982.PennyLincolnUp.Lamp.En5.5.200Scan.071819.P1_HRD10591_16-47-11-962.txt Node
Date: Thu Jul 18 16:47:11 EDT 2019
User: cochatt
Spectrometer: HR+D1059
Trigger mode: 1
Integration Time (sec): 1.000000E-1
Scans to average: 1
Electric dark correction enabled: true
Nonlinearity correction enabled: false
Boxcar width: 0
XAxis mode: Wavelengths
Number of Pixels in Spectrum: 2048
>>>>>Begin Spectral Data<<<<<
223.165	1.75
223.4	1.75
223.635	1.75
223.869	-13.25
224.104	-10.25
224.338	-11.25
224.573	-17.25
224.808	-25.25
225.042	-17.25
225.277	-1.25
225.511	-6.25
225.746	-3.25
225.98	-1.25
226.215	9.75
226.449	26.75
226.683	25.75
226.918	11.75
227.152	30.75
227.387	33.75
227.621	33.75
227.856	53.75
228.09	51.75
228.324	45.75
228.559	57.75
228.793	74.75
229.027	96.75
229.262	95.75
229.496	110.75
229.73	116.75
229.964	135.75
230.199	117.75
230.433	111.75
230.667	109.75
230.901	103.75
231.136	97.75
231.37	91.75
231.604	108.75
231.838	115.75
232.072	91.75
232.306	95.75
232.541	101.75
232.775	97.75
233.009	96.75
233.243	110.75
233.477	94.75
233.711	112.75
233.945	106.75
234.179	113.75
234.413	114.75
234.647	101.75
234.881	104.75
235.115	96.75
235.349	119.75
235.583	115.75
235.817	107.75
236.051	113.75
236.285	117.75
236.519	123.75
236.753	114.75
236.987	124.75
237.221	145.75
237.455	166.75
237.689	148.75
237.922	131.75
238.156	117.75
238.39	109.75
238.624	122.75
238.858	124.75
239.091	116.75
239.325	102.75
239.559	110.75
239.793	114.75
240.027	103.75
240.26	123.75
240.494	125.75
240.728	124.75
240.961	121.75
241.195	134.75
241.429	123.75
241.662	129.75
241.896	141.75
242.13	103.75
242.363	109.75
242.597	117.75
242.83	121.75
243.064	125.75
243.298	119.75
243.531	123.75
243.765	125.75
243.998	125.75
244.232	125.75
244.465	119.75
244.699	120.75
244.932	117.75
245.166	121.75
245.399	126.75
245.633	123.75
245.866	131.75
246.099	122.75
246.333	127.75
246.566	136.75
246.8	133.75
247.033	141.75
247.266	136.75
247.5	137.75
247.733	141.75
247.966	149.75
248.2	136.75
248.433	154.75
248.666	153.75
248.899	147.75
249.133	160.75
249.366	169.75
249.599	156.75
249.832	165.75
250.066	159.75
250.299	157.75
250.532	155.75
250.765	171.75
250.998	184.75
251.231	173.75
251.465	166.75
251.698	171.75
251.931	168.75
252.164	169.75
252.397	152.75
252.63	166.75
252.863	185.75
253.096	189.75
253.329	201.75
253.562	171.75
253.795	179.75
254.028	179.75
254.261	158.75
254.494	195.75
254.727	217.75
254.96	236.75
255.193	227.75
255.426	202.75
255.659	185.75
255.892	200.75
256.124	191.75
256.357	203.75
256.59	171.75
256.823	168.75
257.056	155.75
257.289	175.75
257.521	173.75
257.754	168.75
257.987	174.75
258.22	177.75
258.452	180.75
258.685	185.75
258.918	147.75
259.151	170.75
259.383	184.75
259.616	191.75
259.849	188.75
260.081	190.75
260.314	198.75
260.547	214.75
260.779	191.75
261.012	181.75
261.244	189.75
261.477	181.75
261.71	179.75
261.942	188.75
262.175	196.75
262.407	204.75
262.64	181.75
262.872	171.75
263.105	172.75
263.337	183.75
263.57	151.75
263.802	168.75
264.035	181.75
264.267	175.75
264.499	170.75
264.732	173.75
264.964	184.75
265.197	181.75
265.429	179.75
265.661	179.75
265.894	181.75
266.126	184.75
266.358	183.75
266.591	181.75
266.823	185.75
267.055	187.75
267.287	192.75
267.52	176.75
267.752	179.75
267.984	182.75
268.216	179.75
268.448	189.75
268.681	190.75
268.913	201.75
269.145	210.75
269.377	231.75
269.609	226.75
269.841	212.75
270.073	220.75
270.306	228.75
270.538	243.75
270.77	241.75
271.002	221.75
271.234	242.75
271.466	229.75
271.698	252.75
271.93	259.75
272.162	259.75
272.394	265.75
272.626	244.75
272.858	216.75
273.09	220.75
273.322	231.75
273.553	226.75
273.785	214.75
274.017	208.75
274.249	215.75
274.481	208.75
274.713	236.75
274.945	207.75
275.176	210.75
275.408	203.75
275.64	226.75
275.872	217.75
276.104	217.75
276.335	213.75
276.567	222.75
276.799	236.75
277.031	247.75
277.262	264.75
277.494	261.75
277.726	246.75
277.957	219.75
278.189	222.75
278.421	213.75
278.652	212.75
278.884	201.75
279.115	220.75
279.347	221.75
279.579	210.75
279.81	201.75
280.042	229.75
280.273	229.75
280.505	211.75
280.736	206.75
280.968	218.75
281.199	207.75
281.431	207.75
281.662	232.75
281.894	206.75
282.125	211.75
282.356	234.75
282.588	238.75
282.819	245.75
283.051	243.75
283.282	200.75
283.513	219.75
283.745	212.75
283.976	228.75
284.207	214.75
284.439	234.75
284.67	234.75
284.901	211.75
285.132	230.75
285.364	222.75
285.595	228.75
285.826	213.75
286.057	217.75
286.288	229.75
286.52	233.75
286.751	220.75
286.982	231.75
287.213	220.75
287.444	209.75
287.675	233.75
287.906	229.75
288.138	226.75
288.369	235.75
288.6	251.75
288.831	216.75
289.062	229.75
289.293	234.75
289.524	228.75
289.755	234.75
289.986	218.75
290.217	221.75
290.448	219.75
290.679	216.75
290.91	195.75
291.141	229.75
291.371	209.75
291.602	234.75
291.833	231.75
292.064	220.75
292.295	225.75
292.526	230.75
292.757	217.75
292.987	213.75
293.218	217.75
293.449	232.75
293.68	214.75
293.91	225.75
294.141	221.75
294.372	219.75
294.603	214.75
294.833	209.75
295.064	227.75
295.295	222.75
295.525	237.75
295.756	213.75
295.987	245.75
296.217	257.75
296.448	244.75
296.679	238.75
296.909	233.75
297.14	219.75
297.37	237.75
297.601	227.75
297.831	233.75
298.062	223.75
298.292	227.75
298.523	250.75
298.753	241.75
298.984	240.75
299.214	235.75
299.445	233.75
299.675	241.75
299.905	239.75
300.136	234.75
300.366	250.75
300.597	233.75
300.827	250.75
301.057	257.75
301.288	251.75
301.518	244.75
301.748	241.75
301.979	254.75
302.209	234.75
302.439	253.75
302.669	234.75
302.9	261.75
303.13	252.75
303.36	251.75
303.59	251.75
303.82	256.75
304.051	267.75
304.281	268.75
304.511	243.75
304.741	253.75
304.971	258.75
305.201	263.75
305.431	260.75
305.661	263.75
305.891	243.75
306.121	248.75
306.352	275.75
306.582	266.75
306.812	288.75
307.042	257.75
307.272	251.75
307.502	254.75
307.731	263.75
307.961	263.75
308.191	266.75
308.421	270.75
308.651	267.75
308.881	282.75
309.111	258.75
309.341	272.75
309.571	296.75
309.8	266.75
310.03	290.75
310.26	300.75
310.49	297.75
310.72	311.75
310.949	317.75
311.179	310.75
311.409	281.75
311.639	301.75
311.868	290.75
312.098	301.75
312.328	295.75
312.557	316.75
312.787	318.75
313.017	326.75
313.246	321.75
313.476	299.75
313.706	291.75
313.935	310.75
314.165	309.75
314.394	322.75
314.624	318.75
314.853	328.75
315.083	307.75
315.312	298.75
315.542	293.75
315.771	307.75
316.001	293.75
316.23	285.75
316.46	273.75
316.689	301.75
316.919	288.75
317.148	307.75
317.377	307.75
317.607	286.75
317.836	293.75
318.065	309.75
318.295	288.75
318.524	285.75
318.753	299.75
318.983	284.75
319.212	308.75
319.441	319.75
319.67	322.75
319.9	286.75
320.129	291.75
320.358	291.75
320.587	314.75
320.816	325.75
321.046	310.75
321.275	322.75
321.504	300.75
321.733	321.75
321.962	326.75
322.191	340.75
322.42	345.75
322.649	356.75
322.878	369.75
323.108	376.75
323.337	413.75
323.566	428.75
323.795	443.75
324.024	501.75
324.253	653.75
324.482	934.75
324.71	1399.75
324.939	1825.75
325.168	1529.75
325.397	786.75
325.626	531.75
325.855	435.75
326.084	416.75
326.313	414.75
326.542	425.75
326.77	480.75
326.999	579.75
327.228	825.75
327.457	1181.75
327.686	1337.75
327.914	854.75
328.143	577.75
328.372	522.75
328.6	499.75
328.829	467.75
329.058	468.75
329.287	485.75
329.515	446.75
329.744	405.75
329.972	410.75
330.201	438.75
330.43	449.75
330.658	478.75
330.887	506.75
331.115	472.75
331.344	409.75
331.572	394.75
331.801	397.75
332.03	393.75
332.258	359.75
332.486	354.75
332.715	353.75
332.943	355.75
333.172	349.75
333.4	345.75
333.629	339.75
333.857	360.75
334.085	391.75
334.314	403.75
334.542	414.75
334.771	410.75
334.999	387.75
335.227	365.75
335.455	347.75
335.684	337.75
335.912	334.75
336.14	326.75
336.369	329.75
336.597	339.75
336.825	349.75
337.053	335.75
337.281	338.75
337.51	333.75
337.738	355.75
337.966	331.75
338.194	327.75
338.422	340.75
338.65	336.75
338.878	333.75
339.106	297.75
339.334	330.75
339.562	303.75
339.79	325.75
340.018	321.75
340.246	342.75
340.474	318.75
340.702	336.75
340.93	313.75
341.158	314.75
341.386	344.75
341.614	324.75
341.842	317.75
342.07	356.75
342.298	316.75
342.526	332.75
342.754	299.75
342.981	306.75
343.209	301.75
343.437	337.75
343.665	332.75
343.893	317.75
344.12	309.75
344.348	329.75
344.576	326.75
344.804	327.75
345.031	341.75
345.259	335.75
345.487	321.75
345.714	337.75
345.942	327.75
346.17	333.75
346.397	318.75
346.625	312.75
346.853	305.75
347.08	320.75
347.308	322.75
347.535	309.75
347.763	324.75
347.99	312.75
348.218	326.75
348.445	310.75
348.673	327.75
348.9	315.75
349.128	304.75
349.355	293.75
349.583	290.75
349.81	307.75
350.037	303.75
350.265	303.75
350.492	299.75
350.72	295.75
350.947	314.75
351.174	315.75
351.402	305.75
351.629	324.75
351.856	300.75
352.083	334.75
352.311	325.75
352.538	320.75
352.765	343.75
352.992	329.75
353.22	324.75
353.447	283.75
353.674	317.75
353.901	316.75
354.128	292.75
354.355	285.75
354.583	272.75
354.81	313.75
355.037	297.75
355.264	286.75
355.491	300.75
355.718	266.75
355.945	271.75
356.172	293.75
356.399	269.75
356.626	276.75
356.853	278.75
357.08	287.75
357.307	289.75
357.534	273.75
357.761	304.75
357.988	293.75
358.215	266.75
358.441	294.75
358.668	302.75
358.895	299.75
359.122	291.75
359.349	299.75
359.576	310.75
359.802	327.75
360.029	337.75
360.256	361.75
360.483	323.75
360.709	327.75
360.936	331.75
361.163	303.75
361.39	300.75
361.616	310.75
361.843	311.75
362.07	307.75
362.296	310.75
362.523	276.75
362.749	308.75
362.976	309.75
363.203	322.75
363.429	285.75
363.656	286.75
363.882	293.75
364.109	305.75
364.335	288.75
364.562	299.75
364.788	281.75
365.015	305.75
365.241	279.75
365.468	290.75
365.694	293.75
365.92	306.75
366.147	289.75
366.373	273.75
366.599	277.75
366.826	286.75
367.052	304.75
367.278	283.75
367.505	272.75
367.731	303.75
367.957	270.75
368.184	294.75
368.41	298.75
368.636	313.75
368.862	295.75
369.089	294.75
369.315	292.75
369.541	293.75
369.767	281.75
369.993	284.75
370.219	295.75
370.445	294.75
370.672	275.75
370.898	262.75
371.124	261.75
371.35	279.75
371.576	286.75
371.802	272.75
372.028	292.75
372.254	270.75
372.48	286.75
372.706	278.75
372.932	287.75
373.158	281.75
373.384	288.75
373.61	277.75
373.835	283.75
374.061	293.75
374.287	281.75
374.513	270.75
374.739	289.75
374.965	275.75
375.191	285.75
375.416	290.75
375.642	287.75
375.868	296.75
376.094	281.75
376.319	283.75
376.545	271.75
376.771	277.75
376.997	280.75
377.222	286.75
377.448	282.75
377.674	267.75
377.899	281.75
378.125	277.75
378.35	263.75
378.576	267.75
378.802	277.75
379.027	276.75
379.253	261.75
379.478	260.75
379.704	273.75
379.929	282.75
380.155	289.75
380.38	273.75
380.606	275.75
380.831	281.75
381.057	285.75
381.282	278.75
381.507	268.75
381.733	275.75
381.958	282.75
382.184	263.75
382.409	275.75
382.634	278.75
382.86	281.75
383.085	271.75
383.31	282.75
383.535	262.75
383.761	278.75
383.986	261.75
384.211	287.75
384.436	269.75
384.662	282.75
384.887	305.75
385.112	292.75
385.337	271.75
385.562	289.75
385.787	290.75
386.013	316.75
386.238	296.75
386.463	300.75
386.688	284.75
386.913	294.75
387.138	279.75
387.363	286.75
387.588	290.75
387.813	292.75
388.038	290.75
388.263	287.75
388.488	307.75
388.713	284.75
388.938	277.75
389.163	289.75
389.387	277.75
389.612	292.75
389.837	287.75
390.062	301.75
390.287	299.75
390.512	280.75
390.736	290.75
390.961	290.75
391.186	275.75
391.411	302.75
391.636	304.75
391.86	280.75
392.085	278.75
392.31	278.75
392.534	299.75
392.759	282.75
392.984	274.75
393.208	293.75
393.433	292.75
393.658	287.75
393.882	292.75
394.107	280.75
394.331	301.75
394.556	281.75
394.78	271.75
395.005	290.75
395.229	292.75
395.454	293.75
395.678	285.75
395.903	314.75
396.127	309.75
396.352	325.75
396.576	297.75
396.801	283.75
397.025	294.75
397.249	296.75
397.474	295.75
397.698	313.75
397.922	334.75
398.147	314.75
398.371	309.75
398.595	311.75
398.82	299.75
399.044	313.75
399.268	328.75
399.492	325.75
399.717	359.75
399.941	372.75
400.165	384.75
400.389	401.75
400.613	364.75
400.837	342.75
401.062	340.75
401.286	337.75
401.51	322.75
401.734	309.75
401.958	330.75
402.182	325.75
402.406	335.75
402.63	338.75
402.854	342.75
403.078	343.75
403.302	329.75
403.526	332.75
403.75	333.75
403.974	334.75
404.198	311.75
404.422	337.75
404.645	336.75
404.869	339.75
405.093	353.75
405.317	383.75
405.541	403.75
405.765	366.75
405.988	358.75
406.212	353.75
406.436	354.75
406.66	373.75
406.883	367.75
407.107	359.75
407.331	411.75
407.555	427.75
407.778	411.75
408.002	406.75
408.226	358.75
408.449	366.75
408.673	374.75
408.896	371.75
409.12	401.75
409.344	386.75
409.567	348.75
409.791	347.75
410.014	317.75
410.238	323.75
410.461	317.75
410.685	310.75
410.908	346.75
411.132	373.75
411.355	403.75
411.578	374.75
411.802	350.75
412.025	339.75
412.249	349.75
412.472	358.75
412.695	370.75
412.919	347.75
413.142	353.75
413.365	321.75
413.589	329.75
413.812	328.75
414.035	314.75
414.258	315.75
414.482	299.75
414.705	311.75
414.928	312.75
415.151	315.75
415.374	305.75
415.597	303.75
415.821	300.75
416.044	319.75
416.267	328.75
416.49	313.75
416.713	292.75
416.936	310.75
417.159	299.75
417.382	311.75
417.605	329.75
417.828	323.75
418.051	318.75
418.274	311.75
418.497	308.75
418.72	309.75
418.943	301.75
419.166	305.75
419.389	328.75
419.611	319.75
419.834	315.75
420.057	337.75
420.28	335.75
420.503	317.75
420.726	342.75
420.948	341.75
421.171	359.75
421.394	380.75
421.617	351.75
421.839	325.75
422.062	341.75
422.285	325.75
422.507	381.75
422.73	409.75
422.953	400.75
423.175	366.75
423.398	353.75
423.621	354.75
423.843	369.75
424.066	362.75
424.288	343.75
424.511	369.75
424.733	419.75
424.956	449.75
425.178	429.75
425.401	443.75
425.623	431.75
425.846	362.75
426.068	361.75
426.291	349.75
426.513	340.75
426.735	389.75
426.958	405.75
427.18	436.75
427.402	543.75
427.625	589.75
427.847	519.75
428.069	453.75
428.292	401.75
428.514	369.75
428.736	365.75
428.958	355.75
429.181	347.75
429.403	337.75
429.625	338.75
429.847	365.75
430.069	401.75
430.292	393.75
430.514	340.75
430.736	329.75
430.958	330.75
431.18	319.75
431.402	309.75
431.624	313.75
431.846	310.75
432.068	302.75
432.29	305.75
432.512	309.75
432.734	321.75
432.956	317.75
433.178	331.75
433.4	316.75
433.622	311.75
433.844	324.75
434.066	301.75
434.287	295.75
434.509	301.75
434.731	320.75
434.953	309.75
435.175	331.75
435.397	336.75
435.618	346.75
435.84	385.75
436.062	451.75
436.284	473.75
436.505	399.75
436.727	364.75
436.949	333.75
437.17	327.75
437.392	322.75
437.614	335.75
437.835	373.75
438.057	419.75
438.278	500.75
438.5	497.75
438.721	561.75
438.943	504.75
439.165	415.75
439.386	371.75
439.608	376.75
439.829	379.75
440.05	403.75
440.272	423.75
440.493	390.75
440.715	368.75
440.936	358.75
441.158	337.75
441.379	324.75
441.6	367.75
441.822	351.75
442.043	406.75
442.264	439.75
442.486	449.75
442.707	386.75
442.928	371.75
443.149	376.75
443.371	396.75
443.592	418.75
443.813	485.75
444.034	495.75
444.255	412.75
444.476	370.75
444.698	344.75
444.919	366.75
445.14	438.75
445.361	405.75
445.582	377.75
445.803	435.75
446.024	501.75
446.245	517.75
446.466	454.75
446.687	379.75
446.908	373.75
447.129	350.75
447.35	345.75
447.571	325.75
447.792	328.75
448.013	351.75
448.234	347.75
448.455	367.75
448.675	488.75
448.896	533.75
449.117	449.75
449.338	431.75
449.559	512.75
449.779	540.75
450	442.75
450.221	374.75
450.442	354.75
450.662	326.75
450.883	328.75
451.104	369.75
451.324	331.75
451.545	313.75
451.766	328.75
451.986	307.75
452.207	299.75
452.428	300.75
452.648	302.75
452.869	291.75
453.089	309.75
453.31	328.75
453.53	309.75
453.751	285.75
453.971	325.75
454.192	326.75
454.412	321.75
454.633	309.75
454.853	300.75
455.073	298.75
455.294	321.75
455.514	354.75
455.734	349.75
455.955	316.75
456.175	294.75
456.395	287.75
456.616	287.75
456.836	278.75
457.056	270.75
457.276	272.75
457.497	284.75
457.717	283.75
457.937	294.75
458.157	301.75
458.377	292.75
458.598	315.75
458.818	364.75
459.038	406.75
459.258	433.75
459.478	330.75
459.698	314.75
459.918	285.75
460.138	299.75
460.358	298.75
460.578	297.75
460.798	301.75
461.018	298.75
461.238	300.75
461.458	294.75
461.678	294.75
461.898	316.75
462.118	315.75
462.338	306.75
462.558	321.75
462.777	306.75
462.997	300.75
463.217	318.75
463.437	298.75
463.657	311.75
463.876	292.75
464.096	318.75
464.316	300.75
464.536	317.75
464.755	307.75
464.975	336.75
465.195	385.75
465.414	437.75
465.634	387.75
465.854	346.75
466.073	331.75
466.293	309.75
466.512	310.75
466.732	315.75
466.951	295.75
467.171	287.75
467.391	294.75
467.61	330.75
467.829	309.75
468.049	306.75
468.268	298.75
468.488	309.75
468.707	298.75
468.927	298.75
469.146	295.75
469.365	293.75
469.585	302.75
469.804	289.75
470.023	323.75
470.243	325.75
470.462	321.75
470.681	315.75
470.901	301.75
471.12	309.75
471.339	301.75
471.558	310.75
471.777	299.75
471.997	315.75
472.216	313.75
472.435	343.75
472.654	319.75
472.873	316.75
473.092	328.75
473.311	299.75
473.53	301.75
473.749	298.75
473.968	346.75
474.187	411.75
474.406	428.75
474.625	361.75
474.844	314.75
475.063	313.75
475.282	314.75
475.501	291.75
475.72	309.75
475.939	285.75
476.158	293.75
476.377	303.75
476.596	310.75
476.814	324.75
477.033	316.75
477.252	315.75
477.471	325.75
477.69	332.75
477.908	326.75
478.127	314.75
478.346	330.75
478.564	332.75
478.783	333.75
479.002	345.75
479.22	342.75
479.439	367.75
479.658	374.75
479.876	340.75
480.095	360.75
480.313	389.75
480.532	381.75
480.751	358.75
480.969	379.75
481.188	437.75
481.406	445.75
481.624	376.75
481.843	357.75
482.061	381.75
482.28	373.75
482.498	345.75
482.717	354.75
482.935	358.75
483.153	350.75
483.372	347.75
483.59	339.75
483.808	339.75
484.027	343.75
484.245	359.75
484.463	362.75
484.681	358.75
484.9	347.75
485.118	359.75
485.336	360.75
485.554	377.75
485.772	352.75
485.99	369.75
486.209	358.75
486.427	357.75
486.645	388.75
486.863	383.75
487.081	401.75
487.299	374.75
487.517	369.75
487.735	378.75
487.953	372.75
488.171	373.75
488.389	360.75
488.607	387.75
488.825	388.75
489.043	369.75
489.261	386.75
489.479	385.75
489.696	389.75
489.914	389.75
490.132	382.75
490.35	419.75
490.568	409.75
490.786	399.75
491.003	410.75
491.221	430.75
491.439	411.75
491.657	423.75
491.874	436.75
492.092	451.75
492.31	430.75
492.527	438.75
492.745	435.75
492.963	443.75
493.18	437.75
493.398	441.75
493.615	449.75
493.833	449.75
494.05	438.75
494.268	458.75
494.485	447.75
494.703	467.75
494.92	455.75
495.138	460.75
495.355	444.75
495.573	453.75
495.79	438.75
496.008	440.75
496.225	464.75
496.442	442.75
496.66	449.75
496.877	454.75
497.094	438.75
497.312	447.75
497.529	447.75
497.746	444.75
497.963	459.75
498.181	482.75
498.398	467.75
498.615	477.75
498.832	491.75
499.049	476.75
499.267	507.75
499.484	507.75
499.701	509.75
499.918	526.75
500.135	538.75
500.352	539.75
500.569	542.75
500.786	560.75
501.003	541.75
501.22	533.75
501.437	549.75
501.654	540.75
501.871	529.75
502.088	521.75
