Data from 1982.PennyLincolnUp.Lamp.En5.5.200Scan.071819.P1_HRD10591_16-45-50-962.txt Node
Date: Thu Jul 18 16:45:50 EDT 2019
User: cochatt
Spectrometer: HR+D1059
Trigger mode: 1
Integration Time (sec): 1.000000E-1
Scans to average: 1
Electric dark correction enabled: true
Nonlinearity correction enabled: false
Boxcar width: 0
XAxis mode: Wavelengths
Number of Pixels in Spectrum: 2048
>>>>>Begin Spectral Data<<<<<
223.165	-10.62
223.4	-10.62
223.635	-10.62
223.869	-18.62
224.104	-23.62
224.338	-16.62
224.573	-13.62
224.808	-9.62
225.042	0.38
225.277	0.38
225.511	2.38
225.746	9.38
225.98	12.38
226.215	11.38
226.449	11.38
226.683	15.38
226.918	5.38
227.152	24.38
227.387	40.38
227.621	29.38
227.856	43.38
228.09	42.38
228.324	57.38
228.559	54.38
228.793	63.38
229.027	77.38
229.262	103.38
229.496	94.38
229.73	114.38
229.964	133.38
230.199	101.38
230.433	100.38
230.667	106.38
230.901	102.38
231.136	107.38
231.37	83.38
231.604	94.38
231.838	100.38
232.072	99.38
232.306	91.38
232.541	100.38
232.775	108.38
233.009	111.38
233.243	109.38
233.477	92.38
233.711	98.38
233.945	99.38
234.179	115.38
234.413	107.38
234.647	97.38
234.881	90.38
235.115	104.38
235.349	90.38
235.583	119.38
235.817	109.38
236.051	110.38
236.285	115.38
236.519	106.38
236.753	114.38
236.987	130.38
237.221	145.38
237.455	167.38
237.689	140.38
237.922	114.38
238.156	108.38
238.39	99.38
238.624	111.38
238.858	120.38
239.091	101.38
239.325	118.38
239.559	110.38
239.793	105.38
240.027	121.38
240.26	132.38
240.494	118.38
240.728	120.38
240.961	119.38
241.195	119.38
241.429	135.38
241.662	119.38
241.896	120.38
242.13	110.38
242.363	108.38
242.597	116.38
242.83	123.38
243.064	122.38
243.298	117.38
243.531	127.38
243.765	124.38
243.998	122.38
244.232	110.38
244.465	134.38
244.699	121.38
244.932	125.38
245.166	122.38
245.399	110.38
245.633	105.38
245.866	141.38
246.099	134.38
246.333	126.38
246.566	126.38
246.8	121.38
247.033	125.38
247.266	119.38
247.5	122.38
247.733	141.38
247.966	149.38
248.2	145.38
248.433	131.38
248.666	155.38
248.899	154.38
249.133	159.38
249.366	181.38
249.599	172.38
249.832	152.38
250.066	134.38
250.299	148.38
250.532	147.38
250.765	157.38
250.998	175.38
251.231	169.38
251.465	172.38
251.698	157.38
251.931	162.38
252.164	161.38
252.397	164.38
252.63	163.38
252.863	152.38
253.096	180.38
253.329	188.38
253.562	163.38
253.795	165.38
254.028	172.38
254.261	175.38
254.494	189.38
254.727	200.38
254.96	220.38
255.193	213.38
255.426	205.38
255.659	202.38
255.892	185.38
256.124	185.38
256.357	179.38
256.59	178.38
256.823	170.38
257.056	176.38
257.289	186.38
257.521	174.38
257.754	168.38
257.987	170.38
258.22	169.38
258.452	162.38
258.685	171.38
258.918	151.38
259.151	162.38
259.383	166.38
259.616	182.38
259.849	186.38
260.081	183.38
260.314	203.38
260.547	197.38
260.779	180.38
261.012	200.38
261.244	182.38
261.477	182.38
261.71	170.38
261.942	181.38
262.175	182.38
262.407	178.38
262.64	161.38
262.872	176.38
263.105	171.38
263.337	159.38
263.57	164.38
263.802	158.38
264.035	169.38
264.267	180.38
264.499	170.38
264.732	164.38
264.964	192.38
265.197	180.38
265.429	164.38
265.661	170.38
265.894	175.38
266.126	163.38
266.358	177.38
266.591	182.38
266.823	171.38
267.055	186.38
267.287	170.38
267.52	166.38
267.752	167.38
267.984	182.38
268.216	164.38
268.448	178.38
268.681	183.38
268.913	206.38
269.145	208.38
269.377	232.38
269.609	201.38
269.841	204.38
270.073	190.38
270.306	237.38
270.538	239.38
270.77	242.38
271.002	226.38
271.234	245.38
271.466	237.38
271.698	245.38
271.93	249.38
272.162	243.38
272.394	235.38
272.626	224.38
272.858	231.38
273.09	223.38
273.322	214.38
273.553	220.38
273.785	195.38
274.017	193.38
274.249	207.38
274.481	215.38
274.713	208.38
274.945	189.38
275.176	192.38
275.408	197.38
275.64	210.38
275.872	205.38
276.104	210.38
276.335	185.38
276.567	222.38
276.799	232.38
277.031	250.38
277.262	242.38
277.494	249.38
277.726	231.38
277.957	219.38
278.189	197.38
278.421	204.38
278.652	198.38
278.884	198.38
279.115	201.38
279.347	224.38
279.579	205.38
279.81	191.38
280.042	202.38
280.273	203.38
280.505	201.38
280.736	212.38
280.968	206.38
281.199	217.38
281.431	212.38
281.662	194.38
281.894	200.38
282.125	204.38
282.356	236.38
282.588	249.38
282.819	226.38
283.051	229.38
283.282	197.38
283.513	205.38
283.745	203.38
283.976	215.38
284.207	218.38
284.439	231.38
284.67	205.38
284.901	202.38
285.132	216.38
285.364	223.38
285.595	215.38
285.826	184.38
286.057	216.38
286.288	231.38
286.52	225.38
286.751	207.38
286.982	221.38
287.213	231.38
287.444	223.38
287.675	230.38
287.906	239.38
288.138	245.38
288.369	234.38
288.6	221.38
288.831	212.38
289.062	212.38
289.293	233.38
289.524	198.38
289.755	226.38
289.986	236.38
290.217	215.38
290.448	214.38
290.679	213.38
290.91	199.38
291.141	210.38
291.371	213.38
291.602	227.38
291.833	228.38
292.064	208.38
292.295	213.38
292.526	220.38
292.757	212.38
292.987	218.38
293.218	219.38
293.449	209.38
293.68	202.38
293.91	207.38
294.141	219.38
294.372	210.38
294.603	220.38
294.833	224.38
295.064	218.38
295.295	216.38
295.525	226.38
295.756	234.38
295.987	224.38
296.217	240.38
296.448	255.38
296.679	248.38
296.909	227.38
297.14	222.38
297.37	227.38
297.601	214.38
297.831	224.38
298.062	232.38
298.292	233.38
298.523	250.38
298.753	242.38
298.984	218.38
299.214	232.38
299.445	232.38
299.675	230.38
299.905	233.38
300.136	214.38
300.366	238.38
300.597	235.38
300.827	246.38
301.057	246.38
301.288	254.38
301.518	234.38
301.748	222.38
301.979	242.38
302.209	251.38
302.439	251.38
302.669	241.38
302.9	244.38
303.13	235.38
303.36	256.38
303.59	231.38
303.82	248.38
304.051	266.38
304.281	252.38
304.511	234.38
304.741	228.38
304.971	226.38
305.201	238.38
305.431	251.38
305.661	259.38
305.891	238.38
306.121	235.38
306.352	264.38
306.582	270.38
306.812	257.38
307.042	258.38
307.272	246.38
307.502	239.38
307.731	232.38
307.961	247.38
308.191	252.38
308.421	263.38
308.651	285.38
308.881	249.38
309.111	258.38
309.341	258.38
309.571	257.38
309.8	290.38
310.03	279.38
310.26	272.38
310.49	286.38
310.72	283.38
310.949	297.38
311.179	300.38
311.409	276.38
311.639	275.38
311.868	284.38
312.098	296.38
312.328	282.38
312.557	297.38
312.787	312.38
313.017	297.38
313.246	299.38
313.476	278.38
313.706	282.38
313.935	289.38
314.165	296.38
314.394	297.38
314.624	308.38
314.853	300.38
315.083	278.38
315.312	300.38
315.542	294.38
315.771	281.38
316.001	284.38
316.23	268.38
316.46	268.38
316.689	276.38
316.919	280.38
317.148	309.38
317.377	304.38
317.607	318.38
317.836	296.38
318.065	268.38
318.295	274.38
318.524	272.38
318.753	291.38
318.983	309.38
319.212	284.38
319.441	286.38
319.67	318.38
319.9	290.38
320.129	277.38
320.358	290.38
320.587	303.38
320.816	296.38
321.046	301.38
321.275	288.38
321.504	306.38
321.733	322.38
321.962	314.38
322.191	313.38
322.42	328.38
322.649	332.38
322.878	344.38
323.108	364.38
323.337	366.38
323.566	383.38
323.795	424.38
324.024	454.38
324.253	588.38
324.482	872.38
324.71	1243.38
324.939	1607.38
325.168	1300.38
325.397	714.38
325.626	496.38
325.855	428.38
326.084	401.38
326.313	390.38
326.542	384.38
326.77	451.38
326.999	535.38
327.228	741.38
327.457	1045.38
327.686	1192.38
327.914	777.38
328.143	553.38
328.372	478.38
328.6	466.38
328.829	420.38
329.058	429.38
329.287	430.38
329.515	408.38
329.744	381.38
329.972	390.38
330.201	395.38
330.43	434.38
330.658	452.38
330.887	456.38
331.115	435.38
331.344	392.38
331.572	378.38
331.801	347.38
332.03	354.38
332.258	336.38
332.486	333.38
332.715	334.38
332.943	326.38
333.172	322.38
333.4	339.38
333.629	341.38
333.857	353.38
334.085	370.38
334.314	359.38
334.542	381.38
334.771	384.38
334.999	363.38
335.227	357.38
335.455	343.38
335.684	316.38
335.912	346.38
336.14	325.38
336.369	331.38
336.597	343.38
336.825	333.38
337.053	320.38
337.281	338.38
337.51	317.38
337.738	326.38
337.966	324.38
338.194	333.38
338.422	301.38
338.65	319.38
338.878	309.38
339.106	316.38
339.334	303.38
339.562	294.38
339.79	308.38
340.018	314.38
340.246	321.38
340.474	308.38
340.702	318.38
340.93	300.38
341.158	303.38
341.386	297.38
341.614	317.38
341.842	308.38
342.07	302.38
342.298	313.38
342.526	308.38
342.754	300.38
342.981	289.38
343.209	299.38
343.437	308.38
343.665	299.38
343.893	286.38
344.12	318.38
344.348	300.38
344.576	317.38
344.804	321.38
345.031	320.38
345.259	346.38
345.487	325.38
345.714	320.38
345.942	301.38
346.17	307.38
346.397	314.38
346.625	300.38
346.853	301.38
347.08	292.38
347.308	309.38
347.535	299.38
347.763	302.38
347.99	306.38
348.218	319.38
348.445	312.38
348.673	311.38
348.9	306.38
349.128	288.38
349.355	309.38
349.583	297.38
349.81	292.38
350.037	283.38
350.265	291.38
350.492	288.38
350.72	289.38
350.947	295.38
351.174	308.38
351.402	322.38
351.629	322.38
351.856	331.38
352.083	294.38
352.311	320.38
352.538	312.38
352.765	315.38
352.992	300.38
353.22	304.38
353.447	287.38
353.674	298.38
353.901	306.38
354.128	290.38
354.355	289.38
354.583	278.38
354.81	269.38
355.037	282.38
355.264	264.38
355.491	294.38
355.718	273.38
355.945	271.38
356.172	263.38
356.399	269.38
356.626	280.38
356.853	272.38
357.08	291.38
357.307	286.38
357.534	273.38
357.761	277.38
357.988	291.38
358.215	288.38
358.441	273.38
358.668	285.38
358.895	282.38
359.122	269.38
359.349	300.38
359.576	306.38
359.802	331.38
360.029	335.38
360.256	325.38
360.483	320.38
360.709	315.38
360.936	303.38
361.163	294.38
361.39	307.38
361.616	295.38
361.843	294.38
362.07	285.38
362.296	295.38
362.523	293.38
362.749	321.38
362.976	289.38
363.203	299.38
363.429	290.38
363.656	291.38
363.882	282.38
364.109	292.38
364.335	270.38
364.562	299.38
364.788	276.38
365.015	279.38
365.241	280.38
365.468	300.38
365.694	305.38
365.92	296.38
366.147	279.38
366.373	281.38
366.599	288.38
366.826	269.38
367.052	278.38
367.278	279.38
367.505	264.38
367.731	276.38
367.957	271.38
368.184	270.38
368.41	290.38
368.636	287.38
368.862	308.38
369.089	271.38
369.315	272.38
369.541	283.38
369.767	266.38
369.993	286.38
370.219	267.38
370.445	293.38
370.672	270.38
370.898	263.38
371.124	265.38
371.35	269.38
371.576	267.38
371.802	287.38
372.028	268.38
372.254	269.38
372.48	266.38
372.706	273.38
372.932	265.38
373.158	273.38
373.384	263.38
373.61	264.38
373.835	272.38
374.061	274.38
374.287	284.38
374.513	261.38
374.739	266.38
374.965	266.38
375.191	284.38
375.416	261.38
375.642	283.38
375.868	282.38
376.094	254.38
376.319	282.38
376.545	262.38
376.771	271.38
376.997	277.38
377.222	269.38
377.448	266.38
377.674	273.38
377.899	264.38
378.125	275.38
378.35	266.38
378.576	263.38
378.802	268.38
379.027	272.38
379.253	280.38
379.478	272.38
379.704	276.38
379.929	260.38
380.155	276.38
380.38	265.38
380.606	276.38
380.831	274.38
381.057	268.38
381.282	258.38
381.507	265.38
381.733	276.38
381.958	280.38
382.184	268.38
382.409	292.38
382.634	277.38
382.86	286.38
383.085	263.38
383.31	285.38
383.535	282.38
383.761	273.38
383.986	286.38
384.211	302.38
384.436	264.38
384.662	288.38
384.887	285.38
385.112	286.38
385.337	281.38
385.562	298.38
385.787	287.38
386.013	288.38
386.238	270.38
386.463	278.38
386.688	288.38
386.913	284.38
387.138	300.38
387.363	281.38
387.588	286.38
387.813	271.38
388.038	288.38
388.263	299.38
388.488	270.38
388.713	271.38
388.938	284.38
389.163	263.38
389.387	270.38
389.612	268.38
389.837	284.38
390.062	288.38
390.287	280.38
390.512	275.38
390.736	269.38
390.961	276.38
391.186	250.38
391.411	273.38
391.636	300.38
391.86	276.38
392.085	269.38
392.31	304.38
392.534	288.38
392.759	277.38
392.984	275.38
393.208	285.38
393.433	290.38
393.658	282.38
393.882	268.38
394.107	290.38
394.331	292.38
394.556	277.38
394.78	275.38
395.005	287.38
395.229	281.38
395.454	284.38
395.678	288.38
395.903	293.38
396.127	324.38
396.352	316.38
396.576	289.38
396.801	282.38
397.025	307.38
397.249	290.38
397.474	300.38
397.698	316.38
397.922	311.38
398.147	318.38
398.371	306.38
398.595	304.38
398.82	306.38
399.044	316.38
399.268	321.38
399.492	346.38
399.717	350.38
399.941	371.38
400.165	376.38
400.389	372.38
400.613	343.38
400.837	327.38
401.062	318.38
401.286	309.38
401.51	310.38
401.734	308.38
401.958	318.38
402.182	332.38
402.406	317.38
402.63	331.38
402.854	312.38
403.078	314.38
403.302	333.38
403.526	312.38
403.75	340.38
403.974	333.38
404.198	301.38
404.422	303.38
404.645	346.38
404.869	323.38
405.093	340.38
405.317	372.38
405.541	395.38
405.765	370.38
405.988	328.38
406.212	351.38
406.436	343.38
406.66	363.38
406.883	343.38
407.107	375.38
407.331	389.38
407.555	422.38
407.778	422.38
408.002	406.38
408.226	342.38
408.449	356.38
408.673	360.38
408.896	377.38
409.12	383.38
409.344	364.38
409.567	348.38
409.791	331.38
410.014	324.38
410.238	318.38
410.461	306.38
410.685	326.38
410.908	326.38
411.132	353.38
411.355	355.38
411.578	376.38
411.802	330.38
412.025	322.38
412.249	334.38
412.472	348.38
412.695	338.38
412.919	347.38
413.142	329.38
413.365	302.38
413.589	320.38
413.812	306.38
414.035	299.38
414.258	288.38
414.482	312.38
414.705	288.38
414.928	299.38
415.151	300.38
415.374	303.38
415.597	323.38
415.821	301.38
416.044	286.38
416.267	330.38
416.49	293.38
416.713	286.38
416.936	316.38
417.159	304.38
417.382	322.38
417.605	317.38
417.828	307.38
418.051	322.38
418.274	318.38
418.497	321.38
418.72	304.38
418.943	300.38
419.166	327.38
419.389	315.38
419.611	311.38
419.834	321.38
420.057	313.38
420.28	318.38
420.503	320.38
420.726	326.38
420.948	322.38
421.171	343.38
421.394	362.38
421.617	324.38
421.839	329.38
422.062	322.38
422.285	336.38
422.507	361.38
422.73	401.38
422.953	411.38
423.175	359.38
423.398	343.38
423.621	316.38
423.843	324.38
424.066	339.38
424.288	345.38
424.511	338.38
424.733	393.38
424.956	420.38
425.178	425.38
425.401	388.38
425.623	408.38
425.846	378.38
426.068	354.38
426.291	360.38
426.513	345.38
426.735	333.38
426.958	376.38
427.18	428.38
427.402	510.38
427.625	568.38
427.847	474.38
428.069	438.38
428.292	381.38
428.514	368.38
428.736	324.38
428.958	335.38
429.181	321.38
429.403	313.38
429.625	342.38
429.847	353.38
430.069	388.38
430.292	391.38
430.514	327.38
430.736	317.38
430.958	330.38
431.18	311.38
431.402	292.38
431.624	309.38
431.846	302.38
432.068	326.38
432.29	309.38
432.512	296.38
432.734	330.38
432.956	296.38
433.178	300.38
433.4	315.38
433.622	314.38
433.844	306.38
434.066	308.38
434.287	292.38
434.509	306.38
434.731	306.38
434.953	324.38
435.175	330.38
435.397	356.38
435.618	349.38
435.84	391.38
436.062	454.38
436.284	460.38
436.505	394.38
436.727	366.38
436.949	340.38
437.17	320.38
437.392	320.38
437.614	347.38
437.835	351.38
438.057	417.38
438.278	463.38
438.5	474.38
438.721	511.38
438.943	466.38
439.165	418.38
439.386	354.38
439.608	360.38
439.829	360.38
440.05	371.38
440.272	386.38
440.493	364.38
440.715	338.38
440.936	337.38
441.158	323.38
441.379	333.38
441.6	340.38
441.822	336.38
442.043	367.38
442.264	419.38
442.486	424.38
442.707	394.38
442.928	384.38
443.149	354.38
443.371	391.38
443.592	408.38
443.813	437.38
444.034	478.38
444.255	398.38
444.476	365.38
444.698	334.38
444.919	347.38
445.14	438.38
445.361	384.38
445.582	367.38
445.803	414.38
446.024	460.38
446.245	486.38
446.466	444.38
446.687	386.38
446.908	356.38
447.129	338.38
447.35	339.38
447.571	320.38
447.792	317.38
448.013	322.38
448.234	351.38
448.455	375.38
448.675	437.38
448.896	523.38
449.117	415.38
449.338	429.38
449.559	487.38
449.779	535.38
450	419.38
450.221	355.38
450.442	346.38
450.662	343.38
450.883	342.38
451.104	336.38
451.324	332.38
451.545	295.38
451.766	298.38
451.986	294.38
452.207	278.38
452.428	285.38
452.648	291.38
452.869	319.38
453.089	308.38
453.31	299.38
453.53	312.38
453.751	310.38
453.971	300.38
454.192	319.38
454.412	303.38
454.633	287.38
454.853	298.38
455.073	299.38
455.294	310.38
455.514	343.38
455.734	338.38
455.955	296.38
456.175	272.38
456.395	284.38
456.616	292.38
456.836	290.38
457.056	283.38
457.276	268.38
457.497	283.38
457.717	263.38
457.937	300.38
458.157	288.38
458.377	299.38
458.598	292.38
458.818	353.38
459.038	370.38
459.258	370.38
459.478	320.38
459.698	306.38
459.918	282.38
460.138	301.38
460.358	291.38
460.578	304.38
460.798	303.38
461.018	293.38
461.238	299.38
461.458	286.38
461.678	292.38
461.898	292.38
462.118	291.38
462.338	307.38
462.558	316.38
462.777	300.38
462.997	302.38
463.217	331.38
463.437	317.38
463.657	309.38
463.876	305.38
464.096	323.38
464.316	306.38
464.536	301.38
464.755	317.38
464.975	344.38
465.195	359.38
465.414	390.38
465.634	378.38
465.854	311.38
466.073	302.38
466.293	297.38
466.512	303.38
466.732	297.38
466.951	307.38
467.171	307.38
467.391	292.38
467.61	307.38
467.829	310.38
468.049	319.38
468.268	295.38
468.488	306.38
468.707	286.38
468.927	291.38
469.146	280.38
469.365	279.38
469.585	280.38
469.804	300.38
470.023	294.38
470.243	304.38
470.462	290.38
470.681	330.38
470.901	312.38
471.12	296.38
471.339	301.38
471.558	303.38
471.777	302.38
471.997	289.38
472.216	296.38
472.435	323.38
472.654	311.38
472.873	297.38
473.092	282.38
473.311	309.38
473.53	303.38
473.749	318.38
473.968	356.38
474.187	404.38
474.406	403.38
474.625	340.38
474.844	329.38
475.063	304.38
475.282	293.38
475.501	312.38
475.72	311.38
475.939	304.38
476.158	308.38
476.377	323.38
476.596	304.38
476.814	314.38
477.033	318.38
477.252	320.38
477.471	313.38
477.69	322.38
477.908	326.38
478.127	315.38
478.346	319.38
478.564	325.38
478.783	345.38
479.002	322.38
479.22	324.38
479.439	346.38
479.658	364.38
479.876	367.38
480.095	345.38
480.313	377.38
480.532	360.38
480.751	350.38
480.969	378.38
481.188	399.38
481.406	410.38
481.624	387.38
481.843	363.38
482.061	342.38
482.28	364.38
482.498	365.38
482.717	332.38
482.935	360.38
483.153	363.38
483.372	346.38
483.59	334.38
483.808	345.38
484.027	330.38
484.245	347.38
484.463	341.38
484.681	370.38
484.9	354.38
485.118	357.38
485.336	345.38
485.554	341.38
485.772	357.38
485.99	350.38
486.209	358.38
486.427	353.38
486.645	363.38
486.863	378.38
487.081	386.38
487.299	375.38
487.517	375.38
487.735	351.38
487.953	383.38
488.171	358.38
488.389	362.38
488.607	367.38
488.825	338.38
489.043	399.38
489.261	372.38
489.479	376.38
489.696	361.38
489.914	373.38
490.132	384.38
490.35	390.38
490.568	400.38
490.786	398.38
491.003	387.38
491.221	392.38
491.439	420.38
491.657	412.38
491.874	412.38
492.092	429.38
492.31	440.38
492.527	404.38
492.745	410.38
492.963	417.38
493.18	406.38
493.398	436.38
493.615	434.38
493.833	446.38
494.05	429.38
494.268	442.38
494.485	420.38
494.703	403.38
494.92	434.38
495.138	420.38
495.355	451.38
495.573	431.38
495.79	429.38
496.008	445.38
496.225	429.38
496.442	426.38
496.66	439.38
496.877	427.38
497.094	441.38
497.312	443.38
497.529	449.38
497.746	423.38
497.963	463.38
498.181	484.38
498.398	461.38
498.615	479.38
498.832	474.38
499.049	463.38
499.267	467.38
499.484	494.38
499.701	500.38
499.918	513.38
500.135	518.38
500.352	554.38
500.569	542.38
500.786	520.38
501.003	539.38
501.22	518.38
501.437	499.38
501.654	526.38
501.871	516.38
502.088	520.38
