Data from 1982.PennyLincolnUp.Lamp.En5.5.200Scan.071819.P1_HRD10591_16-46-24-961.txt Node
Date: Thu Jul 18 16:46:24 EDT 2019
User: cochatt
Spectrometer: HR+D1059
Trigger mode: 1
Integration Time (sec): 1.000000E-1
Scans to average: 1
Electric dark correction enabled: true
Nonlinearity correction enabled: false
Boxcar width: 0
XAxis mode: Wavelengths
Number of Pixels in Spectrum: 2048
>>>>>Begin Spectral Data<<<<<
223.165	-14.38
223.4	-14.38
223.635	-14.38
223.869	-18.38
224.104	-14.38
224.338	-8.38
224.573	-18.38
224.808	-18.38
225.042	-0.38
225.277	-7.38
225.511	0.62
225.746	2.62
225.98	-6.38
226.215	9.62
226.449	13.62
226.683	17.62
226.918	33.62
227.152	28.62
227.387	39.62
227.621	24.62
227.856	56.62
228.09	45.62
228.324	48.62
228.559	54.62
228.793	60.62
229.027	84.62
229.262	92.62
229.496	98.62
229.73	115.62
229.964	139.62
230.199	117.62
230.433	92.62
230.667	106.62
230.901	101.62
231.136	104.62
231.37	110.62
231.604	97.62
231.838	99.62
232.072	102.62
232.306	111.62
232.541	103.62
232.775	102.62
233.009	115.62
233.243	98.62
233.477	114.62
233.711	108.62
233.945	97.62
234.179	99.62
234.413	101.62
234.647	105.62
234.881	118.62
235.115	114.62
235.349	102.62
235.583	120.62
235.817	109.62
236.051	118.62
236.285	114.62
236.519	120.62
236.753	106.62
236.987	132.62
237.221	151.62
237.455	200.62
237.689	145.62
237.922	111.62
238.156	125.62
238.39	106.62
238.624	116.62
238.858	109.62
239.091	119.62
239.325	121.62
239.559	124.62
239.793	116.62
240.027	123.62
240.26	139.62
240.494	133.62
240.728	117.62
240.961	128.62
241.195	124.62
241.429	120.62
241.662	127.62
241.896	112.62
242.13	114.62
242.363	106.62
242.597	125.62
242.83	120.62
243.064	129.62
243.298	127.62
243.531	115.62
243.765	124.62
243.998	105.62
244.232	120.62
244.465	126.62
244.699	134.62
244.932	125.62
245.166	125.62
245.399	108.62
245.633	131.62
245.866	125.62
246.099	119.62
246.333	127.62
246.566	130.62
246.8	129.62
247.033	139.62
247.266	131.62
247.5	126.62
247.733	140.62
247.966	154.62
248.2	136.62
248.433	138.62
248.666	141.62
248.899	152.62
249.133	167.62
249.366	173.62
249.599	147.62
249.832	153.62
250.066	148.62
250.299	157.62
250.532	169.62
250.765	171.62
250.998	186.62
251.231	178.62
251.465	168.62
251.698	173.62
251.931	174.62
252.164	169.62
252.397	169.62
252.63	160.62
252.863	170.62
253.096	167.62
253.329	187.62
253.562	187.62
253.795	178.62
254.028	178.62
254.261	186.62
254.494	189.62
254.727	184.62
254.96	218.62
255.193	217.62
255.426	204.62
255.659	188.62
255.892	184.62
256.124	182.62
256.357	193.62
256.59	182.62
256.823	192.62
257.056	180.62
257.289	174.62
257.521	174.62
257.754	166.62
257.987	163.62
258.22	169.62
258.452	180.62
258.685	168.62
258.918	157.62
259.151	151.62
259.383	191.62
259.616	182.62
259.849	194.62
260.081	190.62
260.314	198.62
260.547	202.62
260.779	192.62
261.012	183.62
261.244	184.62
261.477	183.62
261.71	193.62
261.942	172.62
262.175	184.62
262.407	186.62
262.64	163.62
262.872	173.62
263.105	168.62
263.337	171.62
263.57	172.62
263.802	170.62
264.035	175.62
264.267	170.62
264.499	182.62
264.732	181.62
264.964	169.62
265.197	168.62
265.429	159.62
265.661	164.62
265.894	158.62
266.126	160.62
266.358	167.62
266.591	182.62
266.823	188.62
267.055	172.62
267.287	194.62
267.52	168.62
267.752	186.62
267.984	189.62
268.216	180.62
268.448	192.62
268.681	189.62
268.913	194.62
269.145	203.62
269.377	221.62
269.609	227.62
269.841	206.62
270.073	214.62
270.306	226.62
270.538	251.62
270.77	246.62
271.002	251.62
271.234	220.62
271.466	234.62
271.698	235.62
271.93	248.62
272.162	248.62
272.394	253.62
272.626	232.62
272.858	228.62
273.09	218.62
273.322	236.62
273.553	218.62
273.785	201.62
274.017	203.62
274.249	202.62
274.481	210.62
274.713	223.62
274.945	211.62
275.176	202.62
275.408	211.62
275.64	223.62
275.872	199.62
276.104	205.62
276.335	213.62
276.567	214.62
276.799	232.62
277.031	241.62
277.262	247.62
277.494	267.62
277.726	248.62
277.957	231.62
278.189	216.62
278.421	220.62
278.652	216.62
278.884	222.62
279.115	213.62
279.347	209.62
279.579	215.62
279.81	228.62
280.042	221.62
280.273	201.62
280.505	201.62
280.736	202.62
280.968	206.62
281.199	212.62
281.431	202.62
281.662	212.62
281.894	203.62
282.125	204.62
282.356	219.62
282.588	232.62
282.819	259.62
283.051	229.62
283.282	211.62
283.513	208.62
283.745	216.62
283.976	213.62
284.207	216.62
284.439	214.62
284.67	221.62
284.901	224.62
285.132	212.62
285.364	219.62
285.595	220.62
285.826	208.62
286.057	223.62
286.288	205.62
286.52	214.62
286.751	216.62
286.982	229.62
287.213	230.62
287.444	216.62
287.675	247.62
287.906	239.62
288.138	246.62
288.369	243.62
288.6	240.62
288.831	246.62
289.062	236.62
289.293	221.62
289.524	235.62
289.755	205.62
289.986	213.62
290.217	232.62
290.448	225.62
290.679	230.62
290.91	222.62
291.141	216.62
291.371	207.62
291.602	233.62
291.833	219.62
292.064	211.62
292.295	222.62
292.526	217.62
292.757	214.62
292.987	219.62
293.218	234.62
293.449	215.62
293.68	216.62
293.91	238.62
294.141	221.62
294.372	223.62
294.603	237.62
294.833	239.62
295.064	234.62
295.295	227.62
295.525	221.62
295.756	223.62
295.987	225.62
296.217	258.62
296.448	239.62
296.679	242.62
296.909	222.62
297.14	238.62
297.37	233.62
297.601	216.62
297.831	228.62
298.062	226.62
298.292	217.62
298.523	229.62
298.753	240.62
298.984	207.62
299.214	236.62
299.445	229.62
299.675	243.62
299.905	262.62
300.136	234.62
300.366	232.62
300.597	233.62
300.827	248.62
301.057	243.62
301.288	246.62
301.518	257.62
301.748	252.62
301.979	249.62
302.209	235.62
302.439	243.62
302.669	248.62
302.9	234.62
303.13	248.62
303.36	244.62
303.59	269.62
303.82	274.62
304.051	256.62
304.281	254.62
304.511	270.62
304.741	264.62
304.971	249.62
305.201	239.62
305.431	246.62
305.661	258.62
305.891	258.62
306.121	263.62
306.352	269.62
306.582	255.62
306.812	268.62
307.042	255.62
307.272	253.62
307.502	255.62
307.731	272.62
307.961	267.62
308.191	277.62
308.421	252.62
308.651	256.62
308.881	248.62
309.111	251.62
309.341	245.62
309.571	277.62
309.8	284.62
310.03	268.62
310.26	291.62
310.49	293.62
310.72	311.62
310.949	306.62
311.179	294.62
311.409	298.62
311.639	300.62
311.868	317.62
312.098	311.62
312.328	299.62
312.557	326.62
312.787	314.62
313.017	306.62
313.246	301.62
313.476	287.62
313.706	288.62
313.935	297.62
314.165	300.62
314.394	325.62
314.624	300.62
314.853	296.62
315.083	287.62
315.312	274.62
315.542	283.62
315.771	285.62
316.001	274.62
316.23	292.62
316.46	266.62
316.689	277.62
316.919	302.62
317.148	296.62
317.377	314.62
317.607	295.62
317.836	294.62
318.065	302.62
318.295	288.62
318.524	277.62
318.753	281.62
318.983	282.62
319.212	290.62
319.441	310.62
319.67	301.62
319.9	283.62
320.129	284.62
320.358	296.62
320.587	288.62
320.816	310.62
321.046	308.62
321.275	312.62
321.504	312.62
321.733	316.62
321.962	313.62
322.191	331.62
322.42	348.62
322.649	364.62
322.878	348.62
323.108	363.62
323.337	404.62
323.566	404.62
323.795	443.62
324.024	490.62
324.253	621.62
324.482	892.62
324.71	1360.62
324.939	1727.62
325.168	1418.62
325.397	761.62
325.626	532.62
325.855	448.62
326.084	411.62
326.313	400.62
326.542	400.62
326.77	449.62
326.999	553.62
327.228	805.62
327.457	1150.62
327.686	1278.62
327.914	840.62
328.143	554.62
328.372	496.62
328.6	478.62
328.829	471.62
329.058	466.62
329.287	454.62
329.515	420.62
329.744	404.62
329.972	395.62
330.201	425.62
330.43	434.62
330.658	473.62
330.887	479.62
331.115	463.62
331.344	406.62
331.572	384.62
331.801	363.62
332.03	372.62
332.258	358.62
332.486	326.62
332.715	334.62
332.943	335.62
333.172	343.62
333.4	343.62
333.629	346.62
333.857	371.62
334.085	365.62
334.314	363.62
334.542	406.62
334.771	404.62
334.999	365.62
335.227	354.62
335.455	345.62
335.684	345.62
335.912	330.62
336.14	339.62
336.369	321.62
336.597	331.62
336.825	333.62
337.053	333.62
337.281	314.62
337.51	319.62
337.738	336.62
337.966	322.62
338.194	338.62
338.422	333.62
338.65	325.62
338.878	332.62
339.106	337.62
339.334	310.62
339.562	314.62
339.79	306.62
340.018	303.62
340.246	307.62
340.474	337.62
340.702	324.62
340.93	293.62
341.158	330.62
341.386	329.62
341.614	308.62
341.842	310.62
342.07	319.62
342.298	308.62
342.526	299.62
342.754	312.62
342.981	327.62
343.209	314.62
343.437	316.62
343.665	311.62
343.893	321.62
344.12	325.62
344.348	312.62
344.576	324.62
344.804	324.62
345.031	320.62
345.259	350.62
345.487	337.62
345.714	324.62
345.942	306.62
346.17	292.62
346.397	311.62
346.625	318.62
346.853	300.62
347.08	318.62
347.308	325.62
347.535	332.62
347.763	319.62
347.99	312.62
348.218	333.62
348.445	326.62
348.673	304.62
348.9	300.62
349.128	307.62
349.355	284.62
349.583	304.62
349.81	295.62
350.037	284.62
350.265	290.62
350.492	300.62
350.72	292.62
350.947	304.62
351.174	301.62
351.402	315.62
351.629	314.62
351.856	308.62
352.083	323.62
352.311	334.62
352.538	341.62
352.765	320.62
352.992	314.62
353.22	317.62
353.447	296.62
353.674	305.62
353.901	299.62
354.128	301.62
354.355	287.62
354.583	289.62
354.81	295.62
355.037	278.62
355.264	285.62
355.491	290.62
355.718	272.62
355.945	273.62
356.172	280.62
356.399	276.62
356.626	275.62
356.853	285.62
357.08	249.62
357.307	298.62
357.534	272.62
357.761	295.62
357.988	300.62
358.215	288.62
358.441	286.62
358.668	288.62
358.895	291.62
359.122	302.62
359.349	304.62
359.576	316.62
359.802	317.62
360.029	349.62
360.256	357.62
360.483	316.62
360.709	308.62
360.936	309.62
361.163	299.62
361.39	310.62
361.616	309.62
361.843	327.62
362.07	295.62
362.296	299.62
362.523	295.62
362.749	297.62
362.976	291.62
363.203	299.62
363.429	276.62
363.656	299.62
363.882	272.62
364.109	298.62
364.335	296.62
364.562	288.62
364.788	288.62
365.015	286.62
365.241	292.62
365.468	287.62
365.694	287.62
365.92	307.62
366.147	271.62
366.373	290.62
366.599	291.62
366.826	291.62
367.052	283.62
367.278	277.62
367.505	283.62
367.731	307.62
367.957	290.62
368.184	285.62
368.41	282.62
368.636	290.62
368.862	294.62
369.089	292.62
369.315	268.62
369.541	287.62
369.767	301.62
369.993	280.62
370.219	274.62
370.445	285.62
370.672	264.62
370.898	287.62
371.124	293.62
371.35	270.62
371.576	284.62
371.802	285.62
372.028	260.62
372.254	266.62
372.48	257.62
372.706	278.62
372.932	277.62
373.158	277.62
373.384	283.62
373.61	276.62
373.835	274.62
374.061	272.62
374.287	274.62
374.513	266.62
374.739	260.62
374.965	259.62
375.191	278.62
375.416	278.62
375.642	272.62
375.868	297.62
376.094	262.62
376.319	265.62
376.545	286.62
376.771	286.62
376.997	264.62
377.222	268.62
377.448	282.62
377.674	269.62
377.899	255.62
378.125	264.62
378.35	264.62
378.576	278.62
378.802	281.62
379.027	269.62
379.253	282.62
379.478	281.62
379.704	291.62
379.929	284.62
380.155	275.62
380.38	285.62
380.606	265.62
380.831	262.62
381.057	285.62
381.282	260.62
381.507	289.62
381.733	267.62
381.958	284.62
382.184	268.62
382.409	286.62
382.634	293.62
382.86	276.62
383.085	269.62
383.31	276.62
383.535	282.62
383.761	263.62
383.986	283.62
384.211	266.62
384.436	272.62
384.662	306.62
384.887	273.62
385.112	296.62
385.337	271.62
385.562	284.62
385.787	283.62
386.013	279.62
386.238	294.62
386.463	312.62
386.688	282.62
386.913	286.62
387.138	282.62
387.363	273.62
387.588	307.62
387.813	288.62
388.038	273.62
388.263	291.62
388.488	286.62
388.713	268.62
388.938	302.62
389.163	283.62
389.387	278.62
389.612	299.62
389.837	285.62
390.062	278.62
390.287	281.62
390.512	277.62
390.736	278.62
390.961	298.62
391.186	267.62
391.411	283.62
391.636	268.62
391.86	291.62
392.085	283.62
392.31	292.62
392.534	282.62
392.759	293.62
392.984	291.62
393.208	287.62
393.433	282.62
393.658	272.62
393.882	286.62
394.107	292.62
394.331	286.62
394.556	280.62
394.78	281.62
395.005	286.62
395.229	280.62
395.454	291.62
395.678	310.62
395.903	298.62
396.127	306.62
396.352	318.62
396.576	304.62
396.801	296.62
397.025	303.62
397.249	305.62
397.474	284.62
397.698	292.62
397.922	316.62
398.147	324.62
398.371	322.62
398.595	306.62
398.82	320.62
399.044	300.62
399.268	327.62
399.492	350.62
399.717	348.62
399.941	353.62
400.165	371.62
400.389	386.62
400.613	361.62
400.837	338.62
401.062	335.62
401.286	340.62
401.51	331.62
401.734	322.62
401.958	320.62
402.182	327.62
402.406	321.62
402.63	323.62
402.854	345.62
403.078	351.62
403.302	341.62
403.526	304.62
403.75	338.62
403.974	327.62
404.198	316.62
404.422	334.62
404.645	332.62
404.869	345.62
405.093	342.62
405.317	340.62
405.541	387.62
405.765	351.62
405.988	351.62
406.212	354.62
406.436	372.62
406.66	356.62
406.883	358.62
407.107	364.62
407.331	375.62
407.555	431.62
407.778	421.62
408.002	388.62
408.226	352.62
408.449	356.62
408.673	353.62
408.896	356.62
409.12	395.62
409.344	379.62
409.567	338.62
409.791	344.62
410.014	317.62
410.238	336.62
410.461	334.62
410.685	306.62
410.908	325.62
411.132	363.62
411.355	358.62
411.578	363.62
411.802	319.62
412.025	324.62
412.249	335.62
412.472	343.62
412.695	361.62
412.919	358.62
413.142	341.62
413.365	320.62
413.589	312.62
413.812	315.62
414.035	313.62
414.258	326.62
414.482	302.62
414.705	316.62
414.928	302.62
415.151	290.62
415.374	298.62
415.597	291.62
415.821	326.62
416.044	316.62
416.267	313.62
416.49	285.62
416.713	300.62
416.936	317.62
417.159	302.62
417.382	309.62
417.605	324.62
417.828	308.62
418.051	321.62
418.274	326.62
418.497	325.62
418.72	305.62
418.943	325.62
419.166	308.62
419.389	333.62
419.611	314.62
419.834	322.62
420.057	331.62
420.28	324.62
420.503	331.62
420.726	319.62
420.948	335.62
421.171	361.62
421.394	365.62
421.617	331.62
421.839	312.62
422.062	322.62
422.285	336.62
422.507	364.62
422.73	396.62
422.953	398.62
423.175	349.62
423.398	348.62
423.621	327.62
423.843	348.62
424.066	320.62
424.288	357.62
424.511	355.62
424.733	407.62
424.956	431.62
425.178	419.62
425.401	436.62
425.623	410.62
425.846	376.62
426.068	351.62
426.291	350.62
426.513	358.62
426.735	337.62
426.958	398.62
427.18	457.62
427.402	528.62
427.625	568.62
427.847	493.62
428.069	445.62
428.292	399.62
428.514	355.62
428.736	338.62
428.958	330.62
429.181	346.62
429.403	330.62
429.625	351.62
429.847	365.62
430.069	392.62
430.292	388.62
430.514	335.62
430.736	346.62
430.958	317.62
431.18	308.62
431.402	306.62
431.624	307.62
431.846	290.62
432.068	311.62
432.29	328.62
432.512	325.62
432.734	316.62
432.956	328.62
433.178	317.62
433.4	295.62
433.622	294.62
433.844	327.62
434.066	300.62
434.287	293.62
434.509	316.62
434.731	312.62
434.953	328.62
435.175	342.62
435.397	351.62
435.618	357.62
435.84	393.62
436.062	440.62
436.284	472.62
436.505	401.62
436.727	362.62
436.949	336.62
437.17	327.62
437.392	350.62
437.614	343.62
437.835	374.62
438.057	427.62
438.278	484.62
438.5	499.62
438.721	512.62
438.943	492.62
439.165	390.62
439.386	367.62
439.608	380.62
439.829	360.62
440.05	383.62
440.272	418.62
440.493	404.62
440.715	336.62
440.936	353.62
441.158	336.62
441.379	320.62
441.6	343.62
441.822	330.62
442.043	372.62
442.264	431.62
442.486	462.62
442.707	391.62
442.928	355.62
443.149	363.62
443.371	361.62
443.592	413.62
443.813	457.62
444.034	487.62
444.255	414.62
444.476	373.62
444.698	352.62
444.919	356.62
445.14	446.62
445.361	386.62
445.582	386.62
445.803	425.62
446.024	498.62
446.245	500.62
446.466	451.62
446.687	379.62
446.908	359.62
447.129	360.62
447.35	317.62
447.571	325.62
447.792	318.62
448.013	324.62
448.234	358.62
448.455	384.62
448.675	438.62
448.896	499.62
449.117	460.62
449.338	434.62
449.559	500.62
449.779	551.62
450	419.62
450.221	362.62
450.442	326.62
450.662	330.62
450.883	332.62
451.104	347.62
451.324	333.62
451.545	319.62
451.766	312.62
451.986	320.62
452.207	284.62
452.428	298.62
452.648	310.62
452.869	307.62
453.089	306.62
453.31	319.62
453.53	318.62
453.751	271.62
453.971	300.62
454.192	304.62
454.412	298.62
454.633	294.62
454.853	290.62
455.073	276.62
455.294	306.62
455.514	365.62
455.734	349.62
455.955	298.62
456.175	278.62
456.395	282.62
456.616	275.62
456.836	282.62
457.056	270.62
457.276	282.62
457.497	285.62
457.717	286.62
457.937	282.62
458.157	286.62
458.377	290.62
458.598	307.62
458.818	328.62
459.038	383.62
459.258	387.62
459.478	344.62
459.698	304.62
459.918	297.62
460.138	282.62
460.358	293.62
460.578	303.62
460.798	311.62
461.018	320.62
461.238	294.62
461.458	312.62
461.678	314.62
461.898	319.62
462.118	301.62
462.338	296.62
462.558	306.62
462.777	306.62
462.997	314.62
463.217	310.62
463.437	319.62
463.657	293.62
463.876	326.62
464.096	317.62
464.316	314.62
464.536	336.62
464.755	330.62
464.975	330.62
465.195	353.62
465.414	416.62
465.634	360.62
465.854	338.62
466.073	282.62
466.293	314.62
466.512	295.62
466.732	279.62
466.951	298.62
467.171	288.62
467.391	312.62
467.61	316.62
467.829	310.62
468.049	310.62
468.268	301.62
468.488	294.62
468.707	301.62
468.927	293.62
469.146	287.62
469.365	296.62
469.585	307.62
469.804	282.62
470.023	308.62
470.243	291.62
470.462	309.62
470.681	331.62
470.901	322.62
471.12	300.62
471.339	314.62
471.558	303.62
471.777	314.62
471.997	312.62
472.216	295.62
472.435	337.62
472.654	341.62
472.873	302.62
473.092	315.62
473.311	293.62
473.53	293.62
473.749	321.62
473.968	341.62
474.187	397.62
474.406	426.62
474.625	342.62
474.844	316.62
475.063	313.62
475.282	311.62
475.501	312.62
475.72	317.62
475.939	324.62
476.158	300.62
476.377	312.62
476.596	310.62
476.814	304.62
477.033	335.62
477.252	323.62
477.471	328.62
477.69	309.62
477.908	318.62
478.127	315.62
478.346	308.62
478.564	322.62
478.783	331.62
479.002	328.62
479.22	325.62
479.439	342.62
479.658	343.62
479.876	365.62
480.095	359.62
480.313	382.62
480.532	382.62
480.751	358.62
480.969	376.62
481.188	412.62
481.406	410.62
481.624	391.62
481.843	376.62
482.061	336.62
482.28	358.62
482.498	347.62
482.717	350.62
482.935	348.62
483.153	339.62
483.372	355.62
483.59	343.62
483.808	372.62
484.027	364.62
484.245	353.62
484.463	356.62
484.681	362.62
484.9	343.62
485.118	336.62
485.336	351.62
485.554	352.62
485.772	347.62
485.99	357.62
486.209	336.62
486.427	384.62
486.645	373.62
486.863	375.62
487.081	387.62
487.299	356.62
487.517	367.62
487.735	357.62
487.953	376.62
488.171	367.62
488.389	366.62
488.607	369.62
488.825	389.62
489.043	367.62
489.261	378.62
489.479	376.62
489.696	369.62
489.914	380.62
490.132	381.62
490.35	393.62
490.568	388.62
490.786	387.62
491.003	389.62
491.221	410.62
491.439	428.62
491.657	430.62
491.874	420.62
492.092	428.62
492.31	413.62
492.527	433.62
492.745	458.62
492.963	435.62
493.18	418.62
493.398	434.62
493.615	422.62
493.833	450.62
494.05	430.62
494.268	425.62
494.485	448.62
494.703	439.62
494.92	431.62
495.138	429.62
495.355	446.62
495.573	441.62
495.79	429.62
496.008	424.62
496.225	438.62
496.442	430.62
496.66	443.62
496.877	424.62
497.094	443.62
497.312	448.62
497.529	452.62
497.746	455.62
497.963	461.62
498.181	494.62
498.398	487.62
498.615	472.62
498.832	459.62
499.049	479.62
499.267	492.62
499.484	503.62
499.701	492.62
499.918	492.62
500.135	533.62
500.352	527.62
500.569	535.62
500.786	541.62
501.003	539.62
501.22	540.62
501.437	516.62
501.654	500.62
501.871	530.62
502.088	501.62
