Data from 1982.PennyLincolnUp.Lamp.En5.5.200Scan.071819.P1_HRD10591_16-47-17-961.txt Node
Date: Thu Jul 18 16:47:17 EDT 2019
User: cochatt
Spectrometer: HR+D1059
Trigger mode: 1
Integration Time (sec): 1.000000E-1
Scans to average: 1
Electric dark correction enabled: true
Nonlinearity correction enabled: false
Boxcar width: 0
XAxis mode: Wavelengths
Number of Pixels in Spectrum: 2048
>>>>>Begin Spectral Data<<<<<
223.165	-27.06
223.4	-27.06
223.635	-27.06
223.869	-14.06
224.104	-15.06
224.338	6.94
224.573	-12.06
224.808	-30.06
225.042	-12.06
225.277	-16.06
225.511	6.94
225.746	0.94
225.98	-3.06
226.215	7.94
226.449	28.94
226.683	25.94
226.918	20.94
227.152	30.94
227.387	36.94
227.621	35.94
227.856	44.94
228.09	32.94
228.324	42.94
228.559	60.94
228.793	66.94
229.027	77.94
229.262	105.94
229.496	100.94
229.73	110.94
229.964	132.94
230.199	117.94
230.433	106.94
230.667	101.94
230.901	113.94
231.136	106.94
231.37	94.94
231.604	104.94
231.838	113.94
232.072	92.94
232.306	100.94
232.541	97.94
232.775	90.94
233.009	99.94
233.243	109.94
233.477	97.94
233.711	109.94
233.945	84.94
234.179	113.94
234.413	104.94
234.647	101.94
234.881	118.94
235.115	120.94
235.349	106.94
235.583	100.94
235.817	103.94
236.051	120.94
236.285	112.94
236.519	104.94
236.753	107.94
236.987	131.94
237.221	158.94
237.455	181.94
237.689	164.94
237.922	117.94
238.156	103.94
238.39	102.94
238.624	106.94
238.858	108.94
239.091	109.94
239.325	101.94
239.559	123.94
239.793	114.94
240.027	122.94
240.26	132.94
240.494	132.94
240.728	131.94
240.961	112.94
241.195	124.94
241.429	110.94
241.662	116.94
241.896	106.94
242.13	118.94
242.363	137.94
242.597	115.94
242.83	133.94
243.064	118.94
243.298	110.94
243.531	116.94
243.765	118.94
243.998	113.94
244.232	116.94
244.465	115.94
244.699	120.94
244.932	123.94
245.166	125.94
245.399	116.94
245.633	128.94
245.866	129.94
246.099	119.94
246.333	112.94
246.566	118.94
246.8	136.94
247.033	136.94
247.266	141.94
247.5	136.94
247.733	118.94
247.966	141.94
248.2	141.94
248.433	147.94
248.666	149.94
248.899	148.94
249.133	149.94
249.366	162.94
249.599	153.94
249.832	162.94
250.066	135.94
250.299	154.94
250.532	152.94
250.765	179.94
250.998	192.94
251.231	193.94
251.465	170.94
251.698	161.94
251.931	161.94
252.164	167.94
252.397	154.94
252.63	189.94
252.863	165.94
253.096	173.94
253.329	177.94
253.562	185.94
253.795	184.94
254.028	180.94
254.261	179.94
254.494	205.94
254.727	206.94
254.96	220.94
255.193	212.94
255.426	181.94
255.659	190.94
255.892	176.94
256.124	195.94
256.357	195.94
256.59	178.94
256.823	173.94
257.056	171.94
257.289	182.94
257.521	184.94
257.754	169.94
257.987	173.94
258.22	168.94
258.452	177.94
258.685	177.94
258.918	180.94
259.151	160.94
259.383	181.94
259.616	199.94
259.849	187.94
260.081	207.94
260.314	205.94
260.547	214.94
260.779	220.94
261.012	188.94
261.244	200.94
261.477	188.94
261.71	188.94
261.942	182.94
262.175	205.94
262.407	183.94
262.64	190.94
262.872	177.94
263.105	177.94
263.337	195.94
263.57	173.94
263.802	172.94
264.035	168.94
264.267	183.94
264.499	166.94
264.732	168.94
264.964	184.94
265.197	172.94
265.429	163.94
265.661	183.94
265.894	180.94
266.126	188.94
266.358	169.94
266.591	168.94
266.823	181.94
267.055	181.94
267.287	191.94
267.52	185.94
267.752	188.94
267.984	180.94
268.216	195.94
268.448	186.94
268.681	188.94
268.913	207.94
269.145	220.94
269.377	228.94
269.609	219.94
269.841	213.94
270.073	224.94
270.306	249.94
270.538	245.94
270.77	271.94
271.002	254.94
271.234	247.94
271.466	245.94
271.698	237.94
271.93	251.94
272.162	265.94
272.394	266.94
272.626	235.94
272.858	234.94
273.09	221.94
273.322	220.94
273.553	214.94
273.785	212.94
274.017	200.94
274.249	200.94
274.481	204.94
274.713	204.94
274.945	220.94
275.176	235.94
275.408	218.94
275.64	218.94
275.872	207.94
276.104	214.94
276.335	224.94
276.567	213.94
276.799	233.94
277.031	245.94
277.262	261.94
277.494	251.94
277.726	246.94
277.957	234.94
278.189	211.94
278.421	220.94
278.652	236.94
278.884	219.94
279.115	216.94
279.347	227.94
279.579	216.94
279.81	217.94
280.042	212.94
280.273	221.94
280.505	219.94
280.736	206.94
280.968	215.94
281.199	215.94
281.431	212.94
281.662	215.94
281.894	210.94
282.125	220.94
282.356	218.94
282.588	241.94
282.819	261.94
283.051	229.94
283.282	214.94
283.513	219.94
283.745	214.94
283.976	210.94
284.207	224.94
284.439	221.94
284.67	219.94
284.901	223.94
285.132	210.94
285.364	228.94
285.595	241.94
285.826	219.94
286.057	222.94
286.288	236.94
286.52	218.94
286.751	227.94
286.982	221.94
287.213	236.94
287.444	220.94
287.675	218.94
287.906	227.94
288.138	228.94
288.369	223.94
288.6	229.94
288.831	237.94
289.062	241.94
289.293	233.94
289.524	246.94
289.755	243.94
289.986	224.94
290.217	221.94
290.448	224.94
290.679	201.94
290.91	238.94
291.141	214.94
291.371	211.94
291.602	218.94
291.833	226.94
292.064	230.94
292.295	228.94
292.526	220.94
292.757	218.94
292.987	245.94
293.218	229.94
293.449	216.94
293.68	236.94
293.91	231.94
294.141	204.94
294.372	220.94
294.603	224.94
294.833	228.94
295.064	225.94
295.295	237.94
295.525	239.94
295.756	228.94
295.987	247.94
296.217	267.94
296.448	260.94
296.679	251.94
296.909	214.94
297.14	243.94
297.37	215.94
297.601	235.94
297.831	229.94
298.062	242.94
298.292	237.94
298.523	227.94
298.753	235.94
298.984	212.94
299.214	252.94
299.445	217.94
299.675	238.94
299.905	248.94
300.136	230.94
300.366	234.94
300.597	243.94
300.827	248.94
301.057	243.94
301.288	258.94
301.518	262.94
301.748	250.94
301.979	268.94
302.209	263.94
302.439	253.94
302.669	260.94
302.9	269.94
303.13	258.94
303.36	270.94
303.59	264.94
303.82	256.94
304.051	267.94
304.281	246.94
304.511	265.94
304.741	243.94
304.971	242.94
305.201	256.94
305.431	243.94
305.661	259.94
305.891	259.94
306.121	241.94
306.352	252.94
306.582	257.94
306.812	260.94
307.042	274.94
307.272	262.94
307.502	260.94
307.731	274.94
307.961	271.94
308.191	284.94
308.421	273.94
308.651	270.94
308.881	289.94
309.111	287.94
309.341	270.94
309.571	280.94
309.8	276.94
310.03	288.94
310.26	291.94
310.49	299.94
310.72	314.94
310.949	325.94
311.179	306.94
311.409	307.94
311.639	281.94
311.868	299.94
312.098	310.94
312.328	313.94
312.557	335.94
312.787	327.94
313.017	329.94
313.246	315.94
313.476	318.94
313.706	295.94
313.935	300.94
314.165	312.94
314.394	316.94
314.624	317.94
314.853	318.94
315.083	277.94
315.312	296.94
315.542	295.94
315.771	281.94
316.001	306.94
316.23	287.94
316.46	320.94
316.689	303.94
316.919	327.94
317.148	318.94
317.377	297.94
317.607	305.94
317.836	307.94
318.065	291.94
318.295	295.94
318.524	287.94
318.753	290.94
318.983	293.94
319.212	289.94
319.441	290.94
319.67	316.94
319.9	312.94
320.129	282.94
320.358	301.94
320.587	306.94
320.816	310.94
321.046	328.94
321.275	308.94
321.504	333.94
321.733	320.94
321.962	318.94
322.191	353.94
322.42	349.94
322.649	368.94
322.878	384.94
323.108	387.94
323.337	405.94
323.566	424.94
323.795	454.94
324.024	486.94
324.253	624.94
324.482	919.94
324.71	1407.94
324.939	1866.94
325.168	1492.94
325.397	778.94
325.626	515.94
325.855	456.94
326.084	430.94
326.313	428.94
326.542	425.94
326.77	464.94
326.999	584.94
327.228	832.94
327.457	1189.94
327.686	1328.94
327.914	892.94
328.143	583.94
328.372	520.94
328.6	503.94
328.829	482.94
329.058	474.94
329.287	488.94
329.515	440.94
329.744	400.94
329.972	429.94
330.201	441.94
330.43	463.94
330.658	485.94
330.887	483.94
331.115	480.94
331.344	402.94
331.572	376.94
331.801	398.94
332.03	386.94
332.258	377.94
332.486	353.94
332.715	365.94
332.943	341.94
333.172	338.94
333.4	371.94
333.629	372.94
333.857	385.94
334.085	382.94
334.314	400.94
334.542	416.94
334.771	397.94
334.999	390.94
335.227	368.94
335.455	359.94
335.684	350.94
335.912	350.94
336.14	329.94
336.369	334.94
336.597	365.94
336.825	365.94
337.053	334.94
337.281	349.94
337.51	325.94
337.738	337.94
337.966	321.94
338.194	333.94
338.422	331.94
338.65	348.94
338.878	309.94
339.106	313.94
339.334	327.94
339.562	323.94
339.79	314.94
340.018	314.94
340.246	340.94
340.474	344.94
340.702	331.94
340.93	328.94
341.158	352.94
341.386	345.94
341.614	325.94
341.842	329.94
342.07	323.94
342.298	320.94
342.526	331.94
342.754	310.94
342.981	331.94
343.209	300.94
343.437	337.94
343.665	318.94
343.893	328.94
344.12	330.94
344.348	339.94
344.576	321.94
344.804	356.94
345.031	333.94
345.259	347.94
345.487	338.94
345.714	329.94
345.942	302.94
346.17	307.94
346.397	325.94
346.625	332.94
346.853	315.94
347.08	306.94
347.308	323.94
347.535	331.94
347.763	317.94
347.99	338.94
348.218	322.94
348.445	323.94
348.673	331.94
348.9	335.94
349.128	314.94
349.355	303.94
349.583	305.94
349.81	298.94
350.037	327.94
350.265	326.94
350.492	310.94
350.72	310.94
350.947	313.94
351.174	325.94
351.402	331.94
351.629	332.94
351.856	318.94
352.083	327.94
352.311	343.94
352.538	340.94
352.765	323.94
352.992	323.94
353.22	310.94
353.447	324.94
353.674	313.94
353.901	286.94
354.128	304.94
354.355	296.94
354.583	296.94
354.81	290.94
355.037	298.94
355.264	270.94
355.491	285.94
355.718	288.94
355.945	275.94
356.172	271.94
356.399	301.94
356.626	271.94
356.853	285.94
357.08	305.94
357.307	278.94
357.534	300.94
357.761	302.94
357.988	300.94
358.215	301.94
358.441	295.94
358.668	281.94
358.895	284.94
359.122	293.94
359.349	302.94
359.576	309.94
359.802	339.94
360.029	356.94
360.256	361.94
360.483	344.94
360.709	321.94
360.936	302.94
361.163	308.94
361.39	314.94
361.616	325.94
361.843	348.94
362.07	328.94
362.296	288.94
362.523	319.94
362.749	317.94
362.976	294.94
363.203	309.94
363.429	298.94
363.656	314.94
363.882	313.94
364.109	301.94
364.335	293.94
364.562	292.94
364.788	296.94
365.015	276.94
365.241	299.94
365.468	288.94
365.694	312.94
365.92	298.94
366.147	298.94
366.373	296.94
366.599	287.94
366.826	295.94
367.052	287.94
367.278	275.94
367.505	278.94
367.731	294.94
367.957	295.94
368.184	270.94
368.41	295.94
368.636	308.94
368.862	299.94
369.089	281.94
369.315	301.94
369.541	292.94
369.767	292.94
369.993	289.94
370.219	265.94
370.445	288.94
370.672	274.94
370.898	283.94
371.124	304.94
371.35	280.94
371.576	272.94
371.802	293.94
372.028	288.94
372.254	257.94
372.48	300.94
372.706	285.94
372.932	277.94
373.158	298.94
373.384	270.94
373.61	268.94
373.835	296.94
374.061	279.94
374.287	300.94
374.513	292.94
374.739	285.94
374.965	282.94
375.191	278.94
375.416	293.94
375.642	281.94
375.868	305.94
376.094	293.94
376.319	269.94
376.545	277.94
376.771	278.94
376.997	268.94
377.222	277.94
377.448	262.94
377.674	278.94
377.899	280.94
378.125	270.94
378.35	259.94
378.576	271.94
378.802	286.94
379.027	288.94
379.253	277.94
379.478	267.94
379.704	267.94
379.929	307.94
380.155	292.94
380.38	287.94
380.606	266.94
380.831	277.94
381.057	292.94
381.282	280.94
381.507	284.94
381.733	264.94
381.958	268.94
382.184	277.94
382.409	299.94
382.634	275.94
382.86	277.94
383.085	282.94
383.31	283.94
383.535	277.94
383.761	302.94
383.986	276.94
384.211	280.94
384.436	275.94
384.662	298.94
384.887	279.94
385.112	290.94
385.337	282.94
385.562	290.94
385.787	288.94
386.013	299.94
386.238	288.94
386.463	282.94
386.688	300.94
386.913	297.94
387.138	290.94
387.363	288.94
387.588	297.94
387.813	288.94
388.038	288.94
388.263	288.94
388.488	300.94
388.713	304.94
388.938	296.94
389.163	291.94
389.387	293.94
389.612	281.94
389.837	290.94
390.062	280.94
390.287	280.94
390.512	284.94
390.736	274.94
390.961	290.94
391.186	298.94
391.411	282.94
391.636	293.94
391.86	298.94
392.085	291.94
392.31	291.94
392.534	292.94
392.759	299.94
392.984	294.94
393.208	279.94
393.433	292.94
393.658	288.94
393.882	297.94
394.107	304.94
394.331	297.94
394.556	299.94
394.78	294.94
395.005	286.94
395.229	286.94
395.454	293.94
395.678	309.94
395.903	293.94
396.127	310.94
396.352	316.94
396.576	308.94
396.801	313.94
397.025	301.94
397.249	294.94
397.474	298.94
397.698	314.94
397.922	296.94
398.147	316.94
398.371	312.94
398.595	323.94
398.82	305.94
399.044	332.94
399.268	320.94
399.492	329.94
399.717	345.94
399.941	373.94
400.165	388.94
400.389	374.94
400.613	343.94
400.837	336.94
401.062	339.94
401.286	336.94
401.51	328.94
401.734	313.94
401.958	312.94
402.182	334.94
402.406	329.94
402.63	328.94
402.854	340.94
403.078	342.94
403.302	330.94
403.526	330.94
403.75	326.94
403.974	324.94
404.198	340.94
404.422	339.94
404.645	352.94
404.869	338.94
405.093	356.94
405.317	396.94
405.541	410.94
405.765	385.94
405.988	356.94
406.212	362.94
406.436	357.94
406.66	377.94
406.883	378.94
407.107	385.94
407.331	411.94
407.555	446.94
407.778	428.94
408.002	386.94
408.226	380.94
408.449	368.94
408.673	364.94
408.896	386.94
409.12	388.94
409.344	395.94
409.567	347.94
409.791	352.94
410.014	342.94
410.238	313.94
410.461	324.94
410.685	334.94
410.908	350.94
411.132	366.94
411.355	401.94
411.578	363.94
411.802	351.94
412.025	318.94
412.249	340.94
412.472	363.94
412.695	383.94
412.919	355.94
413.142	340.94
413.365	320.94
413.589	332.94
413.812	320.94
414.035	326.94
414.258	307.94
414.482	308.94
414.705	323.94
414.928	296.94
415.151	313.94
415.374	308.94
415.597	296.94
415.821	312.94
416.044	297.94
416.267	300.94
416.49	305.94
416.713	311.94
416.936	313.94
417.159	305.94
417.382	313.94
417.605	289.94
417.828	319.94
418.051	329.94
418.274	322.94
418.497	311.94
418.72	309.94
418.943	313.94
419.166	340.94
419.389	339.94
419.611	344.94
419.834	324.94
420.057	346.94
420.28	332.94
420.503	331.94
420.726	321.94
420.948	346.94
421.171	373.94
421.394	375.94
421.617	339.94
421.839	354.94
422.062	337.94
422.285	344.94
422.507	379.94
422.73	451.94
422.953	406.94
423.175	351.94
423.398	356.94
423.621	369.94
423.843	356.94
424.066	366.94
424.288	355.94
424.511	385.94
424.733	418.94
424.956	462.94
425.178	447.94
425.401	438.94
425.623	454.94
425.846	396.94
426.068	379.94
426.291	346.94
426.513	364.94
426.735	363.94
426.958	389.94
427.18	451.94
427.402	533.94
427.625	572.94
427.847	537.94
428.069	452.94
428.292	394.94
428.514	370.94
428.736	348.94
428.958	330.94
429.181	353.94
429.403	317.94
429.625	362.94
429.847	380.94
430.069	428.94
430.292	411.94
430.514	361.94
430.736	354.94
430.958	312.94
431.18	322.94
431.402	327.94
431.624	314.94
431.846	310.94
432.068	306.94
432.29	303.94
432.512	307.94
432.734	317.94
432.956	315.94
433.178	324.94
433.4	321.94
433.622	324.94
433.844	327.94
434.066	306.94
434.287	308.94
434.509	315.94
434.731	325.94
434.953	318.94
435.175	314.94
435.397	333.94
435.618	356.94
435.84	400.94
436.062	456.94
436.284	495.94
436.505	414.94
436.727	379.94
436.949	326.94
437.17	324.94
437.392	318.94
437.614	363.94
437.835	374.94
438.057	452.94
438.278	490.94
438.5	493.94
438.721	527.94
438.943	513.94
439.165	438.94
439.386	380.94
439.608	373.94
439.829	377.94
440.05	398.94
440.272	425.94
440.493	424.94
440.715	351.94
440.936	335.94
441.158	327.94
441.379	351.94
441.6	349.94
441.822	365.94
442.043	409.94
442.264	439.94
442.486	473.94
442.707	402.94
442.928	371.94
443.149	382.94
443.371	401.94
443.592	420.94
443.813	479.94
444.034	498.94
444.255	460.94
444.476	364.94
444.698	361.94
444.919	368.94
445.14	462.94
445.361	410.94
445.582	396.94
445.803	453.94
446.024	506.94
446.245	476.94
446.466	460.94
446.687	411.94
446.908	363.94
447.129	334.94
447.35	339.94
447.571	330.94
447.792	331.94
448.013	352.94
448.234	350.94
448.455	401.94
448.675	472.94
448.896	524.94
449.117	460.94
449.338	448.94
449.559	501.94
449.779	562.94
450	466.94
450.221	395.94
450.442	354.94
450.662	336.94
450.883	318.94
451.104	345.94
451.324	345.94
451.545	315.94
451.766	308.94
451.986	302.94
452.207	297.94
452.428	308.94
452.648	300.94
452.869	316.94
453.089	316.94
453.31	328.94
453.53	297.94
453.751	298.94
453.971	300.94
454.192	336.94
454.412	317.94
454.633	297.94
454.853	292.94
455.073	318.94
455.294	337.94
455.514	375.94
455.734	348.94
455.955	312.94
456.175	297.94
456.395	288.94
456.616	280.94
456.836	302.94
457.056	293.94
457.276	278.94
457.497	311.94
457.717	283.94
457.937	286.94
458.157	312.94
458.377	300.94
458.598	308.94
458.818	367.94
459.038	410.94
459.258	410.94
459.478	353.94
459.698	323.94
459.918	298.94
460.138	308.94
460.358	315.94
460.578	304.94
460.798	327.94
461.018	318.94
461.238	307.94
461.458	317.94
461.678	295.94
461.898	318.94
462.118	314.94
462.338	305.94
462.558	317.94
462.777	309.94
462.997	323.94
463.217	331.94
463.437	323.94
463.657	314.94
463.876	331.94
464.096	330.94
464.316	328.94
464.536	313.94
464.755	330.94
464.975	354.94
465.195	369.94
465.414	444.94
465.634	385.94
465.854	333.94
466.073	336.94
466.293	327.94
466.512	306.94
466.732	286.94
466.951	308.94
467.171	313.94
467.391	314.94
467.61	320.94
467.829	311.94
468.049	314.94
468.268	317.94
468.488	276.94
468.707	298.94
468.927	298.94
469.146	310.94
469.365	302.94
469.585	291.94
469.804	306.94
470.023	299.94
470.243	323.94
470.462	321.94
470.681	321.94
470.901	331.94
471.12	317.94
471.339	309.94
471.558	312.94
471.777	307.94
471.997	299.94
472.216	319.94
472.435	334.94
472.654	321.94
472.873	322.94
473.092	323.94
473.311	317.94
473.53	312.94
473.749	317.94
473.968	345.94
474.187	428.94
474.406	418.94
474.625	349.94
474.844	340.94
475.063	315.94
475.282	326.94
475.501	324.94
475.72	347.94
475.939	326.94
476.158	321.94
476.377	312.94
476.596	333.94
476.814	317.94
477.033	329.94
477.252	334.94
477.471	317.94
477.69	330.94
477.908	326.94
478.127	325.94
478.346	329.94
478.564	331.94
478.783	316.94
479.002	358.94
479.22	359.94
479.439	372.94
479.658	361.94
479.876	363.94
480.095	370.94
480.313	382.94
480.532	380.94
480.751	365.94
480.969	375.94
481.188	428.94
481.406	442.94
481.624	381.94
481.843	369.94
482.061	373.94
482.28	370.94
482.498	376.94
482.717	361.94
482.935	341.94
483.153	369.94
483.372	365.94
483.59	349.94
483.808	366.94
484.027	360.94
484.245	346.94
484.463	361.94
484.681	346.94
484.9	377.94
485.118	360.94
485.336	366.94
485.554	350.94
485.772	373.94
485.99	365.94
486.209	360.94
486.427	377.94
486.645	373.94
486.863	391.94
487.081	392.94
487.299	369.94
487.517	383.94
487.735	373.94
487.953	376.94
488.171	381.94
488.389	366.94
488.607	384.94
488.825	384.94
489.043	384.94
489.261	377.94
489.479	388.94
489.696	377.94
489.914	392.94
490.132	388.94
490.35	396.94
490.568	412.94
490.786	425.94
491.003	396.94
491.221	417.94
491.439	417.94
491.657	427.94
491.874	417.94
492.092	439.94
492.31	449.94
492.527	452.94
492.745	442.94
492.963	429.94
493.18	446.94
493.398	437.94
493.615	450.94
493.833	447.94
494.05	427.94
494.268	462.94
494.485	461.94
494.703	433.94
494.92	466.94
495.138	450.94
495.355	453.94
495.573	446.94
495.79	456.94
496.008	436.94
496.225	449.94
496.442	463.94
496.66	458.94
496.877	434.94
497.094	432.94
497.312	474.94
497.529	457.94
497.746	473.94
497.963	449.94
498.181	468.94
498.398	500.94
498.615	485.94
498.832	466.94
499.049	484.94
499.267	493.94
499.484	496.94
499.701	556.94
499.918	516.94
500.135	544.94
500.352	545.94
500.569	581.94
500.786	563.94
501.003	547.94
501.22	536.94
501.437	544.94
501.654	524.94
501.871	543.94
502.088	532.94
