Data from 1982.PennyLincolnUp.Lamp.En5.5.200Scan.071819.P1_HRD10591_16-44-47-962.txt Node
Date: Thu Jul 18 16:44:47 EDT 2019
User: cochatt
Spectrometer: HR+D1059
Trigger mode: 1
Integration Time (sec): 1.000000E-1
Scans to average: 1
Electric dark correction enabled: true
Nonlinearity correction enabled: false
Boxcar width: 0
XAxis mode: Wavelengths
Number of Pixels in Spectrum: 2048
>>>>>Begin Spectral Data<<<<<
223.165	-18.38
223.4	-18.38
223.635	-18.38
223.869	-12.38
224.104	-16.38
224.338	-19.38
224.573	-6.38
224.808	-12.38
225.042	-2.38
225.277	2.62
225.511	-9.38
225.746	14.62
225.98	13.62
226.215	6.62
226.449	15.62
226.683	11.62
226.918	19.62
227.152	12.62
227.387	35.62
227.621	41.62
227.856	38.62
228.09	49.62
228.324	57.62
228.559	55.62
228.793	64.62
229.027	75.62
229.262	89.62
229.496	86.62
229.73	81.62
229.964	85.62
230.199	94.62
230.433	95.62
230.667	97.62
230.901	84.62
231.136	91.62
231.37	103.62
231.604	111.62
231.838	108.62
232.072	85.62
232.306	100.62
232.541	93.62
232.775	88.62
233.009	99.62
233.243	103.62
233.477	95.62
233.711	101.62
233.945	98.62
234.179	97.62
234.413	93.62
234.647	101.62
234.881	87.62
235.115	104.62
235.349	97.62
235.583	108.62
235.817	104.62
236.051	108.62
236.285	102.62
236.519	111.62
236.753	109.62
236.987	128.62
237.221	125.62
237.455	141.62
237.689	113.62
237.922	105.62
238.156	89.62
238.39	93.62
238.624	110.62
238.858	97.62
239.091	98.62
239.325	106.62
239.559	103.62
239.793	100.62
240.027	115.62
240.26	109.62
240.494	103.62
240.728	115.62
240.961	105.62
241.195	111.62
241.429	101.62
241.662	106.62
241.896	89.62
242.13	111.62
242.363	101.62
242.597	102.62
242.83	107.62
243.064	97.62
243.298	107.62
243.531	116.62
243.765	112.62
243.998	124.62
244.232	93.62
244.465	84.62
244.699	117.62
244.932	122.62
245.166	106.62
245.399	99.62
245.633	116.62
245.866	112.62
246.099	119.62
246.333	124.62
246.566	125.62
246.8	127.62
247.033	115.62
247.266	119.62
247.5	122.62
247.733	115.62
247.966	131.62
248.2	122.62
248.433	126.62
248.666	134.62
248.899	132.62
249.133	128.62
249.366	140.62
249.599	139.62
249.832	111.62
250.066	125.62
250.299	133.62
250.532	142.62
250.765	132.62
250.998	153.62
251.231	148.62
251.465	155.62
251.698	147.62
251.931	113.62
252.164	137.62
252.397	155.62
252.63	131.62
252.863	148.62
253.096	126.62
253.329	169.62
253.562	163.62
253.795	133.62
254.028	146.62
254.261	156.62
254.494	160.62
254.727	164.62
254.96	176.62
255.193	174.62
255.426	160.62
255.659	167.62
255.892	151.62
256.124	151.62
256.357	142.62
256.59	145.62
256.823	148.62
257.056	140.62
257.289	168.62
257.521	130.62
257.754	143.62
257.987	135.62
258.22	156.62
258.452	137.62
258.685	143.62
258.918	136.62
259.151	141.62
259.383	149.62
259.616	144.62
259.849	149.62
260.081	152.62
260.314	160.62
260.547	160.62
260.779	155.62
261.012	149.62
261.244	137.62
261.477	151.62
261.71	167.62
261.942	143.62
262.175	145.62
262.407	144.62
262.64	160.62
262.872	154.62
263.105	141.62
263.337	147.62
263.57	151.62
263.802	145.62
264.035	135.62
264.267	154.62
264.499	164.62
264.732	147.62
264.964	152.62
265.197	131.62
265.429	139.62
265.661	129.62
265.894	151.62
266.126	155.62
266.358	169.62
266.591	155.62
266.823	135.62
267.055	162.62
267.287	140.62
267.52	134.62
267.752	141.62
267.984	171.62
268.216	137.62
268.448	154.62
268.681	145.62
268.913	176.62
269.145	175.62
269.377	191.62
269.609	175.62
269.841	157.62
270.073	162.62
270.306	166.62
270.538	192.62
270.77	192.62
271.002	192.62
271.234	183.62
271.466	186.62
271.698	173.62
271.93	180.62
272.162	175.62
272.394	186.62
272.626	172.62
272.858	171.62
273.09	159.62
273.322	179.62
273.553	179.62
273.785	182.62
274.017	172.62
274.249	153.62
274.481	174.62
274.713	160.62
274.945	186.62
275.176	172.62
275.408	169.62
275.64	169.62
275.872	177.62
276.104	163.62
276.335	164.62
276.567	174.62
276.799	177.62
277.031	180.62
277.262	178.62
277.494	190.62
277.726	185.62
277.957	181.62
278.189	182.62
278.421	171.62
278.652	171.62
278.884	188.62
279.115	183.62
279.347	167.62
279.579	157.62
279.81	185.62
280.042	177.62
280.273	182.62
280.505	168.62
280.736	171.62
280.968	175.62
281.199	184.62
281.431	169.62
281.662	157.62
281.894	169.62
282.125	166.62
282.356	173.62
282.588	170.62
282.819	195.62
283.051	175.62
283.282	175.62
283.513	188.62
283.745	196.62
283.976	179.62
284.207	175.62
284.439	173.62
284.67	187.62
284.901	174.62
285.132	190.62
285.364	166.62
285.595	170.62
285.826	192.62
286.057	179.62
286.288	176.62
286.52	177.62
286.751	175.62
286.982	188.62
287.213	179.62
287.444	197.62
287.675	163.62
287.906	205.62
288.138	183.62
288.369	185.62
288.6	184.62
288.831	198.62
289.062	173.62
289.293	181.62
289.524	197.62
289.755	173.62
289.986	181.62
290.217	186.62
290.448	185.62
290.679	184.62
290.91	176.62
291.141	195.62
291.371	201.62
291.602	179.62
291.833	185.62
292.064	192.62
292.295	177.62
292.526	193.62
292.757	185.62
292.987	198.62
293.218	203.62
293.449	183.62
293.68	196.62
293.91	178.62
294.141	199.62
294.372	175.62
294.603	185.62
294.833	174.62
295.064	202.62
295.295	194.62
295.525	190.62
295.756	187.62
295.987	204.62
296.217	185.62
296.448	195.62
296.679	186.62
296.909	180.62
297.14	185.62
297.37	203.62
297.601	204.62
297.831	181.62
298.062	173.62
298.292	189.62
298.523	178.62
298.753	183.62
298.984	188.62
299.214	191.62
299.445	189.62
299.675	189.62
299.905	196.62
300.136	194.62
300.366	197.62
300.597	187.62
300.827	211.62
301.057	193.62
301.288	210.62
301.518	191.62
301.748	195.62
301.979	185.62
302.209	183.62
302.439	196.62
302.669	199.62
302.9	227.62
303.13	195.62
303.36	200.62
303.59	200.62
303.82	200.62
304.051	197.62
304.281	192.62
304.511	198.62
304.741	202.62
304.971	196.62
305.201	201.62
305.431	208.62
305.661	195.62
305.891	203.62
306.121	180.62
306.352	195.62
306.582	204.62
306.812	200.62
307.042	205.62
307.272	194.62
307.502	200.62
307.731	208.62
307.961	214.62
308.191	199.62
308.421	209.62
308.651	220.62
308.881	204.62
309.111	205.62
309.341	203.62
309.571	221.62
309.8	201.62
310.03	209.62
310.26	213.62
310.49	210.62
310.72	212.62
310.949	226.62
311.179	238.62
311.409	221.62
311.639	214.62
311.868	211.62
312.098	218.62
312.328	234.62
312.557	229.62
312.787	245.62
313.017	238.62
313.246	241.62
313.476	225.62
313.706	219.62
313.935	229.62
314.165	243.62
314.394	230.62
314.624	243.62
314.853	243.62
315.083	235.62
315.312	219.62
315.542	224.62
315.771	219.62
316.001	224.62
316.23	243.62
316.46	225.62
316.689	226.62
316.919	215.62
317.148	225.62
317.377	231.62
317.607	208.62
317.836	238.62
318.065	213.62
318.295	234.62
318.524	237.62
318.753	212.62
318.983	238.62
319.212	224.62
319.441	223.62
319.67	222.62
319.9	224.62
320.129	251.62
320.358	238.62
320.587	235.62
320.816	237.62
321.046	232.62
321.275	240.62
321.504	247.62
321.733	238.62
321.962	244.62
322.191	241.62
322.42	251.62
322.649	239.62
322.878	270.62
323.108	263.62
323.337	291.62
323.566	291.62
323.795	302.62
324.024	317.62
324.253	393.62
324.482	526.62
324.71	754.62
324.939	967.62
325.168	810.62
325.397	452.62
325.626	317.62
325.855	281.62
326.084	286.62
326.313	280.62
326.542	301.62
326.77	301.62
326.999	370.62
327.228	460.62
327.457	649.62
327.686	719.62
327.914	479.62
328.143	368.62
328.372	338.62
328.6	318.62
328.829	291.62
329.058	314.62
329.287	291.62
329.515	286.62
329.744	289.62
329.972	276.62
330.201	283.62
330.43	302.62
330.658	309.62
330.887	335.62
331.115	297.62
331.344	279.62
331.572	280.62
331.801	269.62
332.03	257.62
332.258	292.62
332.486	256.62
332.715	245.62
332.943	267.62
333.172	265.62
333.4	270.62
333.629	283.62
333.857	256.62
334.085	278.62
334.314	267.62
334.542	278.62
334.771	291.62
334.999	279.62
335.227	270.62
335.455	279.62
335.684	259.62
335.912	259.62
336.14	266.62
336.369	271.62
336.597	262.62
336.825	248.62
337.053	256.62
337.281	239.62
337.51	253.62
337.738	264.62
337.966	248.62
338.194	250.62
338.422	229.62
338.65	269.62
338.878	238.62
339.106	266.62
339.334	249.62
339.562	254.62
339.79	231.62
340.018	247.62
340.246	245.62
340.474	244.62
340.702	233.62
340.93	243.62
341.158	249.62
341.386	263.62
341.614	241.62
341.842	235.62
342.07	256.62
342.298	256.62
342.526	254.62
342.754	241.62
342.981	230.62
343.209	234.62
343.437	224.62
343.665	236.62
343.893	238.62
344.12	259.62
344.348	257.62
344.576	252.62
344.804	268.62
345.031	251.62
345.259	249.62
345.487	254.62
345.714	257.62
345.942	256.62
346.17	231.62
346.397	230.62
346.625	259.62
346.853	235.62
347.08	235.62
347.308	238.62
347.535	256.62
347.763	253.62
347.99	251.62
348.218	236.62
348.445	228.62
348.673	239.62
348.9	249.62
349.128	239.62
349.355	247.62
349.583	232.62
349.81	231.62
350.037	224.62
350.265	230.62
350.492	241.62
350.72	257.62
350.947	240.62
351.174	256.62
351.402	247.62
351.629	239.62
351.856	266.62
352.083	225.62
352.311	235.62
352.538	235.62
352.765	231.62
352.992	248.62
353.22	219.62
353.447	230.62
353.674	241.62
353.901	230.62
354.128	228.62
354.355	222.62
354.583	217.62
354.81	231.62
355.037	219.62
355.264	229.62
355.491	201.62
355.718	221.62
355.945	227.62
356.172	225.62
356.399	227.62
356.626	224.62
356.853	225.62
357.08	220.62
357.307	227.62
357.534	221.62
357.761	228.62
357.988	230.62
358.215	218.62
358.441	240.62
358.668	227.62
358.895	215.62
359.122	225.62
359.349	235.62
359.576	247.62
359.802	232.62
360.029	233.62
360.256	243.62
360.483	255.62
360.709	233.62
360.936	229.62
361.163	238.62
361.39	235.62
361.616	236.62
361.843	223.62
362.07	222.62
362.296	253.62
362.523	234.62
362.749	230.62
362.976	219.62
363.203	231.62
363.429	238.62
363.656	238.62
363.882	230.62
364.109	219.62
364.335	231.62
364.562	234.62
364.788	239.62
365.015	220.62
365.241	224.62
365.468	239.62
365.694	224.62
365.92	229.62
366.147	219.62
366.373	223.62
366.599	236.62
366.826	215.62
367.052	223.62
367.278	210.62
367.505	225.62
367.731	206.62
367.957	232.62
368.184	228.62
368.41	239.62
368.636	229.62
368.862	232.62
369.089	239.62
369.315	227.62
369.541	242.62
369.767	214.62
369.993	239.62
370.219	224.62
370.445	240.62
370.672	233.62
370.898	233.62
371.124	222.62
371.35	219.62
371.576	226.62
371.802	224.62
372.028	235.62
372.254	235.62
372.48	217.62
372.706	226.62
372.932	222.62
373.158	228.62
373.384	239.62
373.61	225.62
373.835	218.62
374.061	220.62
374.287	225.62
374.513	236.62
374.739	235.62
374.965	230.62
375.191	218.62
375.416	229.62
375.642	232.62
375.868	246.62
376.094	233.62
376.319	233.62
376.545	214.62
376.771	205.62
376.997	224.62
377.222	249.62
377.448	233.62
377.674	232.62
377.899	222.62
378.125	229.62
378.35	205.62
378.576	240.62
378.802	212.62
379.027	224.62
379.253	232.62
379.478	224.62
379.704	243.62
379.929	227.62
380.155	233.62
380.38	223.62
380.606	238.62
380.831	224.62
381.057	226.62
381.282	231.62
381.507	230.62
381.733	238.62
381.958	246.62
382.184	224.62
382.409	232.62
382.634	221.62
382.86	228.62
383.085	209.62
383.31	219.62
383.535	247.62
383.761	243.62
383.986	235.62
384.211	251.62
384.436	220.62
384.662	262.62
384.887	225.62
385.112	227.62
385.337	245.62
385.562	221.62
385.787	236.62
386.013	236.62
386.238	243.62
386.463	244.62
386.688	252.62
386.913	248.62
387.138	243.62
387.363	224.62
387.588	222.62
387.813	230.62
388.038	231.62
388.263	232.62
388.488	223.62
388.713	244.62
388.938	234.62
389.163	232.62
389.387	236.62
389.612	238.62
389.837	235.62
390.062	231.62
390.287	251.62
390.512	244.62
390.736	237.62
390.961	237.62
391.186	240.62
391.411	238.62
391.636	233.62
391.86	226.62
392.085	234.62
392.31	240.62
392.534	263.62
392.759	230.62
392.984	233.62
393.208	236.62
393.433	240.62
393.658	245.62
393.882	240.62
394.107	241.62
394.331	251.62
394.556	235.62
394.78	222.62
395.005	230.62
395.229	227.62
395.454	233.62
395.678	246.62
395.903	238.62
396.127	247.62
396.352	247.62
396.576	239.62
396.801	236.62
397.025	247.62
397.249	253.62
397.474	254.62
397.698	250.62
397.922	265.62
398.147	259.62
398.371	247.62
398.595	264.62
398.82	255.62
399.044	265.62
399.268	277.62
399.492	272.62
399.717	284.62
399.941	290.62
400.165	316.62
400.389	303.62
400.613	283.62
400.837	276.62
401.062	267.62
401.286	271.62
401.51	239.62
401.734	262.62
401.958	273.62
402.182	264.62
402.406	259.62
402.63	259.62
402.854	236.62
403.078	261.62
403.302	250.62
403.526	250.62
403.75	267.62
403.974	258.62
404.198	275.62
404.422	276.62
404.645	273.62
404.869	265.62
405.093	284.62
405.317	288.62
405.541	291.62
405.765	279.62
405.988	271.62
406.212	274.62
406.436	287.62
406.66	283.62
406.883	277.62
407.107	279.62
407.331	313.62
407.555	325.62
407.778	329.62
408.002	314.62
408.226	284.62
408.449	275.62
408.673	296.62
408.896	310.62
409.12	316.62
409.344	310.62
409.567	275.62
409.791	263.62
410.014	268.62
410.238	277.62
410.461	271.62
410.685	267.62
410.908	281.62
411.132	281.62
411.355	304.62
411.578	293.62
411.802	276.62
412.025	274.62
412.249	273.62
412.472	277.62
412.695	282.62
412.919	283.62
413.142	277.62
413.365	250.62
413.589	249.62
413.812	253.62
414.035	253.62
414.258	263.62
414.482	235.62
414.705	262.62
414.928	251.62
415.151	263.62
415.374	249.62
415.597	261.62
415.821	257.62
416.044	265.62
416.267	246.62
416.49	260.62
416.713	246.62
416.936	255.62
417.159	261.62
417.382	260.62
417.605	245.62
417.828	259.62
418.051	275.62
418.274	267.62
418.497	244.62
418.72	263.62
418.943	247.62
419.166	267.62
419.389	269.62
419.611	279.62
419.834	261.62
420.057	272.62
420.28	278.62
420.503	248.62
420.726	270.62
420.948	270.62
421.171	291.62
421.394	285.62
421.617	263.62
421.839	262.62
422.062	265.62
422.285	271.62
422.507	295.62
422.73	321.62
422.953	326.62
423.175	276.62
423.398	259.62
423.621	288.62
423.843	267.62
424.066	277.62
424.288	275.62
424.511	270.62
424.733	302.62
424.956	329.62
425.178	325.62
425.401	323.62
425.623	335.62
425.846	289.62
426.068	286.62
426.291	274.62
426.513	277.62
426.735	313.62
426.958	322.62
427.18	357.62
427.402	383.62
427.625	417.62
427.847	358.62
428.069	319.62
428.292	281.62
428.514	280.62
428.736	296.62
428.958	264.62
429.181	268.62
429.403	244.62
429.625	272.62
429.847	285.62
430.069	313.62
430.292	304.62
430.514	268.62
430.736	249.62
430.958	271.62
431.18	262.62
431.402	232.62
431.624	246.62
431.846	262.62
432.068	248.62
432.29	249.62
432.512	251.62
432.734	259.62
432.956	262.62
433.178	257.62
433.4	249.62
433.622	269.62
433.844	262.62
434.066	241.62
434.287	259.62
434.509	261.62
434.731	260.62
434.953	270.62
435.175	268.62
435.397	278.62
435.618	301.62
435.84	307.62
436.062	331.62
436.284	367.62
436.505	302.62
436.727	278.62
436.949	290.62
437.17	267.62
437.392	267.62
437.614	257.62
437.835	269.62
438.057	330.62
438.278	361.62
438.5	369.62
438.721	390.62
438.943	353.62
439.165	293.62
439.386	299.62
439.608	293.62
439.829	291.62
440.05	304.62
440.272	307.62
440.493	278.62
440.715	260.62
440.936	252.62
441.158	253.62
441.379	255.62
441.6	260.62
441.822	302.62
442.043	281.62
442.264	315.62
442.486	327.62
442.707	303.62
442.928	280.62
443.149	264.62
443.371	284.62
443.592	329.62
443.813	357.62
444.034	391.62
444.255	318.62
444.476	284.62
444.698	280.62
444.919	279.62
445.14	368.62
445.361	314.62
445.582	291.62
445.803	319.62
446.024	348.62
446.245	369.62
446.466	333.62
446.687	281.62
446.908	268.62
447.129	279.62
447.35	258.62
447.571	249.62
447.792	244.62
448.013	260.62
448.234	274.62
448.455	309.62
448.675	367.62
448.896	393.62
449.117	332.62
449.338	311.62
449.559	369.62
449.779	400.62
450	351.62
450.221	281.62
450.442	265.62
450.662	252.62
450.883	265.62
451.104	267.62
451.324	260.62
451.545	245.62
451.766	227.62
451.986	234.62
452.207	236.62
452.428	249.62
452.648	233.62
452.869	235.62
453.089	232.62
453.31	249.62
453.53	239.62
453.751	228.62
453.971	237.62
454.192	245.62
454.412	247.62
454.633	229.62
454.853	213.62
455.073	230.62
455.294	244.62
455.514	269.62
455.734	272.62
455.955	252.62
456.175	233.62
456.395	219.62
456.616	200.62
456.836	230.62
457.056	233.62
457.276	226.62
457.497	232.62
457.717	221.62
457.937	223.62
458.157	219.62
458.377	247.62
458.598	224.62
458.818	271.62
459.038	276.62
459.258	286.62
459.478	264.62
459.698	257.62
459.918	229.62
460.138	251.62
460.358	245.62
460.578	266.62
460.798	254.62
461.018	248.62
461.238	247.62
461.458	259.62
461.678	266.62
461.898	235.62
462.118	253.62
462.338	241.62
462.558	268.62
462.777	267.62
462.997	263.62
463.217	274.62
463.437	275.62
463.657	261.62
463.876	268.62
464.096	277.62
464.316	285.62
464.536	266.62
464.755	266.62
464.975	258.62
465.195	276.62
465.414	296.62
465.634	291.62
465.854	299.62
466.073	241.62
466.293	244.62
466.512	237.62
466.732	248.62
466.951	249.62
467.171	237.62
467.391	249.62
467.61	256.62
467.829	243.62
468.049	231.62
468.268	252.62
468.488	235.62
468.707	249.62
468.927	236.62
469.146	240.62
469.365	246.62
469.585	247.62
469.804	232.62
470.023	236.62
470.243	255.62
470.462	244.62
470.681	279.62
470.901	250.62
471.12	247.62
471.339	253.62
471.558	263.62
471.777	270.62
471.997	249.62
472.216	254.62
472.435	264.62
472.654	257.62
472.873	252.62
473.092	232.62
473.311	237.62
473.53	229.62
473.749	262.62
473.968	281.62
474.187	324.62
474.406	325.62
474.625	276.62
474.844	257.62
475.063	242.62
475.282	243.62
475.501	244.62
475.72	227.62
475.939	263.62
476.158	245.62
476.377	247.62
476.596	260.62
476.814	264.62
477.033	256.62
477.252	262.62
477.471	236.62
477.69	273.62
477.908	260.62
478.127	267.62
478.346	262.62
478.564	287.62
478.783	272.62
479.002	272.62
479.22	268.62
479.439	268.62
479.658	290.62
479.876	295.62
480.095	293.62
480.313	307.62
480.532	300.62
480.751	280.62
480.969	295.62
481.188	305.62
481.406	306.62
481.624	290.62
481.843	271.62
482.061	293.62
482.28	283.62
482.498	272.62
482.717	284.62
482.935	285.62
483.153	297.62
483.372	280.62
483.59	285.62
483.808	291.62
484.027	279.62
484.245	283.62
484.463	273.62
484.681	286.62
484.9	275.62
485.118	317.62
485.336	297.62
485.554	288.62
485.772	288.62
485.99	287.62
486.209	295.62
486.427	290.62
486.645	294.62
486.863	309.62
487.081	307.62
487.299	300.62
487.517	315.62
487.735	290.62
487.953	309.62
488.171	287.62
488.389	319.62
488.607	296.62
488.825	302.62
489.043	291.62
489.261	310.62
489.479	314.62
489.696	337.62
489.914	309.62
490.132	315.62
490.35	308.62
490.568	294.62
490.786	331.62
491.003	307.62
491.221	315.62
491.439	332.62
491.657	318.62
491.874	332.62
492.092	334.62
492.31	320.62
492.527	329.62
492.745	346.62
492.963	339.62
493.18	320.62
493.398	342.62
493.615	335.62
493.833	326.62
494.05	344.62
494.268	336.62
494.485	328.62
494.703	337.62
494.92	319.62
495.138	342.62
495.355	337.62
495.573	345.62
495.79	348.62
496.008	351.62
496.225	336.62
496.442	349.62
496.66	341.62
496.877	362.62
497.094	348.62
497.312	340.62
497.529	348.62
497.746	363.62
497.963	356.62
498.181	405.62
498.398	359.62
498.615	389.62
498.832	379.62
499.049	392.62
499.267	393.62
499.484	393.62
499.701	406.62
499.918	406.62
500.135	431.62
500.352	455.62
500.569	441.62
500.786	436.62
501.003	454.62
501.22	444.62
501.437	416.62
501.654	423.62
501.871	421.62
502.088	414.62
502.305	381.62
