Data from 1982.PennyLincolnUp.Lamp.En5.5.200Scan.071819.P1_HRD10591_16-46-52-962.txt Node
Date: Thu Jul 18 16:46:52 EDT 2019
User: cochatt
Spectrometer: HR+D1059
Trigger mode: 1
Integration Time (sec): 1.000000E-1
Scans to average: 1
Electric dark correction enabled: true
Nonlinearity correction enabled: false
Boxcar width: 0
XAxis mode: Wavelengths
Number of Pixels in Spectrum: 2048
>>>>>Begin Spectral Data<<<<<
223.165	0.75
223.4	0.75
223.635	0.75
223.869	-24.25
224.104	-18.25
224.338	2.75
224.573	-21.25
224.808	-14.25
225.042	-11.25
225.277	-15.25
225.511	-0.25
225.746	14.75
225.98	5.75
226.215	1.75
226.449	10.75
226.683	23.75
226.918	21.75
227.152	22.75
227.387	30.75
227.621	43.75
227.856	48.75
228.09	44.75
228.324	50.75
228.559	44.75
228.793	48.75
229.027	75.75
229.262	92.75
229.496	101.75
229.73	99.75
229.964	127.75
230.199	101.75
230.433	90.75
230.667	110.75
230.901	113.75
231.136	102.75
231.37	97.75
231.604	114.75
231.838	114.75
232.072	99.75
232.306	99.75
232.541	90.75
232.775	106.75
233.009	100.75
233.243	105.75
233.477	106.75
233.711	103.75
233.945	107.75
234.179	107.75
234.413	108.75
234.647	113.75
234.881	101.75
235.115	97.75
235.349	103.75
235.583	95.75
235.817	105.75
236.051	115.75
236.285	119.75
236.519	120.75
236.753	117.75
236.987	141.75
237.221	144.75
237.455	162.75
237.689	156.75
237.922	123.75
238.156	121.75
238.39	106.75
238.624	102.75
238.858	94.75
239.091	114.75
239.325	115.75
239.559	103.75
239.793	110.75
240.027	120.75
240.26	121.75
240.494	127.75
240.728	120.75
240.961	117.75
241.195	115.75
241.429	121.75
241.662	115.75
241.896	132.75
242.13	119.75
242.363	107.75
242.597	114.75
242.83	113.75
243.064	97.75
243.298	130.75
243.531	104.75
243.765	106.75
243.998	121.75
244.232	130.75
244.465	120.75
244.699	110.75
244.932	100.75
245.166	114.75
245.399	114.75
245.633	115.75
245.866	105.75
246.099	110.75
246.333	124.75
246.566	124.75
246.8	127.75
247.033	107.75
247.266	135.75
247.5	136.75
247.733	135.75
247.966	137.75
248.2	127.75
248.433	147.75
248.666	147.75
248.899	133.75
249.133	173.75
249.366	148.75
249.599	154.75
249.832	158.75
250.066	145.75
250.299	144.75
250.532	158.75
250.765	163.75
250.998	163.75
251.231	167.75
251.465	168.75
251.698	150.75
251.931	158.75
252.164	166.75
252.397	170.75
252.63	157.75
252.863	172.75
253.096	169.75
253.329	174.75
253.562	185.75
253.795	165.75
254.028	181.75
254.261	163.75
254.494	194.75
254.727	204.75
254.96	210.75
255.193	215.75
255.426	177.75
255.659	166.75
255.892	197.75
256.124	184.75
256.357	166.75
256.59	172.75
256.823	185.75
257.056	168.75
257.289	181.75
257.521	161.75
257.754	171.75
257.987	161.75
258.22	169.75
258.452	167.75
258.685	153.75
258.918	158.75
259.151	161.75
259.383	178.75
259.616	176.75
259.849	173.75
260.081	196.75
260.314	204.75
260.547	187.75
260.779	187.75
261.012	180.75
261.244	179.75
261.477	172.75
261.71	173.75
261.942	190.75
262.175	173.75
262.407	177.75
262.64	174.75
262.872	177.75
263.105	169.75
263.337	192.75
263.57	168.75
263.802	157.75
264.035	173.75
264.267	164.75
264.499	160.75
264.732	159.75
264.964	171.75
265.197	167.75
265.429	143.75
265.661	159.75
265.894	171.75
266.126	155.75
266.358	159.75
266.591	171.75
266.823	173.75
267.055	168.75
267.287	188.75
267.52	166.75
267.752	158.75
267.984	169.75
268.216	156.75
268.448	169.75
268.681	199.75
268.913	190.75
269.145	202.75
269.377	188.75
269.609	210.75
269.841	193.75
270.073	225.75
270.306	201.75
270.538	235.75
270.77	239.75
271.002	246.75
271.234	224.75
271.466	231.75
271.698	228.75
271.93	240.75
272.162	243.75
272.394	237.75
272.626	214.75
272.858	206.75
273.09	208.75
273.322	203.75
273.553	195.75
273.785	209.75
274.017	199.75
274.249	209.75
274.481	212.75
274.713	209.75
274.945	205.75
275.176	212.75
275.408	217.75
275.64	197.75
275.872	206.75
276.104	208.75
276.335	210.75
276.567	203.75
276.799	215.75
277.031	237.75
277.262	256.75
277.494	230.75
277.726	233.75
277.957	223.75
278.189	223.75
278.421	218.75
278.652	211.75
278.884	221.75
279.115	209.75
279.347	200.75
279.579	205.75
279.81	197.75
280.042	200.75
280.273	202.75
280.505	184.75
280.736	194.75
280.968	196.75
281.199	217.75
281.431	197.75
281.662	202.75
281.894	210.75
282.125	200.75
282.356	226.75
282.588	223.75
282.819	221.75
283.051	227.75
283.282	200.75
283.513	221.75
283.745	208.75
283.976	209.75
284.207	210.75
284.439	202.75
284.67	202.75
284.901	216.75
285.132	200.75
285.364	199.75
285.595	209.75
285.826	201.75
286.057	211.75
286.288	205.75
286.52	210.75
286.751	226.75
286.982	210.75
287.213	211.75
287.444	217.75
287.675	215.75
287.906	215.75
288.138	218.75
288.369	224.75
288.6	226.75
288.831	214.75
289.062	227.75
289.293	208.75
289.524	213.75
289.755	220.75
289.986	206.75
290.217	231.75
290.448	232.75
290.679	217.75
290.91	205.75
291.141	215.75
291.371	217.75
291.602	205.75
291.833	233.75
292.064	212.75
292.295	219.75
292.526	221.75
292.757	214.75
292.987	208.75
293.218	206.75
293.449	212.75
293.68	228.75
293.91	234.75
294.141	227.75
294.372	213.75
294.603	219.75
294.833	226.75
295.064	221.75
295.295	207.75
295.525	206.75
295.756	211.75
295.987	208.75
296.217	250.75
296.448	252.75
296.679	224.75
296.909	221.75
297.14	228.75
297.37	224.75
297.601	207.75
297.831	208.75
298.062	206.75
298.292	213.75
298.523	225.75
298.753	223.75
298.984	226.75
299.214	221.75
299.445	219.75
299.675	230.75
299.905	225.75
300.136	229.75
300.366	224.75
300.597	241.75
300.827	226.75
301.057	221.75
301.288	226.75
301.518	232.75
301.748	252.75
301.979	255.75
302.209	242.75
302.439	251.75
302.669	228.75
302.9	234.75
303.13	228.75
303.36	234.75
303.59	242.75
303.82	249.75
304.051	244.75
304.281	247.75
304.511	234.75
304.741	246.75
304.971	243.75
305.201	246.75
305.431	230.75
305.661	236.75
305.891	244.75
306.121	243.75
306.352	245.75
306.582	237.75
306.812	237.75
307.042	259.75
307.272	240.75
307.502	244.75
307.731	264.75
307.961	235.75
308.191	227.75
308.421	252.75
308.651	231.75
308.881	233.75
309.111	256.75
309.341	251.75
309.571	256.75
309.8	269.75
310.03	276.75
310.26	280.75
310.49	294.75
310.72	302.75
310.949	291.75
311.179	297.75
311.409	269.75
311.639	259.75
311.868	276.75
312.098	278.75
312.328	288.75
312.557	297.75
312.787	317.75
313.017	300.75
313.246	296.75
313.476	282.75
313.706	280.75
313.935	290.75
314.165	296.75
314.394	281.75
314.624	297.75
314.853	278.75
315.083	281.75
315.312	270.75
315.542	265.75
315.771	275.75
316.001	265.75
316.23	299.75
316.46	264.75
316.689	272.75
316.919	289.75
317.148	279.75
317.377	295.75
317.607	297.75
317.836	271.75
318.065	280.75
318.295	288.75
318.524	265.75
318.753	266.75
318.983	283.75
319.212	299.75
319.441	290.75
319.67	284.75
319.9	276.75
320.129	279.75
320.358	288.75
320.587	277.75
320.816	283.75
321.046	301.75
321.275	301.75
321.504	290.75
321.733	315.75
321.962	301.75
322.191	324.75
322.42	327.75
322.649	348.75
322.878	331.75
323.108	347.75
323.337	362.75
323.566	375.75
323.795	410.75
324.024	472.75
324.253	589.75
324.482	874.75
324.71	1268.75
324.939	1671.75
325.168	1321.75
325.397	722.75
325.626	507.75
325.855	426.75
326.084	394.75
326.313	378.75
326.542	402.75
326.77	441.75
326.999	544.75
327.228	746.75
327.457	1052.75
327.686	1147.75
327.914	802.75
328.143	534.75
328.372	485.75
328.6	457.75
328.829	443.75
329.058	441.75
329.287	441.75
329.515	424.75
329.744	388.75
329.972	402.75
330.201	400.75
330.43	445.75
330.658	434.75
330.887	461.75
331.115	432.75
331.344	385.75
331.572	366.75
331.801	361.75
332.03	356.75
332.258	352.75
332.486	321.75
332.715	325.75
332.943	339.75
333.172	310.75
333.4	336.75
333.629	344.75
333.857	346.75
334.085	343.75
334.314	356.75
334.542	361.75
334.771	397.75
334.999	350.75
335.227	332.75
335.455	334.75
335.684	309.75
335.912	305.75
336.14	311.75
336.369	316.75
336.597	330.75
336.825	352.75
337.053	323.75
337.281	296.75
337.51	292.75
337.738	311.75
337.966	312.75
338.194	301.75
338.422	308.75
338.65	313.75
338.878	292.75
339.106	308.75
339.334	310.75
339.562	312.75
339.79	281.75
340.018	290.75
340.246	319.75
340.474	307.75
340.702	299.75
340.93	291.75
341.158	305.75
341.386	300.75
341.614	304.75
341.842	304.75
342.07	291.75
342.298	305.75
342.526	306.75
342.754	286.75
342.981	294.75
343.209	291.75
343.437	289.75
343.665	293.75
343.893	316.75
344.12	317.75
344.348	309.75
344.576	313.75
344.804	305.75
345.031	323.75
345.259	318.75
345.487	311.75
345.714	310.75
345.942	288.75
346.17	304.75
346.397	278.75
346.625	294.75
346.853	291.75
347.08	308.75
347.308	306.75
347.535	330.75
347.763	307.75
347.99	319.75
348.218	300.75
348.445	301.75
348.673	304.75
348.9	297.75
349.128	296.75
349.355	281.75
349.583	286.75
349.81	301.75
350.037	297.75
350.265	299.75
350.492	280.75
350.72	290.75
350.947	296.75
351.174	296.75
351.402	296.75
351.629	310.75
351.856	299.75
352.083	282.75
352.311	302.75
352.538	316.75
352.765	305.75
352.992	299.75
353.22	298.75
353.447	309.75
353.674	285.75
353.901	276.75
354.128	278.75
354.355	297.75
354.583	269.75
354.81	271.75
355.037	269.75
355.264	261.75
355.491	265.75
355.718	259.75
355.945	262.75
356.172	256.75
356.399	272.75
356.626	289.75
356.853	250.75
357.08	267.75
357.307	266.75
357.534	268.75
357.761	276.75
357.988	276.75
358.215	263.75
358.441	266.75
358.668	292.75
358.895	272.75
359.122	261.75
359.349	289.75
359.576	277.75
359.802	324.75
360.029	344.75
360.256	325.75
360.483	308.75
360.709	309.75
360.936	295.75
361.163	296.75
361.39	298.75
361.616	299.75
361.843	288.75
362.07	293.75
362.296	288.75
362.523	274.75
362.749	277.75
362.976	293.75
363.203	277.75
363.429	267.75
363.656	277.75
363.882	279.75
364.109	283.75
364.335	285.75
364.562	282.75
364.788	278.75
365.015	284.75
365.241	274.75
365.468	280.75
365.694	269.75
365.92	284.75
366.147	270.75
366.373	272.75
366.599	273.75
366.826	277.75
367.052	268.75
367.278	271.75
367.505	275.75
367.731	268.75
367.957	257.75
368.184	292.75
368.41	266.75
368.636	267.75
368.862	291.75
369.089	269.75
369.315	251.75
369.541	265.75
369.767	258.75
369.993	260.75
370.219	258.75
370.445	269.75
370.672	266.75
370.898	269.75
371.124	269.75
371.35	239.75
371.576	258.75
371.802	255.75
372.028	260.75
372.254	264.75
372.48	254.75
372.706	256.75
372.932	260.75
373.158	264.75
373.384	248.75
373.61	265.75
373.835	271.75
374.061	264.75
374.287	286.75
374.513	274.75
374.739	261.75
374.965	275.75
375.191	285.75
375.416	281.75
375.642	256.75
375.868	266.75
376.094	269.75
376.319	277.75
376.545	268.75
376.771	270.75
376.997	260.75
377.222	264.75
377.448	265.75
377.674	262.75
377.899	256.75
378.125	246.75
378.35	264.75
378.576	251.75
378.802	255.75
379.027	262.75
379.253	237.75
379.478	256.75
379.704	254.75
379.929	256.75
380.155	237.75
380.38	272.75
380.606	264.75
380.831	257.75
381.057	270.75
381.282	266.75
381.507	270.75
381.733	269.75
381.958	275.75
382.184	254.75
382.409	247.75
382.634	267.75
382.86	237.75
383.085	251.75
383.31	266.75
383.535	270.75
383.761	268.75
383.986	267.75
384.211	270.75
384.436	256.75
384.662	249.75
384.887	280.75
385.112	266.75
385.337	267.75
385.562	267.75
385.787	279.75
386.013	313.75
386.238	274.75
386.463	286.75
386.688	264.75
386.913	267.75
387.138	262.75
387.363	271.75
387.588	276.75
387.813	280.75
388.038	246.75
388.263	273.75
388.488	276.75
388.713	269.75
388.938	266.75
389.163	277.75
389.387	265.75
389.612	264.75
389.837	261.75
390.062	272.75
390.287	258.75
390.512	257.75
390.736	270.75
390.961	252.75
391.186	269.75
391.411	274.75
391.636	296.75
391.86	264.75
392.085	289.75
392.31	267.75
392.534	271.75
392.759	286.75
392.984	278.75
393.208	268.75
393.433	262.75
393.658	269.75
393.882	256.75
394.107	269.75
394.331	256.75
394.556	278.75
394.78	260.75
395.005	282.75
395.229	269.75
395.454	283.75
395.678	260.75
395.903	295.75
396.127	297.75
396.352	306.75
396.576	274.75
396.801	293.75
397.025	284.75
397.249	276.75
397.474	273.75
397.698	280.75
397.922	298.75
398.147	288.75
398.371	298.75
398.595	297.75
398.82	287.75
399.044	304.75
399.268	300.75
399.492	311.75
399.717	341.75
399.941	334.75
400.165	348.75
400.389	345.75
400.613	331.75
400.837	330.75
401.062	300.75
401.286	288.75
401.51	283.75
401.734	285.75
401.958	298.75
402.182	299.75
402.406	308.75
402.63	299.75
402.854	315.75
403.078	325.75
403.302	332.75
403.526	316.75
403.75	305.75
403.974	307.75
404.198	304.75
404.422	308.75
404.645	301.75
404.869	315.75
405.093	333.75
405.317	362.75
405.541	376.75
405.765	379.75
405.988	353.75
406.212	336.75
406.436	333.75
406.66	334.75
406.883	354.75
407.107	376.75
407.331	372.75
407.555	406.75
407.778	382.75
408.002	349.75
408.226	339.75
408.449	342.75
408.673	340.75
408.896	371.75
409.12	373.75
409.344	364.75
409.567	323.75
409.791	321.75
410.014	308.75
410.238	304.75
410.461	320.75
410.685	324.75
410.908	308.75
411.132	341.75
411.355	367.75
411.578	337.75
411.802	337.75
412.025	314.75
412.249	312.75
412.472	334.75
412.695	358.75
412.919	339.75
413.142	309.75
413.365	305.75
413.589	300.75
413.812	291.75
414.035	302.75
414.258	290.75
414.482	295.75
414.705	293.75
414.928	289.75
415.151	284.75
415.374	299.75
415.597	301.75
415.821	299.75
416.044	284.75
416.267	296.75
416.49	270.75
416.713	306.75
416.936	278.75
417.159	300.75
417.382	298.75
417.605	306.75
417.828	319.75
418.051	314.75
418.274	290.75
418.497	289.75
418.72	296.75
418.943	282.75
419.166	280.75
419.389	313.75
419.611	312.75
419.834	325.75
420.057	313.75
420.28	320.75
420.503	301.75
420.726	301.75
420.948	325.75
421.171	360.75
421.394	347.75
421.617	324.75
421.839	305.75
422.062	309.75
422.285	310.75
422.507	355.75
422.73	386.75
422.953	365.75
423.175	327.75
423.398	318.75
423.621	321.75
423.843	340.75
424.066	329.75
424.288	344.75
424.511	356.75
424.733	377.75
424.956	418.75
425.178	406.75
425.401	394.75
425.623	398.75
425.846	373.75
426.068	350.75
426.291	329.75
426.513	346.75
426.735	356.75
426.958	385.75
427.18	414.75
427.402	496.75
427.625	553.75
427.847	483.75
428.069	395.75
428.292	364.75
428.514	350.75
428.736	320.75
428.958	338.75
429.181	316.75
429.403	293.75
429.625	321.75
429.847	350.75
430.069	390.75
430.292	384.75
430.514	330.75
430.736	319.75
430.958	318.75
431.18	296.75
431.402	294.75
431.624	290.75
431.846	295.75
432.068	302.75
432.29	294.75
432.512	286.75
432.734	297.75
432.956	297.75
433.178	304.75
433.4	303.75
433.622	288.75
433.844	305.75
434.066	284.75
434.287	282.75
434.509	279.75
434.731	294.75
434.953	295.75
435.175	322.75
435.397	316.75
435.618	338.75
435.84	363.75
436.062	405.75
436.284	448.75
436.505	372.75
436.727	365.75
436.949	310.75
437.17	301.75
437.392	317.75
437.614	330.75
437.835	356.75
438.057	410.75
438.278	470.75
438.5	460.75
438.721	486.75
438.943	479.75
439.165	418.75
439.386	351.75
439.608	339.75
439.829	357.75
440.05	374.75
440.272	398.75
440.493	366.75
440.715	352.75
440.936	313.75
441.158	314.75
441.379	307.75
441.6	308.75
441.822	323.75
442.043	364.75
442.264	406.75
442.486	420.75
442.707	379.75
442.928	363.75
443.149	368.75
443.371	368.75
443.592	401.75
443.813	434.75
444.034	465.75
444.255	389.75
444.476	356.75
444.698	341.75
444.919	355.75
445.14	425.75
445.361	374.75
445.582	376.75
445.803	424.75
446.024	480.75
446.245	482.75
446.466	429.75
446.687	365.75
446.908	338.75
447.129	326.75
447.35	315.75
447.571	322.75
447.792	321.75
448.013	323.75
448.234	348.75
448.455	388.75
448.675	432.75
448.896	481.75
449.117	401.75
449.338	402.75
449.559	455.75
449.779	498.75
450	401.75
450.221	341.75
450.442	336.75
450.662	326.75
450.883	334.75
451.104	342.75
451.324	309.75
451.545	308.75
451.766	291.75
451.986	289.75
452.207	271.75
452.428	280.75
452.648	274.75
452.869	284.75
453.089	292.75
453.31	321.75
453.53	297.75
453.751	294.75
453.971	293.75
454.192	299.75
454.412	321.75
454.633	286.75
454.853	290.75
455.073	276.75
455.294	316.75
455.514	342.75
455.734	312.75
455.955	285.75
456.175	270.75
456.395	249.75
456.616	278.75
456.836	278.75
457.056	284.75
457.276	257.75
457.497	279.75
457.717	266.75
457.937	254.75
458.157	285.75
458.377	259.75
458.598	282.75
458.818	345.75
459.038	379.75
459.258	382.75
459.478	343.75
459.698	306.75
459.918	292.75
460.138	288.75
460.358	290.75
460.578	291.75
460.798	301.75
461.018	285.75
461.238	277.75
461.458	270.75
461.678	280.75
461.898	288.75
462.118	297.75
462.338	290.75
462.558	323.75
462.777	282.75
462.997	300.75
463.217	303.75
463.437	318.75
463.657	302.75
463.876	301.75
464.096	316.75
464.316	319.75
464.536	313.75
464.755	310.75
464.975	317.75
465.195	356.75
465.414	365.75
465.634	357.75
465.854	320.75
466.073	322.75
466.293	300.75
466.512	314.75
466.732	293.75
466.951	276.75
467.171	285.75
467.391	287.75
467.61	298.75
467.829	285.75
468.049	278.75
468.268	284.75
468.488	288.75
468.707	280.75
468.927	290.75
469.146	282.75
469.365	284.75
469.585	283.75
469.804	295.75
470.023	299.75
470.243	296.75
470.462	301.75
470.681	306.75
470.901	297.75
471.12	290.75
471.339	275.75
471.558	285.75
471.777	286.75
471.997	297.75
472.216	314.75
472.435	329.75
472.654	316.75
472.873	296.75
473.092	289.75
473.311	291.75
473.53	274.75
473.749	308.75
473.968	339.75
474.187	391.75
474.406	397.75
474.625	335.75
474.844	309.75
475.063	298.75
475.282	301.75
475.501	285.75
475.72	304.75
475.939	304.75
476.158	298.75
476.377	320.75
476.596	281.75
476.814	307.75
477.033	309.75
477.252	314.75
477.471	301.75
477.69	320.75
477.908	300.75
478.127	312.75
478.346	316.75
478.564	300.75
478.783	299.75
479.002	340.75
479.22	322.75
479.439	323.75
479.658	349.75
479.876	333.75
480.095	361.75
480.313	373.75
480.532	359.75
480.751	354.75
480.969	372.75
481.188	379.75
481.406	415.75
481.624	367.75
481.843	365.75
482.061	348.75
482.28	353.75
482.498	325.75
482.717	352.75
482.935	345.75
483.153	340.75
483.372	326.75
483.59	322.75
483.808	344.75
484.027	337.75
484.245	338.75
484.463	327.75
484.681	353.75
484.9	333.75
485.118	359.75
485.336	350.75
485.554	348.75
485.772	355.75
485.99	347.75
486.209	348.75
486.427	339.75
486.645	369.75
486.863	364.75
487.081	366.75
487.299	365.75
487.517	354.75
487.735	346.75
487.953	368.75
488.171	366.75
488.389	358.75
488.607	366.75
488.825	372.75
489.043	352.75
489.261	362.75
489.479	372.75
489.696	370.75
489.914	363.75
490.132	356.75
490.35	368.75
490.568	392.75
490.786	390.75
491.003	387.75
491.221	378.75
491.439	388.75
491.657	376.75
491.874	400.75
492.092	400.75
492.31	404.75
492.527	386.75
492.745	421.75
492.963	380.75
493.18	425.75
493.398	414.75
493.615	417.75
493.833	406.75
494.05	386.75
494.268	411.75
494.485	432.75
494.703	410.75
494.92	422.75
495.138	420.75
495.355	408.75
495.573	430.75
495.79	433.75
496.008	432.75
496.225	424.75
496.442	417.75
496.66	426.75
496.877	435.75
497.094	412.75
497.312	425.75
497.529	420.75
497.746	426.75
497.963	438.75
498.181	450.75
498.398	453.75
498.615	456.75
498.832	453.75
499.049	457.75
499.267	455.75
499.484	460.75
499.701	474.75
499.918	461.75
500.135	485.75
500.352	487.75
500.569	508.75
500.786	509.75
501.003	534.75
501.22	520.75
501.437	498.75
501.654	498.75
501.871	515.75
502.088	477.75
