Data from 1982.PennyLincolnUp.Lamp.En5.5.200Scan.071819.P1_HRD10591_16-46-22-961.txt Node
Date: Thu Jul 18 16:46:22 EDT 2019
User: cochatt
Spectrometer: HR+D1059
Trigger mode: 1
Integration Time (sec): 1.000000E-1
Scans to average: 1
Electric dark correction enabled: true
Nonlinearity correction enabled: false
Boxcar width: 0
XAxis mode: Wavelengths
Number of Pixels in Spectrum: 2048
>>>>>Begin Spectral Data<<<<<
223.165	-12.81
223.4	-12.81
223.635	-12.81
223.869	-23.81
224.104	-22.81
224.338	-18.81
224.573	2.19
224.808	-5.81
225.042	8.19
225.277	-8.81
225.511	-4.81
225.746	1.19
225.98	-10.81
226.215	0.19
226.449	20.19
226.683	13.19
226.918	25.19
227.152	38.19
227.387	32.19
227.621	42.19
227.856	39.19
228.09	56.19
228.324	44.19
228.559	49.19
228.793	64.19
229.027	76.19
229.262	83.19
229.496	97.19
229.73	120.19
229.964	114.19
230.199	110.19
230.433	97.19
230.667	107.19
230.901	108.19
231.136	95.19
231.37	105.19
231.604	97.19
231.838	120.19
232.072	120.19
232.306	100.19
232.541	100.19
232.775	111.19
233.009	102.19
233.243	105.19
233.477	94.19
233.711	118.19
233.945	110.19
234.179	107.19
234.413	109.19
234.647	101.19
234.881	107.19
235.115	107.19
235.349	120.19
235.583	119.19
235.817	105.19
236.051	118.19
236.285	112.19
236.519	107.19
236.753	113.19
236.987	138.19
237.221	160.19
237.455	192.19
237.689	149.19
237.922	124.19
238.156	124.19
238.39	117.19
238.624	111.19
238.858	110.19
239.091	109.19
239.325	112.19
239.559	113.19
239.793	120.19
240.027	123.19
240.26	124.19
240.494	123.19
240.728	124.19
240.961	131.19
241.195	130.19
241.429	119.19
241.662	121.19
241.896	119.19
242.13	108.19
242.363	105.19
242.597	125.19
242.83	115.19
243.064	124.19
243.298	123.19
243.531	120.19
243.765	117.19
243.998	110.19
244.232	117.19
244.465	129.19
244.699	116.19
244.932	135.19
245.166	125.19
245.399	121.19
245.633	125.19
245.866	123.19
246.099	127.19
246.333	124.19
246.566	116.19
246.8	104.19
247.033	112.19
247.266	134.19
247.5	148.19
247.733	165.19
247.966	149.19
248.2	133.19
248.433	138.19
248.666	135.19
248.899	144.19
249.133	149.19
249.366	166.19
249.599	147.19
249.832	168.19
250.066	151.19
250.299	160.19
250.532	152.19
250.765	172.19
250.998	179.19
251.231	181.19
251.465	180.19
251.698	188.19
251.931	166.19
252.164	152.19
252.397	150.19
252.63	165.19
252.863	161.19
253.096	173.19
253.329	184.19
253.562	175.19
253.795	171.19
254.028	183.19
254.261	172.19
254.494	183.19
254.727	221.19
254.96	218.19
255.193	218.19
255.426	197.19
255.659	178.19
255.892	189.19
256.124	180.19
256.357	176.19
256.59	178.19
256.823	169.19
257.056	168.19
257.289	163.19
257.521	163.19
257.754	161.19
257.987	162.19
258.22	166.19
258.452	169.19
258.685	172.19
258.918	165.19
259.151	167.19
259.383	177.19
259.616	172.19
259.849	164.19
260.081	204.19
260.314	187.19
260.547	192.19
260.779	167.19
261.012	171.19
261.244	180.19
261.477	177.19
261.71	179.19
261.942	193.19
262.175	180.19
262.407	188.19
262.64	181.19
262.872	171.19
263.105	161.19
263.337	174.19
263.57	172.19
263.802	172.19
264.035	155.19
264.267	163.19
264.499	176.19
264.732	179.19
264.964	174.19
265.197	170.19
265.429	168.19
265.661	167.19
265.894	167.19
266.126	165.19
266.358	176.19
266.591	180.19
266.823	188.19
267.055	182.19
267.287	192.19
267.52	194.19
267.752	179.19
267.984	174.19
268.216	182.19
268.448	176.19
268.681	188.19
268.913	206.19
269.145	188.19
269.377	205.19
269.609	214.19
269.841	205.19
270.073	215.19
270.306	227.19
270.538	241.19
270.77	245.19
271.002	231.19
271.234	240.19
271.466	239.19
271.698	239.19
271.93	231.19
272.162	237.19
272.394	231.19
272.626	239.19
272.858	222.19
273.09	213.19
273.322	218.19
273.553	217.19
273.785	220.19
274.017	200.19
274.249	212.19
274.481	199.19
274.713	207.19
274.945	220.19
275.176	204.19
275.408	216.19
275.64	213.19
275.872	219.19
276.104	205.19
276.335	186.19
276.567	215.19
276.799	235.19
277.031	240.19
277.262	258.19
277.494	230.19
277.726	245.19
277.957	222.19
278.189	211.19
278.421	225.19
278.652	207.19
278.884	196.19
279.115	205.19
279.347	198.19
279.579	213.19
279.81	221.19
280.042	205.19
280.273	208.19
280.505	223.19
280.736	199.19
280.968	200.19
281.199	208.19
281.431	202.19
281.662	193.19
281.894	204.19
282.125	202.19
282.356	221.19
282.588	249.19
282.819	237.19
283.051	203.19
283.282	204.19
283.513	226.19
283.745	216.19
283.976	227.19
284.207	215.19
284.439	222.19
284.67	215.19
284.901	217.19
285.132	218.19
285.364	225.19
285.595	219.19
285.826	208.19
286.057	208.19
286.288	207.19
286.52	210.19
286.751	206.19
286.982	213.19
287.213	203.19
287.444	225.19
287.675	215.19
287.906	233.19
288.138	221.19
288.369	233.19
288.6	221.19
288.831	230.19
289.062	220.19
289.293	224.19
289.524	222.19
289.755	219.19
289.986	234.19
290.217	237.19
290.448	221.19
290.679	227.19
290.91	221.19
291.141	218.19
291.371	215.19
291.602	210.19
291.833	215.19
292.064	217.19
292.295	212.19
292.526	216.19
292.757	224.19
292.987	195.19
293.218	211.19
293.449	222.19
293.68	215.19
293.91	212.19
294.141	228.19
294.372	212.19
294.603	226.19
294.833	220.19
295.064	224.19
295.295	228.19
295.525	224.19
295.756	239.19
295.987	234.19
296.217	228.19
296.448	259.19
296.679	226.19
296.909	214.19
297.14	204.19
297.37	210.19
297.601	222.19
297.831	218.19
298.062	230.19
298.292	233.19
298.523	223.19
298.753	231.19
298.984	220.19
299.214	235.19
299.445	229.19
299.675	250.19
299.905	245.19
300.136	247.19
300.366	221.19
300.597	231.19
300.827	239.19
301.057	236.19
301.288	254.19
301.518	236.19
301.748	243.19
301.979	252.19
302.209	267.19
302.439	244.19
302.669	238.19
302.9	248.19
303.13	243.19
303.36	233.19
303.59	255.19
303.82	262.19
304.051	262.19
304.281	220.19
304.511	240.19
304.741	239.19
304.971	239.19
305.201	237.19
305.431	243.19
305.661	244.19
305.891	233.19
306.121	230.19
306.352	240.19
306.582	261.19
306.812	241.19
307.042	255.19
307.272	247.19
307.502	245.19
307.731	266.19
307.961	245.19
308.191	274.19
308.421	260.19
308.651	255.19
308.881	251.19
309.111	262.19
309.341	266.19
309.571	261.19
309.8	269.19
310.03	284.19
310.26	290.19
310.49	297.19
310.72	299.19
310.949	307.19
311.179	287.19
311.409	303.19
311.639	283.19
311.868	278.19
312.098	306.19
312.328	296.19
312.557	311.19
312.787	311.19
313.017	312.19
313.246	289.19
313.476	276.19
313.706	281.19
313.935	276.19
314.165	297.19
314.394	294.19
314.624	311.19
314.853	285.19
315.083	289.19
315.312	281.19
315.542	277.19
315.771	278.19
316.001	276.19
316.23	274.19
316.46	290.19
316.689	283.19
316.919	291.19
317.148	285.19
317.377	312.19
317.607	299.19
317.836	307.19
318.065	285.19
318.295	279.19
318.524	288.19
318.753	277.19
318.983	276.19
319.212	284.19
319.441	287.19
319.67	291.19
319.9	296.19
320.129	287.19
320.358	293.19
320.587	304.19
320.816	311.19
321.046	311.19
321.275	303.19
321.504	285.19
321.733	310.19
321.962	312.19
322.191	321.19
322.42	338.19
322.649	335.19
322.878	344.19
323.108	345.19
323.337	380.19
323.566	393.19
323.795	431.19
324.024	476.19
324.253	589.19
324.482	843.19
324.71	1275.19
324.939	1689.19
325.168	1381.19
325.397	734.19
325.626	493.19
325.855	441.19
326.084	419.19
326.313	391.19
326.542	405.19
326.77	444.19
326.999	556.19
327.228	765.19
327.457	1092.19
327.686	1222.19
327.914	812.19
328.143	553.19
328.372	488.19
328.6	459.19
328.829	447.19
329.058	472.19
329.287	432.19
329.515	419.19
329.744	399.19
329.972	408.19
330.201	387.19
330.43	433.19
330.658	449.19
330.887	463.19
331.115	437.19
331.344	402.19
331.572	367.19
331.801	364.19
332.03	349.19
332.258	356.19
332.486	340.19
332.715	337.19
332.943	336.19
333.172	328.19
333.4	318.19
333.629	338.19
333.857	352.19
334.085	363.19
334.314	376.19
334.542	381.19
334.771	419.19
334.999	353.19
335.227	360.19
335.455	333.19
335.684	333.19
335.912	313.19
336.14	342.19
336.369	311.19
336.597	326.19
336.825	315.19
337.053	329.19
337.281	317.19
337.51	327.19
337.738	306.19
337.966	333.19
338.194	319.19
338.422	320.19
338.65	320.19
338.878	315.19
339.106	317.19
339.334	321.19
339.562	295.19
339.79	294.19
340.018	332.19
340.246	317.19
340.474	302.19
340.702	319.19
340.93	324.19
341.158	309.19
341.386	323.19
341.614	341.19
341.842	314.19
342.07	292.19
342.298	319.19
342.526	311.19
342.754	295.19
342.981	300.19
343.209	293.19
343.437	302.19
343.665	317.19
343.893	309.19
344.12	308.19
344.348	310.19
344.576	328.19
344.804	310.19
345.031	315.19
345.259	326.19
345.487	306.19
345.714	319.19
345.942	309.19
346.17	293.19
346.397	290.19
346.625	305.19
346.853	292.19
347.08	295.19
347.308	305.19
347.535	308.19
347.763	322.19
347.99	313.19
348.218	327.19
348.445	328.19
348.673	309.19
348.9	311.19
349.128	302.19
349.355	284.19
349.583	291.19
349.81	288.19
350.037	289.19
350.265	296.19
350.492	302.19
350.72	292.19
350.947	311.19
351.174	291.19
351.402	305.19
351.629	325.19
351.856	311.19
352.083	317.19
352.311	311.19
352.538	296.19
352.765	323.19
352.992	308.19
353.22	305.19
353.447	307.19
353.674	295.19
353.901	295.19
354.128	266.19
354.355	273.19
354.583	275.19
354.81	280.19
355.037	272.19
355.264	285.19
355.491	280.19
355.718	265.19
355.945	286.19
356.172	275.19
356.399	273.19
356.626	277.19
356.853	300.19
357.08	280.19
357.307	280.19
357.534	273.19
357.761	286.19
357.988	276.19
358.215	272.19
358.441	271.19
358.668	272.19
358.895	279.19
359.122	290.19
359.349	294.19
359.576	313.19
359.802	316.19
360.029	336.19
360.256	347.19
360.483	317.19
360.709	296.19
360.936	297.19
361.163	307.19
361.39	310.19
361.616	307.19
361.843	317.19
362.07	302.19
362.296	291.19
362.523	291.19
362.749	303.19
362.976	298.19
363.203	311.19
363.429	289.19
363.656	302.19
363.882	282.19
364.109	290.19
364.335	286.19
364.562	276.19
364.788	272.19
365.015	286.19
365.241	273.19
365.468	287.19
365.694	271.19
365.92	284.19
366.147	267.19
366.373	275.19
366.599	271.19
366.826	284.19
367.052	271.19
367.278	287.19
367.505	281.19
367.731	281.19
367.957	286.19
368.184	293.19
368.41	285.19
368.636	291.19
368.862	289.19
369.089	282.19
369.315	269.19
369.541	284.19
369.767	271.19
369.993	275.19
370.219	273.19
370.445	268.19
370.672	268.19
370.898	281.19
371.124	259.19
371.35	280.19
371.576	279.19
371.802	277.19
372.028	269.19
372.254	258.19
372.48	269.19
372.706	283.19
372.932	269.19
373.158	272.19
373.384	267.19
373.61	283.19
373.835	257.19
374.061	262.19
374.287	277.19
374.513	288.19
374.739	291.19
374.965	278.19
375.191	277.19
375.416	257.19
375.642	275.19
375.868	274.19
376.094	281.19
376.319	280.19
376.545	260.19
376.771	270.19
376.997	273.19
377.222	272.19
377.448	251.19
377.674	272.19
377.899	259.19
378.125	247.19
378.35	246.19
378.576	262.19
378.802	267.19
379.027	261.19
379.253	279.19
379.478	252.19
379.704	253.19
379.929	275.19
380.155	249.19
380.38	273.19
380.606	274.19
380.831	257.19
381.057	263.19
381.282	275.19
381.507	264.19
381.733	285.19
381.958	267.19
382.184	274.19
382.409	264.19
382.634	266.19
382.86	268.19
383.085	280.19
383.31	262.19
383.535	264.19
383.761	256.19
383.986	271.19
384.211	276.19
384.436	269.19
384.662	271.19
384.887	269.19
385.112	273.19
385.337	276.19
385.562	286.19
385.787	263.19
386.013	282.19
386.238	291.19
386.463	281.19
386.688	292.19
386.913	279.19
387.138	287.19
387.363	269.19
387.588	282.19
387.813	265.19
388.038	278.19
388.263	269.19
388.488	279.19
388.713	296.19
388.938	288.19
389.163	286.19
389.387	263.19
389.612	267.19
389.837	284.19
390.062	264.19
390.287	272.19
390.512	264.19
390.736	265.19
390.961	276.19
391.186	278.19
391.411	288.19
391.636	282.19
391.86	278.19
392.085	284.19
392.31	275.19
392.534	282.19
392.759	283.19
392.984	272.19
393.208	277.19
393.433	282.19
393.658	293.19
393.882	289.19
394.107	267.19
394.331	271.19
394.556	269.19
394.78	282.19
395.005	287.19
395.229	272.19
395.454	277.19
395.678	288.19
395.903	297.19
396.127	305.19
396.352	298.19
396.576	300.19
396.801	264.19
397.025	280.19
397.249	295.19
397.474	287.19
397.698	296.19
397.922	305.19
398.147	293.19
398.371	313.19
398.595	298.19
398.82	298.19
399.044	326.19
399.268	309.19
399.492	313.19
399.717	345.19
399.941	337.19
400.165	354.19
400.389	376.19
400.613	352.19
400.837	359.19
401.062	311.19
401.286	303.19
401.51	307.19
401.734	293.19
401.958	300.19
402.182	320.19
402.406	299.19
402.63	307.19
402.854	304.19
403.078	304.19
403.302	314.19
403.526	318.19
403.75	319.19
403.974	321.19
404.198	315.19
404.422	321.19
404.645	307.19
404.869	329.19
405.093	334.19
405.317	362.19
405.541	385.19
405.765	339.19
405.988	323.19
406.212	336.19
406.436	344.19
406.66	355.19
406.883	351.19
407.107	362.19
407.331	381.19
407.555	412.19
407.778	422.19
408.002	383.19
408.226	357.19
408.449	373.19
408.673	332.19
408.896	373.19
409.12	374.19
409.344	380.19
409.567	335.19
409.791	345.19
410.014	319.19
410.238	319.19
410.461	320.19
410.685	334.19
410.908	326.19
411.132	338.19
411.355	369.19
411.578	366.19
411.802	321.19
412.025	313.19
412.249	320.19
412.472	328.19
412.695	365.19
412.919	342.19
413.142	351.19
413.365	312.19
413.589	309.19
413.812	299.19
414.035	299.19
414.258	292.19
414.482	296.19
414.705	304.19
414.928	277.19
415.151	298.19
415.374	317.19
415.597	295.19
415.821	311.19
416.044	311.19
416.267	312.19
416.49	309.19
416.713	300.19
416.936	298.19
417.159	314.19
417.382	303.19
417.605	302.19
417.828	307.19
418.051	310.19
418.274	299.19
418.497	292.19
418.72	272.19
418.943	278.19
419.166	307.19
419.389	329.19
419.611	307.19
419.834	320.19
420.057	307.19
420.28	327.19
420.503	315.19
420.726	329.19
420.948	302.19
421.171	334.19
421.394	364.19
421.617	309.19
421.839	313.19
422.062	327.19
422.285	342.19
422.507	367.19
422.73	418.19
422.953	399.19
423.175	358.19
423.398	335.19
423.621	322.19
423.843	337.19
424.066	352.19
424.288	328.19
424.511	377.19
424.733	395.19
424.956	418.19
425.178	422.19
425.401	420.19
425.623	411.19
425.846	374.19
426.068	331.19
426.291	347.19
426.513	353.19
426.735	339.19
426.958	377.19
427.18	424.19
427.402	483.19
427.625	539.19
427.847	504.19
428.069	406.19
428.292	384.19
428.514	352.19
428.736	318.19
428.958	317.19
429.181	336.19
429.403	317.19
429.625	325.19
429.847	373.19
430.069	383.19
430.292	375.19
430.514	315.19
430.736	313.19
430.958	323.19
431.18	300.19
431.402	302.19
431.624	286.19
431.846	304.19
432.068	291.19
432.29	305.19
432.512	312.19
432.734	312.19
432.956	321.19
433.178	295.19
433.4	311.19
433.622	325.19
433.844	308.19
434.066	296.19
434.287	302.19
434.509	300.19
434.731	318.19
434.953	298.19
435.175	298.19
435.397	345.19
435.618	360.19
435.84	383.19
436.062	435.19
436.284	457.19
436.505	387.19
436.727	366.19
436.949	339.19
437.17	328.19
437.392	313.19
437.614	328.19
437.835	351.19
438.057	424.19
438.278	494.19
438.5	457.19
438.721	492.19
438.943	485.19
439.165	390.19
439.386	362.19
439.608	361.19
439.829	360.19
440.05	387.19
440.272	412.19
440.493	395.19
440.715	337.19
440.936	318.19
441.158	337.19
441.379	339.19
441.6	348.19
441.822	352.19
442.043	365.19
442.264	411.19
442.486	435.19
442.707	363.19
442.928	351.19
443.149	366.19
443.371	397.19
443.592	423.19
443.813	457.19
444.034	481.19
444.255	409.19
444.476	359.19
444.698	323.19
444.919	339.19
445.14	412.19
445.361	382.19
445.582	381.19
445.803	429.19
446.024	484.19
446.245	496.19
446.466	455.19
446.687	396.19
446.908	335.19
447.129	333.19
447.35	339.19
447.571	317.19
447.792	334.19
448.013	332.19
448.234	339.19
448.455	376.19
448.675	459.19
448.896	507.19
449.117	444.19
449.338	387.19
449.559	488.19
449.779	543.19
450	408.19
450.221	364.19
450.442	335.19
450.662	336.19
450.883	332.19
451.104	351.19
451.324	325.19
451.545	321.19
451.766	311.19
451.986	287.19
452.207	303.19
452.428	286.19
452.648	307.19
452.869	311.19
453.089	311.19
453.31	308.19
453.53	280.19
453.751	301.19
453.971	295.19
454.192	309.19
454.412	298.19
454.633	284.19
454.853	295.19
455.073	282.19
455.294	319.19
455.514	363.19
455.734	336.19
455.955	292.19
456.175	286.19
456.395	279.19
456.616	258.19
456.836	273.19
457.056	267.19
457.276	264.19
457.497	266.19
457.717	265.19
457.937	261.19
458.157	287.19
458.377	272.19
458.598	281.19
458.818	341.19
459.038	387.19
459.258	387.19
459.478	343.19
459.698	303.19
459.918	315.19
460.138	311.19
460.358	296.19
460.578	277.19
460.798	299.19
461.018	318.19
461.238	287.19
461.458	298.19
461.678	286.19
461.898	297.19
462.118	292.19
462.338	304.19
462.558	316.19
462.777	322.19
462.997	304.19
463.217	317.19
463.437	331.19
463.657	297.19
463.876	299.19
464.096	327.19
464.316	310.19
464.536	336.19
464.755	319.19
464.975	320.19
465.195	378.19
465.414	397.19
465.634	359.19
465.854	337.19
466.073	312.19
466.293	299.19
466.512	309.19
466.732	295.19
466.951	283.19
467.171	275.19
467.391	287.19
467.61	311.19
467.829	310.19
468.049	312.19
468.268	296.19
468.488	307.19
468.707	286.19
468.927	295.19
469.146	271.19
469.365	282.19
469.585	285.19
469.804	298.19
470.023	308.19
470.243	304.19
470.462	296.19
470.681	316.19
470.901	314.19
471.12	305.19
471.339	307.19
471.558	295.19
471.777	287.19
471.997	303.19
472.216	294.19
472.435	329.19
472.654	305.19
472.873	309.19
473.092	288.19
473.311	309.19
473.53	307.19
473.749	310.19
473.968	347.19
474.187	405.19
474.406	403.19
474.625	336.19
474.844	300.19
475.063	287.19
475.282	311.19
475.501	294.19
475.72	300.19
475.939	316.19
476.158	280.19
476.377	295.19
476.596	315.19
476.814	301.19
477.033	313.19
477.252	311.19
477.471	308.19
477.69	319.19
477.908	324.19
478.127	302.19
478.346	300.19
478.564	326.19
478.783	312.19
479.002	320.19
479.22	312.19
479.439	332.19
479.658	360.19
479.876	356.19
480.095	371.19
480.313	371.19
480.532	364.19
480.751	348.19
480.969	348.19
481.188	420.19
481.406	420.19
481.624	368.19
481.843	346.19
482.061	369.19
482.28	346.19
482.498	343.19
482.717	346.19
482.935	355.19
483.153	350.19
483.372	349.19
483.59	337.19
483.808	352.19
484.027	357.19
484.245	349.19
484.463	365.19
484.681	352.19
484.9	336.19
485.118	351.19
485.336	354.19
485.554	351.19
485.772	337.19
485.99	355.19
486.209	366.19
486.427	366.19
486.645	366.19
486.863	388.19
487.081	377.19
487.299	362.19
487.517	355.19
487.735	365.19
487.953	357.19
488.171	360.19
488.389	355.19
488.607	352.19
488.825	349.19
489.043	372.19
489.261	369.19
489.479	372.19
489.696	378.19
489.914	372.19
490.132	388.19
490.35	389.19
490.568	373.19
490.786	379.19
491.003	384.19
491.221	389.19
491.439	422.19
491.657	411.19
491.874	408.19
492.092	406.19
492.31	439.19
492.527	428.19
492.745	419.19
492.963	440.19
493.18	415.19
493.398	429.19
493.615	434.19
493.833	447.19
494.05	416.19
494.268	451.19
494.485	431.19
494.703	435.19
494.92	427.19
495.138	425.19
495.355	444.19
495.573	419.19
495.79	420.19
496.008	427.19
496.225	440.19
496.442	425.19
496.66	443.19
496.877	420.19
497.094	423.19
497.312	428.19
497.529	452.19
497.746	450.19
497.963	440.19
498.181	453.19
498.398	452.19
498.615	458.19
498.832	458.19
499.049	470.19
499.267	481.19
499.484	486.19
499.701	473.19
499.918	506.19
500.135	530.19
500.352	543.19
500.569	543.19
500.786	512.19
501.003	518.19
501.22	523.19
501.437	504.19
501.654	501.19
501.871	499.19
502.088	495.19
