Data from 1982.PennyLincolnUp.Lamp.En5.5.200Scan.071819.P1_HRD10591_16-47-14-962.txt Node
Date: Thu Jul 18 16:47:14 EDT 2019
User: cochatt
Spectrometer: HR+D1059
Trigger mode: 1
Integration Time (sec): 1.000000E-1
Scans to average: 1
Electric dark correction enabled: true
Nonlinearity correction enabled: false
Boxcar width: 0
XAxis mode: Wavelengths
Number of Pixels in Spectrum: 2048
>>>>>Begin Spectral Data<<<<<
223.165	-8.62
223.4	-8.62
223.635	-8.62
223.869	-20.62
224.104	-24.62
224.338	-19.62
224.573	-3.62
224.808	-12.62
225.042	-7.62
225.277	-24.62
225.511	9.38
225.746	4.38
225.98	6.38
226.215	14.38
226.449	19.38
226.683	16.38
226.918	24.38
227.152	27.38
227.387	21.38
227.621	37.38
227.856	53.38
228.09	42.38
228.324	43.38
228.559	68.38
228.793	64.38
229.027	77.38
229.262	114.38
229.496	100.38
229.73	117.38
229.964	117.38
230.199	123.38
230.433	110.38
230.667	102.38
230.901	99.38
231.136	87.38
231.37	96.38
231.604	93.38
231.838	100.38
232.072	105.38
232.306	86.38
232.541	116.38
232.775	112.38
233.009	87.38
233.243	112.38
233.477	101.38
233.711	101.38
233.945	79.38
234.179	99.38
234.413	101.38
234.647	109.38
234.881	114.38
235.115	103.38
235.349	100.38
235.583	90.38
235.817	104.38
236.051	123.38
236.285	102.38
236.519	123.38
236.753	124.38
236.987	128.38
237.221	161.38
237.455	190.38
237.689	171.38
237.922	129.38
238.156	115.38
238.39	127.38
238.624	99.38
238.858	110.38
239.091	103.38
239.325	111.38
239.559	99.38
239.793	115.38
240.027	118.38
240.26	128.38
240.494	129.38
240.728	137.38
240.961	129.38
241.195	130.38
241.429	99.38
241.662	112.38
241.896	122.38
242.13	123.38
242.363	107.38
242.597	114.38
242.83	119.38
243.064	119.38
243.298	128.38
243.531	121.38
243.765	118.38
243.998	103.38
244.232	120.38
244.465	116.38
244.699	128.38
244.932	123.38
245.166	128.38
245.399	130.38
245.633	120.38
245.866	128.38
246.099	118.38
246.333	128.38
246.566	121.38
246.8	120.38
247.033	122.38
247.266	142.38
247.5	140.38
247.733	141.38
247.966	140.38
248.2	124.38
248.433	144.38
248.666	153.38
248.899	152.38
249.133	162.38
249.366	176.38
249.599	187.38
249.832	165.38
250.066	162.38
250.299	156.38
250.532	161.38
250.765	173.38
250.998	194.38
251.231	179.38
251.465	178.38
251.698	172.38
251.931	166.38
252.164	156.38
252.397	172.38
252.63	163.38
252.863	167.38
253.096	176.38
253.329	167.38
253.562	183.38
253.795	186.38
254.028	180.38
254.261	182.38
254.494	190.38
254.727	208.38
254.96	236.38
255.193	219.38
255.426	209.38
255.659	195.38
255.892	194.38
256.124	197.38
256.357	184.38
256.59	177.38
256.823	179.38
257.056	172.38
257.289	186.38
257.521	186.38
257.754	165.38
257.987	168.38
258.22	171.38
258.452	176.38
258.685	180.38
258.918	200.38
259.151	178.38
259.383	174.38
259.616	177.38
259.849	182.38
260.081	215.38
260.314	194.38
260.547	214.38
260.779	205.38
261.012	212.38
261.244	207.38
261.477	194.38
261.71	172.38
261.942	177.38
262.175	194.38
262.407	190.38
262.64	185.38
262.872	181.38
263.105	169.38
263.337	186.38
263.57	188.38
263.802	164.38
264.035	176.38
264.267	169.38
264.499	166.38
264.732	174.38
264.964	172.38
265.197	163.38
265.429	188.38
265.661	185.38
265.894	163.38
266.126	162.38
266.358	168.38
266.591	184.38
266.823	179.38
267.055	184.38
267.287	185.38
267.52	176.38
267.752	194.38
267.984	188.38
268.216	197.38
268.448	193.38
268.681	213.38
268.913	211.38
269.145	205.38
269.377	225.38
269.609	214.38
269.841	220.38
270.073	224.38
270.306	254.38
270.538	274.38
270.77	259.38
271.002	237.38
271.234	260.38
271.466	256.38
271.698	259.38
271.93	265.38
272.162	274.38
272.394	270.38
272.626	251.38
272.858	235.38
273.09	226.38
273.322	207.38
273.553	212.38
273.785	201.38
274.017	227.38
274.249	219.38
274.481	218.38
274.713	204.38
274.945	206.38
275.176	220.38
275.408	216.38
275.64	201.38
275.872	209.38
276.104	201.38
276.335	219.38
276.567	227.38
276.799	219.38
277.031	256.38
277.262	266.38
277.494	271.38
277.726	244.38
277.957	235.38
278.189	216.38
278.421	231.38
278.652	224.38
278.884	211.38
279.115	217.38
279.347	210.38
279.579	229.38
279.81	223.38
280.042	199.38
280.273	215.38
280.505	204.38
280.736	220.38
280.968	215.38
281.199	208.38
281.431	199.38
281.662	207.38
281.894	208.38
282.125	220.38
282.356	226.38
282.588	258.38
282.819	250.38
283.051	213.38
283.282	218.38
283.513	219.38
283.745	222.38
283.976	221.38
284.207	217.38
284.439	227.38
284.67	200.38
284.901	227.38
285.132	223.38
285.364	227.38
285.595	217.38
285.826	212.38
286.057	233.38
286.288	233.38
286.52	226.38
286.751	219.38
286.982	227.38
287.213	227.38
287.444	219.38
287.675	220.38
287.906	225.38
288.138	242.38
288.369	235.38
288.6	230.38
288.831	224.38
289.062	235.38
289.293	220.38
289.524	229.38
289.755	204.38
289.986	233.38
290.217	218.38
290.448	228.38
290.679	244.38
290.91	223.38
291.141	231.38
291.371	223.38
291.602	237.38
291.833	229.38
292.064	231.38
292.295	233.38
292.526	227.38
292.757	219.38
292.987	216.38
293.218	231.38
293.449	232.38
293.68	237.38
293.91	235.38
294.141	227.38
294.372	221.38
294.603	216.38
294.833	221.38
295.064	223.38
295.295	233.38
295.525	226.38
295.756	239.38
295.987	252.38
296.217	263.38
296.448	262.38
296.679	234.38
296.909	244.38
297.14	243.38
297.37	237.38
297.601	231.38
297.831	222.38
298.062	224.38
298.292	233.38
298.523	258.38
298.753	211.38
298.984	238.38
299.214	226.38
299.445	250.38
299.675	259.38
299.905	264.38
300.136	242.38
300.366	237.38
300.597	251.38
300.827	246.38
301.057	248.38
301.288	236.38
301.518	245.38
301.748	268.38
301.979	245.38
302.209	250.38
302.439	250.38
302.669	252.38
302.9	252.38
303.13	262.38
303.36	280.38
303.59	269.38
303.82	261.38
304.051	272.38
304.281	254.38
304.511	265.38
304.741	247.38
304.971	242.38
305.201	253.38
305.431	263.38
305.661	264.38
305.891	260.38
306.121	262.38
306.352	260.38
306.582	258.38
306.812	264.38
307.042	275.38
307.272	272.38
307.502	274.38
307.731	264.38
307.961	270.38
308.191	250.38
308.421	272.38
308.651	286.38
308.881	274.38
309.111	266.38
309.341	274.38
309.571	269.38
309.8	268.38
310.03	290.38
310.26	314.38
310.49	297.38
310.72	300.38
310.949	309.38
311.179	314.38
311.409	290.38
311.639	315.38
311.868	293.38
312.098	307.38
312.328	322.38
312.557	314.38
312.787	307.38
313.017	325.38
313.246	329.38
313.476	312.38
313.706	293.38
313.935	317.38
314.165	329.38
314.394	332.38
314.624	307.38
314.853	315.38
315.083	318.38
315.312	300.38
315.542	292.38
315.771	290.38
316.001	290.38
316.23	307.38
316.46	290.38
316.689	292.38
316.919	309.38
317.148	307.38
317.377	313.38
317.607	284.38
317.836	293.38
318.065	300.38
318.295	261.38
318.524	317.38
318.753	310.38
318.983	317.38
319.212	311.38
319.441	308.38
319.67	317.38
319.9	310.38
320.129	310.38
320.358	313.38
320.587	310.38
320.816	317.38
321.046	325.38
321.275	319.38
321.504	326.38
321.733	327.38
321.962	334.38
322.191	332.38
322.42	356.38
322.649	354.38
322.878	381.38
323.108	395.38
323.337	405.38
323.566	412.38
323.795	445.38
324.024	499.38
324.253	635.38
324.482	933.38
324.71	1406.38
324.939	1850.38
325.168	1493.38
325.397	792.38
325.626	536.38
325.855	446.38
326.084	419.38
326.313	418.38
326.542	427.38
326.77	477.38
326.999	612.38
327.228	810.38
327.457	1210.38
327.686	1341.38
327.914	862.38
328.143	604.38
328.372	524.38
328.6	492.38
328.829	465.38
329.058	475.38
329.287	470.38
329.515	453.38
329.744	418.38
329.972	421.38
330.201	434.38
330.43	461.38
330.658	504.38
330.887	520.38
331.115	480.38
331.344	417.38
331.572	403.38
331.801	395.38
332.03	366.38
332.258	365.38
332.486	354.38
332.715	351.38
332.943	348.38
333.172	347.38
333.4	363.38
333.629	345.38
333.857	365.38
334.085	389.38
334.314	388.38
334.542	405.38
334.771	397.38
334.999	361.38
335.227	358.38
335.455	359.38
335.684	331.38
335.912	346.38
336.14	352.38
336.369	343.38
336.597	346.38
336.825	366.38
337.053	341.38
337.281	345.38
337.51	318.38
337.738	334.38
337.966	333.38
338.194	315.38
338.422	339.38
338.65	342.38
338.878	342.38
339.106	332.38
339.334	343.38
339.562	326.38
339.79	328.38
340.018	335.38
340.246	345.38
340.474	350.38
340.702	331.38
340.93	325.38
341.158	328.38
341.386	299.38
341.614	305.38
341.842	328.38
342.07	327.38
342.298	323.38
342.526	314.38
342.754	297.38
342.981	310.38
343.209	306.38
343.437	323.38
343.665	324.38
343.893	321.38
344.12	318.38
344.348	326.38
344.576	326.38
344.804	335.38
345.031	344.38
345.259	359.38
345.487	335.38
345.714	337.38
345.942	325.38
346.17	315.38
346.397	324.38
346.625	327.38
346.853	338.38
347.08	327.38
347.308	332.38
347.535	336.38
347.763	324.38
347.99	316.38
348.218	332.38
348.445	333.38
348.673	345.38
348.9	315.38
349.128	325.38
349.355	301.38
349.583	297.38
349.81	307.38
350.037	298.38
350.265	316.38
350.492	297.38
350.72	300.38
350.947	316.38
351.174	315.38
351.402	336.38
351.629	338.38
351.856	316.38
352.083	332.38
352.311	327.38
352.538	330.38
352.765	326.38
352.992	318.38
353.22	299.38
353.447	328.38
353.674	312.38
353.901	305.38
354.128	305.38
354.355	286.38
354.583	301.38
354.81	287.38
355.037	310.38
355.264	281.38
355.491	284.38
355.718	286.38
355.945	283.38
356.172	297.38
356.399	292.38
356.626	290.38
356.853	275.38
357.08	286.38
357.307	284.38
357.534	283.38
357.761	284.38
357.988	301.38
358.215	309.38
358.441	292.38
358.668	280.38
358.895	281.38
359.122	314.38
359.349	324.38
359.576	312.38
359.802	322.38
360.029	350.38
360.256	333.38
360.483	344.38
360.709	309.38
360.936	314.38
361.163	307.38
361.39	326.38
361.616	306.38
361.843	313.38
362.07	304.38
362.296	301.38
362.523	304.38
362.749	314.38
362.976	287.38
363.203	310.38
363.429	292.38
363.656	286.38
363.882	277.38
364.109	287.38
364.335	310.38
364.562	306.38
364.788	292.38
365.015	288.38
365.241	299.38
365.468	299.38
365.694	308.38
365.92	312.38
366.147	312.38
366.373	299.38
366.599	280.38
366.826	277.38
367.052	294.38
367.278	295.38
367.505	293.38
367.731	286.38
367.957	290.38
368.184	293.38
368.41	304.38
368.636	308.38
368.862	302.38
369.089	294.38
369.315	287.38
369.541	316.38
369.767	278.38
369.993	305.38
370.219	287.38
370.445	293.38
370.672	283.38
370.898	309.38
371.124	288.38
371.35	280.38
371.576	274.38
371.802	298.38
372.028	279.38
372.254	262.38
372.48	292.38
372.706	279.38
372.932	284.38
373.158	269.38
373.384	284.38
373.61	284.38
373.835	284.38
374.061	289.38
374.287	293.38
374.513	302.38
374.739	290.38
374.965	291.38
375.191	293.38
375.416	298.38
375.642	290.38
375.868	282.38
376.094	298.38
376.319	297.38
376.545	265.38
376.771	284.38
376.997	296.38
377.222	277.38
377.448	286.38
377.674	282.38
377.899	267.38
378.125	282.38
378.35	256.38
378.576	280.38
378.802	278.38
379.027	280.38
379.253	290.38
379.478	280.38
379.704	272.38
379.929	265.38
380.155	278.38
380.38	289.38
380.606	271.38
380.831	280.38
381.057	298.38
381.282	285.38
381.507	271.38
381.733	294.38
381.958	285.38
382.184	284.38
382.409	270.38
382.634	269.38
382.86	279.38
383.085	290.38
383.31	276.38
383.535	287.38
383.761	272.38
383.986	269.38
384.211	274.38
384.436	290.38
384.662	269.38
384.887	280.38
385.112	275.38
385.337	279.38
385.562	299.38
385.787	304.38
386.013	309.38
386.238	292.38
386.463	270.38
386.688	305.38
386.913	302.38
387.138	272.38
387.363	292.38
387.588	298.38
387.813	293.38
388.038	315.38
388.263	303.38
388.488	291.38
388.713	303.38
388.938	288.38
389.163	310.38
389.387	291.38
389.612	282.38
389.837	280.38
390.062	278.38
390.287	292.38
390.512	280.38
390.736	279.38
390.961	292.38
391.186	295.38
391.411	282.38
391.636	297.38
391.86	281.38
392.085	299.38
392.31	301.38
392.534	313.38
392.759	295.38
392.984	306.38
393.208	288.38
393.433	284.38
393.658	300.38
393.882	279.38
394.107	302.38
394.331	298.38
394.556	297.38
394.78	297.38
395.005	297.38
395.229	290.38
395.454	293.38
395.678	290.38
395.903	300.38
396.127	315.38
396.352	321.38
396.576	319.38
396.801	292.38
397.025	312.38
397.249	287.38
397.474	290.38
397.698	298.38
397.922	318.38
398.147	322.38
398.371	301.38
398.595	321.38
398.82	311.38
399.044	333.38
399.268	317.38
399.492	332.38
399.717	365.38
399.941	360.38
400.165	381.38
400.389	376.38
400.613	351.38
400.837	334.38
401.062	337.38
401.286	307.38
401.51	314.38
401.734	333.38
401.958	333.38
402.182	322.38
402.406	324.38
402.63	339.38
402.854	332.38
403.078	315.38
403.302	328.38
403.526	335.38
403.75	316.38
403.974	344.38
404.198	321.38
404.422	337.38
404.645	315.38
404.869	335.38
405.093	374.38
405.317	377.38
405.541	400.38
405.765	359.38
405.988	348.38
406.212	366.38
406.436	369.38
406.66	368.38
406.883	377.38
407.107	396.38
407.331	399.38
407.555	434.38
407.778	419.38
408.002	392.38
408.226	375.38
408.449	355.38
408.673	366.38
408.896	374.38
409.12	394.38
409.344	380.38
409.567	350.38
409.791	348.38
410.014	337.38
410.238	330.38
410.461	340.38
410.685	344.38
410.908	328.38
411.132	368.38
411.355	382.38
411.578	377.38
411.802	349.38
412.025	347.38
412.249	360.38
412.472	349.38
412.695	380.38
412.919	354.38
413.142	322.38
413.365	328.38
413.589	323.38
413.812	310.38
414.035	334.38
414.258	312.38
414.482	323.38
414.705	335.38
414.928	329.38
415.151	304.38
415.374	323.38
415.597	328.38
415.821	314.38
416.044	310.38
416.267	317.38
416.49	304.38
416.713	308.38
416.936	306.38
417.159	309.38
417.382	325.38
417.605	323.38
417.828	306.38
418.051	332.38
418.274	327.38
418.497	308.38
418.72	330.38
418.943	319.38
419.166	329.38
419.389	327.38
419.611	336.38
419.834	317.38
420.057	339.38
420.28	344.38
420.503	334.38
420.726	331.38
420.948	341.38
421.171	374.38
421.394	390.38
421.617	344.38
421.839	337.38
422.062	331.38
422.285	343.38
422.507	383.38
422.73	425.38
422.953	411.38
423.175	373.38
423.398	349.38
423.621	345.38
423.843	368.38
424.066	360.38
424.288	336.38
424.511	362.38
424.733	413.38
424.956	448.38
425.178	460.38
425.401	441.38
425.623	461.38
425.846	389.38
426.068	376.38
426.291	341.38
426.513	355.38
426.735	361.38
426.958	385.38
427.18	456.38
427.402	548.38
427.625	593.38
427.847	532.38
428.069	447.38
428.292	385.38
428.514	347.38
428.736	346.38
428.958	374.38
429.181	329.38
429.403	318.38
429.625	346.38
429.847	378.38
430.069	410.38
430.292	390.38
430.514	347.38
430.736	328.38
430.958	334.38
431.18	300.38
431.402	324.38
431.624	315.38
431.846	304.38
432.068	317.38
432.29	317.38
432.512	316.38
432.734	340.38
432.956	319.38
433.178	320.38
433.4	322.38
433.622	300.38
433.844	306.38
434.066	308.38
434.287	315.38
434.509	321.38
434.731	330.38
434.953	328.38
435.175	334.38
435.397	356.38
435.618	356.38
435.84	381.38
436.062	477.38
436.284	490.38
436.505	399.38
436.727	380.38
436.949	340.38
437.17	342.38
437.392	330.38
437.614	342.38
437.835	387.38
438.057	452.38
438.278	501.38
438.5	493.38
438.721	522.38
438.943	516.38
439.165	422.38
439.386	391.38
439.608	371.38
439.829	395.38
440.05	398.38
440.272	432.38
440.493	408.38
440.715	377.38
440.936	353.38
441.158	361.38
441.379	344.38
441.6	345.38
441.822	379.38
442.043	406.38
442.264	473.38
442.486	465.38
442.707	413.38
442.928	369.38
443.149	365.38
443.371	382.38
443.592	440.38
443.813	496.38
444.034	499.38
444.255	422.38
444.476	396.38
444.698	344.38
444.919	363.38
445.14	455.38
445.361	412.38
445.582	394.38
445.803	457.38
446.024	516.38
446.245	508.38
446.466	460.38
446.687	390.38
446.908	378.38
447.129	352.38
447.35	346.38
447.571	329.38
447.792	336.38
448.013	355.38
448.234	348.38
448.455	404.38
448.675	467.38
448.896	534.38
449.117	464.38
449.338	444.38
449.559	510.38
449.779	538.38
450	446.38
450.221	365.38
450.442	356.38
450.662	342.38
450.883	346.38
451.104	356.38
451.324	328.38
451.545	329.38
451.766	322.38
451.986	306.38
452.207	319.38
452.428	311.38
452.648	291.38
452.869	290.38
453.089	327.38
453.31	314.38
453.53	320.38
453.751	309.38
453.971	316.38
454.192	320.38
454.412	310.38
454.633	317.38
454.853	308.38
455.073	293.38
455.294	304.38
455.514	366.38
455.734	342.38
455.955	297.38
456.175	292.38
456.395	282.38
456.616	294.38
456.836	299.38
457.056	288.38
457.276	265.38
457.497	276.38
457.717	290.38
457.937	308.38
458.157	285.38
458.377	291.38
458.598	320.38
458.818	370.38
459.038	436.38
459.258	430.38
459.478	358.38
459.698	329.38
459.918	318.38
460.138	310.38
460.358	322.38
460.578	313.38
460.798	313.38
461.018	300.38
461.238	323.38
461.458	314.38
461.678	306.38
461.898	301.38
462.118	296.38
462.338	313.38
462.558	304.38
462.777	331.38
462.997	320.38
463.217	323.38
463.437	331.38
463.657	305.38
463.876	328.38
464.096	319.38
464.316	324.38
464.536	324.38
464.755	313.38
464.975	331.38
465.195	357.38
465.414	416.38
465.634	376.38
465.854	369.38
466.073	330.38
466.293	316.38
466.512	320.38
466.732	304.38
466.951	295.38
467.171	304.38
467.391	315.38
467.61	324.38
467.829	319.38
468.049	318.38
468.268	324.38
468.488	304.38
468.707	285.38
468.927	316.38
469.146	306.38
469.365	300.38
469.585	284.38
469.804	309.38
470.023	318.38
470.243	298.38
470.462	306.38
470.681	325.38
470.901	314.38
471.12	308.38
471.339	304.38
471.558	320.38
471.777	311.38
471.997	294.38
472.216	320.38
472.435	317.38
472.654	330.38
472.873	314.38
473.092	313.38
473.311	306.38
473.53	316.38
473.749	311.38
473.968	364.38
474.187	436.38
474.406	437.38
474.625	363.38
474.844	323.38
475.063	309.38
475.282	313.38
475.501	310.38
475.72	326.38
475.939	336.38
476.158	313.38
476.377	336.38
476.596	309.38
476.814	329.38
477.033	338.38
477.252	324.38
477.471	317.38
477.69	337.38
477.908	339.38
478.127	335.38
478.346	316.38
478.564	349.38
478.783	337.38
479.002	337.38
479.22	348.38
479.439	359.38
479.658	359.38
479.876	357.38
480.095	365.38
480.313	386.38
480.532	380.38
480.751	372.38
480.969	410.38
481.188	418.38
481.406	429.38
481.624	392.38
481.843	380.38
482.061	376.38
482.28	357.38
482.498	364.38
482.717	361.38
482.935	349.38
483.153	350.38
483.372	351.38
483.59	362.38
483.808	355.38
484.027	356.38
484.245	356.38
484.463	357.38
484.681	353.38
484.9	378.38
485.118	355.38
485.336	363.38
485.554	371.38
485.772	346.38
485.99	373.38
486.209	365.38
486.427	366.38
486.645	376.38
486.863	417.38
487.081	388.38
487.299	379.38
487.517	380.38
487.735	385.38
487.953	376.38
488.171	371.38
488.389	380.38
488.607	372.38
488.825	365.38
489.043	394.38
489.261	387.38
489.479	394.38
489.696	387.38
489.914	404.38
490.132	396.38
490.35	412.38
490.568	404.38
490.786	387.38
491.003	410.38
491.221	427.38
491.439	438.38
491.657	432.38
491.874	434.38
492.092	456.38
492.31	456.38
492.527	427.38
492.745	452.38
492.963	436.38
493.18	456.38
493.398	460.38
493.615	453.38
493.833	439.38
494.05	451.38
494.268	451.38
494.485	430.38
494.703	438.38
494.92	444.38
495.138	442.38
495.355	452.38
495.573	450.38
495.79	448.38
496.008	453.38
496.225	441.38
496.442	459.38
496.66	450.38
496.877	438.38
497.094	454.38
497.312	436.38
497.529	475.38
497.746	472.38
497.963	488.38
498.181	476.38
498.398	485.38
498.615	479.38
498.832	476.38
499.049	491.38
499.267	488.38
499.484	498.38
499.701	493.38
499.918	533.38
500.135	530.38
500.352	559.38
500.569	564.38
500.786	579.38
501.003	553.38
501.22	550.38
501.437	530.38
501.654	551.38
501.871	541.38
502.088	517.38
