Data from 1982.PennyLincolnUp.Lamp.En5.5.200Scan.071819.P1_HRD10591_16-47-37-962.txt Node
Date: Thu Jul 18 16:47:37 EDT 2019
User: cochatt
Spectrometer: HR+D1059
Trigger mode: 1
Integration Time (sec): 1.000000E-1
Scans to average: 1
Electric dark correction enabled: true
Nonlinearity correction enabled: false
Boxcar width: 0
XAxis mode: Wavelengths
Number of Pixels in Spectrum: 2048
>>>>>Begin Spectral Data<<<<<
223.165	-13.12
223.4	-13.12
223.635	-13.12
223.869	-25.12
224.104	-24.12
224.338	-10.12
224.573	-16.12
224.808	-15.12
225.042	-8.12
225.277	0.88
225.511	9.88
225.746	-4.12
225.98	10.88
226.215	8.88
226.449	12.88
226.683	25.88
226.918	14.88
227.152	31.88
227.387	44.88
227.621	35.88
227.856	50.88
228.09	52.88
228.324	54.88
228.559	67.88
228.793	72.88
229.027	80.88
229.262	98.88
229.496	97.88
229.73	109.88
229.964	136.88
230.199	101.88
230.433	103.88
230.667	112.88
230.901	90.88
231.136	106.88
231.37	108.88
231.604	103.88
231.838	99.88
232.072	95.88
232.306	109.88
232.541	100.88
232.775	108.88
233.009	106.88
233.243	106.88
233.477	95.88
233.711	96.88
233.945	114.88
234.179	111.88
234.413	126.88
234.647	105.88
234.881	104.88
235.115	104.88
235.349	115.88
235.583	104.88
235.817	108.88
236.051	118.88
236.285	120.88
236.519	118.88
236.753	118.88
236.987	130.88
237.221	145.88
237.455	187.88
237.689	144.88
237.922	126.88
238.156	120.88
238.39	117.88
238.624	119.88
238.858	100.88
239.091	120.88
239.325	128.88
239.559	125.88
239.793	110.88
240.027	120.88
240.26	128.88
240.494	140.88
240.728	126.88
240.961	129.88
241.195	126.88
241.429	132.88
241.662	105.88
241.896	116.88
242.13	118.88
242.363	96.88
242.597	106.88
242.83	124.88
243.064	122.88
243.298	125.88
243.531	130.88
243.765	126.88
243.998	132.88
244.232	119.88
244.465	122.88
244.699	108.88
244.932	122.88
245.166	133.88
245.399	130.88
245.633	127.88
245.866	120.88
246.099	127.88
246.333	133.88
246.566	114.88
246.8	131.88
247.033	128.88
247.266	124.88
247.5	136.88
247.733	134.88
247.966	149.88
248.2	158.88
248.433	138.88
248.666	136.88
248.899	160.88
249.133	156.88
249.366	163.88
249.599	173.88
249.832	165.88
250.066	162.88
250.299	162.88
250.532	148.88
250.765	173.88
250.998	186.88
251.231	190.88
251.465	186.88
251.698	153.88
251.931	154.88
252.164	167.88
252.397	162.88
252.63	170.88
252.863	181.88
253.096	171.88
253.329	186.88
253.562	213.88
253.795	183.88
254.028	193.88
254.261	176.88
254.494	191.88
254.727	221.88
254.96	243.88
255.193	212.88
255.426	186.88
255.659	187.88
255.892	189.88
256.124	182.88
256.357	190.88
256.59	164.88
256.823	176.88
257.056	155.88
257.289	186.88
257.521	162.88
257.754	170.88
257.987	164.88
258.22	191.88
258.452	154.88
258.685	171.88
258.918	182.88
259.151	152.88
259.383	181.88
259.616	192.88
259.849	195.88
260.081	188.88
260.314	205.88
260.547	197.88
260.779	208.88
261.012	199.88
261.244	173.88
261.477	188.88
261.71	187.88
261.942	181.88
262.175	193.88
262.407	175.88
262.64	174.88
262.872	182.88
263.105	187.88
263.337	164.88
263.57	178.88
263.802	181.88
264.035	159.88
264.267	165.88
264.499	173.88
264.732	177.88
264.964	174.88
265.197	164.88
265.429	179.88
265.661	182.88
265.894	179.88
266.126	173.88
266.358	168.88
266.591	180.88
266.823	163.88
267.055	191.88
267.287	175.88
267.52	176.88
267.752	187.88
267.984	186.88
268.216	177.88
268.448	194.88
268.681	180.88
268.913	198.88
269.145	215.88
269.377	231.88
269.609	221.88
269.841	226.88
270.073	214.88
270.306	237.88
270.538	253.88
270.77	251.88
271.002	239.88
271.234	232.88
271.466	252.88
271.698	260.88
271.93	241.88
272.162	245.88
272.394	228.88
272.626	242.88
272.858	233.88
273.09	217.88
273.322	216.88
273.553	203.88
273.785	227.88
274.017	213.88
274.249	226.88
274.481	215.88
274.713	206.88
274.945	200.88
275.176	218.88
275.408	217.88
275.64	223.88
275.872	200.88
276.104	210.88
276.335	220.88
276.567	221.88
276.799	243.88
277.031	266.88
277.262	261.88
277.494	254.88
277.726	246.88
277.957	238.88
278.189	218.88
278.421	213.88
278.652	215.88
278.884	214.88
279.115	218.88
279.347	205.88
279.579	211.88
279.81	213.88
280.042	203.88
280.273	214.88
280.505	205.88
280.736	214.88
280.968	199.88
281.199	189.88
281.431	204.88
281.662	195.88
281.894	211.88
282.125	227.88
282.356	231.88
282.588	233.88
282.819	252.88
283.051	216.88
283.282	210.88
283.513	218.88
283.745	222.88
283.976	218.88
284.207	228.88
284.439	228.88
284.67	215.88
284.901	235.88
285.132	207.88
285.364	209.88
285.595	214.88
285.826	219.88
286.057	220.88
286.288	215.88
286.52	218.88
286.751	223.88
286.982	210.88
287.213	232.88
287.444	229.88
287.675	238.88
287.906	232.88
288.138	228.88
288.369	231.88
288.6	234.88
288.831	237.88
289.062	236.88
289.293	227.88
289.524	230.88
289.755	218.88
289.986	234.88
290.217	227.88
290.448	223.88
290.679	239.88
290.91	231.88
291.141	221.88
291.371	226.88
291.602	226.88
291.833	212.88
292.064	216.88
292.295	235.88
292.526	218.88
292.757	216.88
292.987	222.88
293.218	205.88
293.449	209.88
293.68	224.88
293.91	207.88
294.141	236.88
294.372	215.88
294.603	242.88
294.833	201.88
295.064	232.88
295.295	240.88
295.525	223.88
295.756	223.88
295.987	235.88
296.217	244.88
296.448	276.88
296.679	246.88
296.909	231.88
297.14	245.88
297.37	244.88
297.601	227.88
297.831	231.88
298.062	236.88
298.292	233.88
298.523	221.88
298.753	244.88
298.984	232.88
299.214	239.88
299.445	243.88
299.675	234.88
299.905	230.88
300.136	231.88
300.366	228.88
300.597	242.88
300.827	247.88
301.057	246.88
301.288	254.88
301.518	258.88
301.748	252.88
301.979	244.88
302.209	249.88
302.439	242.88
302.669	252.88
302.9	262.88
303.13	230.88
303.36	242.88
303.59	249.88
303.82	251.88
304.051	258.88
304.281	258.88
304.511	244.88
304.741	272.88
304.971	246.88
305.201	234.88
305.431	264.88
305.661	242.88
305.891	263.88
306.121	239.88
306.352	238.88
306.582	263.88
306.812	247.88
307.042	254.88
307.272	246.88
307.502	255.88
307.731	248.88
307.961	246.88
308.191	258.88
308.421	267.88
308.651	259.88
308.881	279.88
309.111	260.88
309.341	269.88
309.571	278.88
309.8	269.88
310.03	292.88
310.26	286.88
310.49	291.88
310.72	294.88
310.949	312.88
311.179	308.88
311.409	302.88
311.639	302.88
311.868	294.88
312.098	310.88
312.328	327.88
312.557	329.88
312.787	330.88
313.017	315.88
313.246	309.88
313.476	270.88
313.706	295.88
313.935	304.88
314.165	301.88
314.394	314.88
314.624	317.88
314.853	297.88
315.083	283.88
315.312	303.88
315.542	286.88
315.771	298.88
316.001	299.88
316.23	296.88
316.46	287.88
316.689	281.88
316.919	286.88
317.148	299.88
317.377	299.88
317.607	286.88
317.836	294.88
318.065	296.88
318.295	283.88
318.524	296.88
318.753	290.88
318.983	284.88
319.212	299.88
319.441	319.88
319.67	325.88
319.9	285.88
320.129	274.88
320.358	297.88
320.587	298.88
320.816	289.88
321.046	315.88
321.275	316.88
321.504	331.88
321.733	311.88
321.962	317.88
322.191	327.88
322.42	344.88
322.649	354.88
322.878	363.88
323.108	371.88
323.337	399.88
323.566	410.88
323.795	459.88
324.024	480.88
324.253	625.88
324.482	904.88
324.71	1381.88
324.939	1809.88
325.168	1474.88
325.397	764.88
325.626	528.88
325.855	452.88
326.084	415.88
326.313	403.88
326.542	413.88
326.77	460.88
326.999	561.88
327.228	778.88
327.457	1195.88
327.686	1307.88
327.914	852.88
328.143	598.88
328.372	516.88
328.6	503.88
328.829	476.88
329.058	468.88
329.287	466.88
329.515	462.88
329.744	414.88
329.972	398.88
330.201	434.88
330.43	462.88
330.658	479.88
330.887	462.88
331.115	470.88
331.344	417.88
331.572	386.88
331.801	386.88
332.03	387.88
332.258	352.88
332.486	348.88
332.715	354.88
332.943	340.88
333.172	348.88
333.4	345.88
333.629	359.88
333.857	363.88
334.085	376.88
334.314	396.88
334.542	419.88
334.771	418.88
334.999	382.88
335.227	368.88
335.455	353.88
335.684	317.88
335.912	316.88
336.14	325.88
336.369	316.88
336.597	335.88
336.825	351.88
337.053	348.88
337.281	341.88
337.51	320.88
337.738	342.88
337.966	340.88
338.194	332.88
338.422	338.88
338.65	319.88
338.878	333.88
339.106	326.88
339.334	299.88
339.562	322.88
339.79	326.88
340.018	327.88
340.246	313.88
340.474	315.88
340.702	326.88
340.93	332.88
341.158	330.88
341.386	327.88
341.614	313.88
341.842	336.88
342.07	307.88
342.298	327.88
342.526	328.88
342.754	325.88
342.981	318.88
343.209	310.88
343.437	299.88
343.665	320.88
343.893	301.88
344.12	320.88
344.348	319.88
344.576	318.88
344.804	318.88
345.031	330.88
345.259	350.88
345.487	318.88
345.714	317.88
345.942	305.88
346.17	319.88
346.397	293.88
346.625	314.88
346.853	319.88
347.08	314.88
347.308	309.88
347.535	316.88
347.763	327.88
347.99	328.88
348.218	328.88
348.445	323.88
348.673	327.88
348.9	291.88
349.128	303.88
349.355	292.88
349.583	287.88
349.81	312.88
350.037	314.88
350.265	291.88
350.492	290.88
350.72	312.88
350.947	325.88
351.174	303.88
351.402	312.88
351.629	316.88
351.856	328.88
352.083	316.88
352.311	312.88
352.538	327.88
352.765	325.88
352.992	321.88
353.22	312.88
353.447	324.88
353.674	299.88
353.901	304.88
354.128	282.88
354.355	294.88
354.583	288.88
354.81	274.88
355.037	275.88
355.264	284.88
355.491	276.88
355.718	291.88
355.945	281.88
356.172	247.88
356.399	285.88
356.626	272.88
356.853	286.88
357.08	289.88
357.307	295.88
357.534	271.88
357.761	284.88
357.988	285.88
358.215	278.88
358.441	274.88
358.668	276.88
358.895	262.88
359.122	299.88
359.349	296.88
359.576	296.88
359.802	325.88
360.029	335.88
360.256	364.88
360.483	333.88
360.709	310.88
360.936	295.88
361.163	327.88
361.39	286.88
361.616	310.88
361.843	288.88
362.07	309.88
362.296	304.88
362.523	311.88
362.749	289.88
362.976	318.88
363.203	302.88
363.429	292.88
363.656	286.88
363.882	305.88
364.109	272.88
364.335	274.88
364.562	292.88
364.788	277.88
365.015	278.88
365.241	280.88
365.468	284.88
365.694	299.88
365.92	305.88
366.147	282.88
366.373	266.88
366.599	288.88
366.826	286.88
367.052	288.88
367.278	278.88
367.505	280.88
367.731	293.88
367.957	275.88
368.184	282.88
368.41	278.88
368.636	307.88
368.862	293.88
369.089	285.88
369.315	278.88
369.541	279.88
369.767	279.88
369.993	304.88
370.219	275.88
370.445	283.88
370.672	293.88
370.898	282.88
371.124	275.88
371.35	269.88
371.576	263.88
371.802	255.88
372.028	272.88
372.254	270.88
372.48	285.88
372.706	283.88
372.932	275.88
373.158	273.88
373.384	271.88
373.61	261.88
373.835	274.88
374.061	283.88
374.287	278.88
374.513	290.88
374.739	276.88
374.965	269.88
375.191	272.88
375.416	292.88
375.642	279.88
375.868	296.88
376.094	281.88
376.319	269.88
376.545	284.88
376.771	280.88
376.997	277.88
377.222	264.88
377.448	273.88
377.674	267.88
377.899	276.88
378.125	265.88
378.35	268.88
378.576	268.88
378.802	284.88
379.027	265.88
379.253	272.88
379.478	276.88
379.704	270.88
379.929	276.88
380.155	291.88
380.38	274.88
380.606	271.88
380.831	226.88
381.057	255.88
381.282	282.88
381.507	256.88
381.733	274.88
381.958	260.88
382.184	265.88
382.409	274.88
382.634	271.88
382.86	287.88
383.085	280.88
383.31	252.88
383.535	248.88
383.761	287.88
383.986	275.88
384.211	272.88
384.436	286.88
384.662	272.88
384.887	269.88
385.112	274.88
385.337	271.88
385.562	297.88
385.787	272.88
386.013	290.88
386.238	282.88
386.463	295.88
386.688	295.88
386.913	295.88
387.138	290.88
387.363	263.88
387.588	278.88
387.813	270.88
388.038	277.88
388.263	296.88
388.488	283.88
388.713	281.88
388.938	300.88
389.163	288.88
389.387	280.88
389.612	284.88
389.837	294.88
390.062	286.88
390.287	282.88
390.512	290.88
390.736	265.88
390.961	272.88
391.186	271.88
391.411	272.88
391.636	289.88
391.86	267.88
392.085	282.88
392.31	312.88
392.534	286.88
392.759	286.88
392.984	287.88
393.208	298.88
393.433	301.88
393.658	263.88
393.882	279.88
394.107	291.88
394.331	279.88
394.556	270.88
394.78	287.88
395.005	285.88
395.229	272.88
395.454	290.88
395.678	310.88
395.903	278.88
396.127	312.88
396.352	308.88
396.576	276.88
396.801	281.88
397.025	267.88
397.249	310.88
397.474	301.88
397.698	280.88
397.922	306.88
398.147	293.88
398.371	306.88
398.595	322.88
398.82	302.88
399.044	318.88
399.268	317.88
399.492	322.88
399.717	329.88
399.941	355.88
400.165	368.88
400.389	371.88
400.613	344.88
400.837	330.88
401.062	321.88
401.286	313.88
401.51	332.88
401.734	330.88
401.958	317.88
402.182	334.88
402.406	332.88
402.63	332.88
402.854	298.88
403.078	318.88
403.302	325.88
403.526	341.88
403.75	305.88
403.974	333.88
404.198	326.88
404.422	325.88
404.645	330.88
404.869	344.88
405.093	354.88
405.317	347.88
405.541	388.88
405.765	360.88
405.988	361.88
406.212	366.88
406.436	353.88
406.66	360.88
406.883	354.88
407.107	366.88
407.331	389.88
407.555	408.88
407.778	419.88
408.002	386.88
408.226	365.88
408.449	357.88
408.673	358.88
408.896	382.88
409.12	384.88
409.344	393.88
409.567	347.88
409.791	312.88
410.014	309.88
410.238	333.88
410.461	320.88
410.685	327.88
410.908	343.88
411.132	380.88
411.355	375.88
411.578	370.88
411.802	315.88
412.025	325.88
412.249	331.88
412.472	347.88
412.695	357.88
412.919	354.88
413.142	334.88
413.365	313.88
413.589	308.88
413.812	291.88
414.035	300.88
414.258	310.88
414.482	297.88
414.705	290.88
414.928	299.88
415.151	316.88
415.374	296.88
415.597	286.88
415.821	320.88
416.044	311.88
416.267	319.88
416.49	303.88
416.713	292.88
416.936	326.88
417.159	302.88
417.382	303.88
417.605	292.88
417.828	337.88
418.051	319.88
418.274	327.88
418.497	318.88
418.72	308.88
418.943	296.88
419.166	320.88
419.389	333.88
419.611	322.88
419.834	318.88
420.057	316.88
420.28	313.88
420.503	308.88
420.726	306.88
420.948	333.88
421.171	373.88
421.394	370.88
421.617	342.88
421.839	313.88
422.062	330.88
422.285	350.88
422.507	365.88
422.73	416.88
422.953	391.88
423.175	348.88
423.398	343.88
423.621	324.88
423.843	346.88
424.066	354.88
424.288	369.88
424.511	346.88
424.733	412.88
424.956	438.88
425.178	442.88
425.401	403.88
425.623	415.88
425.846	386.88
426.068	363.88
426.291	359.88
426.513	357.88
426.735	371.88
426.958	418.88
427.18	416.88
427.402	508.88
427.625	585.88
427.847	499.88
428.069	440.88
428.292	368.88
428.514	359.88
428.736	342.88
428.958	337.88
429.181	329.88
429.403	336.88
429.625	332.88
429.847	373.88
430.069	383.88
430.292	396.88
430.514	350.88
430.736	330.88
430.958	324.88
431.18	309.88
431.402	286.88
431.624	308.88
431.846	307.88
432.068	302.88
432.29	312.88
432.512	303.88
432.734	298.88
432.956	312.88
433.178	334.88
433.4	336.88
433.622	306.88
433.844	308.88
434.066	310.88
434.287	304.88
434.509	313.88
434.731	315.88
434.953	327.88
435.175	331.88
435.397	336.88
435.618	361.88
435.84	393.88
436.062	436.88
436.284	473.88
436.505	410.88
436.727	367.88
436.949	332.88
437.17	343.88
437.392	331.88
437.614	351.88
437.835	375.88
438.057	432.88
438.278	501.88
438.5	494.88
438.721	535.88
438.943	501.88
439.165	410.88
439.386	355.88
439.608	356.88
439.829	379.88
440.05	384.88
440.272	409.88
440.493	369.88
440.715	351.88
440.936	330.88
441.158	331.88
441.379	350.88
441.6	358.88
441.822	362.88
442.043	384.88
442.264	438.88
442.486	453.88
442.707	388.88
442.928	362.88
443.149	356.88
443.371	387.88
443.592	414.88
443.813	474.88
444.034	477.88
444.255	407.88
444.476	363.88
444.698	347.88
444.919	334.88
445.14	440.88
445.361	450.88
445.582	401.88
445.803	419.88
446.024	501.88
446.245	498.88
446.466	464.88
446.687	401.88
446.908	349.88
447.129	350.88
447.35	328.88
447.571	320.88
447.792	320.88
448.013	320.88
448.234	329.88
448.455	403.88
448.675	461.88
448.896	503.88
449.117	428.88
449.338	413.88
449.559	494.88
449.779	527.88
450	417.88
450.221	386.88
450.442	332.88
450.662	322.88
450.883	345.88
451.104	324.88
451.324	322.88
451.545	325.88
451.766	318.88
451.986	291.88
452.207	295.88
452.428	298.88
452.648	303.88
452.869	292.88
453.089	298.88
453.31	309.88
453.53	296.88
453.751	275.88
453.971	295.88
454.192	324.88
454.412	299.88
454.633	287.88
454.853	299.88
455.073	293.88
455.294	322.88
455.514	359.88
455.734	360.88
455.955	284.88
456.175	290.88
456.395	301.88
456.616	267.88
456.836	281.88
457.056	264.88
457.276	286.88
457.497	266.88
457.717	264.88
457.937	274.88
458.157	295.88
458.377	282.88
458.598	301.88
458.818	373.88
459.038	398.88
459.258	397.88
459.478	348.88
459.698	318.88
459.918	285.88
460.138	289.88
460.358	286.88
460.578	296.88
460.798	304.88
461.018	301.88
461.238	306.88
461.458	300.88
461.678	296.88
461.898	282.88
462.118	301.88
462.338	307.88
462.558	287.88
462.777	298.88
462.997	318.88
463.217	311.88
463.437	308.88
463.657	303.88
463.876	301.88
464.096	320.88
464.316	298.88
464.536	288.88
464.755	326.88
464.975	320.88
465.195	357.88
465.414	406.88
465.634	373.88
465.854	321.88
466.073	317.88
466.293	300.88
466.512	287.88
466.732	314.88
466.951	300.88
467.171	293.88
467.391	293.88
467.61	312.88
467.829	308.88
468.049	303.88
468.268	322.88
468.488	299.88
468.707	292.88
468.927	284.88
469.146	272.88
469.365	303.88
469.585	320.88
469.804	285.88
470.023	287.88
470.243	285.88
470.462	309.88
470.681	301.88
470.901	291.88
471.12	317.88
471.339	296.88
471.558	315.88
471.777	306.88
471.997	290.88
472.216	296.88
472.435	329.88
472.654	308.88
472.873	315.88
473.092	311.88
473.311	300.88
473.53	306.88
473.749	308.88
473.968	344.88
474.187	437.88
474.406	427.88
474.625	347.88
474.844	320.88
475.063	293.88
475.282	286.88
475.501	303.88
475.72	310.88
475.939	306.88
476.158	310.88
476.377	294.88
476.596	299.88
476.814	326.88
477.033	322.88
477.252	316.88
477.471	329.88
477.69	308.88
477.908	328.88
478.127	333.88
478.346	330.88
478.564	327.88
478.783	310.88
479.002	323.88
479.22	331.88
479.439	343.88
479.658	349.88
479.876	371.88
480.095	374.88
480.313	379.88
480.532	379.88
480.751	365.88
480.969	382.88
481.188	399.88
481.406	448.88
481.624	404.88
481.843	371.88
482.061	353.88
482.28	352.88
482.498	350.88
482.717	340.88
482.935	356.88
483.153	331.88
483.372	331.88
483.59	356.88
483.808	349.88
484.027	332.88
484.245	349.88
484.463	359.88
484.681	349.88
484.9	344.88
485.118	363.88
485.336	340.88
485.554	369.88
485.772	360.88
485.99	377.88
486.209	357.88
486.427	351.88
486.645	357.88
486.863	377.88
487.081	386.88
487.299	381.88
487.517	388.88
487.735	356.88
487.953	375.88
488.171	344.88
488.389	343.88
488.607	380.88
488.825	364.88
489.043	365.88
489.261	376.88
489.479	388.88
489.696	395.88
489.914	385.88
490.132	384.88
490.35	388.88
490.568	398.88
490.786	372.88
491.003	385.88
491.221	410.88
491.439	411.88
491.657	421.88
491.874	418.88
492.092	414.88
492.31	436.88
492.527	422.88
492.745	424.88
492.963	421.88
493.18	436.88
493.398	448.88
493.615	440.88
493.833	419.88
494.05	438.88
494.268	410.88
494.485	436.88
494.703	441.88
494.92	427.88
495.138	435.88
495.355	443.88
495.573	459.88
495.79	449.88
496.008	418.88
496.225	445.88
496.442	428.88
496.66	442.88
496.877	424.88
497.094	435.88
497.312	436.88
497.529	433.88
497.746	453.88
497.963	462.88
498.181	468.88
498.398	477.88
498.615	492.88
498.832	474.88
499.049	495.88
499.267	461.88
499.484	481.88
499.701	503.88
499.918	522.88
500.135	521.88
500.352	525.88
500.569	546.88
500.786	536.88
501.003	544.88
501.22	522.88
501.437	535.88
501.654	512.88
501.871	527.88
502.088	517.88
