Data from 1982.PennyLincolnUp.Lamp.En5.5.200Scan.071819.P1_HRD10591_16-46-33-961.txt Node
Date: Thu Jul 18 16:46:33 EDT 2019
User: cochatt
Spectrometer: HR+D1059
Trigger mode: 1
Integration Time (sec): 1.000000E-1
Scans to average: 1
Electric dark correction enabled: true
Nonlinearity correction enabled: false
Boxcar width: 0
XAxis mode: Wavelengths
Number of Pixels in Spectrum: 2048
>>>>>Begin Spectral Data<<<<<
223.165	-14.31
223.4	-14.31
223.635	-14.31
223.869	-23.31
224.104	-21.31
224.338	-1.31
224.573	-17.31
224.808	-4.31
225.042	1.69
225.277	-6.31
225.511	-8.31
225.746	-1.31
225.98	3.69
226.215	11.69
226.449	14.69
226.683	12.69
226.918	19.69
227.152	33.69
227.387	25.69
227.621	34.69
227.856	49.69
228.09	41.69
228.324	50.69
228.559	63.69
228.793	68.69
229.027	90.69
229.262	94.69
229.496	92.69
229.73	117.69
229.964	125.69
230.199	129.69
230.433	103.69
230.667	97.69
230.901	104.69
231.136	96.69
231.37	113.69
231.604	110.69
231.838	104.69
232.072	87.69
232.306	100.69
232.541	115.69
232.775	98.69
233.009	103.69
233.243	101.69
233.477	101.69
233.711	109.69
233.945	103.69
234.179	99.69
234.413	92.69
234.647	87.69
234.881	106.69
235.115	108.69
235.349	102.69
235.583	115.69
235.817	109.69
236.051	126.69
236.285	131.69
236.519	107.69
236.753	116.69
236.987	119.69
237.221	150.69
237.455	173.69
237.689	137.69
237.922	123.69
238.156	120.69
238.39	116.69
238.624	114.69
238.858	126.69
239.091	118.69
239.325	95.69
239.559	110.69
239.793	119.69
240.027	121.69
240.26	123.69
240.494	144.69
240.728	131.69
240.961	117.69
241.195	129.69
241.429	110.69
241.662	119.69
241.896	122.69
242.13	95.69
242.363	103.69
242.597	113.69
242.83	91.69
243.064	120.69
243.298	121.69
243.531	101.69
243.765	121.69
243.998	129.69
244.232	116.69
244.465	120.69
244.699	120.69
244.932	122.69
245.166	118.69
245.399	100.69
245.633	121.69
245.866	121.69
246.099	118.69
246.333	123.69
246.566	129.69
246.8	120.69
247.033	133.69
247.266	131.69
247.5	128.69
247.733	132.69
247.966	139.69
248.2	136.69
248.433	130.69
248.666	142.69
248.899	142.69
249.133	157.69
249.366	174.69
249.599	163.69
249.832	156.69
250.066	135.69
250.299	144.69
250.532	150.69
250.765	167.69
250.998	180.69
251.231	171.69
251.465	179.69
251.698	149.69
251.931	152.69
252.164	167.69
252.397	159.69
252.63	161.69
252.863	169.69
253.096	177.69
253.329	178.69
253.562	171.69
253.795	179.69
254.028	195.69
254.261	166.69
254.494	177.69
254.727	195.69
254.96	212.69
255.193	193.69
255.426	195.69
255.659	190.69
255.892	186.69
256.124	193.69
256.357	187.69
256.59	178.69
256.823	181.69
257.056	175.69
257.289	171.69
257.521	158.69
257.754	181.69
257.987	164.69
258.22	183.69
258.452	175.69
258.685	185.69
258.918	178.69
259.151	163.69
259.383	181.69
259.616	175.69
259.849	177.69
260.081	181.69
260.314	197.69
260.547	216.69
260.779	199.69
261.012	185.69
261.244	171.69
261.477	172.69
261.71	179.69
261.942	187.69
262.175	185.69
262.407	171.69
262.64	184.69
262.872	169.69
263.105	165.69
263.337	162.69
263.57	165.69
263.802	154.69
264.035	162.69
264.267	166.69
264.499	164.69
264.732	173.69
264.964	175.69
265.197	165.69
265.429	164.69
265.661	163.69
265.894	157.69
266.126	175.69
266.358	149.69
266.591	171.69
266.823	168.69
267.055	174.69
267.287	182.69
267.52	184.69
267.752	180.69
267.984	201.69
268.216	184.69
268.448	181.69
268.681	182.69
268.913	194.69
269.145	190.69
269.377	210.69
269.609	199.69
269.841	212.69
270.073	223.69
270.306	251.69
270.538	232.69
270.77	234.69
271.002	242.69
271.234	234.69
271.466	246.69
271.698	236.69
271.93	246.69
272.162	255.69
272.394	245.69
272.626	221.69
272.858	233.69
273.09	222.69
273.322	202.69
273.553	198.69
273.785	215.69
274.017	207.69
274.249	204.69
274.481	217.69
274.713	201.69
274.945	223.69
275.176	220.69
275.408	205.69
275.64	210.69
275.872	213.69
276.104	205.69
276.335	203.69
276.567	232.69
276.799	225.69
277.031	262.69
277.262	247.69
277.494	268.69
277.726	225.69
277.957	230.69
278.189	222.69
278.421	209.69
278.652	214.69
278.884	215.69
279.115	210.69
279.347	213.69
279.579	220.69
279.81	194.69
280.042	201.69
280.273	195.69
280.505	204.69
280.736	214.69
280.968	221.69
281.199	187.69
281.431	187.69
281.662	208.69
281.894	202.69
282.125	214.69
282.356	244.69
282.588	229.69
282.819	221.69
283.051	211.69
283.282	207.69
283.513	228.69
283.745	210.69
283.976	203.69
284.207	225.69
284.439	206.69
284.67	210.69
284.901	210.69
285.132	201.69
285.364	203.69
285.595	217.69
285.826	205.69
286.057	227.69
286.288	205.69
286.52	217.69
286.751	209.69
286.982	209.69
287.213	205.69
287.444	224.69
287.675	226.69
287.906	209.69
288.138	220.69
288.369	231.69
288.6	226.69
288.831	236.69
289.062	218.69
289.293	215.69
289.524	218.69
289.755	212.69
289.986	214.69
290.217	215.69
290.448	224.69
290.679	210.69
290.91	220.69
291.141	223.69
291.371	222.69
291.602	220.69
291.833	211.69
292.064	213.69
292.295	216.69
292.526	235.69
292.757	219.69
292.987	215.69
293.218	212.69
293.449	230.69
293.68	220.69
293.91	231.69
294.141	221.69
294.372	203.69
294.603	220.69
294.833	232.69
295.064	213.69
295.295	227.69
295.525	221.69
295.756	220.69
295.987	214.69
296.217	245.69
296.448	261.69
296.679	225.69
296.909	207.69
297.14	226.69
297.37	228.69
297.601	220.69
297.831	219.69
298.062	230.69
298.292	223.69
298.523	239.69
298.753	236.69
298.984	244.69
299.214	222.69
299.445	236.69
299.675	220.69
299.905	235.69
300.136	242.69
300.366	231.69
300.597	243.69
300.827	229.69
301.057	239.69
301.288	244.69
301.518	243.69
301.748	234.69
301.979	257.69
302.209	249.69
302.439	241.69
302.669	245.69
302.9	255.69
303.13	246.69
303.36	234.69
303.59	250.69
303.82	252.69
304.051	253.69
304.281	241.69
304.511	253.69
304.741	235.69
304.971	239.69
305.201	245.69
305.431	252.69
305.661	237.69
305.891	219.69
306.121	255.69
306.352	243.69
306.582	261.69
306.812	232.69
307.042	248.69
307.272	255.69
307.502	248.69
307.731	263.69
307.961	246.69
308.191	252.69
308.421	248.69
308.651	265.69
308.881	255.69
309.111	254.69
309.341	262.69
309.571	279.69
309.8	268.69
310.03	268.69
310.26	284.69
310.49	285.69
310.72	284.69
310.949	299.69
311.179	291.69
311.409	285.69
311.639	291.69
311.868	285.69
312.098	290.69
312.328	281.69
312.557	293.69
312.787	316.69
313.017	270.69
313.246	291.69
313.476	303.69
313.706	287.69
313.935	269.69
314.165	281.69
314.394	297.69
314.624	300.69
314.853	292.69
315.083	289.69
315.312	297.69
315.542	283.69
315.771	282.69
316.001	266.69
316.23	279.69
316.46	273.69
316.689	286.69
316.919	282.69
317.148	287.69
317.377	294.69
317.607	289.69
317.836	285.69
318.065	284.69
318.295	290.69
318.524	285.69
318.753	279.69
318.983	269.69
319.212	305.69
319.441	307.69
319.67	280.69
319.9	272.69
320.129	309.69
320.358	295.69
320.587	293.69
320.816	298.69
321.046	305.69
321.275	309.69
321.504	295.69
321.733	313.69
321.962	319.69
322.191	313.69
322.42	345.69
322.649	350.69
322.878	351.69
323.108	364.69
323.337	382.69
323.566	398.69
323.795	434.69
324.024	483.69
324.253	579.69
324.482	853.69
324.71	1318.69
324.939	1715.69
325.168	1399.69
325.397	734.69
325.626	508.69
325.855	433.69
326.084	401.69
326.313	397.69
326.542	385.69
326.77	423.69
326.999	548.69
327.228	764.69
327.457	1085.69
327.686	1251.69
327.914	820.69
328.143	567.69
328.372	486.69
328.6	472.69
328.829	443.69
329.058	457.69
329.287	452.69
329.515	423.69
329.744	411.69
329.972	403.69
330.201	395.69
330.43	425.69
330.658	463.69
330.887	493.69
331.115	448.69
331.344	394.69
331.572	367.69
331.801	374.69
332.03	354.69
332.258	369.69
332.486	342.69
332.715	367.69
332.943	319.69
333.172	339.69
333.4	333.69
333.629	338.69
333.857	333.69
334.085	364.69
334.314	378.69
334.542	405.69
334.771	377.69
334.999	364.69
335.227	344.69
335.455	330.69
335.684	325.69
335.912	330.69
336.14	328.69
336.369	318.69
336.597	337.69
336.825	326.69
337.053	313.69
337.281	298.69
337.51	295.69
337.738	342.69
337.966	327.69
338.194	305.69
338.422	312.69
338.65	310.69
338.878	325.69
339.106	303.69
339.334	339.69
339.562	308.69
339.79	309.69
340.018	317.69
340.246	321.69
340.474	309.69
340.702	315.69
340.93	309.69
341.158	311.69
341.386	302.69
341.614	296.69
341.842	301.69
342.07	326.69
342.298	297.69
342.526	305.69
342.754	289.69
342.981	319.69
343.209	305.69
343.437	295.69
343.665	305.69
343.893	309.69
344.12	315.69
344.348	324.69
344.576	318.69
344.804	319.69
345.031	316.69
345.259	332.69
345.487	314.69
345.714	328.69
345.942	307.69
346.17	305.69
346.397	301.69
346.625	313.69
346.853	300.69
347.08	312.69
347.308	300.69
347.535	313.69
347.763	314.69
347.99	315.69
348.218	329.69
348.445	330.69
348.673	301.69
348.9	326.69
349.128	313.69
349.355	305.69
349.583	299.69
349.81	280.69
350.037	277.69
350.265	292.69
350.492	279.69
350.72	288.69
350.947	286.69
351.174	293.69
351.402	312.69
351.629	299.69
351.856	310.69
352.083	328.69
352.311	317.69
352.538	315.69
352.765	308.69
352.992	309.69
353.22	283.69
353.447	296.69
353.674	317.69
353.901	278.69
354.128	286.69
354.355	281.69
354.583	279.69
354.81	259.69
355.037	272.69
355.264	290.69
355.491	273.69
355.718	271.69
355.945	263.69
356.172	288.69
356.399	257.69
356.626	281.69
356.853	283.69
357.08	275.69
357.307	265.69
357.534	271.69
357.761	260.69
357.988	264.69
358.215	285.69
358.441	289.69
358.668	276.69
358.895	281.69
359.122	279.69
359.349	270.69
359.576	302.69
359.802	301.69
360.029	339.69
360.256	336.69
360.483	317.69
360.709	317.69
360.936	316.69
361.163	302.69
361.39	289.69
361.616	306.69
361.843	295.69
362.07	305.69
362.296	301.69
362.523	291.69
362.749	284.69
362.976	285.69
363.203	279.69
363.429	300.69
363.656	276.69
363.882	274.69
364.109	273.69
364.335	284.69
364.562	297.69
364.788	291.69
365.015	287.69
365.241	290.69
365.468	297.69
365.694	291.69
365.92	280.69
366.147	250.69
366.373	279.69
366.599	268.69
366.826	273.69
367.052	281.69
367.278	275.69
367.505	292.69
367.731	255.69
367.957	278.69
368.184	285.69
368.41	285.69
368.636	285.69
368.862	306.69
369.089	271.69
369.315	257.69
369.541	286.69
369.767	275.69
369.993	270.69
370.219	271.69
370.445	259.69
370.672	281.69
370.898	265.69
371.124	262.69
371.35	273.69
371.576	264.69
371.802	273.69
372.028	268.69
372.254	279.69
372.48	264.69
372.706	281.69
372.932	273.69
373.158	273.69
373.384	257.69
373.61	273.69
373.835	276.69
374.061	278.69
374.287	270.69
374.513	265.69
374.739	270.69
374.965	267.69
375.191	272.69
375.416	286.69
375.642	264.69
375.868	276.69
376.094	272.69
376.319	264.69
376.545	270.69
376.771	270.69
376.997	282.69
377.222	266.69
377.448	272.69
377.674	272.69
377.899	260.69
378.125	281.69
378.35	264.69
378.576	246.69
378.802	261.69
379.027	258.69
379.253	263.69
379.478	253.69
379.704	267.69
379.929	277.69
380.155	253.69
380.38	272.69
380.606	280.69
380.831	281.69
381.057	290.69
381.282	272.69
381.507	270.69
381.733	270.69
381.958	265.69
382.184	258.69
382.409	261.69
382.634	287.69
382.86	265.69
383.085	277.69
383.31	286.69
383.535	273.69
383.761	273.69
383.986	276.69
384.211	267.69
384.436	263.69
384.662	277.69
384.887	282.69
385.112	273.69
385.337	255.69
385.562	292.69
385.787	272.69
386.013	290.69
386.238	278.69
386.463	275.69
386.688	275.69
386.913	287.69
387.138	286.69
387.363	290.69
387.588	281.69
387.813	277.69
388.038	276.69
388.263	300.69
388.488	294.69
388.713	291.69
388.938	299.69
389.163	291.69
389.387	270.69
389.612	275.69
389.837	288.69
390.062	277.69
390.287	288.69
390.512	293.69
390.736	267.69
390.961	283.69
391.186	290.69
391.411	271.69
391.636	281.69
391.86	273.69
392.085	302.69
392.31	289.69
392.534	291.69
392.759	286.69
392.984	279.69
393.208	275.69
393.433	278.69
393.658	270.69
393.882	291.69
394.107	295.69
394.331	295.69
394.556	282.69
394.78	268.69
395.005	277.69
395.229	263.69
395.454	309.69
395.678	294.69
395.903	270.69
396.127	316.69
396.352	319.69
396.576	291.69
396.801	301.69
397.025	298.69
397.249	286.69
397.474	300.69
397.698	297.69
397.922	316.69
398.147	316.69
398.371	327.69
398.595	297.69
398.82	305.69
399.044	297.69
399.268	309.69
399.492	331.69
399.717	359.69
399.941	358.69
400.165	363.69
400.389	375.69
400.613	350.69
400.837	341.69
401.062	315.69
401.286	303.69
401.51	322.69
401.734	293.69
401.958	317.69
402.182	317.69
402.406	317.69
402.63	317.69
402.854	326.69
403.078	357.69
403.302	329.69
403.526	329.69
403.75	325.69
403.974	321.69
404.198	306.69
404.422	317.69
404.645	317.69
404.869	329.69
405.093	334.69
405.317	359.69
405.541	374.69
405.765	345.69
405.988	344.69
406.212	342.69
406.436	334.69
406.66	355.69
406.883	346.69
407.107	349.69
407.331	399.69
407.555	424.69
407.778	423.69
408.002	369.69
408.226	363.69
408.449	358.69
408.673	347.69
408.896	377.69
409.12	369.69
409.344	347.69
409.567	325.69
409.791	322.69
410.014	293.69
410.238	315.69
410.461	327.69
410.685	332.69
410.908	340.69
411.132	369.69
411.355	373.69
411.578	369.69
411.802	315.69
412.025	317.69
412.249	326.69
412.472	343.69
412.695	369.69
412.919	352.69
413.142	322.69
413.365	306.69
413.589	303.69
413.812	287.69
414.035	298.69
414.258	294.69
414.482	295.69
414.705	295.69
414.928	305.69
415.151	291.69
415.374	315.69
415.597	283.69
415.821	296.69
416.044	300.69
416.267	316.69
416.49	312.69
416.713	288.69
416.936	317.69
417.159	298.69
417.382	319.69
417.605	307.69
417.828	302.69
418.051	326.69
418.274	318.69
418.497	310.69
418.72	311.69
418.943	295.69
419.166	312.69
419.389	316.69
419.611	321.69
419.834	313.69
420.057	345.69
420.28	335.69
420.503	310.69
420.726	324.69
420.948	340.69
421.171	375.69
421.394	365.69
421.617	353.69
421.839	309.69
422.062	331.69
422.285	320.69
422.507	360.69
422.73	411.69
422.953	387.69
423.175	326.69
423.398	338.69
423.621	337.69
423.843	339.69
424.066	344.69
424.288	354.69
424.511	354.69
424.733	378.69
424.956	428.69
425.178	427.69
425.401	422.69
425.623	446.69
425.846	376.69
426.068	355.69
426.291	345.69
426.513	349.69
426.735	378.69
426.958	369.69
427.18	431.69
427.402	523.69
427.625	560.69
427.847	484.69
428.069	433.69
428.292	377.69
428.514	372.69
428.736	336.69
428.958	323.69
429.181	334.69
429.403	347.69
429.625	323.69
429.847	341.69
430.069	395.69
430.292	381.69
430.514	337.69
430.736	309.69
430.958	299.69
431.18	314.69
431.402	289.69
431.624	303.69
431.846	302.69
432.068	296.69
432.29	295.69
432.512	296.69
432.734	294.69
432.956	301.69
433.178	317.69
433.4	330.69
433.622	311.69
433.844	307.69
434.066	291.69
434.287	292.69
434.509	319.69
434.731	322.69
434.953	317.69
435.175	323.69
435.397	345.69
435.618	346.69
435.84	377.69
436.062	420.69
436.284	458.69
436.505	393.69
436.727	353.69
436.949	317.69
437.17	332.69
437.392	312.69
437.614	327.69
437.835	363.69
438.057	426.69
438.278	466.69
438.5	450.69
438.721	509.69
438.943	463.69
439.165	391.69
439.386	391.69
439.608	357.69
439.829	356.69
440.05	374.69
440.272	403.69
440.493	379.69
440.715	342.69
440.936	339.69
441.158	339.69
441.379	328.69
441.6	339.69
441.822	347.69
442.043	385.69
442.264	423.69
442.486	447.69
442.707	387.69
442.928	359.69
443.149	363.69
443.371	382.69
443.592	417.69
443.813	454.69
444.034	488.69
444.255	399.69
444.476	357.69
444.698	344.69
444.919	343.69
445.14	441.69
445.361	379.69
445.582	378.69
445.803	443.69
446.024	483.69
446.245	481.69
446.466	439.69
446.687	380.69
446.908	357.69
447.129	323.69
447.35	316.69
447.571	321.69
447.792	324.69
448.013	326.69
448.234	359.69
448.455	384.69
448.675	468.69
448.896	484.69
449.117	442.69
449.338	400.69
449.559	458.69
449.779	518.69
450	415.69
450.221	346.69
450.442	326.69
450.662	324.69
450.883	324.69
451.104	350.69
451.324	342.69
451.545	311.69
451.766	293.69
451.986	299.69
452.207	289.69
452.428	287.69
452.648	292.69
452.869	286.69
453.089	314.69
453.31	297.69
453.53	293.69
453.751	297.69
453.971	289.69
454.192	299.69
454.412	328.69
454.633	300.69
454.853	289.69
455.073	293.69
455.294	318.69
455.514	349.69
455.734	339.69
455.955	291.69
456.175	269.69
456.395	277.69
456.616	253.69
456.836	273.69
457.056	272.69
457.276	256.69
457.497	261.69
457.717	261.69
457.937	271.69
458.157	270.69
458.377	293.69
458.598	316.69
458.818	358.69
459.038	383.69
459.258	373.69
459.478	326.69
459.698	315.69
459.918	316.69
460.138	313.69
460.358	306.69
460.578	297.69
460.798	299.69
461.018	314.69
461.238	309.69
461.458	313.69
461.678	302.69
461.898	297.69
462.118	313.69
462.338	309.69
462.558	317.69
462.777	310.69
462.997	310.69
463.217	316.69
463.437	334.69
463.657	305.69
463.876	324.69
464.096	295.69
464.316	320.69
464.536	318.69
464.755	308.69
464.975	324.69
465.195	373.69
465.414	421.69
465.634	364.69
465.854	337.69
466.073	315.69
466.293	299.69
466.512	288.69
466.732	292.69
466.951	289.69
467.171	296.69
467.391	293.69
467.61	313.69
467.829	309.69
468.049	293.69
468.268	293.69
468.488	270.69
468.707	306.69
468.927	297.69
469.146	289.69
469.365	303.69
469.585	298.69
469.804	309.69
470.023	315.69
470.243	293.69
470.462	298.69
470.681	324.69
470.901	315.69
471.12	302.69
471.339	296.69
471.558	320.69
471.777	291.69
471.997	308.69
472.216	324.69
472.435	320.69
472.654	321.69
472.873	317.69
473.092	295.69
473.311	315.69
473.53	310.69
473.749	312.69
473.968	332.69
474.187	393.69
474.406	408.69
474.625	346.69
474.844	323.69
475.063	298.69
475.282	308.69
475.501	315.69
475.72	318.69
475.939	283.69
476.158	313.69
476.377	318.69
476.596	303.69
476.814	298.69
477.033	305.69
477.252	302.69
477.471	310.69
477.69	299.69
477.908	307.69
478.127	322.69
478.346	316.69
478.564	321.69
478.783	319.69
479.002	335.69
479.22	323.69
479.439	330.69
479.658	354.69
479.876	356.69
480.095	354.69
480.313	370.69
480.532	350.69
480.751	375.69
480.969	377.69
481.188	408.69
481.406	435.69
481.624	377.69
481.843	367.69
482.061	340.69
482.28	347.69
482.498	337.69
482.717	354.69
482.935	339.69
483.153	341.69
483.372	359.69
483.59	341.69
483.808	336.69
484.027	333.69
484.245	369.69
484.463	344.69
484.681	347.69
484.9	358.69
485.118	352.69
485.336	334.69
485.554	335.69
485.772	345.69
485.99	344.69
486.209	353.69
486.427	353.69
486.645	359.69
486.863	376.69
487.081	369.69
487.299	374.69
487.517	369.69
487.735	372.69
487.953	357.69
488.171	362.69
488.389	378.69
488.607	372.69
488.825	374.69
489.043	357.69
489.261	373.69
489.479	373.69
489.696	378.69
489.914	381.69
490.132	366.69
490.35	388.69
490.568	387.69
490.786	411.69
491.003	413.69
491.221	385.69
491.439	415.69
491.657	407.69
491.874	394.69
492.092	413.69
492.31	422.69
492.527	425.69
492.745	437.69
492.963	408.69
493.18	421.69
493.398	451.69
493.615	439.69
493.833	428.69
494.05	455.69
494.268	435.69
494.485	411.69
494.703	427.69
494.92	423.69
495.138	417.69
495.355	419.69
495.573	435.69
495.79	438.69
496.008	436.69
496.225	423.69
496.442	433.69
496.66	429.69
496.877	445.69
497.094	452.69
497.312	439.69
497.529	445.69
497.746	460.69
497.963	457.69
498.181	452.69
498.398	454.69
498.615	474.69
498.832	488.69
499.049	466.69
499.267	480.69
499.484	489.69
499.701	501.69
499.918	527.69
500.135	518.69
500.352	510.69
500.569	517.69
500.786	532.69
501.003	552.69
501.22	532.69
501.437	513.69
501.654	492.69
501.871	529.69
502.088	502.69
