Data from 1982.PennyLincolnUp.Lamp.En5.5.200Scan.071819.P1_HRD10591_16-47-34-962.txt Node
Date: Thu Jul 18 16:47:34 EDT 2019
User: cochatt
Spectrometer: HR+D1059
Trigger mode: 1
Integration Time (sec): 1.000000E-1
Scans to average: 1
Electric dark correction enabled: true
Nonlinearity correction enabled: false
Boxcar width: 0
XAxis mode: Wavelengths
Number of Pixels in Spectrum: 2048
>>>>>Begin Spectral Data<<<<<
223.165	-29.69
223.4	-29.69
223.635	-29.69
223.869	-18.69
224.104	-11.69
224.338	-10.69
224.573	-23.69
224.808	-18.69
225.042	-7.69
225.277	0.31
225.511	1.31
225.746	-2.69
225.98	4.31
226.215	9.31
226.449	28.31
226.683	33.31
226.918	20.31
227.152	26.31
227.387	37.31
227.621	49.31
227.856	44.31
228.09	60.31
228.324	33.31
228.559	60.31
228.793	57.31
229.027	99.31
229.262	98.31
229.496	94.31
229.73	106.31
229.964	114.31
230.199	104.31
230.433	101.31
230.667	109.31
230.901	93.31
231.136	108.31
231.37	101.31
231.604	95.31
231.838	96.31
232.072	110.31
232.306	102.31
232.541	94.31
232.775	106.31
233.009	97.31
233.243	104.31
233.477	91.31
233.711	103.31
233.945	115.31
234.179	114.31
234.413	100.31
234.647	116.31
234.881	105.31
235.115	101.31
235.349	114.31
235.583	105.31
235.817	105.31
236.051	109.31
236.285	119.31
236.519	113.31
236.753	129.31
236.987	131.31
237.221	163.31
237.455	187.31
237.689	149.31
237.922	117.31
238.156	127.31
238.39	113.31
238.624	90.31
238.858	119.31
239.091	107.31
239.325	102.31
239.559	110.31
239.793	123.31
240.027	121.31
240.26	127.31
240.494	132.31
240.728	144.31
240.961	130.31
241.195	115.31
241.429	121.31
241.662	116.31
241.896	114.31
242.13	111.31
242.363	115.31
242.597	119.31
242.83	110.31
243.064	107.31
243.298	99.31
243.531	110.31
243.765	125.31
243.998	115.31
244.232	109.31
244.465	107.31
244.699	134.31
244.932	118.31
245.166	129.31
245.399	124.31
245.633	141.31
245.866	122.31
246.099	135.31
246.333	129.31
246.566	115.31
246.8	123.31
247.033	145.31
247.266	126.31
247.5	125.31
247.733	149.31
247.966	141.31
248.2	146.31
248.433	157.31
248.666	153.31
248.899	151.31
249.133	154.31
249.366	164.31
249.599	158.31
249.832	143.31
250.066	148.31
250.299	165.31
250.532	159.31
250.765	173.31
250.998	175.31
251.231	170.31
251.465	179.31
251.698	174.31
251.931	163.31
252.164	158.31
252.397	157.31
252.63	169.31
252.863	167.31
253.096	182.31
253.329	190.31
253.562	184.31
253.795	166.31
254.028	174.31
254.261	166.31
254.494	189.31
254.727	215.31
254.96	217.31
255.193	230.31
255.426	215.31
255.659	185.31
255.892	177.31
256.124	178.31
256.357	185.31
256.59	183.31
256.823	171.31
257.056	165.31
257.289	163.31
257.521	186.31
257.754	169.31
257.987	168.31
258.22	168.31
258.452	168.31
258.685	178.31
258.918	166.31
259.151	175.31
259.383	184.31
259.616	171.31
259.849	182.31
260.081	189.31
260.314	193.31
260.547	207.31
260.779	197.31
261.012	193.31
261.244	198.31
261.477	179.31
261.71	177.31
261.942	179.31
262.175	186.31
262.407	177.31
262.64	161.31
262.872	182.31
263.105	191.31
263.337	176.31
263.57	181.31
263.802	177.31
264.035	180.31
264.267	163.31
264.499	178.31
264.732	167.31
264.964	181.31
265.197	185.31
265.429	174.31
265.661	171.31
265.894	154.31
266.126	177.31
266.358	167.31
266.591	170.31
266.823	179.31
267.055	188.31
267.287	187.31
267.52	164.31
267.752	182.31
267.984	184.31
268.216	179.31
268.448	185.31
268.681	197.31
268.913	172.31
269.145	204.31
269.377	221.31
269.609	222.31
269.841	214.31
270.073	224.31
270.306	247.31
270.538	238.31
270.77	248.31
271.002	237.31
271.234	245.31
271.466	233.31
271.698	247.31
271.93	244.31
272.162	263.31
272.394	245.31
272.626	239.31
272.858	238.31
273.09	218.31
273.322	234.31
273.553	205.31
273.785	217.31
274.017	212.31
274.249	214.31
274.481	196.31
274.713	202.31
274.945	216.31
275.176	209.31
275.408	205.31
275.64	227.31
275.872	209.31
276.104	202.31
276.335	216.31
276.567	201.31
276.799	213.31
277.031	234.31
277.262	261.31
277.494	265.31
277.726	237.31
277.957	231.31
278.189	237.31
278.421	203.31
278.652	205.31
278.884	197.31
279.115	207.31
279.347	204.31
279.579	210.31
279.81	197.31
280.042	225.31
280.273	216.31
280.505	215.31
280.736	217.31
280.968	215.31
281.199	200.31
281.431	203.31
281.662	219.31
281.894	204.31
282.125	213.31
282.356	228.31
282.588	236.31
282.819	246.31
283.051	215.31
283.282	195.31
283.513	226.31
283.745	220.31
283.976	214.31
284.207	219.31
284.439	216.31
284.67	191.31
284.901	213.31
285.132	223.31
285.364	209.31
285.595	212.31
285.826	198.31
286.057	221.31
286.288	212.31
286.52	212.31
286.751	212.31
286.982	215.31
287.213	234.31
287.444	226.31
287.675	225.31
287.906	241.31
288.138	238.31
288.369	231.31
288.6	222.31
288.831	239.31
289.062	219.31
289.293	229.31
289.524	231.31
289.755	242.31
289.986	229.31
290.217	218.31
290.448	228.31
290.679	226.31
290.91	216.31
291.141	207.31
291.371	210.31
291.602	220.31
291.833	223.31
292.064	231.31
292.295	206.31
292.526	212.31
292.757	214.31
292.987	216.31
293.218	225.31
293.449	205.31
293.68	209.31
293.91	212.31
294.141	219.31
294.372	203.31
294.603	218.31
294.833	213.31
295.064	218.31
295.295	223.31
295.525	221.31
295.756	229.31
295.987	236.31
296.217	274.31
296.448	254.31
296.679	228.31
296.909	207.31
297.14	223.31
297.37	221.31
297.601	223.31
297.831	217.31
298.062	230.31
298.292	230.31
298.523	246.31
298.753	243.31
298.984	214.31
299.214	217.31
299.445	243.31
299.675	243.31
299.905	231.31
300.136	234.31
300.366	243.31
300.597	222.31
300.827	257.31
301.057	244.31
301.288	243.31
301.518	253.31
301.748	227.31
301.979	245.31
302.209	264.31
302.439	226.31
302.669	246.31
302.9	261.31
303.13	235.31
303.36	227.31
303.59	241.31
303.82	265.31
304.051	260.31
304.281	250.31
304.511	241.31
304.741	252.31
304.971	250.31
305.201	246.31
305.431	238.31
305.661	248.31
305.891	242.31
306.121	249.31
306.352	252.31
306.582	266.31
306.812	255.31
307.042	260.31
307.272	257.31
307.502	241.31
307.731	265.31
307.961	242.31
308.191	250.31
308.421	284.31
308.651	252.31
308.881	262.31
309.111	256.31
309.341	269.31
309.571	267.31
309.8	277.31
310.03	284.31
310.26	292.31
310.49	299.31
310.72	292.31
310.949	292.31
311.179	315.31
311.409	294.31
311.639	285.31
311.868	297.31
312.098	302.31
312.328	284.31
312.557	307.31
312.787	326.31
313.017	340.31
313.246	322.31
313.476	294.31
313.706	292.31
313.935	294.31
314.165	306.31
314.394	313.31
314.624	318.31
314.853	295.31
315.083	280.31
315.312	289.31
315.542	277.31
315.771	276.31
316.001	279.31
316.23	288.31
316.46	276.31
316.689	295.31
316.919	310.31
317.148	283.31
317.377	312.31
317.607	297.31
317.836	297.31
318.065	284.31
318.295	285.31
318.524	286.31
318.753	291.31
318.983	301.31
319.212	295.31
319.441	306.31
319.67	294.31
319.9	285.31
320.129	291.31
320.358	298.31
320.587	281.31
320.816	305.31
321.046	323.31
321.275	313.31
321.504	305.31
321.733	292.31
321.962	321.31
322.191	331.31
322.42	351.31
322.649	354.31
322.878	354.31
323.108	382.31
323.337	395.31
323.566	414.31
323.795	434.31
324.024	503.31
324.253	633.31
324.482	922.31
324.71	1372.31
324.939	1768.31
325.168	1428.31
325.397	773.31
325.626	524.31
325.855	430.31
326.084	414.31
326.313	402.31
326.542	407.31
326.77	452.31
326.999	601.31
327.228	796.31
327.457	1193.31
327.686	1277.31
327.914	846.31
328.143	581.31
328.372	499.31
328.6	463.31
328.829	458.31
329.058	463.31
329.287	466.31
329.515	436.31
329.744	398.31
329.972	402.31
330.201	423.31
330.43	447.31
330.658	454.31
330.887	481.31
331.115	481.31
331.344	389.31
331.572	375.31
331.801	373.31
332.03	382.31
332.258	344.31
332.486	362.31
332.715	345.31
332.943	334.31
333.172	342.31
333.4	339.31
333.629	378.31
333.857	357.31
334.085	379.31
334.314	383.31
334.542	395.31
334.771	385.31
334.999	382.31
335.227	332.31
335.455	325.31
335.684	339.31
335.912	309.31
336.14	324.31
336.369	309.31
336.597	321.31
336.825	339.31
337.053	315.31
337.281	319.31
337.51	342.31
337.738	335.31
337.966	317.31
338.194	331.31
338.422	319.31
338.65	325.31
338.878	303.31
339.106	322.31
339.334	307.31
339.562	317.31
339.79	320.31
340.018	312.31
340.246	324.31
340.474	331.31
340.702	326.31
340.93	321.31
341.158	310.31
341.386	301.31
341.614	326.31
341.842	317.31
342.07	317.31
342.298	317.31
342.526	303.31
342.754	301.31
342.981	307.31
343.209	281.31
343.437	309.31
343.665	307.31
343.893	285.31
344.12	321.31
344.348	314.31
344.576	311.31
344.804	313.31
345.031	318.31
345.259	333.31
345.487	318.31
345.714	324.31
345.942	317.31
346.17	285.31
346.397	294.31
346.625	310.31
346.853	313.31
347.08	318.31
347.308	298.31
347.535	310.31
347.763	318.31
347.99	313.31
348.218	330.31
348.445	327.31
348.673	338.31
348.9	303.31
349.128	283.31
349.355	290.31
349.583	292.31
349.81	309.31
350.037	284.31
350.265	302.31
350.492	295.31
350.72	290.31
350.947	288.31
351.174	307.31
351.402	316.31
351.629	292.31
351.856	296.31
352.083	307.31
352.311	307.31
352.538	302.31
352.765	329.31
352.992	305.31
353.22	307.31
353.447	310.31
353.674	294.31
353.901	292.31
354.128	295.31
354.355	277.31
354.583	291.31
354.81	302.31
355.037	273.31
355.264	274.31
355.491	273.31
355.718	286.31
355.945	282.31
356.172	264.31
356.399	286.31
356.626	280.31
356.853	277.31
357.08	283.31
357.307	277.31
357.534	277.31
357.761	293.31
357.988	274.31
358.215	272.31
358.441	283.31
358.668	268.31
358.895	269.31
359.122	283.31
359.349	299.31
359.576	298.31
359.802	339.31
360.029	339.31
360.256	338.31
360.483	338.31
360.709	291.31
360.936	293.31
361.163	289.31
361.39	313.31
361.616	312.31
361.843	294.31
362.07	316.31
362.296	309.31
362.523	310.31
362.749	309.31
362.976	286.31
363.203	286.31
363.429	279.31
363.656	281.31
363.882	306.31
364.109	292.31
364.335	282.31
364.562	288.31
364.788	291.31
365.015	280.31
365.241	285.31
365.468	306.31
365.694	285.31
365.92	315.31
366.147	285.31
366.373	279.31
366.599	276.31
366.826	286.31
367.052	280.31
367.278	268.31
367.505	282.31
367.731	274.31
367.957	278.31
368.184	266.31
368.41	291.31
368.636	281.31
368.862	298.31
369.089	286.31
369.315	287.31
369.541	260.31
369.767	285.31
369.993	289.31
370.219	279.31
370.445	258.31
370.672	275.31
370.898	258.31
371.124	264.31
371.35	268.31
371.576	276.31
371.802	261.31
372.028	268.31
372.254	287.31
372.48	277.31
372.706	272.31
372.932	261.31
373.158	271.31
373.384	266.31
373.61	289.31
373.835	261.31
374.061	265.31
374.287	280.31
374.513	273.31
374.739	273.31
374.965	270.31
375.191	272.31
375.416	281.31
375.642	294.31
375.868	264.31
376.094	277.31
376.319	277.31
376.545	261.31
376.771	257.31
376.997	271.31
377.222	262.31
377.448	261.31
377.674	285.31
377.899	255.31
378.125	253.31
378.35	282.31
378.576	251.31
378.802	254.31
379.027	268.31
379.253	269.31
379.478	264.31
379.704	267.31
379.929	248.31
380.155	260.31
380.38	295.31
380.606	268.31
380.831	269.31
381.057	279.31
381.282	271.31
381.507	264.31
381.733	270.31
381.958	257.31
382.184	258.31
382.409	279.31
382.634	285.31
382.86	270.31
383.085	287.31
383.31	274.31
383.535	279.31
383.761	272.31
383.986	255.31
384.211	279.31
384.436	268.31
384.662	282.31
384.887	277.31
385.112	283.31
385.337	267.31
385.562	267.31
385.787	278.31
386.013	281.31
386.238	285.31
386.463	291.31
386.688	274.31
386.913	285.31
387.138	265.31
387.363	277.31
387.588	269.31
387.813	272.31
388.038	279.31
388.263	285.31
388.488	284.31
388.713	283.31
388.938	291.31
389.163	290.31
389.387	287.31
389.612	278.31
389.837	267.31
390.062	287.31
390.287	279.31
390.512	282.31
390.736	271.31
390.961	265.31
391.186	268.31
391.411	270.31
391.636	270.31
391.86	290.31
392.085	278.31
392.31	283.31
392.534	274.31
392.759	273.31
392.984	278.31
393.208	296.31
393.433	256.31
393.658	265.31
393.882	283.31
394.107	283.31
394.331	276.31
394.556	295.31
394.78	280.31
395.005	289.31
395.229	281.31
395.454	281.31
395.678	282.31
395.903	292.31
396.127	307.31
396.352	291.31
396.576	290.31
396.801	290.31
397.025	286.31
397.249	288.31
397.474	289.31
397.698	292.31
397.922	296.31
398.147	316.31
398.371	315.31
398.595	310.31
398.82	296.31
399.044	307.31
399.268	326.31
399.492	344.31
399.717	318.31
399.941	351.31
400.165	381.31
400.389	360.31
400.613	347.31
400.837	313.31
401.062	317.31
401.286	309.31
401.51	311.31
401.734	306.31
401.958	313.31
402.182	300.31
402.406	303.31
402.63	307.31
402.854	334.31
403.078	338.31
403.302	315.31
403.526	319.31
403.75	332.31
403.974	314.31
404.198	310.31
404.422	306.31
404.645	315.31
404.869	327.31
405.093	346.31
405.317	363.31
405.541	387.31
405.765	354.31
405.988	347.31
406.212	358.31
406.436	355.31
406.66	381.31
406.883	369.31
407.107	365.31
407.331	380.31
407.555	426.31
407.778	403.31
408.002	403.31
408.226	358.31
408.449	323.31
408.673	341.31
408.896	372.31
409.12	380.31
409.344	357.31
409.567	333.31
409.791	330.31
410.014	313.31
410.238	327.31
410.461	330.31
410.685	330.31
410.908	335.31
411.132	365.31
411.355	368.31
411.578	351.31
411.802	333.31
412.025	313.31
412.249	321.31
412.472	307.31
412.695	362.31
412.919	367.31
413.142	327.31
413.365	314.31
413.589	321.31
413.812	311.31
414.035	294.31
414.258	299.31
414.482	310.31
414.705	313.31
414.928	313.31
415.151	296.31
415.374	290.31
415.597	296.31
415.821	284.31
416.044	295.31
416.267	281.31
416.49	294.31
416.713	271.31
416.936	297.31
417.159	305.31
417.382	327.31
417.605	305.31
417.828	316.31
418.051	323.31
418.274	332.31
418.497	301.31
418.72	285.31
418.943	309.31
419.166	296.31
419.389	310.31
419.611	310.31
419.834	294.31
420.057	321.31
420.28	318.31
420.503	318.31
420.726	308.31
420.948	309.31
421.171	361.31
421.394	350.31
421.617	325.31
421.839	315.31
422.062	316.31
422.285	344.31
422.507	364.31
422.73	388.31
422.953	393.31
423.175	338.31
423.398	334.31
423.621	332.31
423.843	333.31
424.066	350.31
424.288	358.31
424.511	367.31
424.733	391.31
424.956	443.31
425.178	442.31
425.401	420.31
425.623	429.31
425.846	374.31
426.068	346.31
426.291	353.31
426.513	337.31
426.735	358.31
426.958	393.31
427.18	451.31
427.402	531.31
427.625	553.31
427.847	501.31
428.069	442.31
428.292	388.31
428.514	357.31
428.736	341.31
428.958	314.31
429.181	323.31
429.403	325.31
429.625	335.31
429.847	365.31
430.069	396.31
430.292	380.31
430.514	322.31
430.736	319.31
430.958	309.31
431.18	308.31
431.402	292.31
431.624	292.31
431.846	311.31
432.068	309.31
432.29	299.31
432.512	295.31
432.734	314.31
432.956	318.31
433.178	324.31
433.4	309.31
433.622	313.31
433.844	303.31
434.066	278.31
434.287	281.31
434.509	298.31
434.731	316.31
434.953	299.31
435.175	325.31
435.397	335.31
435.618	349.31
435.84	385.31
436.062	427.31
436.284	451.31
436.505	408.31
436.727	345.31
436.949	343.31
437.17	351.31
437.392	330.31
437.614	334.31
437.835	342.31
438.057	427.31
438.278	471.31
438.5	477.31
438.721	526.31
438.943	487.31
439.165	395.31
439.386	369.31
439.608	371.31
439.829	371.31
440.05	394.31
440.272	396.31
440.493	372.31
440.715	368.31
440.936	354.31
441.158	325.31
441.379	325.31
441.6	321.31
441.822	354.31
442.043	395.31
442.264	420.31
442.486	435.31
442.707	395.31
442.928	358.31
443.149	356.31
443.371	378.31
443.592	414.31
443.813	447.31
444.034	511.31
444.255	396.31
444.476	372.31
444.698	351.31
444.919	356.31
445.14	439.31
445.361	405.31
445.582	380.31
445.803	443.31
446.024	503.31
446.245	492.31
446.466	459.31
446.687	383.31
446.908	330.31
447.129	343.31
447.35	331.31
447.571	316.31
447.792	329.31
448.013	344.31
448.234	345.31
448.455	393.31
448.675	436.31
448.896	512.31
449.117	420.31
449.338	399.31
449.559	486.31
449.779	555.31
450	441.31
450.221	358.31
450.442	321.31
450.662	320.31
450.883	325.31
451.104	317.31
451.324	326.31
451.545	319.31
451.766	290.31
451.986	308.31
452.207	305.31
452.428	274.31
452.648	293.31
452.869	297.31
453.089	321.31
453.31	300.31
453.53	310.31
453.751	277.31
453.971	313.31
454.192	327.31
454.412	308.31
454.633	266.31
454.853	295.31
455.073	297.31
455.294	311.31
455.514	367.31
455.734	331.31
455.955	288.31
456.175	278.31
456.395	287.31
456.616	274.31
456.836	273.31
457.056	283.31
457.276	262.31
457.497	268.31
457.717	275.31
457.937	289.31
458.157	269.31
458.377	283.31
458.598	294.31
458.818	344.31
459.038	389.31
459.258	396.31
459.478	351.31
459.698	324.31
459.918	316.31
460.138	297.31
460.358	295.31
460.578	306.31
460.798	306.31
461.018	310.31
461.238	295.31
461.458	273.31
461.678	289.31
461.898	286.31
462.118	284.31
462.338	305.31
462.558	293.31
462.777	302.31
462.997	324.31
463.217	318.31
463.437	307.31
463.657	327.31
463.876	311.31
464.096	316.31
464.316	298.31
464.536	298.31
464.755	302.31
464.975	302.31
465.195	353.31
465.414	393.31
465.634	344.31
465.854	324.31
466.073	311.31
466.293	315.31
466.512	302.31
466.732	278.31
466.951	300.31
467.171	289.31
467.391	299.31
467.61	306.31
467.829	301.31
468.049	305.31
468.268	308.31
468.488	286.31
468.707	289.31
468.927	287.31
469.146	280.31
469.365	302.31
469.585	291.31
469.804	286.31
470.023	301.31
470.243	318.31
470.462	307.31
470.681	311.31
470.901	310.31
471.12	278.31
471.339	293.31
471.558	286.31
471.777	302.31
471.997	287.31
472.216	302.31
472.435	319.31
472.654	309.31
472.873	306.31
473.092	293.31
473.311	295.31
473.53	306.31
473.749	316.31
473.968	335.31
474.187	420.31
474.406	421.31
474.625	345.31
474.844	309.31
475.063	302.31
475.282	291.31
475.501	301.31
475.72	315.31
475.939	294.31
476.158	306.31
476.377	318.31
476.596	312.31
476.814	329.31
477.033	313.31
477.252	296.31
477.471	317.31
477.69	313.31
477.908	305.31
478.127	321.31
478.346	326.31
478.564	329.31
478.783	321.31
479.002	332.31
479.22	335.31
479.439	350.31
479.658	346.31
479.876	351.31
480.095	371.31
480.313	359.31
480.532	351.31
480.751	354.31
480.969	362.31
481.188	403.31
481.406	430.31
481.624	384.31
481.843	356.31
482.061	352.31
482.28	355.31
482.498	348.31
482.717	343.31
482.935	338.31
483.153	342.31
483.372	348.31
483.59	341.31
483.808	345.31
484.027	335.31
484.245	341.31
484.463	339.31
484.681	355.31
484.9	348.31
485.118	346.31
485.336	355.31
485.554	353.31
485.772	334.31
485.99	340.31
486.209	357.31
486.427	360.31
486.645	373.31
486.863	377.31
487.081	369.31
487.299	359.31
487.517	375.31
487.735	377.31
487.953	365.31
488.171	360.31
488.389	354.31
488.607	363.31
488.825	370.31
489.043	369.31
489.261	373.31
489.479	356.31
489.696	375.31
489.914	366.31
490.132	377.31
490.35	383.31
490.568	389.31
490.786	400.31
491.003	397.31
491.221	395.31
491.439	422.31
491.657	427.31
491.874	425.31
492.092	417.31
492.31	410.31
492.527	435.31
492.745	430.31
492.963	434.31
493.18	435.31
493.398	451.31
493.615	445.31
493.833	425.31
494.05	415.31
494.268	422.31
494.485	422.31
494.703	441.31
494.92	431.31
495.138	439.31
495.355	435.31
495.573	437.31
495.79	443.31
496.008	426.31
496.225	426.31
496.442	454.31
496.66	438.31
496.877	426.31
497.094	419.31
497.312	437.31
497.529	458.31
497.746	466.31
497.963	453.31
498.181	464.31
498.398	471.31
498.615	466.31
498.832	449.31
499.049	457.31
499.267	484.31
499.484	473.31
499.701	490.31
499.918	490.31
500.135	514.31
500.352	508.31
500.569	521.31
500.786	528.31
501.003	514.31
501.22	524.31
501.437	531.31
501.654	508.31
501.871	502.31
502.088	477.31
