Data from 1982.PennyLincolnUp.Lamp.En5.5.200Scan.071819.P1_HRD10591_16-46-48-963.txt Node
Date: Thu Jul 18 16:46:48 EDT 2019
User: cochatt
Spectrometer: HR+D1059
Trigger mode: 1
Integration Time (sec): 1.000000E-1
Scans to average: 1
Electric dark correction enabled: true
Nonlinearity correction enabled: false
Boxcar width: 0
XAxis mode: Wavelengths
Number of Pixels in Spectrum: 2048
>>>>>Begin Spectral Data<<<<<
223.165	-6.94
223.4	-6.94
223.635	-6.94
223.869	-7.94
224.104	-18.94
224.338	-26.94
224.573	-18.94
224.808	-4.94
225.042	-8.94
225.277	-15.94
225.511	3.06
225.746	2.06
225.98	-7.94
226.215	8.06
226.449	7.06
226.683	31.06
226.918	27.06
227.152	39.06
227.387	36.06
227.621	36.06
227.856	45.06
228.09	41.06
228.324	56.06
228.559	52.06
228.793	76.06
229.027	97.06
229.262	94.06
229.496	114.06
229.73	114.06
229.964	110.06
230.199	117.06
230.433	98.06
230.667	103.06
230.901	109.06
231.136	100.06
231.37	108.06
231.604	103.06
231.838	119.06
232.072	102.06
232.306	109.06
232.541	86.06
232.775	99.06
233.009	96.06
233.243	106.06
233.477	109.06
233.711	110.06
233.945	109.06
234.179	115.06
234.413	109.06
234.647	95.06
234.881	103.06
235.115	118.06
235.349	114.06
235.583	108.06
235.817	104.06
236.051	100.06
236.285	124.06
236.519	108.06
236.753	122.06
236.987	122.06
237.221	154.06
237.455	187.06
237.689	138.06
237.922	136.06
238.156	114.06
238.39	125.06
238.624	119.06
238.858	95.06
239.091	115.06
239.325	102.06
239.559	122.06
239.793	123.06
240.027	117.06
240.26	122.06
240.494	122.06
240.728	123.06
240.961	130.06
241.195	142.06
241.429	118.06
241.662	101.06
241.896	115.06
242.13	117.06
242.363	117.06
242.597	111.06
242.83	114.06
243.064	128.06
243.298	127.06
243.531	106.06
243.765	132.06
243.998	128.06
244.232	121.06
244.465	115.06
244.699	130.06
244.932	110.06
245.166	122.06
245.399	128.06
245.633	118.06
245.866	122.06
246.099	128.06
246.333	126.06
246.566	133.06
246.8	129.06
247.033	122.06
247.266	142.06
247.5	132.06
247.733	138.06
247.966	160.06
248.2	152.06
248.433	153.06
248.666	138.06
248.899	155.06
249.133	171.06
249.366	154.06
249.599	163.06
249.832	147.06
250.066	154.06
250.299	146.06
250.532	152.06
250.765	180.06
250.998	185.06
251.231	191.06
251.465	178.06
251.698	175.06
251.931	164.06
252.164	146.06
252.397	173.06
252.63	168.06
252.863	176.06
253.096	167.06
253.329	190.06
253.562	192.06
253.795	180.06
254.028	176.06
254.261	167.06
254.494	174.06
254.727	209.06
254.96	224.06
255.193	204.06
255.426	198.06
255.659	184.06
255.892	192.06
256.124	186.06
256.357	180.06
256.59	178.06
256.823	178.06
257.056	187.06
257.289	176.06
257.521	176.06
257.754	173.06
257.987	146.06
258.22	168.06
258.452	162.06
258.685	176.06
258.918	160.06
259.151	180.06
259.383	172.06
259.616	171.06
259.849	186.06
260.081	171.06
260.314	202.06
260.547	207.06
260.779	186.06
261.012	185.06
261.244	160.06
261.477	183.06
261.71	196.06
261.942	186.06
262.175	190.06
262.407	191.06
262.64	181.06
262.872	163.06
263.105	162.06
263.337	186.06
263.57	152.06
263.802	183.06
264.035	155.06
264.267	182.06
264.499	181.06
264.732	184.06
264.964	168.06
265.197	190.06
265.429	162.06
265.661	174.06
265.894	179.06
266.126	178.06
266.358	181.06
266.591	178.06
266.823	182.06
267.055	183.06
267.287	190.06
267.52	182.06
267.752	190.06
267.984	174.06
268.216	200.06
268.448	199.06
268.681	196.06
268.913	199.06
269.145	207.06
269.377	206.06
269.609	205.06
269.841	218.06
270.073	213.06
270.306	234.06
270.538	256.06
270.77	250.06
271.002	250.06
271.234	229.06
271.466	223.06
271.698	228.06
271.93	262.06
272.162	249.06
272.394	267.06
272.626	237.06
272.858	213.06
273.09	237.06
273.322	236.06
273.553	217.06
273.785	192.06
274.017	210.06
274.249	219.06
274.481	200.06
274.713	229.06
274.945	230.06
275.176	209.06
275.408	212.06
275.64	218.06
275.872	207.06
276.104	201.06
276.335	216.06
276.567	219.06
276.799	225.06
277.031	245.06
277.262	255.06
277.494	268.06
277.726	231.06
277.957	215.06
278.189	206.06
278.421	225.06
278.652	214.06
278.884	212.06
279.115	204.06
279.347	202.06
279.579	203.06
279.81	220.06
280.042	215.06
280.273	200.06
280.505	220.06
280.736	210.06
280.968	215.06
281.199	206.06
281.431	190.06
281.662	205.06
281.894	218.06
282.125	208.06
282.356	238.06
282.588	234.06
282.819	236.06
283.051	203.06
283.282	209.06
283.513	218.06
283.745	219.06
283.976	224.06
284.207	213.06
284.439	208.06
284.67	226.06
284.901	219.06
285.132	223.06
285.364	217.06
285.595	212.06
285.826	217.06
286.057	219.06
286.288	228.06
286.52	229.06
286.751	221.06
286.982	220.06
287.213	219.06
287.444	238.06
287.675	223.06
287.906	225.06
288.138	232.06
288.369	230.06
288.6	229.06
288.831	232.06
289.062	219.06
289.293	230.06
289.524	229.06
289.755	210.06
289.986	215.06
290.217	234.06
290.448	205.06
290.679	219.06
290.91	212.06
291.141	217.06
291.371	209.06
291.602	220.06
291.833	231.06
292.064	208.06
292.295	221.06
292.526	216.06
292.757	211.06
292.987	215.06
293.218	232.06
293.449	218.06
293.68	237.06
293.91	226.06
294.141	222.06
294.372	217.06
294.603	214.06
294.833	226.06
295.064	220.06
295.295	211.06
295.525	227.06
295.756	244.06
295.987	240.06
296.217	266.06
296.448	256.06
296.679	222.06
296.909	215.06
297.14	236.06
297.37	217.06
297.601	218.06
297.831	217.06
298.062	250.06
298.292	222.06
298.523	222.06
298.753	240.06
298.984	234.06
299.214	227.06
299.445	227.06
299.675	228.06
299.905	236.06
300.136	252.06
300.366	253.06
300.597	246.06
300.827	265.06
301.057	266.06
301.288	256.06
301.518	256.06
301.748	257.06
301.979	228.06
302.209	249.06
302.439	255.06
302.669	239.06
302.9	239.06
303.13	239.06
303.36	253.06
303.59	258.06
303.82	271.06
304.051	266.06
304.281	254.06
304.511	244.06
304.741	255.06
304.971	250.06
305.201	271.06
305.431	247.06
305.661	242.06
305.891	234.06
306.121	240.06
306.352	252.06
306.582	250.06
306.812	247.06
307.042	260.06
307.272	254.06
307.502	249.06
307.731	260.06
307.961	258.06
308.191	253.06
308.421	249.06
308.651	259.06
308.881	266.06
309.111	272.06
309.341	279.06
309.571	280.06
309.8	284.06
310.03	290.06
310.26	297.06
310.49	276.06
310.72	318.06
310.949	332.06
311.179	319.06
311.409	299.06
311.639	277.06
311.868	293.06
312.098	287.06
312.328	296.06
312.557	307.06
312.787	310.06
313.017	310.06
313.246	285.06
313.476	288.06
313.706	286.06
313.935	297.06
314.165	293.06
314.394	310.06
314.624	297.06
314.853	301.06
315.083	313.06
315.312	290.06
315.542	292.06
315.771	301.06
316.001	316.06
316.23	268.06
316.46	284.06
316.689	284.06
316.919	293.06
317.148	295.06
317.377	300.06
317.607	297.06
317.836	297.06
318.065	300.06
318.295	286.06
318.524	295.06
318.753	280.06
318.983	297.06
319.212	302.06
319.441	307.06
319.67	316.06
319.9	302.06
320.129	301.06
320.358	307.06
320.587	306.06
320.816	297.06
321.046	309.06
321.275	317.06
321.504	327.06
321.733	322.06
321.962	306.06
322.191	333.06
322.42	333.06
322.649	354.06
322.878	351.06
323.108	370.06
323.337	386.06
323.566	396.06
323.795	430.06
324.024	489.06
324.253	621.06
324.482	890.06
324.71	1381.06
324.939	1761.06
325.168	1409.06
325.397	758.06
325.626	518.06
325.855	439.06
326.084	393.06
326.313	415.06
326.542	415.06
326.77	439.06
326.999	549.06
327.228	805.06
327.457	1108.06
327.686	1288.06
327.914	861.06
328.143	594.06
328.372	471.06
328.6	475.06
328.829	468.06
329.058	461.06
329.287	454.06
329.515	446.06
329.744	417.06
329.972	391.06
330.201	419.06
330.43	454.06
330.658	461.06
330.887	476.06
331.115	472.06
331.344	407.06
331.572	363.06
331.801	394.06
332.03	390.06
332.258	371.06
332.486	350.06
332.715	340.06
332.943	349.06
333.172	339.06
333.4	330.06
333.629	338.06
333.857	335.06
334.085	347.06
334.314	386.06
334.542	395.06
334.771	402.06
334.999	370.06
335.227	358.06
335.455	337.06
335.684	338.06
335.912	341.06
336.14	338.06
336.369	327.06
336.597	348.06
336.825	345.06
337.053	316.06
337.281	324.06
337.51	319.06
337.738	333.06
337.966	324.06
338.194	344.06
338.422	346.06
338.65	326.06
338.878	319.06
339.106	319.06
339.334	332.06
339.562	340.06
339.79	322.06
340.018	309.06
340.246	335.06
340.474	336.06
340.702	313.06
340.93	316.06
341.158	314.06
341.386	329.06
341.614	309.06
341.842	327.06
342.07	331.06
342.298	310.06
342.526	317.06
342.754	313.06
342.981	308.06
343.209	308.06
343.437	315.06
343.665	302.06
343.893	328.06
344.12	333.06
344.348	317.06
344.576	322.06
344.804	335.06
345.031	333.06
345.259	332.06
345.487	330.06
345.714	351.06
345.942	312.06
346.17	318.06
346.397	310.06
346.625	313.06
346.853	314.06
347.08	309.06
347.308	300.06
347.535	316.06
347.763	322.06
347.99	318.06
348.218	324.06
348.445	318.06
348.673	319.06
348.9	312.06
349.128	319.06
349.355	307.06
349.583	304.06
349.81	290.06
350.037	295.06
350.265	293.06
350.492	304.06
350.72	301.06
350.947	296.06
351.174	327.06
351.402	321.06
351.629	302.06
351.856	307.06
352.083	335.06
352.311	312.06
352.538	324.06
352.765	322.06
352.992	311.06
353.22	312.06
353.447	309.06
353.674	294.06
353.901	307.06
354.128	284.06
354.355	295.06
354.583	308.06
354.81	302.06
355.037	278.06
355.264	286.06
355.491	275.06
355.718	268.06
355.945	271.06
356.172	289.06
356.399	258.06
356.626	283.06
356.853	261.06
357.08	277.06
357.307	288.06
357.534	285.06
357.761	272.06
357.988	272.06
358.215	290.06
358.441	275.06
358.668	279.06
358.895	277.06
359.122	294.06
359.349	283.06
359.576	291.06
359.802	330.06
360.029	340.06
360.256	348.06
360.483	335.06
360.709	331.06
360.936	277.06
361.163	303.06
361.39	299.06
361.616	314.06
361.843	303.06
362.07	289.06
362.296	302.06
362.523	311.06
362.749	306.06
362.976	316.06
363.203	318.06
363.429	286.06
363.656	302.06
363.882	286.06
364.109	298.06
364.335	290.06
364.562	283.06
364.788	266.06
365.015	291.06
365.241	302.06
365.468	282.06
365.694	282.06
365.92	294.06
366.147	290.06
366.373	288.06
366.599	292.06
366.826	293.06
367.052	287.06
367.278	290.06
367.505	293.06
367.731	280.06
367.957	292.06
368.184	270.06
368.41	306.06
368.636	309.06
368.862	289.06
369.089	298.06
369.315	272.06
369.541	297.06
369.767	291.06
369.993	280.06
370.219	285.06
370.445	279.06
370.672	278.06
370.898	280.06
371.124	277.06
371.35	274.06
371.576	286.06
371.802	276.06
372.028	264.06
372.254	267.06
372.48	272.06
372.706	272.06
372.932	293.06
373.158	279.06
373.384	271.06
373.61	280.06
373.835	271.06
374.061	268.06
374.287	272.06
374.513	286.06
374.739	271.06
374.965	278.06
375.191	266.06
375.416	272.06
375.642	286.06
375.868	258.06
376.094	280.06
376.319	270.06
376.545	271.06
376.771	264.06
376.997	266.06
377.222	279.06
377.448	282.06
377.674	274.06
377.899	270.06
378.125	252.06
378.35	280.06
378.576	263.06
378.802	269.06
379.027	273.06
379.253	260.06
379.478	262.06
379.704	264.06
379.929	269.06
380.155	275.06
380.38	276.06
380.606	279.06
380.831	251.06
381.057	270.06
381.282	267.06
381.507	274.06
381.733	284.06
381.958	281.06
382.184	270.06
382.409	262.06
382.634	272.06
382.86	255.06
383.085	284.06
383.31	282.06
383.535	249.06
383.761	266.06
383.986	290.06
384.211	279.06
384.436	283.06
384.662	285.06
384.887	278.06
385.112	260.06
385.337	278.06
385.562	263.06
385.787	280.06
386.013	302.06
386.238	290.06
386.463	277.06
386.688	275.06
386.913	277.06
387.138	259.06
387.363	290.06
387.588	277.06
387.813	279.06
388.038	287.06
388.263	278.06
388.488	286.06
388.713	281.06
388.938	277.06
389.163	295.06
389.387	275.06
389.612	278.06
389.837	299.06
390.062	282.06
390.287	272.06
390.512	276.06
390.736	286.06
390.961	278.06
391.186	277.06
391.411	268.06
391.636	287.06
391.86	278.06
392.085	302.06
392.31	287.06
392.534	293.06
392.759	290.06
392.984	267.06
393.208	290.06
393.433	295.06
393.658	278.06
393.882	288.06
394.107	293.06
394.331	270.06
394.556	294.06
394.78	273.06
395.005	287.06
395.229	291.06
395.454	280.06
395.678	294.06
395.903	308.06
396.127	295.06
396.352	303.06
396.576	294.06
396.801	299.06
397.025	273.06
397.249	293.06
397.474	295.06
397.698	288.06
397.922	310.06
398.147	303.06
398.371	306.06
398.595	319.06
398.82	310.06
399.044	310.06
399.268	340.06
399.492	335.06
399.717	352.06
399.941	349.06
400.165	360.06
400.389	380.06
400.613	353.06
400.837	326.06
401.062	328.06
401.286	310.06
401.51	318.06
401.734	313.06
401.958	300.06
402.182	316.06
402.406	314.06
402.63	308.06
402.854	306.06
403.078	326.06
403.302	310.06
403.526	325.06
403.75	323.06
403.974	342.06
404.198	314.06
404.422	346.06
404.645	320.06
404.869	340.06
405.093	353.06
405.317	373.06
405.541	394.06
405.765	376.06
405.988	334.06
406.212	332.06
406.436	353.06
406.66	366.06
406.883	377.06
407.107	367.06
407.331	389.06
407.555	425.06
407.778	410.06
408.002	394.06
408.226	349.06
408.449	356.06
408.673	355.06
408.896	363.06
409.12	403.06
409.344	388.06
409.567	359.06
409.791	345.06
410.014	318.06
410.238	329.06
410.461	325.06
410.685	332.06
410.908	340.06
411.132	348.06
411.355	391.06
411.578	348.06
411.802	334.06
412.025	320.06
412.249	339.06
412.472	350.06
412.695	354.06
412.919	357.06
413.142	337.06
413.365	328.06
413.589	310.06
413.812	300.06
414.035	322.06
414.258	309.06
414.482	314.06
414.705	290.06
414.928	282.06
415.151	311.06
415.374	290.06
415.597	295.06
415.821	299.06
416.044	302.06
416.267	306.06
416.49	325.06
416.713	302.06
416.936	320.06
417.159	313.06
417.382	308.06
417.605	305.06
417.828	320.06
418.051	326.06
418.274	316.06
418.497	322.06
418.72	305.06
418.943	306.06
419.166	310.06
419.389	320.06
419.611	322.06
419.834	318.06
420.057	323.06
420.28	331.06
420.503	318.06
420.726	325.06
420.948	334.06
421.171	342.06
421.394	360.06
421.617	326.06
421.839	325.06
422.062	306.06
422.285	351.06
422.507	358.06
422.73	391.06
422.953	406.06
423.175	365.06
423.398	330.06
423.621	341.06
423.843	323.06
424.066	360.06
424.288	352.06
424.511	352.06
424.733	391.06
424.956	434.06
425.178	443.06
425.401	421.06
425.623	414.06
425.846	379.06
426.068	347.06
426.291	340.06
426.513	352.06
426.735	375.06
426.958	390.06
427.18	435.06
427.402	524.06
427.625	566.06
427.847	494.06
428.069	430.06
428.292	383.06
428.514	360.06
428.736	343.06
428.958	345.06
429.181	324.06
429.403	336.06
429.625	345.06
429.847	346.06
430.069	413.06
430.292	401.06
430.514	350.06
430.736	334.06
430.958	328.06
431.18	319.06
431.402	310.06
431.624	292.06
431.846	295.06
432.068	308.06
432.29	318.06
432.512	310.06
432.734	322.06
432.956	313.06
433.178	306.06
433.4	303.06
433.622	310.06
433.844	310.06
434.066	299.06
434.287	291.06
434.509	284.06
434.731	302.06
434.953	310.06
435.175	338.06
435.397	350.06
435.618	356.06
435.84	411.06
436.062	436.06
436.284	470.06
436.505	409.06
436.727	364.06
436.949	342.06
437.17	332.06
437.392	340.06
437.614	347.06
437.835	367.06
438.057	422.06
438.278	511.06
438.5	492.06
438.721	498.06
438.943	492.06
439.165	387.06
439.386	362.06
439.608	338.06
439.829	368.06
440.05	402.06
440.272	421.06
440.493	394.06
440.715	338.06
440.936	323.06
441.158	331.06
441.379	308.06
441.6	344.06
441.822	356.06
442.043	385.06
442.264	456.06
442.486	442.06
442.707	369.06
442.928	390.06
443.149	390.06
443.371	384.06
443.592	416.06
443.813	480.06
444.034	496.06
444.255	403.06
444.476	357.06
444.698	358.06
444.919	356.06
445.14	425.06
445.361	386.06
445.582	381.06
445.803	437.06
446.024	495.06
446.245	479.06
446.466	432.06
446.687	401.06
446.908	360.06
447.129	334.06
447.35	333.06
447.571	327.06
447.792	329.06
448.013	323.06
448.234	341.06
448.455	383.06
448.675	470.06
448.896	520.06
449.117	452.06
449.338	428.06
449.559	489.06
449.779	559.06
450	425.06
450.221	364.06
450.442	341.06
450.662	338.06
450.883	333.06
451.104	346.06
451.324	332.06
451.545	333.06
451.766	330.06
451.986	291.06
452.207	305.06
452.428	303.06
452.648	285.06
452.869	309.06
453.089	293.06
453.31	301.06
453.53	300.06
453.751	296.06
453.971	303.06
454.192	297.06
454.412	306.06
454.633	298.06
454.853	304.06
455.073	301.06
455.294	296.06
455.514	355.06
455.734	336.06
455.955	300.06
456.175	300.06
456.395	281.06
456.616	286.06
456.836	271.06
457.056	270.06
457.276	275.06
457.497	272.06
457.717	270.06
457.937	281.06
458.157	277.06
458.377	291.06
458.598	323.06
458.818	348.06
459.038	399.06
459.258	408.06
459.478	341.06
459.698	296.06
459.918	287.06
460.138	285.06
460.358	294.06
460.578	294.06
460.798	320.06
461.018	301.06
461.238	303.06
461.458	290.06
461.678	295.06
461.898	294.06
462.118	293.06
462.338	310.06
462.558	298.06
462.777	317.06
462.997	314.06
463.217	310.06
463.437	319.06
463.657	321.06
463.876	306.06
464.096	323.06
464.316	318.06
464.536	335.06
464.755	327.06
464.975	328.06
465.195	362.06
465.414	424.06
465.634	362.06
465.854	328.06
466.073	324.06
466.293	322.06
466.512	318.06
466.732	296.06
466.951	300.06
467.171	296.06
467.391	283.06
467.61	310.06
467.829	303.06
468.049	316.06
468.268	303.06
468.488	308.06
468.707	280.06
468.927	290.06
469.146	294.06
469.365	293.06
469.585	291.06
469.804	291.06
470.023	296.06
470.243	277.06
470.462	316.06
470.681	318.06
470.901	330.06
471.12	302.06
471.339	297.06
471.558	316.06
471.777	308.06
471.997	313.06
472.216	313.06
472.435	328.06
472.654	325.06
472.873	315.06
473.092	290.06
473.311	298.06
473.53	290.06
473.749	290.06
473.968	354.06
474.187	415.06
474.406	418.06
474.625	353.06
474.844	314.06
475.063	327.06
475.282	304.06
475.501	301.06
475.72	304.06
475.939	299.06
476.158	296.06
476.377	307.06
476.596	305.06
476.814	335.06
477.033	335.06
477.252	332.06
477.471	327.06
477.69	320.06
477.908	317.06
478.127	325.06
478.346	325.06
478.564	327.06
478.783	347.06
479.002	333.06
479.22	340.06
479.439	348.06
479.658	376.06
479.876	342.06
480.095	348.06
480.313	395.06
480.532	370.06
480.751	360.06
480.969	379.06
481.188	412.06
481.406	406.06
481.624	378.06
481.843	359.06
482.061	366.06
482.28	365.06
482.498	367.06
482.717	372.06
482.935	362.06
483.153	344.06
483.372	336.06
483.59	340.06
483.808	347.06
484.027	360.06
484.245	358.06
484.463	350.06
484.681	368.06
484.9	336.06
485.118	342.06
485.336	346.06
485.554	360.06
485.772	364.06
485.99	339.06
486.209	358.06
486.427	353.06
486.645	369.06
486.863	372.06
487.081	382.06
487.299	372.06
487.517	383.06
487.735	358.06
487.953	370.06
488.171	378.06
488.389	354.06
488.607	375.06
488.825	388.06
489.043	382.06
489.261	385.06
489.479	381.06
489.696	363.06
489.914	363.06
490.132	359.06
490.35	375.06
490.568	394.06
490.786	400.06
491.003	398.06
491.221	411.06
491.439	406.06
491.657	413.06
491.874	418.06
492.092	423.06
492.31	420.06
492.527	427.06
492.745	442.06
492.963	434.06
493.18	436.06
493.398	420.06
493.615	436.06
493.833	457.06
494.05	444.06
494.268	451.06
494.485	447.06
494.703	440.06
494.92	433.06
495.138	440.06
495.355	456.06
495.573	452.06
495.79	434.06
496.008	443.06
496.225	426.06
496.442	458.06
496.66	429.06
496.877	438.06
497.094	458.06
497.312	431.06
497.529	457.06
497.746	453.06
497.963	461.06
498.181	475.06
498.398	447.06
498.615	482.06
498.832	487.06
499.049	470.06
499.267	483.06
499.484	474.06
499.701	497.06
499.918	486.06
500.135	510.06
500.352	540.06
500.569	544.06
500.786	547.06
501.003	528.06
501.22	528.06
501.437	542.06
501.654	527.06
501.871	527.06
502.088	500.06
