Data from 1982.PennyLincolnUp.Lamp.En5.5.200Scan.071819.P1_HRD10591_16-46-01-961.txt Node
Date: Thu Jul 18 16:46:01 EDT 2019
User: cochatt
Spectrometer: HR+D1059
Trigger mode: 1
Integration Time (sec): 1.000000E-1
Scans to average: 1
Electric dark correction enabled: true
Nonlinearity correction enabled: false
Boxcar width: 0
XAxis mode: Wavelengths
Number of Pixels in Spectrum: 2048
>>>>>Begin Spectral Data<<<<<
223.165	-19
223.4	-19
223.635	-19
223.869	-10
224.104	-19
224.338	-21
224.573	0
224.808	-14
225.042	0
225.277	-18
225.511	-8
225.746	3
225.98	12
226.215	13
226.449	12
226.683	8
226.918	31
227.152	30
227.387	24
227.621	27
227.856	38
228.09	29
228.324	44
228.559	49
228.793	48
229.027	85
229.262	105
229.496	97
229.73	102
229.964	128
230.199	108
230.433	104
230.667	101
230.901	105
231.136	109
231.37	100
231.604	85
231.838	92
232.072	98
232.306	106
232.541	96
232.775	108
233.009	79
233.243	102
233.477	93
233.711	124
233.945	96
234.179	100
234.413	105
234.647	104
234.881	92
235.115	116
235.349	104
235.583	107
235.817	103
236.051	117
236.285	105
236.519	116
236.753	100
236.987	130
237.221	149
237.455	180
237.689	149
237.922	99
238.156	125
238.39	97
238.624	115
238.858	100
239.091	107
239.325	109
239.559	119
239.793	105
240.027	109
240.26	113
240.494	125
240.728	131
240.961	133
241.195	113
241.429	112
241.662	102
241.896	126
242.13	105
242.363	105
242.597	123
242.83	124
243.064	118
243.298	122
243.531	116
243.765	118
243.998	109
244.232	101
244.465	136
244.699	128
244.932	132
245.166	108
245.399	113
245.633	117
245.866	108
246.099	118
246.333	123
246.566	130
246.8	139
247.033	128
247.266	124
247.5	130
247.733	138
247.966	131
248.2	132
248.433	139
248.666	141
248.899	153
249.133	166
249.366	161
249.599	178
249.832	131
250.066	149
250.299	146
250.532	161
250.765	152
250.998	163
251.231	165
251.465	157
251.698	158
251.931	157
252.164	154
252.397	156
252.63	162
252.863	153
253.096	173
253.329	177
253.562	187
253.795	187
254.028	170
254.261	167
254.494	178
254.727	192
254.96	214
255.193	193
255.426	195
255.659	182
255.892	180
256.124	187
256.357	182
256.59	169
256.823	166
257.056	156
257.289	161
257.521	172
257.754	151
257.987	154
258.22	166
258.452	161
258.685	150
258.918	164
259.151	163
259.383	154
259.616	164
259.849	166
260.081	181
260.314	174
260.547	201
260.779	172
261.012	194
261.244	174
261.477	191
261.71	178
261.942	170
262.175	181
262.407	187
262.64	177
262.872	162
263.105	176
263.337	172
263.57	179
263.802	156
264.035	174
264.267	179
264.499	152
264.732	156
264.964	149
265.197	157
265.429	156
265.661	159
265.894	162
266.126	156
266.358	148
266.591	169
266.823	176
267.055	185
267.287	164
267.52	181
267.752	172
267.984	159
268.216	178
268.448	178
268.681	181
268.913	197
269.145	205
269.377	208
269.609	222
269.841	204
270.073	201
270.306	225
270.538	244
270.77	240
271.002	240
271.234	226
271.466	225
271.698	228
271.93	230
272.162	248
272.394	220
272.626	204
272.858	205
273.09	206
273.322	213
273.553	221
273.785	205
274.017	177
274.249	217
274.481	205
274.713	192
274.945	200
275.176	205
275.408	195
275.64	181
275.872	203
276.104	182
276.335	182
276.567	200
276.799	213
277.031	235
277.262	235
277.494	245
277.726	213
277.957	202
278.189	197
278.421	211
278.652	203
278.884	201
279.115	215
279.347	191
279.579	204
279.81	214
280.042	210
280.273	202
280.505	192
280.736	192
280.968	189
281.199	192
281.431	190
281.662	200
281.894	194
282.125	204
282.356	227
282.588	228
282.819	234
283.051	208
283.282	203
283.513	207
283.745	213
283.976	212
284.207	219
284.439	199
284.67	203
284.901	211
285.132	204
285.364	211
285.595	206
285.826	199
286.057	211
286.288	194
286.52	201
286.751	205
286.982	220
287.213	213
287.444	212
287.675	220
287.906	213
288.138	223
288.369	242
288.6	212
288.831	228
289.062	210
289.293	207
289.524	204
289.755	215
289.986	203
290.217	218
290.448	188
290.679	213
290.91	197
291.141	222
291.371	204
291.602	214
291.833	194
292.064	218
292.295	207
292.526	198
292.757	202
292.987	212
293.218	217
293.449	198
293.68	229
293.91	226
294.141	205
294.372	184
294.603	221
294.833	206
295.064	213
295.295	216
295.525	234
295.756	220
295.987	214
296.217	256
296.448	225
296.679	220
296.909	206
297.14	214
297.37	220
297.601	225
297.831	223
298.062	232
298.292	230
298.523	250
298.753	225
298.984	208
299.214	216
299.445	229
299.675	229
299.905	228
300.136	231
300.366	233
300.597	211
300.827	235
301.057	240
301.288	229
301.518	220
301.748	221
301.979	226
302.209	233
302.439	245
302.669	237
302.9	233
303.13	223
303.36	235
303.59	247
303.82	237
304.051	255
304.281	260
304.511	235
304.741	229
304.971	242
305.201	242
305.431	224
305.661	244
305.891	243
306.121	229
306.352	246
306.582	252
306.812	255
307.042	246
307.272	244
307.502	262
307.731	234
307.961	223
308.191	240
308.421	235
308.651	254
308.881	266
309.111	255
309.341	236
309.571	264
309.8	258
310.03	263
310.26	271
310.49	283
310.72	289
310.949	271
311.179	290
311.409	284
311.639	274
311.868	269
312.098	280
312.328	280
312.557	300
312.787	312
313.017	291
313.246	290
313.476	268
313.706	280
313.935	276
314.165	268
314.394	298
314.624	302
314.853	275
315.083	285
315.312	286
315.542	260
315.771	268
316.001	276
316.23	253
316.46	267
316.689	281
316.919	276
317.148	280
317.377	281
317.607	269
317.836	298
318.065	282
318.295	276
318.524	296
318.753	276
318.983	267
319.212	272
319.441	280
319.67	295
319.9	289
320.129	281
320.358	276
320.587	283
320.816	291
321.046	309
321.275	290
321.504	284
321.733	288
321.962	295
322.191	318
322.42	330
322.649	328
322.878	330
323.108	356
323.337	375
323.566	386
323.795	389
324.024	448
324.253	573
324.482	800
324.71	1204
324.939	1572
325.168	1284
325.397	662
325.626	478
325.855	407
326.084	381
326.313	360
326.542	389
326.77	416
326.999	544
327.228	736
327.457	1020
327.686	1157
327.914	777
328.143	526
328.372	467
328.6	438
328.829	417
329.058	408
329.287	416
329.515	386
329.744	369
329.972	371
330.201	390
330.43	412
330.658	435
330.887	426
331.115	424
331.344	385
331.572	352
331.801	362
332.03	346
332.258	341
332.486	334
332.715	325
332.943	310
333.172	325
333.4	312
333.629	340
333.857	340
334.085	341
334.314	364
334.542	392
334.771	362
334.999	336
335.227	324
335.455	302
335.684	318
335.912	323
336.14	309
336.369	314
336.597	312
336.825	309
337.053	329
337.281	308
337.51	298
337.738	314
337.966	301
338.194	302
338.422	316
338.65	304
338.878	309
339.106	290
339.334	318
339.562	307
339.79	314
340.018	284
340.246	314
340.474	294
340.702	301
340.93	297
341.158	295
341.386	297
341.614	281
341.842	290
342.07	308
342.298	305
342.526	298
342.754	292
342.981	270
343.209	287
343.437	299
343.665	301
343.893	301
344.12	300
344.348	307
344.576	304
344.804	312
345.031	314
345.259	317
345.487	324
345.714	312
345.942	286
346.17	328
346.397	283
346.625	319
346.853	310
347.08	286
347.308	289
347.535	285
347.763	316
347.99	297
348.218	317
348.445	308
348.673	292
348.9	300
349.128	286
349.355	289
349.583	291
349.81	284
350.037	274
350.265	274
350.492	290
350.72	284
350.947	289
351.174	276
351.402	308
351.629	276
351.856	298
352.083	301
352.311	302
352.538	317
352.765	304
352.992	273
353.22	290
353.447	282
353.674	286
353.901	294
354.128	271
354.355	263
354.583	264
354.81	272
355.037	281
355.264	261
355.491	274
355.718	266
355.945	262
356.172	242
356.399	266
356.626	288
356.853	273
357.08	263
357.307	249
357.534	259
357.761	252
357.988	264
358.215	275
358.441	264
358.668	269
358.895	276
359.122	264
359.349	273
359.576	285
359.802	300
360.029	317
360.256	324
360.483	306
360.709	296
360.936	290
361.163	283
361.39	276
361.616	277
361.843	270
362.07	285
362.296	274
362.523	283
362.749	265
362.976	282
363.203	275
363.429	286
363.656	264
363.882	274
364.109	278
364.335	279
364.562	269
364.788	280
365.015	280
365.241	263
365.468	272
365.694	292
365.92	292
366.147	270
366.373	252
366.599	267
366.826	265
367.052	267
367.278	288
367.505	264
367.731	286
367.957	251
368.184	262
368.41	292
368.636	286
368.862	277
369.089	270
369.315	265
369.541	293
369.767	266
369.993	260
370.219	264
370.445	264
370.672	241
370.898	282
371.124	281
371.35	259
371.576	254
371.802	256
372.028	258
372.254	269
372.48	263
372.706	273
372.932	280
373.158	288
373.384	283
373.61	266
373.835	240
374.061	266
374.287	261
374.513	253
374.739	261
374.965	256
375.191	256
375.416	256
375.642	248
375.868	256
376.094	261
376.319	256
376.545	268
376.771	262
376.997	260
377.222	259
377.448	267
377.674	257
377.899	250
378.125	261
378.35	267
378.576	246
378.802	257
379.027	264
379.253	262
379.478	254
379.704	242
379.929	246
380.155	245
380.38	282
380.606	260
380.831	264
381.057	278
381.282	266
381.507	245
381.733	269
381.958	252
382.184	265
382.409	276
382.634	256
382.86	248
383.085	248
383.31	248
383.535	259
383.761	262
383.986	256
384.211	256
384.436	276
384.662	243
384.887	245
385.112	256
385.337	283
385.562	274
385.787	276
386.013	266
386.238	272
386.463	258
386.688	284
386.913	282
387.138	260
387.363	278
387.588	280
387.813	266
388.038	268
388.263	256
388.488	254
388.713	260
388.938	279
389.163	275
389.387	251
389.612	265
389.837	246
390.062	257
390.287	281
390.512	260
390.736	276
390.961	268
391.186	262
391.411	267
391.636	252
391.86	263
392.085	288
392.31	266
392.534	282
392.759	269
392.984	273
393.208	270
393.433	269
393.658	265
393.882	279
394.107	262
394.331	275
394.556	271
394.78	274
395.005	265
395.229	254
395.454	263
395.678	269
395.903	288
396.127	283
396.352	296
396.576	268
396.801	280
397.025	291
397.249	270
397.474	287
397.698	266
397.922	276
398.147	301
398.371	283
398.595	296
398.82	298
399.044	301
399.268	305
399.492	316
399.717	319
399.941	346
400.165	382
400.389	353
400.613	320
400.837	317
401.062	304
401.286	284
401.51	306
401.734	294
401.958	297
402.182	280
402.406	301
402.63	296
402.854	300
403.078	307
403.302	289
403.526	300
403.75	316
403.974	307
404.198	294
404.422	330
404.645	313
404.869	313
405.093	335
405.317	340
405.541	389
405.765	343
405.988	320
406.212	354
406.436	344
406.66	358
406.883	371
407.107	344
407.331	358
407.555	396
407.778	398
408.002	359
408.226	320
408.449	328
408.673	332
408.896	346
409.12	370
409.344	364
409.567	306
409.791	292
410.014	315
410.238	304
410.461	310
410.685	306
410.908	337
411.132	341
411.355	356
411.578	332
411.802	313
412.025	290
412.249	305
412.472	328
412.695	340
412.919	320
413.142	319
413.365	309
413.589	306
413.812	276
414.035	296
414.258	299
414.482	281
414.705	292
414.928	285
415.151	282
415.374	297
415.597	293
415.821	301
416.044	292
416.267	297
416.49	298
416.713	284
416.936	285
417.159	288
417.382	292
417.605	293
417.828	299
418.051	320
418.274	297
418.497	293
418.72	298
418.943	275
419.166	295
419.389	308
419.611	296
419.834	306
420.057	312
420.28	296
420.503	309
420.726	293
420.948	317
421.171	340
421.394	351
421.617	327
421.839	310
422.062	317
422.285	317
422.507	363
422.73	386
422.953	365
423.175	336
423.398	306
423.621	317
423.843	320
424.066	342
424.288	312
424.511	354
424.733	369
424.956	432
425.178	390
425.401	403
425.623	389
425.846	356
426.068	336
426.291	332
426.513	329
426.735	346
426.958	372
427.18	434
427.402	471
427.625	552
427.847	464
428.069	436
428.292	372
428.514	339
428.736	326
428.958	338
429.181	304
429.403	324
429.625	309
429.847	330
430.069	382
430.292	361
430.514	320
430.736	302
430.958	317
431.18	324
431.402	282
431.624	304
431.846	294
432.068	285
432.29	293
432.512	294
432.734	291
432.956	297
433.178	304
433.4	301
433.622	300
433.844	288
434.066	307
434.287	282
434.509	285
434.731	296
434.953	302
435.175	342
435.397	322
435.618	340
435.84	378
436.062	402
436.284	461
436.505	377
436.727	339
436.949	338
437.17	321
437.392	323
437.614	328
437.835	352
438.057	417
438.278	461
438.5	445
438.721	506
438.943	473
439.165	374
439.386	329
439.608	338
439.829	360
440.05	391
440.272	384
440.493	374
440.715	326
440.936	304
441.158	341
441.379	324
441.6	309
441.822	350
442.043	348
442.264	402
442.486	406
442.707	369
442.928	322
443.149	346
443.371	372
443.592	388
443.813	440
444.034	460
444.255	381
444.476	348
444.698	321
444.919	338
445.14	409
445.361	375
445.582	361
445.803	393
446.024	469
446.245	463
446.466	419
446.687	369
446.908	329
447.129	316
447.35	325
447.571	334
447.792	311
448.013	313
448.234	326
448.455	373
448.675	424
448.896	478
449.117	424
449.338	389
449.559	457
449.779	488
450	397
450.221	355
450.442	336
450.662	296
450.883	334
451.104	306
451.324	321
451.545	305
451.766	288
451.986	281
452.207	296
452.428	291
452.648	281
452.869	282
453.089	284
453.31	298
453.53	281
453.751	269
453.971	282
454.192	304
454.412	283
454.633	287
454.853	287
455.073	277
455.294	309
455.514	346
455.734	312
455.955	282
456.175	269
456.395	275
456.616	268
456.836	266
457.056	277
457.276	255
457.497	263
457.717	248
457.937	259
458.157	261
458.377	267
458.598	296
458.818	339
459.038	374
459.258	390
459.478	335
459.698	288
459.918	293
460.138	273
460.358	282
460.578	284
460.798	284
461.018	293
461.238	283
461.458	293
461.678	300
461.898	267
462.118	285
462.338	299
462.558	299
462.777	305
462.997	308
463.217	323
463.437	302
463.657	297
463.876	273
464.096	299
464.316	300
464.536	298
464.755	315
464.975	317
465.195	338
465.414	382
465.634	339
465.854	305
466.073	312
466.293	300
466.512	302
466.732	301
466.951	301
467.171	286
467.391	296
467.61	302
467.829	294
468.049	297
468.268	301
468.488	273
468.707	275
468.927	274
469.146	283
469.365	281
469.585	263
469.804	297
470.023	301
470.243	300
470.462	296
470.681	286
470.901	311
471.12	290
471.339	274
471.558	282
471.777	293
471.997	300
472.216	304
472.435	316
472.654	322
472.873	296
473.092	285
473.311	284
473.53	281
473.749	301
473.968	329
474.187	397
474.406	388
474.625	341
474.844	294
475.063	308
475.282	289
475.501	291
475.72	274
475.939	292
476.158	291
476.377	307
476.596	299
476.814	294
477.033	320
477.252	314
477.471	309
477.69	279
477.908	298
478.127	316
478.346	316
478.564	315
478.783	314
479.002	299
479.22	325
479.439	329
479.658	337
479.876	327
480.095	345
480.313	370
480.532	353
480.751	338
480.969	365
481.188	399
481.406	412
481.624	355
481.843	352
482.061	337
482.28	334
482.498	346
482.717	338
482.935	327
483.153	321
483.372	345
483.59	345
483.808	326
484.027	338
484.245	327
484.463	328
484.681	344
484.9	333
485.118	337
485.336	326
485.554	336
485.772	339
485.99	338
486.209	338
486.427	349
486.645	352
486.863	360
487.081	355
487.299	338
487.517	358
487.735	342
487.953	359
488.171	354
488.389	328
488.607	346
488.825	357
489.043	365
489.261	356
489.479	369
489.696	376
489.914	372
490.132	365
490.35	380
490.568	380
490.786	382
491.003	395
491.221	388
491.439	393
491.657	375
491.874	392
492.092	417
492.31	404
492.527	418
492.745	427
492.963	401
493.18	422
493.398	402
493.615	421
493.833	409
494.05	419
494.268	400
494.485	410
494.703	408
494.92	410
495.138	409
495.355	404
495.573	426
495.79	424
496.008	413
496.225	427
496.442	418
496.66	412
496.877	405
497.094	425
497.312	403
497.529	421
497.746	444
497.963	430
498.181	437
498.398	446
498.615	449
498.832	460
499.049	452
499.267	467
499.484	446
499.701	492
499.918	513
500.135	520
500.352	506
500.569	505
500.786	511
501.003	502
501.22	517
501.437	502
501.654	498
501.871	506
502.088	500
502.305	474
502.522	475
502.739	452
502.956	449
503.172	473
503.389	404
503.606	424
503.823	428
504.04	438
504.256	433
504.473	417
504.69	435
504.907	422
505.123	399
505.34	415
505.557	408
505.773	404
505.99	378
506.207	410
506.423	393
506.64	408
506.856	381
507.073	374
507.289	404
507.506	390
507.722	391
507.939	396
508.155	398
508.372	368
508.588	390
508.805	393
509.021	404
509.238	413
509.454	409
509.67	392
509.887	390
510.103	390
510.319	414
510.536	486
510.752	773
510.968	597
511.184	416
511.401	381
511.617	381
511.833	364
512.049	359
512.265	349
512.481	347
512.698	366
512.914	369
513.13	365
513.346	356
513.562	366
513.778	378
513.994	398
514.21	381
514.426	404
514.642	436
514.858	455
515.074	464
515.29	584
515.506	854
515.721	650
515.937	461
516.153	423
516.369	404
516.585	390
516.801	374
517.016	369
517.232	357
517.448	361
517.664	378
517.879	379
518.095	374
518.311	372
518.527	373
518.742	374
518.958	381
519.173	365
519.389	384
519.605	371
519.82	372
520.036	398
520.251	385
520.467	407
520.682	401
520.898	392
521.113	423
521.329	460
521.544	516
521.76	678
521.975	1129
522.19	1073
522.406	575
522.621	442
522.836	390
523.052	375
523.267	358
523.482	346
523.698	337
523.913	364
524.128	356
524.343	344
524.559	343
524.774	322
524.989	331
525.204	325
525.419	324
525.634	329
525.849	337
526.064	299
526.28	318
526.495	321
526.71	311
526.925	299
527.14	317
527.355	292
527.57	293
527.785	309
527.999	314
528.214	293
528.429	304
528.644	316
528.859	298
529.074	304
529.289	317
529.503	361
529.718	378
529.933	330
530.148	324
530.363	300
530.577	298
530.792	304
531.007	287
531.221	289
531.436	295
531.651	307
531.865	284
532.08	295
532.295	292
532.509	285
532.724	293
532.938	294
533.153	295
533.367	292
533.582	280
533.796	292
534.011	272
534.225	273
534.44	272
534.654	291
534.868	289
535.083	279
535.297	282
535.511	304
535.726	285
535.94	295
536.154	288
536.369	301
536.583	286
536.797	261
537.011	277
537.225	276
537.44	283
537.654	288
537.868	291
538.082	284
538.296	270
538.51	277
538.724	286
538.938	278
539.153	266
539.367	307
539.581	294
539.795	270
540.009	270
540.222	281
540.436	290
540.65	290
540.864	285
541.078	294
541.292	306
541.506	273
541.72	284
541.934	288
542.147	264
542.361	285
542.575	291
542.789	281
543.002	281
543.216	283
543.43	295
543.644	284
543.857	283
544.071	295
544.285	275
544.498	275
544.712	273
544.925	269
545.139	269
545.352	285
545.566	265
545.779	279
545.993	270
546.206	285
546.42	285
546.633	250
546.847	269
547.06	270
547.274	261
547.487	261
547.7	276
547.914	283
548.127	275
548.34	257
548.554	264
548.767	262
548.98	254
549.193	254
549.407	264
549.62	263
549.833	257
550.046	259
550.259	255
550.473	276
550.686	254
550.899	262
551.112	235
551.325	262
551.538	268
551.751	264
551.964	258
552.177	273
552.39	267
552.603	256
552.816	245
553.029	259
553.242	258
553.455	256
553.667	262
553.88	255
554.093	279
554.306	268
554.519	255
554.732	269
554.944	264
555.157	244
555.37	257
555.583	267
555.795	233
556.008	254
556.221	253
556.433	252
556.646	240
556.859	244
557.071	226
557.284	256
557.496	244
557.709	237
557.921	260
558.134	247
558.346	245
558.559	243
558.771	241
558.984	240
559.196	242
559.409	248
559.621	242
559.833	231
560.046	229
560.258	239
560.47	247
560.683	238
560.895	242
561.107	233
561.32	243
561.532	235
561.744	243
561.956	224
562.168	227
562.381	244
562.593	250
562.805	238
563.017	229
563.229	250
563.441	231
563.653	232
563.865	242
