Data from 1982.PennyLincolnUp.Lamp.En5.5.200Scan.071819.P1_HRD10591_16-46-53-961.txt Node
Date: Thu Jul 18 16:46:53 EDT 2019
User: cochatt
Spectrometer: HR+D1059
Trigger mode: 1
Integration Time (sec): 1.000000E-1
Scans to average: 1
Electric dark correction enabled: true
Nonlinearity correction enabled: false
Boxcar width: 0
XAxis mode: Wavelengths
Number of Pixels in Spectrum: 2048
>>>>>Begin Spectral Data<<<<<
223.165	-11.88
223.4	-11.88
223.635	-11.88
223.869	-26.88
224.104	-12.88
224.338	-8.88
224.573	-12.88
224.808	-13.88
225.042	-5.88
225.277	-3.88
225.511	5.12
225.746	3.12
225.98	10.12
226.215	3.12
226.449	-4.88
226.683	14.12
226.918	32.12
227.152	34.12
227.387	38.12
227.621	34.12
227.856	43.12
228.09	58.12
228.324	59.12
228.559	60.12
228.793	59.12
229.027	69.12
229.262	105.12
229.496	96.12
229.73	118.12
229.964	129.12
230.199	125.12
230.433	110.12
230.667	106.12
230.901	106.12
231.136	94.12
231.37	101.12
231.604	101.12
231.838	109.12
232.072	109.12
232.306	94.12
232.541	114.12
232.775	114.12
233.009	91.12
233.243	94.12
233.477	101.12
233.711	118.12
233.945	92.12
234.179	104.12
234.413	110.12
234.647	102.12
234.881	110.12
235.115	117.12
235.349	116.12
235.583	110.12
235.817	85.12
236.051	124.12
236.285	124.12
236.519	114.12
236.753	118.12
236.987	131.12
237.221	148.12
237.455	181.12
237.689	144.12
237.922	117.12
238.156	134.12
238.39	116.12
238.624	117.12
238.858	114.12
239.091	107.12
239.325	124.12
239.559	112.12
239.793	106.12
240.027	109.12
240.26	119.12
240.494	140.12
240.728	127.12
240.961	136.12
241.195	123.12
241.429	111.12
241.662	117.12
241.896	115.12
242.13	132.12
242.363	136.12
242.597	106.12
242.83	132.12
243.064	115.12
243.298	114.12
243.531	115.12
243.765	118.12
243.998	116.12
244.232	133.12
244.465	119.12
244.699	119.12
244.932	126.12
245.166	127.12
245.399	126.12
245.633	117.12
245.866	112.12
246.099	123.12
246.333	119.12
246.566	133.12
246.8	145.12
247.033	125.12
247.266	148.12
247.5	132.12
247.733	151.12
247.966	151.12
248.2	155.12
248.433	158.12
248.666	143.12
248.899	156.12
249.133	156.12
249.366	159.12
249.599	155.12
249.832	157.12
250.066	158.12
250.299	164.12
250.532	161.12
250.765	164.12
250.998	196.12
251.231	179.12
251.465	178.12
251.698	165.12
251.931	164.12
252.164	165.12
252.397	143.12
252.63	171.12
252.863	174.12
253.096	178.12
253.329	195.12
253.562	190.12
253.795	167.12
254.028	168.12
254.261	178.12
254.494	186.12
254.727	214.12
254.96	216.12
255.193	218.12
255.426	204.12
255.659	185.12
255.892	196.12
256.124	193.12
256.357	188.12
256.59	181.12
256.823	185.12
257.056	175.12
257.289	178.12
257.521	186.12
257.754	186.12
257.987	174.12
258.22	169.12
258.452	164.12
258.685	175.12
258.918	175.12
259.151	172.12
259.383	195.12
259.616	170.12
259.849	190.12
260.081	182.12
260.314	197.12
260.547	189.12
260.779	203.12
261.012	203.12
261.244	190.12
261.477	182.12
261.71	198.12
261.942	187.12
262.175	182.12
262.407	197.12
262.64	168.12
262.872	191.12
263.105	172.12
263.337	168.12
263.57	172.12
263.802	183.12
264.035	168.12
264.267	178.12
264.499	172.12
264.732	185.12
264.964	175.12
265.197	179.12
265.429	153.12
265.661	175.12
265.894	188.12
266.126	163.12
266.358	174.12
266.591	186.12
266.823	190.12
267.055	178.12
267.287	186.12
267.52	192.12
267.752	194.12
267.984	188.12
268.216	189.12
268.448	183.12
268.681	184.12
268.913	200.12
269.145	198.12
269.377	218.12
269.609	220.12
269.841	221.12
270.073	206.12
270.306	230.12
270.538	239.12
270.77	261.12
271.002	243.12
271.234	224.12
271.466	239.12
271.698	235.12
271.93	240.12
272.162	247.12
272.394	256.12
272.626	235.12
272.858	233.12
273.09	209.12
273.322	212.12
273.553	207.12
273.785	204.12
274.017	217.12
274.249	219.12
274.481	213.12
274.713	220.12
274.945	213.12
275.176	198.12
275.408	206.12
275.64	215.12
275.872	208.12
276.104	223.12
276.335	206.12
276.567	221.12
276.799	212.12
277.031	242.12
277.262	222.12
277.494	240.12
277.726	226.12
277.957	225.12
278.189	206.12
278.421	210.12
278.652	214.12
278.884	204.12
279.115	207.12
279.347	206.12
279.579	218.12
279.81	210.12
280.042	189.12
280.273	213.12
280.505	201.12
280.736	204.12
280.968	209.12
281.199	208.12
281.431	207.12
281.662	192.12
281.894	218.12
282.125	194.12
282.356	229.12
282.588	249.12
282.819	216.12
283.051	217.12
283.282	216.12
283.513	236.12
283.745	200.12
283.976	203.12
284.207	221.12
284.439	211.12
284.67	209.12
284.901	221.12
285.132	198.12
285.364	212.12
285.595	223.12
285.826	212.12
286.057	217.12
286.288	217.12
286.52	214.12
286.751	230.12
286.982	229.12
287.213	215.12
287.444	228.12
287.675	217.12
287.906	230.12
288.138	231.12
288.369	237.12
288.6	215.12
288.831	249.12
289.062	239.12
289.293	208.12
289.524	204.12
289.755	220.12
289.986	218.12
290.217	216.12
290.448	223.12
290.679	232.12
290.91	215.12
291.141	212.12
291.371	204.12
291.602	218.12
291.833	228.12
292.064	212.12
292.295	228.12
292.526	223.12
292.757	231.12
292.987	222.12
293.218	202.12
293.449	219.12
293.68	231.12
293.91	214.12
294.141	223.12
294.372	235.12
294.603	215.12
294.833	206.12
295.064	229.12
295.295	212.12
295.525	236.12
295.756	220.12
295.987	213.12
296.217	242.12
296.448	247.12
296.679	234.12
296.909	223.12
297.14	218.12
297.37	220.12
297.601	223.12
297.831	205.12
298.062	224.12
298.292	241.12
298.523	234.12
298.753	222.12
298.984	232.12
299.214	230.12
299.445	240.12
299.675	224.12
299.905	237.12
300.136	230.12
300.366	229.12
300.597	235.12
300.827	252.12
301.057	250.12
301.288	242.12
301.518	235.12
301.748	253.12
301.979	244.12
302.209	253.12
302.439	233.12
302.669	224.12
302.9	236.12
303.13	231.12
303.36	257.12
303.59	238.12
303.82	248.12
304.051	249.12
304.281	261.12
304.511	245.12
304.741	240.12
304.971	252.12
305.201	235.12
305.431	243.12
305.661	245.12
305.891	258.12
306.121	263.12
306.352	267.12
306.582	261.12
306.812	264.12
307.042	255.12
307.272	238.12
307.502	250.12
307.731	246.12
307.961	247.12
308.191	252.12
308.421	266.12
308.651	269.12
308.881	264.12
309.111	250.12
309.341	260.12
309.571	275.12
309.8	258.12
310.03	271.12
310.26	302.12
310.49	295.12
310.72	299.12
310.949	297.12
311.179	311.12
311.409	299.12
311.639	284.12
311.868	301.12
312.098	294.12
312.328	299.12
312.557	322.12
312.787	297.12
313.017	298.12
313.246	293.12
313.476	299.12
313.706	297.12
313.935	294.12
314.165	297.12
314.394	297.12
314.624	314.12
314.853	301.12
315.083	294.12
315.312	291.12
315.542	281.12
315.771	258.12
316.001	288.12
316.23	292.12
316.46	287.12
316.689	283.12
316.919	291.12
317.148	276.12
317.377	293.12
317.607	291.12
317.836	288.12
318.065	282.12
318.295	286.12
318.524	291.12
318.753	292.12
318.983	286.12
319.212	302.12
319.441	279.12
319.67	288.12
319.9	286.12
320.129	300.12
320.358	287.12
320.587	292.12
320.816	291.12
321.046	293.12
321.275	328.12
321.504	309.12
321.733	315.12
321.962	318.12
322.191	328.12
322.42	311.12
322.649	363.12
322.878	354.12
323.108	374.12
323.337	379.12
323.566	392.12
323.795	427.12
324.024	499.12
324.253	635.12
324.482	893.12
324.71	1334.12
324.939	1744.12
325.168	1428.12
325.397	790.12
325.626	524.12
325.855	430.12
326.084	404.12
326.313	415.12
326.542	406.12
326.77	459.12
326.999	543.12
327.228	754.12
327.457	1126.12
327.686	1262.12
327.914	858.12
328.143	600.12
328.372	514.12
328.6	463.12
328.829	443.12
329.058	461.12
329.287	453.12
329.515	428.12
329.744	401.12
329.972	411.12
330.201	427.12
330.43	455.12
330.658	473.12
330.887	474.12
331.115	445.12
331.344	384.12
331.572	382.12
331.801	367.12
332.03	370.12
332.258	358.12
332.486	340.12
332.715	332.12
332.943	343.12
333.172	328.12
333.4	322.12
333.629	336.12
333.857	379.12
334.085	357.12
334.314	368.12
334.542	383.12
334.771	380.12
334.999	370.12
335.227	344.12
335.455	316.12
335.684	318.12
335.912	339.12
336.14	335.12
336.369	331.12
336.597	335.12
336.825	327.12
337.053	326.12
337.281	311.12
337.51	328.12
337.738	330.12
337.966	330.12
338.194	331.12
338.422	316.12
338.65	319.12
338.878	297.12
339.106	324.12
339.334	333.12
339.562	320.12
339.79	314.12
340.018	316.12
340.246	315.12
340.474	338.12
340.702	321.12
340.93	302.12
341.158	310.12
341.386	332.12
341.614	324.12
341.842	306.12
342.07	315.12
342.298	289.12
342.526	291.12
342.754	292.12
342.981	310.12
343.209	288.12
343.437	306.12
343.665	301.12
343.893	310.12
344.12	316.12
344.348	306.12
344.576	328.12
344.804	341.12
345.031	330.12
345.259	326.12
345.487	324.12
345.714	304.12
345.942	308.12
346.17	308.12
346.397	328.12
346.625	294.12
346.853	309.12
347.08	294.12
347.308	306.12
347.535	311.12
347.763	316.12
347.99	310.12
348.218	321.12
348.445	302.12
348.673	308.12
348.9	302.12
349.128	303.12
349.355	295.12
349.583	309.12
349.81	309.12
350.037	310.12
350.265	283.12
350.492	292.12
350.72	303.12
350.947	307.12
351.174	312.12
351.402	302.12
351.629	306.12
351.856	315.12
352.083	319.12
352.311	323.12
352.538	315.12
352.765	328.12
352.992	333.12
353.22	298.12
353.447	311.12
353.674	302.12
353.901	294.12
354.128	283.12
354.355	272.12
354.583	277.12
354.81	270.12
355.037	276.12
355.264	270.12
355.491	279.12
355.718	253.12
355.945	269.12
356.172	272.12
356.399	265.12
356.626	287.12
356.853	276.12
357.08	284.12
357.307	269.12
357.534	261.12
357.761	263.12
357.988	284.12
358.215	286.12
358.441	290.12
358.668	274.12
358.895	292.12
359.122	279.12
359.349	287.12
359.576	293.12
359.802	325.12
360.029	354.12
360.256	352.12
360.483	346.12
360.709	278.12
360.936	296.12
361.163	308.12
361.39	298.12
361.616	302.12
361.843	315.12
362.07	294.12
362.296	306.12
362.523	285.12
362.749	295.12
362.976	313.12
363.203	284.12
363.429	310.12
363.656	290.12
363.882	291.12
364.109	291.12
364.335	295.12
364.562	277.12
364.788	280.12
365.015	285.12
365.241	274.12
365.468	272.12
365.694	284.12
365.92	292.12
366.147	280.12
366.373	288.12
366.599	265.12
366.826	277.12
367.052	271.12
367.278	276.12
367.505	274.12
367.731	271.12
367.957	266.12
368.184	269.12
368.41	287.12
368.636	285.12
368.862	269.12
369.089	269.12
369.315	295.12
369.541	274.12
369.767	279.12
369.993	258.12
370.219	279.12
370.445	276.12
370.672	292.12
370.898	278.12
371.124	271.12
371.35	274.12
371.576	272.12
371.802	270.12
372.028	276.12
372.254	258.12
372.48	276.12
372.706	270.12
372.932	271.12
373.158	276.12
373.384	288.12
373.61	278.12
373.835	264.12
374.061	272.12
374.287	291.12
374.513	273.12
374.739	271.12
374.965	274.12
375.191	269.12
375.416	278.12
375.642	276.12
375.868	265.12
376.094	269.12
376.319	272.12
376.545	267.12
376.771	269.12
376.997	256.12
377.222	261.12
377.448	262.12
377.674	264.12
377.899	262.12
378.125	268.12
378.35	280.12
378.576	264.12
378.802	267.12
379.027	266.12
379.253	267.12
379.478	279.12
379.704	272.12
379.929	279.12
380.155	263.12
380.38	258.12
380.606	271.12
380.831	260.12
381.057	270.12
381.282	272.12
381.507	269.12
381.733	266.12
381.958	271.12
382.184	251.12
382.409	260.12
382.634	286.12
382.86	253.12
383.085	266.12
383.31	283.12
383.535	274.12
383.761	268.12
383.986	263.12
384.211	264.12
384.436	270.12
384.662	262.12
384.887	266.12
385.112	273.12
385.337	262.12
385.562	267.12
385.787	274.12
386.013	284.12
386.238	284.12
386.463	281.12
386.688	282.12
386.913	267.12
387.138	284.12
387.363	290.12
387.588	288.12
387.813	276.12
388.038	268.12
388.263	287.12
388.488	281.12
388.713	267.12
388.938	271.12
389.163	291.12
389.387	287.12
389.612	286.12
389.837	287.12
390.062	263.12
390.287	266.12
390.512	272.12
390.736	271.12
390.961	266.12
391.186	286.12
391.411	268.12
391.636	295.12
391.86	282.12
392.085	290.12
392.31	282.12
392.534	278.12
392.759	293.12
392.984	282.12
393.208	277.12
393.433	280.12
393.658	289.12
393.882	285.12
394.107	283.12
394.331	303.12
394.556	267.12
394.78	271.12
395.005	279.12
395.229	280.12
395.454	287.12
395.678	296.12
395.903	305.12
396.127	308.12
396.352	297.12
396.576	295.12
396.801	279.12
397.025	276.12
397.249	293.12
397.474	294.12
397.698	287.12
397.922	291.12
398.147	317.12
398.371	320.12
398.595	291.12
398.82	303.12
399.044	308.12
399.268	308.12
399.492	324.12
399.717	319.12
399.941	345.12
400.165	361.12
400.389	374.12
400.613	344.12
400.837	322.12
401.062	296.12
401.286	311.12
401.51	315.12
401.734	301.12
401.958	310.12
402.182	315.12
402.406	315.12
402.63	310.12
402.854	324.12
403.078	319.12
403.302	331.12
403.526	319.12
403.75	301.12
403.974	310.12
404.198	312.12
404.422	308.12
404.645	337.12
404.869	334.12
405.093	348.12
405.317	364.12
405.541	378.12
405.765	349.12
405.988	327.12
406.212	338.12
406.436	345.12
406.66	348.12
406.883	346.12
407.107	356.12
407.331	382.12
407.555	413.12
407.778	402.12
408.002	358.12
408.226	359.12
408.449	327.12
408.673	357.12
408.896	386.12
409.12	392.12
409.344	354.12
409.567	334.12
409.791	341.12
410.014	316.12
410.238	336.12
410.461	314.12
410.685	311.12
410.908	333.12
411.132	354.12
411.355	358.12
411.578	351.12
411.802	334.12
412.025	332.12
412.249	319.12
412.472	350.12
412.695	368.12
412.919	324.12
413.142	311.12
413.365	317.12
413.589	306.12
413.812	299.12
414.035	297.12
414.258	292.12
414.482	289.12
414.705	295.12
414.928	290.12
415.151	304.12
415.374	323.12
415.597	307.12
415.821	291.12
416.044	315.12
416.267	295.12
416.49	293.12
416.713	307.12
416.936	296.12
417.159	299.12
417.382	308.12
417.605	329.12
417.828	322.12
418.051	320.12
418.274	314.12
418.497	302.12
418.72	300.12
418.943	297.12
419.166	291.12
419.389	319.12
419.611	322.12
419.834	318.12
420.057	327.12
420.28	310.12
420.503	312.12
420.726	304.12
420.948	308.12
421.171	343.12
421.394	366.12
421.617	342.12
421.839	311.12
422.062	312.12
422.285	325.12
422.507	366.12
422.73	406.12
422.953	390.12
423.175	342.12
423.398	317.12
423.621	336.12
423.843	334.12
424.066	343.12
424.288	350.12
424.511	363.12
424.733	389.12
424.956	437.12
425.178	427.12
425.401	408.12
425.623	421.12
425.846	382.12
426.068	351.12
426.291	350.12
426.513	362.12
426.735	336.12
426.958	382.12
427.18	404.12
427.402	518.12
427.625	538.12
427.847	490.12
428.069	455.12
428.292	388.12
428.514	354.12
428.736	349.12
428.958	315.12
429.181	312.12
429.403	331.12
429.625	324.12
429.847	324.12
430.069	371.12
430.292	379.12
430.514	334.12
430.736	334.12
430.958	325.12
431.18	291.12
431.402	314.12
431.624	320.12
431.846	293.12
432.068	291.12
432.29	296.12
432.512	296.12
432.734	316.12
432.956	310.12
433.178	312.12
433.4	318.12
433.622	299.12
433.844	281.12
434.066	310.12
434.287	301.12
434.509	286.12
434.731	298.12
434.953	300.12
435.175	324.12
435.397	346.12
435.618	345.12
435.84	362.12
436.062	421.12
436.284	440.12
436.505	392.12
436.727	347.12
436.949	356.12
437.17	335.12
437.392	328.12
437.614	350.12
437.835	363.12
438.057	458.12
438.278	482.12
438.5	485.12
438.721	522.12
438.943	485.12
439.165	383.12
439.386	354.12
439.608	342.12
439.829	350.12
440.05	370.12
440.272	410.12
440.493	360.12
440.715	346.12
440.936	339.12
441.158	322.12
441.379	351.12
441.6	338.12
441.822	349.12
442.043	372.12
442.264	420.12
442.486	440.12
442.707	379.12
442.928	374.12
443.149	370.12
443.371	390.12
443.592	397.12
443.813	444.12
444.034	477.12
444.255	396.12
444.476	349.12
444.698	359.12
444.919	355.12
445.14	432.12
445.361	382.12
445.582	379.12
445.803	430.12
446.024	503.12
446.245	473.12
446.466	436.12
446.687	390.12
446.908	351.12
447.129	318.12
447.35	322.12
447.571	330.12
447.792	331.12
448.013	326.12
448.234	332.12
448.455	380.12
448.675	465.12
448.896	487.12
449.117	422.12
449.338	410.12
449.559	466.12
449.779	515.12
450	422.12
450.221	363.12
450.442	321.12
450.662	328.12
450.883	335.12
451.104	343.12
451.324	333.12
451.545	311.12
451.766	318.12
451.986	306.12
452.207	311.12
452.428	296.12
452.648	314.12
452.869	277.12
453.089	281.12
453.31	308.12
453.53	307.12
453.751	282.12
453.971	304.12
454.192	301.12
454.412	298.12
454.633	301.12
454.853	292.12
455.073	292.12
455.294	309.12
455.514	347.12
455.734	330.12
455.955	300.12
456.175	270.12
456.395	263.12
456.616	270.12
456.836	269.12
457.056	258.12
457.276	272.12
457.497	287.12
457.717	270.12
457.937	288.12
458.157	272.12
458.377	270.12
458.598	291.12
458.818	326.12
459.038	386.12
459.258	394.12
459.478	330.12
459.698	326.12
459.918	294.12
460.138	291.12
460.358	314.12
460.578	303.12
460.798	325.12
461.018	306.12
461.238	297.12
461.458	293.12
461.678	295.12
461.898	300.12
462.118	302.12
462.338	318.12
462.558	313.12
462.777	314.12
462.997	300.12
463.217	303.12
463.437	313.12
463.657	299.12
463.876	312.12
464.096	312.12
464.316	312.12
464.536	319.12
464.755	308.12
464.975	330.12
465.195	347.12
465.414	404.12
465.634	360.12
465.854	329.12
466.073	318.12
466.293	316.12
466.512	282.12
466.732	290.12
466.951	286.12
467.171	305.12
467.391	313.12
467.61	294.12
467.829	309.12
468.049	297.12
468.268	295.12
468.488	290.12
468.707	293.12
468.927	292.12
469.146	293.12
469.365	272.12
469.585	284.12
469.804	295.12
470.023	298.12
470.243	298.12
470.462	294.12
470.681	315.12
470.901	316.12
471.12	287.12
471.339	299.12
471.558	286.12
471.777	315.12
471.997	306.12
472.216	317.12
472.435	344.12
472.654	331.12
472.873	287.12
473.092	303.12
473.311	316.12
473.53	316.12
473.749	316.12
473.968	350.12
474.187	400.12
474.406	415.12
474.625	341.12
474.844	334.12
475.063	330.12
475.282	300.12
475.501	324.12
475.72	310.12
475.939	322.12
476.158	300.12
476.377	294.12
476.596	316.12
476.814	300.12
477.033	317.12
477.252	315.12
477.471	321.12
477.69	297.12
477.908	318.12
478.127	332.12
478.346	304.12
478.564	326.12
478.783	326.12
479.002	314.12
479.22	326.12
479.439	346.12
479.658	336.12
479.876	370.12
480.095	346.12
480.313	364.12
480.532	357.12
480.751	354.12
480.969	365.12
481.188	414.12
481.406	436.12
481.624	396.12
481.843	374.12
482.061	342.12
482.28	335.12
482.498	355.12
482.717	344.12
482.935	358.12
483.153	363.12
483.372	358.12
483.59	348.12
483.808	369.12
484.027	334.12
484.245	345.12
484.463	331.12
484.681	359.12
484.9	333.12
485.118	360.12
485.336	378.12
485.554	353.12
485.772	350.12
485.99	362.12
486.209	360.12
486.427	365.12
486.645	376.12
486.863	367.12
487.081	370.12
487.299	381.12
487.517	355.12
487.735	359.12
487.953	376.12
488.171	372.12
488.389	371.12
488.607	379.12
488.825	380.12
489.043	355.12
489.261	363.12
489.479	372.12
489.696	353.12
489.914	364.12
490.132	363.12
490.35	387.12
490.568	384.12
490.786	392.12
491.003	388.12
491.221	423.12
491.439	406.12
491.657	382.12
491.874	420.12
492.092	398.12
492.31	421.12
492.527	425.12
492.745	418.12
492.963	401.12
493.18	432.12
493.398	416.12
493.615	401.12
493.833	418.12
494.05	418.12
494.268	424.12
494.485	441.12
494.703	423.12
494.92	400.12
495.138	446.12
495.355	443.12
495.573	446.12
495.79	430.12
496.008	414.12
496.225	417.12
496.442	435.12
496.66	434.12
496.877	436.12
497.094	434.12
497.312	440.12
497.529	433.12
497.746	422.12
497.963	460.12
498.181	446.12
498.398	461.12
498.615	458.12
498.832	478.12
499.049	471.12
499.267	479.12
499.484	487.12
499.701	487.12
499.918	507.12
500.135	502.12
500.352	504.12
500.569	535.12
500.786	523.12
501.003	542.12
501.22	516.12
501.437	519.12
501.654	505.12
501.871	522.12
502.088	504.12
