Data from 1982.PennyLincolnUp.Lamp.En5.5.200Scan.071819.P1_HRD10591_16-47-08-964.txt Node
Date: Thu Jul 18 16:47:08 EDT 2019
User: cochatt
Spectrometer: HR+D1059
Trigger mode: 1
Integration Time (sec): 1.000000E-1
Scans to average: 1
Electric dark correction enabled: true
Nonlinearity correction enabled: false
Boxcar width: 0
XAxis mode: Wavelengths
Number of Pixels in Spectrum: 2048
>>>>>Begin Spectral Data<<<<<
223.165	2.31
223.4	2.31
223.635	2.31
223.869	-3.69
224.104	-19.69
224.338	-16.69
224.573	-21.69
224.808	-13.69
225.042	-6.69
225.277	-6.69
225.511	13.31
225.746	-3.69
225.98	3.31
226.215	-4.69
226.449	17.31
226.683	21.31
226.918	27.31
227.152	12.31
227.387	43.31
227.621	35.31
227.856	45.31
228.09	56.31
228.324	51.31
228.559	58.31
228.793	54.31
229.027	89.31
229.262	96.31
229.496	107.31
229.73	97.31
229.964	124.31
230.199	110.31
230.433	112.31
230.667	113.31
230.901	89.31
231.136	98.31
231.37	111.31
231.604	111.31
231.838	101.31
232.072	106.31
232.306	107.31
232.541	112.31
232.775	108.31
233.009	106.31
233.243	96.31
233.477	110.31
233.711	100.31
233.945	95.31
234.179	98.31
234.413	97.31
234.647	106.31
234.881	118.31
235.115	107.31
235.349	115.31
235.583	110.31
235.817	107.31
236.051	112.31
236.285	108.31
236.519	108.31
236.753	124.31
236.987	131.31
237.221	165.31
237.455	193.31
237.689	168.31
237.922	115.31
238.156	115.31
238.39	114.31
238.624	104.31
238.858	96.31
239.091	109.31
239.325	108.31
239.559	117.31
239.793	108.31
240.027	123.31
240.26	124.31
240.494	137.31
240.728	129.31
240.961	135.31
241.195	125.31
241.429	117.31
241.662	124.31
241.896	119.31
242.13	115.31
242.363	112.31
242.597	122.31
242.83	115.31
243.064	130.31
243.298	132.31
243.531	120.31
243.765	130.31
243.998	122.31
244.232	120.31
244.465	119.31
244.699	115.31
244.932	122.31
245.166	131.31
245.399	121.31
245.633	129.31
245.866	134.31
246.099	131.31
246.333	127.31
246.566	128.31
246.8	131.31
247.033	127.31
247.266	133.31
247.5	128.31
247.733	139.31
247.966	150.31
248.2	151.31
248.433	144.31
248.666	151.31
248.899	151.31
249.133	171.31
249.366	170.31
249.599	163.31
249.832	159.31
250.066	168.31
250.299	152.31
250.532	169.31
250.765	185.31
250.998	181.31
251.231	197.31
251.465	187.31
251.698	165.31
251.931	176.31
252.164	168.31
252.397	166.31
252.63	152.31
252.863	166.31
253.096	192.31
253.329	186.31
253.562	179.31
253.795	166.31
254.028	185.31
254.261	187.31
254.494	202.31
254.727	206.31
254.96	229.31
255.193	201.31
255.426	203.31
255.659	193.31
255.892	200.31
256.124	182.31
256.357	190.31
256.59	175.31
256.823	182.31
257.056	189.31
257.289	173.31
257.521	204.31
257.754	163.31
257.987	169.31
258.22	187.31
258.452	175.31
258.685	160.31
258.918	167.31
259.151	183.31
259.383	173.31
259.616	188.31
259.849	192.31
260.081	199.31
260.314	215.31
260.547	221.31
260.779	193.31
261.012	186.31
261.244	174.31
261.477	188.31
261.71	183.31
261.942	181.31
262.175	186.31
262.407	198.31
262.64	183.31
262.872	173.31
263.105	181.31
263.337	181.31
263.57	167.31
263.802	182.31
264.035	156.31
264.267	195.31
264.499	183.31
264.732	183.31
264.964	189.31
265.197	172.31
265.429	169.31
265.661	169.31
265.894	191.31
266.126	199.31
266.358	165.31
266.591	186.31
266.823	194.31
267.055	179.31
267.287	170.31
267.52	195.31
267.752	178.31
267.984	179.31
268.216	200.31
268.448	175.31
268.681	177.31
268.913	205.31
269.145	213.31
269.377	224.31
269.609	224.31
269.841	217.31
270.073	234.31
270.306	248.31
270.538	259.31
270.77	255.31
271.002	253.31
271.234	232.31
271.466	233.31
271.698	246.31
271.93	263.31
272.162	256.31
272.394	263.31
272.626	247.31
272.858	219.31
273.09	225.31
273.322	215.31
273.553	212.31
273.785	221.31
274.017	197.31
274.249	214.31
274.481	214.31
274.713	213.31
274.945	217.31
275.176	217.31
275.408	229.31
275.64	209.31
275.872	220.31
276.104	229.31
276.335	213.31
276.567	215.31
276.799	231.31
277.031	247.31
277.262	251.31
277.494	256.31
277.726	251.31
277.957	235.31
278.189	234.31
278.421	216.31
278.652	222.31
278.884	230.31
279.115	204.31
279.347	221.31
279.579	225.31
279.81	211.31
280.042	195.31
280.273	222.31
280.505	198.31
280.736	213.31
280.968	202.31
281.199	217.31
281.431	204.31
281.662	205.31
281.894	221.31
282.125	224.31
282.356	259.31
282.588	251.31
282.819	257.31
283.051	240.31
283.282	203.31
283.513	238.31
283.745	235.31
283.976	215.31
284.207	224.31
284.439	230.31
284.67	215.31
284.901	218.31
285.132	199.31
285.364	227.31
285.595	202.31
285.826	223.31
286.057	232.31
286.288	226.31
286.52	231.31
286.751	229.31
286.982	224.31
287.213	230.31
287.444	238.31
287.675	229.31
287.906	238.31
288.138	225.31
288.369	243.31
288.6	236.31
288.831	229.31
289.062	238.31
289.293	230.31
289.524	231.31
289.755	228.31
289.986	215.31
290.217	218.31
290.448	234.31
290.679	218.31
290.91	220.31
291.141	216.31
291.371	220.31
291.602	227.31
291.833	216.31
292.064	227.31
292.295	223.31
292.526	215.31
292.757	226.31
292.987	227.31
293.218	227.31
293.449	235.31
293.68	236.31
293.91	223.31
294.141	225.31
294.372	230.31
294.603	230.31
294.833	233.31
295.064	218.31
295.295	229.31
295.525	251.31
295.756	216.31
295.987	248.31
296.217	242.31
296.448	262.31
296.679	229.31
296.909	223.31
297.14	234.31
297.37	257.31
297.601	224.31
297.831	229.31
298.062	222.31
298.292	239.31
298.523	252.31
298.753	232.31
298.984	223.31
299.214	249.31
299.445	235.31
299.675	229.31
299.905	246.31
300.136	228.31
300.366	243.31
300.597	239.31
300.827	235.31
301.057	242.31
301.288	255.31
301.518	248.31
301.748	249.31
301.979	249.31
302.209	247.31
302.439	257.31
302.669	264.31
302.9	257.31
303.13	251.31
303.36	256.31
303.59	252.31
303.82	279.31
304.051	281.31
304.281	269.31
304.511	236.31
304.741	240.31
304.971	248.31
305.201	238.31
305.431	249.31
305.661	234.31
305.891	255.31
306.121	260.31
306.352	269.31
306.582	261.31
306.812	255.31
307.042	251.31
307.272	252.31
307.502	254.31
307.731	258.31
307.961	251.31
308.191	256.31
308.421	262.31
308.651	244.31
308.881	270.31
309.111	281.31
309.341	277.31
309.571	278.31
309.8	287.31
310.03	293.31
310.26	291.31
310.49	286.31
310.72	304.31
310.949	324.31
311.179	323.31
311.409	289.31
311.639	321.31
311.868	301.31
312.098	310.31
312.328	313.31
312.557	311.31
312.787	334.31
313.017	334.31
313.246	323.31
313.476	282.31
313.706	296.31
313.935	297.31
314.165	304.31
314.394	326.31
314.624	325.31
314.853	305.31
315.083	285.31
315.312	293.31
315.542	279.31
315.771	295.31
316.001	306.31
316.23	298.31
316.46	313.31
316.689	304.31
316.919	302.31
317.148	286.31
317.377	316.31
317.607	302.31
317.836	298.31
318.065	296.31
318.295	307.31
318.524	298.31
318.753	290.31
318.983	296.31
319.212	299.31
319.441	294.31
319.67	298.31
319.9	289.31
320.129	301.31
320.358	301.31
320.587	305.31
320.816	318.31
321.046	314.31
321.275	309.31
321.504	301.31
321.733	335.31
321.962	321.31
322.191	344.31
322.42	337.31
322.649	348.31
322.878	350.31
323.108	388.31
323.337	414.31
323.566	401.31
323.795	446.31
324.024	513.31
324.253	640.31
324.482	906.31
324.71	1405.31
324.939	1824.31
325.168	1459.31
325.397	773.31
325.626	538.31
325.855	448.31
326.084	410.31
326.313	408.31
326.542	412.31
326.77	457.31
326.999	565.31
327.228	809.31
327.457	1208.31
327.686	1337.31
327.914	896.31
328.143	599.31
328.372	507.31
328.6	476.31
328.829	453.31
329.058	475.31
329.287	477.31
329.515	442.31
329.744	413.31
329.972	419.31
330.201	442.31
330.43	470.31
330.658	482.31
330.887	504.31
331.115	465.31
331.344	427.31
331.572	395.31
331.801	390.31
332.03	375.31
332.258	375.31
332.486	353.31
332.715	348.31
332.943	359.31
333.172	339.31
333.4	359.31
333.629	371.31
333.857	363.31
334.085	364.31
334.314	375.31
334.542	407.31
334.771	419.31
334.999	384.31
335.227	348.31
335.455	338.31
335.684	337.31
335.912	357.31
336.14	328.31
336.369	333.31
336.597	343.31
336.825	341.31
337.053	332.31
337.281	330.31
337.51	309.31
337.738	340.31
337.966	328.31
338.194	344.31
338.422	319.31
338.65	325.31
338.878	330.31
339.106	337.31
339.334	331.31
339.562	344.31
339.79	321.31
340.018	327.31
340.246	319.31
340.474	337.31
340.702	324.31
340.93	304.31
341.158	327.31
341.386	319.31
341.614	326.31
341.842	315.31
342.07	315.31
342.298	324.31
342.526	304.31
342.754	317.31
342.981	327.31
343.209	304.31
343.437	319.31
343.665	331.31
343.893	305.31
344.12	337.31
344.348	328.31
344.576	310.31
344.804	327.31
345.031	324.31
345.259	347.31
345.487	338.31
345.714	330.31
345.942	325.31
346.17	320.31
346.397	299.31
346.625	304.31
346.853	313.31
347.08	315.31
347.308	320.31
347.535	326.31
347.763	329.31
347.99	311.31
348.218	334.31
348.445	312.31
348.673	332.31
348.9	319.31
349.128	328.31
349.355	295.31
349.583	314.31
349.81	299.31
350.037	306.31
350.265	311.31
350.492	297.31
350.72	317.31
350.947	315.31
351.174	313.31
351.402	320.31
351.629	335.31
351.856	323.31
352.083	309.31
352.311	329.31
352.538	328.31
352.765	341.31
352.992	320.31
353.22	304.31
353.447	311.31
353.674	282.31
353.901	304.31
354.128	296.31
354.355	282.31
354.583	292.31
354.81	313.31
355.037	289.31
355.264	276.31
355.491	268.31
355.718	281.31
355.945	279.31
356.172	278.31
356.399	295.31
356.626	285.31
356.853	291.31
357.08	293.31
357.307	291.31
357.534	281.31
357.761	277.31
357.988	290.31
358.215	302.31
358.441	275.31
358.668	307.31
358.895	300.31
359.122	283.31
359.349	298.31
359.576	298.31
359.802	329.31
360.029	371.31
360.256	348.31
360.483	335.31
360.709	319.31
360.936	321.31
361.163	295.31
361.39	311.31
361.616	307.31
361.843	300.31
362.07	299.31
362.296	309.31
362.523	291.31
362.749	295.31
362.976	307.31
363.203	303.31
363.429	278.31
363.656	302.31
363.882	307.31
364.109	301.31
364.335	286.31
364.562	293.31
364.788	283.31
365.015	288.31
365.241	274.31
365.468	297.31
365.694	292.31
365.92	283.31
366.147	288.31
366.373	292.31
366.599	273.31
366.826	293.31
367.052	273.31
367.278	303.31
367.505	301.31
367.731	310.31
367.957	300.31
368.184	289.31
368.41	293.31
368.636	284.31
368.862	311.31
369.089	279.31
369.315	283.31
369.541	303.31
369.767	279.31
369.993	267.31
370.219	269.31
370.445	283.31
370.672	276.31
370.898	256.31
371.124	275.31
371.35	279.31
371.576	271.31
371.802	264.31
372.028	281.31
372.254	283.31
372.48	278.31
372.706	286.31
372.932	279.31
373.158	284.31
373.384	279.31
373.61	289.31
373.835	273.31
374.061	279.31
374.287	291.31
374.513	287.31
374.739	283.31
374.965	287.31
375.191	317.31
375.416	284.31
375.642	299.31
375.868	289.31
376.094	288.31
376.319	272.31
376.545	262.31
376.771	280.31
376.997	263.31
377.222	258.31
377.448	269.31
377.674	263.31
377.899	276.31
378.125	264.31
378.35	257.31
378.576	275.31
378.802	263.31
379.027	267.31
379.253	289.31
379.478	284.31
379.704	274.31
379.929	294.31
380.155	243.31
380.38	279.31
380.606	268.31
380.831	272.31
381.057	291.31
381.282	279.31
381.507	286.31
381.733	274.31
381.958	278.31
382.184	279.31
382.409	267.31
382.634	275.31
382.86	274.31
383.085	278.31
383.31	272.31
383.535	278.31
383.761	272.31
383.986	283.31
384.211	268.31
384.436	284.31
384.662	283.31
384.887	279.31
385.112	269.31
385.337	273.31
385.562	280.31
385.787	281.31
386.013	300.31
386.238	275.31
386.463	270.31
386.688	285.31
386.913	283.31
387.138	272.31
387.363	287.31
387.588	271.31
387.813	298.31
388.038	277.31
388.263	291.31
388.488	284.31
388.713	284.31
388.938	284.31
389.163	295.31
389.387	281.31
389.612	284.31
389.837	276.31
390.062	273.31
390.287	292.31
390.512	270.31
390.736	287.31
390.961	284.31
391.186	296.31
391.411	270.31
391.636	290.31
391.86	279.31
392.085	321.31
392.31	294.31
392.534	299.31
392.759	302.31
392.984	270.31
393.208	271.31
393.433	281.31
393.658	281.31
393.882	281.31
394.107	289.31
394.331	274.31
394.556	277.31
394.78	286.31
395.005	295.31
395.229	283.31
395.454	287.31
395.678	270.31
395.903	280.31
396.127	308.31
396.352	299.31
396.576	299.31
396.801	299.31
397.025	271.31
397.249	290.31
397.474	296.31
397.698	277.31
397.922	287.31
398.147	310.31
398.371	307.31
398.595	305.31
398.82	317.31
399.044	327.31
399.268	324.31
399.492	325.31
399.717	353.31
399.941	374.31
400.165	377.31
400.389	357.31
400.613	351.31
400.837	330.31
401.062	323.31
401.286	317.31
401.51	329.31
401.734	329.31
401.958	322.31
402.182	303.31
402.406	321.31
402.63	337.31
402.854	314.31
403.078	310.31
403.302	317.31
403.526	337.31
403.75	329.31
403.974	313.31
404.198	326.31
404.422	334.31
404.645	323.31
404.869	341.31
405.093	360.31
405.317	379.31
405.541	395.31
405.765	355.31
405.988	369.31
406.212	355.31
406.436	384.31
406.66	359.31
406.883	362.31
407.107	362.31
407.331	398.31
407.555	416.31
407.778	419.31
408.002	389.31
408.226	377.31
408.449	354.31
408.673	360.31
408.896	367.31
409.12	409.31
409.344	391.31
409.567	345.31
409.791	328.31
410.014	308.31
410.238	316.31
410.461	333.31
410.685	332.31
410.908	336.31
411.132	362.31
411.355	388.31
411.578	368.31
411.802	331.31
412.025	315.31
412.249	326.31
412.472	343.31
412.695	365.31
412.919	361.31
413.142	349.31
413.365	332.31
413.589	312.31
413.812	314.31
414.035	314.31
414.258	324.31
414.482	319.31
414.705	319.31
414.928	302.31
415.151	309.31
415.374	309.31
415.597	304.31
415.821	305.31
416.044	308.31
416.267	315.31
416.49	312.31
416.713	300.31
416.936	297.31
417.159	316.31
417.382	315.31
417.605	312.31
417.828	334.31
418.051	301.31
418.274	315.31
418.497	321.31
418.72	303.31
418.943	311.31
419.166	317.31
419.389	315.31
419.611	317.31
419.834	336.31
420.057	335.31
420.28	317.31
420.503	340.31
420.726	335.31
420.948	363.31
421.171	367.31
421.394	363.31
421.617	351.31
421.839	339.31
422.062	338.31
422.285	352.31
422.507	389.31
422.73	419.31
422.953	379.31
423.175	342.31
423.398	346.31
423.621	359.31
423.843	353.31
424.066	345.31
424.288	354.31
424.511	336.31
424.733	390.31
424.956	442.31
425.178	436.31
425.401	418.31
425.623	432.31
425.846	400.31
426.068	361.31
426.291	362.31
426.513	361.31
426.735	379.31
426.958	389.31
427.18	459.31
427.402	520.31
427.625	585.31
427.847	519.31
428.069	445.31
428.292	392.31
428.514	363.31
428.736	343.31
428.958	326.31
429.181	335.31
429.403	338.31
429.625	334.31
429.847	352.31
430.069	388.31
430.292	385.31
430.514	343.31
430.736	343.31
430.958	326.31
431.18	306.31
431.402	301.31
431.624	309.31
431.846	303.31
432.068	297.31
432.29	303.31
432.512	314.31
432.734	312.31
432.956	309.31
433.178	324.31
433.4	332.31
433.622	299.31
433.844	304.31
434.066	323.31
434.287	317.31
434.509	310.31
434.731	306.31
434.953	309.31
435.175	344.31
435.397	357.31
435.618	369.31
435.84	396.31
436.062	454.31
436.284	497.31
436.505	425.31
436.727	362.31
436.949	344.31
437.17	334.31
437.392	342.31
437.614	348.31
437.835	365.31
438.057	421.31
438.278	485.31
438.5	481.31
438.721	529.31
438.943	491.31
439.165	397.31
439.386	360.31
439.608	381.31
439.829	372.31
440.05	381.31
440.272	400.31
440.493	390.31
440.715	360.31
440.936	352.31
441.158	350.31
441.379	333.31
441.6	354.31
441.822	359.31
442.043	388.31
442.264	437.31
442.486	463.31
442.707	405.31
442.928	370.31
443.149	368.31
443.371	385.31
443.592	422.31
443.813	465.31
444.034	514.31
444.255	406.31
444.476	360.31
444.698	344.31
444.919	348.31
445.14	438.31
445.361	417.31
445.582	399.31
445.803	439.31
446.024	510.31
446.245	487.31
446.466	455.31
446.687	409.31
446.908	376.31
447.129	344.31
447.35	314.31
447.571	329.31
447.792	330.31
448.013	347.31
448.234	376.31
448.455	385.31
448.675	449.31
448.896	514.31
449.117	427.31
449.338	443.31
449.559	484.31
449.779	533.31
450	438.31
450.221	393.31
450.442	337.31
450.662	340.31
450.883	341.31
451.104	352.31
451.324	331.31
451.545	336.31
451.766	326.31
451.986	299.31
452.207	297.31
452.428	303.31
452.648	311.31
452.869	301.31
453.089	290.31
453.31	304.31
453.53	312.31
453.751	310.31
453.971	304.31
454.192	332.31
454.412	320.31
454.633	299.31
454.853	299.31
455.073	305.31
455.294	338.31
455.514	351.31
455.734	352.31
455.955	299.31
456.175	267.31
456.395	293.31
456.616	289.31
456.836	270.31
457.056	277.31
457.276	263.31
457.497	275.31
457.717	268.31
457.937	272.31
458.157	285.31
458.377	287.31
458.598	312.31
458.818	361.31
459.038	393.31
459.258	417.31
459.478	349.31
459.698	327.31
459.918	298.31
460.138	302.31
460.358	310.31
460.578	292.31
460.798	316.31
461.018	313.31
461.238	299.31
461.458	313.31
461.678	297.31
461.898	298.31
462.118	311.31
462.338	302.31
462.558	304.31
462.777	305.31
462.997	320.31
463.217	323.31
463.437	324.31
463.657	300.31
463.876	323.31
464.096	325.31
464.316	309.31
464.536	312.31
464.755	336.31
464.975	334.31
465.195	364.31
465.414	407.31
465.634	369.31
465.854	327.31
466.073	328.31
466.293	320.31
466.512	280.31
466.732	278.31
466.951	289.31
467.171	297.31
467.391	301.31
467.61	322.31
467.829	299.31
468.049	299.31
468.268	308.31
468.488	291.31
468.707	292.31
468.927	304.31
469.146	278.31
469.365	303.31
469.585	294.31
469.804	287.31
470.023	299.31
470.243	318.31
470.462	317.31
470.681	326.31
470.901	325.31
471.12	317.31
471.339	309.31
471.558	317.31
471.777	295.31
471.997	300.31
472.216	313.31
472.435	344.31
472.654	313.31
472.873	304.31
473.092	300.31
473.311	309.31
473.53	286.31
473.749	326.31
473.968	361.31
474.187	426.31
474.406	436.31
474.625	357.31
474.844	315.31
475.063	302.31
475.282	307.31
475.501	304.31
475.72	316.31
475.939	296.31
476.158	314.31
476.377	302.31
476.596	312.31
476.814	307.31
477.033	331.31
477.252	337.31
477.471	318.31
477.69	326.31
477.908	316.31
478.127	323.31
478.346	298.31
478.564	338.31
478.783	326.31
479.002	336.31
479.22	375.31
479.439	363.31
479.658	351.31
479.876	371.31
480.095	355.31
480.313	408.31
480.532	375.31
480.751	384.31
480.969	399.31
481.188	419.31
481.406	424.31
481.624	387.31
481.843	355.31
482.061	353.31
482.28	347.31
482.498	344.31
482.717	352.31
482.935	357.31
483.153	349.31
483.372	348.31
483.59	344.31
483.808	350.31
484.027	327.31
484.245	368.31
484.463	357.31
484.681	378.31
484.9	371.31
485.118	362.31
485.336	363.31
485.554	355.31
485.772	355.31
485.99	351.31
486.209	380.31
486.427	374.31
486.645	371.31
486.863	379.31
487.081	386.31
487.299	380.31
487.517	379.31
487.735	369.31
487.953	381.31
488.171	378.31
488.389	366.31
488.607	385.31
488.825	377.31
489.043	378.31
489.261	377.31
489.479	392.31
489.696	388.31
489.914	391.31
490.132	398.31
490.35	385.31
490.568	417.31
490.786	421.31
491.003	386.31
491.221	403.31
491.439	414.31
491.657	411.31
491.874	419.31
492.092	430.31
492.31	432.31
492.527	442.31
492.745	428.31
492.963	436.31
493.18	425.31
493.398	437.31
493.615	458.31
493.833	441.31
494.05	436.31
494.268	435.31
494.485	445.31
494.703	432.31
494.92	427.31
495.138	465.31
495.355	446.31
495.573	452.31
495.79	447.31
496.008	435.31
496.225	443.31
496.442	438.31
496.66	448.31
496.877	425.31
497.094	444.31
497.312	453.31
497.529	462.31
497.746	454.31
497.963	461.31
498.181	479.31
498.398	465.31
498.615	462.31
498.832	483.31
499.049	490.31
499.267	481.31
499.484	477.31
499.701	482.31
499.918	504.31
500.135	517.31
500.352	544.31
500.569	538.31
500.786	556.31
501.003	552.31
501.22	529.31
501.437	527.31
501.654	529.31
501.871	540.31
502.088	507.31
