Data from 1982.PennyLincolnUp.Lamp.En5.5.200Scan.071819.P1_HRD10591_16-47-18-961.txt Node
Date: Thu Jul 18 16:47:18 EDT 2019
User: cochatt
Spectrometer: HR+D1059
Trigger mode: 1
Integration Time (sec): 1.000000E-1
Scans to average: 1
Electric dark correction enabled: true
Nonlinearity correction enabled: false
Boxcar width: 0
XAxis mode: Wavelengths
Number of Pixels in Spectrum: 2048
>>>>>Begin Spectral Data<<<<<
223.165	-26.81
223.4	-26.81
223.635	-26.81
223.869	-15.81
224.104	-31.81
224.338	-20.81
224.573	-15.81
224.808	-4.81
225.042	-6.81
225.277	8.19
225.511	2.19
225.746	2.19
225.98	15.19
226.215	14.19
226.449	8.19
226.683	21.19
226.918	17.19
227.152	34.19
227.387	22.19
227.621	39.19
227.856	34.19
228.09	43.19
228.324	32.19
228.559	46.19
228.793	60.19
229.027	71.19
229.262	95.19
229.496	116.19
229.73	122.19
229.964	136.19
230.199	111.19
230.433	109.19
230.667	103.19
230.901	118.19
231.136	107.19
231.37	94.19
231.604	107.19
231.838	91.19
232.072	103.19
232.306	99.19
232.541	104.19
232.775	94.19
233.009	111.19
233.243	102.19
233.477	121.19
233.711	115.19
233.945	103.19
234.179	106.19
234.413	105.19
234.647	91.19
234.881	92.19
235.115	99.19
235.349	102.19
235.583	104.19
235.817	95.19
236.051	107.19
236.285	107.19
236.519	103.19
236.753	124.19
236.987	132.19
237.221	157.19
237.455	185.19
237.689	138.19
237.922	114.19
238.156	117.19
238.39	123.19
238.624	103.19
238.858	102.19
239.091	113.19
239.325	110.19
239.559	97.19
239.793	95.19
240.027	117.19
240.26	133.19
240.494	133.19
240.728	143.19
240.961	108.19
241.195	129.19
241.429	126.19
241.662	130.19
241.896	99.19
242.13	118.19
242.363	122.19
242.597	105.19
242.83	114.19
243.064	103.19
243.298	116.19
243.531	114.19
243.765	122.19
243.998	113.19
244.232	116.19
244.465	110.19
244.699	122.19
244.932	133.19
245.166	120.19
245.399	124.19
245.633	118.19
245.866	126.19
246.099	122.19
246.333	134.19
246.566	124.19
246.8	120.19
247.033	118.19
247.266	129.19
247.5	142.19
247.733	127.19
247.966	144.19
248.2	146.19
248.433	150.19
248.666	139.19
248.899	166.19
249.133	148.19
249.366	158.19
249.599	157.19
249.832	150.19
250.066	167.19
250.299	154.19
250.532	159.19
250.765	166.19
250.998	207.19
251.231	168.19
251.465	176.19
251.698	154.19
251.931	158.19
252.164	165.19
252.397	154.19
252.63	154.19
252.863	176.19
253.096	180.19
253.329	185.19
253.562	191.19
253.795	171.19
254.028	200.19
254.261	179.19
254.494	184.19
254.727	215.19
254.96	230.19
255.193	212.19
255.426	190.19
255.659	194.19
255.892	186.19
256.124	178.19
256.357	174.19
256.59	186.19
256.823	177.19
257.056	178.19
257.289	180.19
257.521	167.19
257.754	177.19
257.987	178.19
258.22	162.19
258.452	181.19
258.685	183.19
258.918	163.19
259.151	164.19
259.383	187.19
259.616	179.19
259.849	179.19
260.081	172.19
260.314	188.19
260.547	208.19
260.779	208.19
261.012	197.19
261.244	197.19
261.477	197.19
261.71	191.19
261.942	199.19
262.175	184.19
262.407	186.19
262.64	184.19
262.872	167.19
263.105	167.19
263.337	174.19
263.57	152.19
263.802	175.19
264.035	174.19
264.267	174.19
264.499	166.19
264.732	182.19
264.964	170.19
265.197	166.19
265.429	171.19
265.661	181.19
265.894	170.19
266.126	176.19
266.358	168.19
266.591	180.19
266.823	189.19
267.055	174.19
267.287	174.19
267.52	181.19
267.752	176.19
267.984	183.19
268.216	185.19
268.448	186.19
268.681	186.19
268.913	209.19
269.145	214.19
269.377	214.19
269.609	195.19
269.841	215.19
270.073	231.19
270.306	237.19
270.538	264.19
270.77	250.19
271.002	230.19
271.234	242.19
271.466	252.19
271.698	257.19
271.93	260.19
272.162	247.19
272.394	254.19
272.626	233.19
272.858	206.19
273.09	211.19
273.322	224.19
273.553	200.19
273.785	219.19
274.017	207.19
274.249	211.19
274.481	213.19
274.713	210.19
274.945	223.19
275.176	198.19
275.408	230.19
275.64	207.19
275.872	194.19
276.104	217.19
276.335	230.19
276.567	228.19
276.799	225.19
277.031	243.19
277.262	235.19
277.494	235.19
277.726	220.19
277.957	231.19
278.189	223.19
278.421	218.19
278.652	213.19
278.884	219.19
279.115	200.19
279.347	210.19
279.579	219.19
279.81	202.19
280.042	209.19
280.273	211.19
280.505	212.19
280.736	207.19
280.968	203.19
281.199	211.19
281.431	216.19
281.662	215.19
281.894	214.19
282.125	206.19
282.356	229.19
282.588	242.19
282.819	252.19
283.051	228.19
283.282	223.19
283.513	219.19
283.745	226.19
283.976	216.19
284.207	230.19
284.439	223.19
284.67	214.19
284.901	227.19
285.132	226.19
285.364	212.19
285.595	224.19
285.826	215.19
286.057	223.19
286.288	212.19
286.52	222.19
286.751	217.19
286.982	234.19
287.213	205.19
287.444	239.19
287.675	236.19
287.906	228.19
288.138	226.19
288.369	237.19
288.6	218.19
288.831	214.19
289.062	206.19
289.293	230.19
289.524	233.19
289.755	225.19
289.986	210.19
290.217	223.19
290.448	218.19
290.679	232.19
290.91	215.19
291.141	212.19
291.371	230.19
291.602	214.19
291.833	223.19
292.064	214.19
292.295	224.19
292.526	216.19
292.757	231.19
292.987	217.19
293.218	239.19
293.449	224.19
293.68	223.19
293.91	208.19
294.141	227.19
294.372	222.19
294.603	216.19
294.833	227.19
295.064	216.19
295.295	213.19
295.525	239.19
295.756	232.19
295.987	238.19
296.217	254.19
296.448	237.19
296.679	216.19
296.909	225.19
297.14	226.19
297.37	234.19
297.601	234.19
297.831	234.19
298.062	232.19
298.292	242.19
298.523	246.19
298.753	235.19
298.984	236.19
299.214	236.19
299.445	239.19
299.675	228.19
299.905	233.19
300.136	239.19
300.366	250.19
300.597	252.19
300.827	228.19
301.057	274.19
301.288	238.19
301.518	246.19
301.748	253.19
301.979	238.19
302.209	240.19
302.439	252.19
302.669	233.19
302.9	250.19
303.13	254.19
303.36	258.19
303.59	248.19
303.82	261.19
304.051	258.19
304.281	255.19
304.511	260.19
304.741	238.19
304.971	243.19
305.201	241.19
305.431	257.19
305.661	245.19
305.891	264.19
306.121	268.19
306.352	264.19
306.582	268.19
306.812	247.19
307.042	260.19
307.272	240.19
307.502	268.19
307.731	240.19
307.961	247.19
308.191	257.19
308.421	260.19
308.651	276.19
308.881	274.19
309.111	273.19
309.341	264.19
309.571	287.19
309.8	291.19
310.03	295.19
310.26	324.19
310.49	302.19
310.72	291.19
310.949	316.19
311.179	323.19
311.409	286.19
311.639	286.19
311.868	292.19
312.098	310.19
312.328	310.19
312.557	303.19
312.787	322.19
313.017	306.19
313.246	304.19
313.476	296.19
313.706	307.19
313.935	299.19
314.165	315.19
314.394	324.19
314.624	328.19
314.853	291.19
315.083	282.19
315.312	291.19
315.542	297.19
315.771	286.19
316.001	294.19
316.23	294.19
316.46	316.19
316.689	300.19
316.919	283.19
317.148	311.19
317.377	311.19
317.607	295.19
317.836	311.19
318.065	289.19
318.295	316.19
318.524	302.19
318.753	267.19
318.983	287.19
319.212	292.19
319.441	292.19
319.67	295.19
319.9	300.19
320.129	302.19
320.358	300.19
320.587	315.19
320.816	316.19
321.046	308.19
321.275	314.19
321.504	328.19
321.733	332.19
321.962	335.19
322.191	331.19
322.42	344.19
322.649	372.19
322.878	378.19
323.108	392.19
323.337	398.19
323.566	411.19
323.795	451.19
324.024	488.19
324.253	644.19
324.482	968.19
324.71	1404.19
324.939	1830.19
325.168	1496.19
325.397	766.19
325.626	555.19
325.855	456.19
326.084	428.19
326.313	405.19
326.542	440.19
326.77	480.19
326.999	582.19
327.228	829.19
327.457	1207.19
327.686	1324.19
327.914	871.19
328.143	587.19
328.372	523.19
328.6	479.19
328.829	456.19
329.058	462.19
329.287	474.19
329.515	435.19
329.744	419.19
329.972	432.19
330.201	440.19
330.43	467.19
330.658	468.19
330.887	482.19
331.115	469.19
331.344	396.19
331.572	379.19
331.801	383.19
332.03	387.19
332.258	378.19
332.486	359.19
332.715	347.19
332.943	356.19
333.172	345.19
333.4	353.19
333.629	366.19
333.857	364.19
334.085	360.19
334.314	396.19
334.542	423.19
334.771	430.19
334.999	386.19
335.227	349.19
335.455	351.19
335.684	338.19
335.912	324.19
336.14	325.19
336.369	340.19
336.597	341.19
336.825	351.19
337.053	332.19
337.281	331.19
337.51	328.19
337.738	352.19
337.966	337.19
338.194	339.19
338.422	333.19
338.65	335.19
338.878	338.19
339.106	322.19
339.334	335.19
339.562	339.19
339.79	303.19
340.018	315.19
340.246	332.19
340.474	330.19
340.702	331.19
340.93	313.19
341.158	328.19
341.386	318.19
341.614	323.19
341.842	339.19
342.07	330.19
342.298	318.19
342.526	304.19
342.754	296.19
342.981	303.19
343.209	308.19
343.437	325.19
343.665	323.19
343.893	316.19
344.12	332.19
344.348	325.19
344.576	303.19
344.804	318.19
345.031	323.19
345.259	343.19
345.487	332.19
345.714	311.19
345.942	303.19
346.17	318.19
346.397	336.19
346.625	315.19
346.853	319.19
347.08	309.19
347.308	332.19
347.535	300.19
347.763	327.19
347.99	323.19
348.218	333.19
348.445	333.19
348.673	334.19
348.9	310.19
349.128	314.19
349.355	310.19
349.583	299.19
349.81	304.19
350.037	286.19
350.265	308.19
350.492	288.19
350.72	316.19
350.947	310.19
351.174	318.19
351.402	310.19
351.629	318.19
351.856	325.19
352.083	319.19
352.311	337.19
352.538	349.19
352.765	346.19
352.992	318.19
353.22	307.19
353.447	302.19
353.674	326.19
353.901	295.19
354.128	298.19
354.355	290.19
354.583	285.19
354.81	295.19
355.037	300.19
355.264	293.19
355.491	278.19
355.718	273.19
355.945	285.19
356.172	273.19
356.399	283.19
356.626	283.19
356.853	292.19
357.08	278.19
357.307	300.19
357.534	277.19
357.761	278.19
357.988	279.19
358.215	281.19
358.441	291.19
358.668	288.19
358.895	299.19
359.122	306.19
359.349	307.19
359.576	309.19
359.802	337.19
360.029	350.19
360.256	352.19
360.483	338.19
360.709	302.19
360.936	294.19
361.163	302.19
361.39	304.19
361.616	303.19
361.843	293.19
362.07	291.19
362.296	307.19
362.523	306.19
362.749	308.19
362.976	309.19
363.203	281.19
363.429	274.19
363.656	279.19
363.882	286.19
364.109	292.19
364.335	275.19
364.562	282.19
364.788	279.19
365.015	293.19
365.241	279.19
365.468	288.19
365.694	297.19
365.92	302.19
366.147	282.19
366.373	280.19
366.599	295.19
366.826	299.19
367.052	294.19
367.278	298.19
367.505	281.19
367.731	283.19
367.957	285.19
368.184	275.19
368.41	295.19
368.636	287.19
368.862	292.19
369.089	287.19
369.315	285.19
369.541	291.19
369.767	293.19
369.993	267.19
370.219	263.19
370.445	299.19
370.672	265.19
370.898	265.19
371.124	280.19
371.35	278.19
371.576	277.19
371.802	273.19
372.028	297.19
372.254	291.19
372.48	283.19
372.706	268.19
372.932	277.19
373.158	266.19
373.384	271.19
373.61	268.19
373.835	284.19
374.061	278.19
374.287	281.19
374.513	287.19
374.739	305.19
374.965	278.19
375.191	278.19
375.416	290.19
375.642	283.19
375.868	294.19
376.094	270.19
376.319	286.19
376.545	291.19
376.771	278.19
376.997	273.19
377.222	294.19
377.448	266.19
377.674	276.19
377.899	264.19
378.125	276.19
378.35	280.19
378.576	267.19
378.802	265.19
379.027	298.19
379.253	276.19
379.478	277.19
379.704	278.19
379.929	263.19
380.155	264.19
380.38	276.19
380.606	272.19
380.831	278.19
381.057	276.19
381.282	282.19
381.507	263.19
381.733	264.19
381.958	282.19
382.184	272.19
382.409	284.19
382.634	269.19
382.86	281.19
383.085	272.19
383.31	282.19
383.535	290.19
383.761	268.19
383.986	248.19
384.211	270.19
384.436	279.19
384.662	294.19
384.887	283.19
385.112	281.19
385.337	271.19
385.562	291.19
385.787	299.19
386.013	306.19
386.238	293.19
386.463	285.19
386.688	292.19
386.913	270.19
387.138	275.19
387.363	266.19
387.588	282.19
387.813	280.19
388.038	291.19
388.263	279.19
388.488	276.19
388.713	272.19
388.938	298.19
389.163	292.19
389.387	288.19
389.612	274.19
389.837	302.19
390.062	269.19
390.287	287.19
390.512	293.19
390.736	283.19
390.961	299.19
391.186	276.19
391.411	297.19
391.636	282.19
391.86	306.19
392.085	304.19
392.31	306.19
392.534	289.19
392.759	302.19
392.984	287.19
393.208	280.19
393.433	290.19
393.658	274.19
393.882	275.19
394.107	281.19
394.331	271.19
394.556	295.19
394.78	275.19
395.005	284.19
395.229	290.19
395.454	288.19
395.678	288.19
395.903	303.19
396.127	306.19
396.352	316.19
396.576	299.19
396.801	281.19
397.025	291.19
397.249	290.19
397.474	292.19
397.698	308.19
397.922	315.19
398.147	296.19
398.371	314.19
398.595	329.19
398.82	313.19
399.044	313.19
399.268	324.19
399.492	328.19
399.717	347.19
399.941	368.19
400.165	363.19
400.389	374.19
400.613	354.19
400.837	338.19
401.062	319.19
401.286	314.19
401.51	322.19
401.734	330.19
401.958	311.19
402.182	323.19
402.406	316.19
402.63	329.19
402.854	335.19
403.078	325.19
403.302	320.19
403.526	326.19
403.75	339.19
403.974	314.19
404.198	311.19
404.422	336.19
404.645	326.19
404.869	346.19
405.093	361.19
405.317	375.19
405.541	412.19
405.765	338.19
405.988	339.19
406.212	360.19
406.436	378.19
406.66	382.19
406.883	359.19
407.107	384.19
407.331	388.19
407.555	429.19
407.778	409.19
408.002	381.19
408.226	368.19
408.449	374.19
408.673	346.19
408.896	382.19
409.12	406.19
409.344	379.19
409.567	339.19
409.791	336.19
410.014	321.19
410.238	321.19
410.461	329.19
410.685	347.19
410.908	330.19
411.132	356.19
411.355	370.19
411.578	372.19
411.802	339.19
412.025	320.19
412.249	323.19
412.472	368.19
412.695	385.19
412.919	368.19
413.142	326.19
413.365	330.19
413.589	308.19
413.812	315.19
414.035	323.19
414.258	312.19
414.482	312.19
414.705	324.19
414.928	293.19
415.151	299.19
415.374	315.19
415.597	301.19
415.821	292.19
416.044	302.19
416.267	314.19
416.49	312.19
416.713	310.19
416.936	327.19
417.159	303.19
417.382	317.19
417.605	310.19
417.828	323.19
418.051	338.19
418.274	316.19
418.497	325.19
418.72	303.19
418.943	286.19
419.166	312.19
419.389	323.19
419.611	332.19
419.834	319.19
420.057	336.19
420.28	351.19
420.503	313.19
420.726	316.19
420.948	358.19
421.171	370.19
421.394	382.19
421.617	316.19
421.839	323.19
422.062	324.19
422.285	342.19
422.507	362.19
422.73	422.19
422.953	400.19
423.175	363.19
423.398	327.19
423.621	343.19
423.843	351.19
424.066	358.19
424.288	368.19
424.511	385.19
424.733	408.19
424.956	444.19
425.178	441.19
425.401	444.19
425.623	444.19
425.846	384.19
426.068	343.19
426.291	355.19
426.513	350.19
426.735	352.19
426.958	417.19
427.18	456.19
427.402	542.19
427.625	574.19
427.847	523.19
428.069	434.19
428.292	398.19
428.514	346.19
428.736	340.19
428.958	352.19
429.181	339.19
429.403	315.19
429.625	349.19
429.847	367.19
430.069	416.19
430.292	396.19
430.514	340.19
430.736	336.19
430.958	323.19
431.18	312.19
431.402	327.19
431.624	306.19
431.846	314.19
432.068	308.19
432.29	308.19
432.512	315.19
432.734	308.19
432.956	319.19
433.178	337.19
433.4	334.19
433.622	306.19
433.844	311.19
434.066	301.19
434.287	288.19
434.509	298.19
434.731	314.19
434.953	338.19
435.175	329.19
435.397	350.19
435.618	379.19
435.84	389.19
436.062	434.19
436.284	499.19
436.505	411.19
436.727	364.19
436.949	338.19
437.17	327.19
437.392	352.19
437.614	350.19
437.835	355.19
438.057	463.19
438.278	491.19
438.5	480.19
438.721	560.19
438.943	503.19
439.165	403.19
439.386	383.19
439.608	377.19
439.829	371.19
440.05	387.19
440.272	424.19
440.493	391.19
440.715	363.19
440.936	331.19
441.158	330.19
441.379	325.19
441.6	324.19
441.822	356.19
442.043	382.19
442.264	435.19
442.486	450.19
442.707	391.19
442.928	384.19
443.149	384.19
443.371	400.19
443.592	409.19
443.813	465.19
444.034	518.19
444.255	435.19
444.476	362.19
444.698	350.19
444.919	360.19
445.14	448.19
445.361	404.19
445.582	397.19
445.803	428.19
446.024	527.19
446.245	516.19
446.466	458.19
446.687	398.19
446.908	380.19
447.129	356.19
447.35	333.19
447.571	332.19
447.792	331.19
448.013	322.19
448.234	363.19
448.455	392.19
448.675	466.19
448.896	523.19
449.117	457.19
449.338	442.19
449.559	508.19
449.779	547.19
450	438.19
450.221	390.19
450.442	358.19
450.662	327.19
450.883	343.19
451.104	352.19
451.324	335.19
451.545	295.19
451.766	321.19
451.986	298.19
452.207	311.19
452.428	288.19
452.648	292.19
452.869	311.19
453.089	320.19
453.31	316.19
453.53	312.19
453.751	313.19
453.971	308.19
454.192	316.19
454.412	324.19
454.633	294.19
454.853	284.19
455.073	289.19
455.294	336.19
455.514	351.19
455.734	344.19
455.955	282.19
456.175	283.19
456.395	283.19
456.616	295.19
456.836	281.19
457.056	271.19
457.276	278.19
457.497	274.19
457.717	264.19
457.937	286.19
458.157	283.19
458.377	268.19
458.598	318.19
458.818	371.19
459.038	427.19
459.258	405.19
459.478	347.19
459.698	318.19
459.918	307.19
460.138	288.19
460.358	286.19
460.578	308.19
460.798	326.19
461.018	299.19
461.238	309.19
461.458	317.19
461.678	306.19
461.898	319.19
462.118	300.19
462.338	312.19
462.558	326.19
462.777	326.19
462.997	350.19
463.217	306.19
463.437	317.19
463.657	317.19
463.876	319.19
464.096	317.19
464.316	325.19
464.536	329.19
464.755	319.19
464.975	329.19
465.195	386.19
465.414	436.19
465.634	353.19
465.854	351.19
466.073	330.19
466.293	314.19
466.512	304.19
466.732	298.19
466.951	281.19
467.171	293.19
467.391	296.19
467.61	312.19
467.829	329.19
468.049	312.19
468.268	302.19
468.488	302.19
468.707	305.19
468.927	308.19
469.146	287.19
469.365	279.19
469.585	273.19
469.804	299.19
470.023	306.19
470.243	302.19
470.462	324.19
470.681	326.19
470.901	324.19
471.12	311.19
471.339	317.19
471.558	296.19
471.777	321.19
471.997	307.19
472.216	314.19
472.435	330.19
472.654	330.19
472.873	314.19
473.092	297.19
473.311	297.19
473.53	298.19
473.749	314.19
473.968	342.19
474.187	419.19
474.406	419.19
474.625	356.19
474.844	320.19
475.063	315.19
475.282	305.19
475.501	308.19
475.72	306.19
475.939	309.19
476.158	321.19
476.377	336.19
476.596	312.19
476.814	311.19
477.033	354.19
477.252	324.19
477.471	324.19
477.69	336.19
477.908	331.19
478.127	325.19
478.346	330.19
478.564	326.19
478.783	338.19
479.002	336.19
479.22	343.19
479.439	356.19
479.658	347.19
479.876	362.19
480.095	363.19
480.313	390.19
480.532	356.19
480.751	368.19
480.969	361.19
481.188	432.19
481.406	445.19
481.624	390.19
481.843	391.19
482.061	358.19
482.28	353.19
482.498	359.19
482.717	347.19
482.935	360.19
483.153	366.19
483.372	349.19
483.59	365.19
483.808	350.19
484.027	351.19
484.245	350.19
484.463	357.19
484.681	370.19
484.9	366.19
485.118	360.19
485.336	372.19
485.554	363.19
485.772	371.19
485.99	371.19
486.209	374.19
486.427	383.19
486.645	391.19
486.863	396.19
487.081	386.19
487.299	391.19
487.517	374.19
487.735	368.19
487.953	375.19
488.171	405.19
488.389	366.19
488.607	388.19
488.825	387.19
489.043	387.19
489.261	381.19
489.479	383.19
489.696	369.19
489.914	361.19
490.132	395.19
490.35	378.19
490.568	390.19
490.786	378.19
491.003	402.19
491.221	420.19
491.439	415.19
491.657	423.19
491.874	431.19
492.092	416.19
492.31	448.19
492.527	429.19
492.745	437.19
492.963	442.19
493.18	443.19
493.398	440.19
493.615	426.19
493.833	459.19
494.05	464.19
494.268	458.19
494.485	441.19
494.703	446.19
494.92	442.19
495.138	456.19
495.355	456.19
495.573	454.19
495.79	431.19
496.008	443.19
496.225	443.19
496.442	454.19
496.66	457.19
496.877	425.19
497.094	456.19
497.312	447.19
497.529	435.19
497.746	439.19
497.963	453.19
498.181	479.19
498.398	470.19
498.615	485.19
498.832	491.19
499.049	496.19
499.267	498.19
499.484	484.19
499.701	506.19
499.918	526.19
500.135	529.19
500.352	527.19
500.569	553.19
500.786	565.19
501.003	552.19
501.22	560.19
501.437	516.19
501.654	561.19
501.871	534.19
502.088	512.19
