Data from 1982.PennyLincolnUp.Lamp.En5.5.200Scan.071819.P1_HRD10591_16-45-49-962.txt Node
Date: Thu Jul 18 16:45:49 EDT 2019
User: cochatt
Spectrometer: HR+D1059
Trigger mode: 1
Integration Time (sec): 1.000000E-1
Scans to average: 1
Electric dark correction enabled: true
Nonlinearity correction enabled: false
Boxcar width: 0
XAxis mode: Wavelengths
Number of Pixels in Spectrum: 2048
>>>>>Begin Spectral Data<<<<<
223.165	-5.56
223.4	-5.56
223.635	-5.56
223.869	-5.56
224.104	-4.56
224.338	-18.56
224.573	-18.56
224.808	-17.56
225.042	-11.56
225.277	-7.56
225.511	-10.56
225.746	3.44
225.98	1.44
226.215	15.44
226.449	3.44
226.683	22.44
226.918	25.44
227.152	28.44
227.387	28.44
227.621	28.44
227.856	45.44
228.09	46.44
228.324	48.44
228.559	65.44
228.793	89.44
229.027	90.44
229.262	93.44
229.496	109.44
229.73	97.44
229.964	130.44
230.199	108.44
230.433	108.44
230.667	105.44
230.901	109.44
231.136	105.44
231.37	96.44
231.604	106.44
231.838	95.44
232.072	98.44
232.306	91.44
232.541	109.44
232.775	105.44
233.009	109.44
233.243	100.44
233.477	118.44
233.711	106.44
233.945	121.44
234.179	110.44
234.413	122.44
234.647	106.44
234.881	118.44
235.115	102.44
235.349	113.44
235.583	100.44
235.817	112.44
236.051	117.44
236.285	103.44
236.519	104.44
236.753	104.44
236.987	121.44
237.221	134.44
237.455	166.44
237.689	131.44
237.922	128.44
238.156	124.44
238.39	125.44
238.624	110.44
238.858	118.44
239.091	104.44
239.325	108.44
239.559	104.44
239.793	118.44
240.027	109.44
240.26	111.44
240.494	128.44
240.728	130.44
240.961	121.44
241.195	121.44
241.429	128.44
241.662	109.44
241.896	99.44
242.13	107.44
242.363	135.44
242.597	116.44
242.83	124.44
243.064	118.44
243.298	113.44
243.531	128.44
243.765	120.44
243.998	134.44
244.232	122.44
244.465	129.44
244.699	130.44
244.932	132.44
245.166	121.44
245.399	125.44
245.633	109.44
245.866	124.44
246.099	110.44
246.333	121.44
246.566	141.44
246.8	126.44
247.033	147.44
247.266	121.44
247.5	143.44
247.733	136.44
247.966	142.44
248.2	160.44
248.433	141.44
248.666	136.44
248.899	172.44
249.133	186.44
249.366	173.44
249.599	160.44
249.832	155.44
250.066	151.44
250.299	152.44
250.532	142.44
250.765	170.44
250.998	177.44
251.231	170.44
251.465	175.44
251.698	168.44
251.931	147.44
252.164	159.44
252.397	156.44
252.63	171.44
252.863	186.44
253.096	172.44
253.329	178.44
253.562	164.44
253.795	201.44
254.028	184.44
254.261	167.44
254.494	193.44
254.727	206.44
254.96	222.44
255.193	223.44
255.426	184.44
255.659	180.44
255.892	203.44
256.124	180.44
256.357	196.44
256.59	185.44
256.823	180.44
257.056	182.44
257.289	173.44
257.521	177.44
257.754	154.44
257.987	162.44
258.22	163.44
258.452	174.44
258.685	184.44
258.918	178.44
259.151	167.44
259.383	156.44
259.616	170.44
259.849	195.44
260.081	177.44
260.314	200.44
260.547	192.44
260.779	198.44
261.012	186.44
261.244	191.44
261.477	183.44
261.71	174.44
261.942	190.44
262.175	195.44
262.407	194.44
262.64	164.44
262.872	177.44
263.105	160.44
263.337	165.44
263.57	166.44
263.802	166.44
264.035	178.44
264.267	192.44
264.499	154.44
264.732	159.44
264.964	164.44
265.197	153.44
265.429	165.44
265.661	172.44
265.894	181.44
266.126	167.44
266.358	175.44
266.591	189.44
266.823	172.44
267.055	180.44
267.287	190.44
267.52	152.44
267.752	175.44
267.984	167.44
268.216	204.44
268.448	184.44
268.681	166.44
268.913	194.44
269.145	204.44
269.377	213.44
269.609	197.44
269.841	205.44
270.073	217.44
270.306	223.44
270.538	264.44
270.77	262.44
271.002	226.44
271.234	234.44
271.466	226.44
271.698	252.44
271.93	255.44
272.162	253.44
272.394	237.44
272.626	230.44
272.858	232.44
273.09	225.44
273.322	202.44
273.553	210.44
273.785	193.44
274.017	213.44
274.249	209.44
274.481	217.44
274.713	197.44
274.945	208.44
275.176	202.44
275.408	219.44
275.64	200.44
275.872	196.44
276.104	200.44
276.335	220.44
276.567	228.44
276.799	223.44
277.031	244.44
277.262	236.44
277.494	244.44
277.726	233.44
277.957	219.44
278.189	223.44
278.421	226.44
278.652	217.44
278.884	221.44
279.115	204.44
279.347	210.44
279.579	223.44
279.81	205.44
280.042	237.44
280.273	221.44
280.505	209.44
280.736	217.44
280.968	212.44
281.199	216.44
281.431	220.44
281.662	227.44
281.894	204.44
282.125	208.44
282.356	216.44
282.588	246.44
282.819	239.44
283.051	228.44
283.282	198.44
283.513	213.44
283.745	219.44
283.976	211.44
284.207	218.44
284.439	212.44
284.67	201.44
284.901	202.44
285.132	211.44
285.364	209.44
285.595	219.44
285.826	214.44
286.057	221.44
286.288	205.44
286.52	215.44
286.751	206.44
286.982	226.44
287.213	222.44
287.444	210.44
287.675	226.44
287.906	237.44
288.138	233.44
288.369	232.44
288.6	265.44
288.831	228.44
289.062	214.44
289.293	225.44
289.524	222.44
289.755	231.44
289.986	231.44
290.217	225.44
290.448	228.44
290.679	226.44
290.91	232.44
291.141	234.44
291.371	241.44
291.602	216.44
291.833	224.44
292.064	217.44
292.295	209.44
292.526	213.44
292.757	208.44
292.987	233.44
293.218	217.44
293.449	211.44
293.68	241.44
293.91	225.44
294.141	218.44
294.372	223.44
294.603	229.44
294.833	193.44
295.064	229.44
295.295	232.44
295.525	232.44
295.756	226.44
295.987	244.44
296.217	269.44
296.448	267.44
296.679	233.44
296.909	224.44
297.14	239.44
297.37	220.44
297.601	214.44
297.831	226.44
298.062	244.44
298.292	236.44
298.523	227.44
298.753	237.44
298.984	213.44
299.214	228.44
299.445	242.44
299.675	236.44
299.905	239.44
300.136	234.44
300.366	244.44
300.597	232.44
300.827	260.44
301.057	237.44
301.288	238.44
301.518	252.44
301.748	234.44
301.979	247.44
302.209	239.44
302.439	244.44
302.669	256.44
302.9	246.44
303.13	260.44
303.36	280.44
303.59	256.44
303.82	254.44
304.051	258.44
304.281	243.44
304.511	242.44
304.741	246.44
304.971	256.44
305.201	259.44
305.431	246.44
305.661	253.44
305.891	271.44
306.121	255.44
306.352	253.44
306.582	248.44
306.812	239.44
307.042	230.44
307.272	239.44
307.502	235.44
307.731	253.44
307.961	229.44
308.191	243.44
308.421	237.44
308.651	262.44
308.881	272.44
309.111	247.44
309.341	278.44
309.571	256.44
309.8	258.44
310.03	288.44
310.26	288.44
310.49	294.44
310.72	297.44
310.949	299.44
311.179	286.44
311.409	300.44
311.639	293.44
311.868	294.44
312.098	295.44
312.328	294.44
312.557	314.44
312.787	317.44
313.017	314.44
313.246	291.44
313.476	282.44
313.706	270.44
313.935	304.44
314.165	293.44
314.394	290.44
314.624	296.44
314.853	289.44
315.083	292.44
315.312	287.44
315.542	275.44
315.771	268.44
316.001	272.44
316.23	265.44
316.46	286.44
316.689	289.44
316.919	293.44
317.148	304.44
317.377	285.44
317.607	306.44
317.836	280.44
318.065	285.44
318.295	280.44
318.524	285.44
318.753	286.44
318.983	289.44
319.212	301.44
319.441	299.44
319.67	310.44
319.9	287.44
320.129	303.44
320.358	305.44
320.587	300.44
320.816	298.44
321.046	312.44
321.275	295.44
321.504	308.44
321.733	330.44
321.962	305.44
322.191	318.44
322.42	335.44
322.649	330.44
322.878	348.44
323.108	373.44
323.337	380.44
323.566	392.44
323.795	429.44
324.024	462.44
324.253	574.44
324.482	869.44
324.71	1242.44
324.939	1617.44
325.168	1305.44
325.397	698.44
325.626	492.44
325.855	426.44
326.084	393.44
326.313	389.44
326.542	403.44
326.77	454.44
326.999	540.44
327.228	742.44
327.457	1072.44
327.686	1224.44
327.914	780.44
328.143	518.44
328.372	471.44
328.6	449.44
328.829	415.44
329.058	446.44
329.287	449.44
329.515	389.44
329.744	393.44
329.972	375.44
330.201	406.44
330.43	432.44
330.658	438.44
330.887	484.44
331.115	452.44
331.344	393.44
331.572	374.44
331.801	380.44
332.03	364.44
332.258	362.44
332.486	330.44
332.715	302.44
332.943	334.44
333.172	333.44
333.4	344.44
333.629	347.44
333.857	334.44
334.085	357.44
334.314	359.44
334.542	374.44
334.771	366.44
334.999	366.44
335.227	357.44
335.455	333.44
335.684	325.44
335.912	326.44
336.14	335.44
336.369	314.44
336.597	334.44
336.825	354.44
337.053	332.44
337.281	332.44
337.51	313.44
337.738	328.44
337.966	320.44
338.194	321.44
338.422	329.44
338.65	313.44
338.878	345.44
339.106	317.44
339.334	306.44
339.562	311.44
339.79	288.44
340.018	322.44
340.246	319.44
340.474	329.44
340.702	325.44
340.93	316.44
341.158	304.44
341.386	310.44
341.614	306.44
341.842	308.44
342.07	310.44
342.298	311.44
342.526	297.44
342.754	289.44
342.981	325.44
343.209	302.44
343.437	328.44
343.665	309.44
343.893	302.44
344.12	306.44
344.348	311.44
344.576	324.44
344.804	320.44
345.031	333.44
345.259	331.44
345.487	329.44
345.714	309.44
345.942	319.44
346.17	310.44
346.397	286.44
346.625	299.44
346.853	298.44
347.08	329.44
347.308	310.44
347.535	311.44
347.763	314.44
347.99	326.44
348.218	326.44
348.445	312.44
348.673	297.44
348.9	301.44
349.128	308.44
349.355	296.44
349.583	299.44
349.81	324.44
350.037	308.44
350.265	313.44
350.492	313.44
350.72	290.44
350.947	295.44
351.174	335.44
351.402	325.44
351.629	319.44
351.856	305.44
352.083	328.44
352.311	322.44
352.538	327.44
352.765	315.44
352.992	302.44
353.22	308.44
353.447	316.44
353.674	301.44
353.901	285.44
354.128	283.44
354.355	291.44
354.583	286.44
354.81	299.44
355.037	283.44
355.264	279.44
355.491	271.44
355.718	280.44
355.945	286.44
356.172	280.44
356.399	274.44
356.626	280.44
356.853	272.44
357.08	292.44
357.307	274.44
357.534	286.44
357.761	284.44
357.988	269.44
358.215	269.44
358.441	285.44
358.668	292.44
358.895	299.44
359.122	299.44
359.349	305.44
359.576	311.44
359.802	314.44
360.029	325.44
360.256	342.44
360.483	310.44
360.709	287.44
360.936	290.44
361.163	299.44
361.39	289.44
361.616	303.44
361.843	292.44
362.07	302.44
362.296	316.44
362.523	304.44
362.749	294.44
362.976	297.44
363.203	311.44
363.429	286.44
363.656	303.44
363.882	276.44
364.109	284.44
364.335	286.44
364.562	282.44
364.788	270.44
365.015	277.44
365.241	280.44
365.468	278.44
365.694	293.44
365.92	276.44
366.147	268.44
366.373	272.44
366.599	295.44
366.826	278.44
367.052	288.44
367.278	291.44
367.505	280.44
367.731	273.44
367.957	281.44
368.184	305.44
368.41	297.44
368.636	298.44
368.862	283.44
369.089	284.44
369.315	281.44
369.541	276.44
369.767	283.44
369.993	280.44
370.219	266.44
370.445	285.44
370.672	280.44
370.898	280.44
371.124	255.44
371.35	278.44
371.576	282.44
371.802	274.44
372.028	295.44
372.254	280.44
372.48	269.44
372.706	294.44
372.932	278.44
373.158	270.44
373.384	289.44
373.61	273.44
373.835	293.44
374.061	278.44
374.287	286.44
374.513	281.44
374.739	280.44
374.965	273.44
375.191	272.44
375.416	285.44
375.642	292.44
375.868	301.44
376.094	282.44
376.319	294.44
376.545	273.44
376.771	272.44
376.997	261.44
377.222	258.44
377.448	272.44
377.674	268.44
377.899	264.44
378.125	264.44
378.35	280.44
378.576	273.44
378.802	283.44
379.027	266.44
379.253	280.44
379.478	279.44
379.704	273.44
379.929	267.44
380.155	271.44
380.38	285.44
380.606	283.44
380.831	276.44
381.057	286.44
381.282	271.44
381.507	272.44
381.733	266.44
381.958	265.44
382.184	281.44
382.409	278.44
382.634	273.44
382.86	276.44
383.085	278.44
383.31	279.44
383.535	270.44
383.761	274.44
383.986	279.44
384.211	270.44
384.436	284.44
384.662	282.44
384.887	274.44
385.112	292.44
385.337	296.44
385.562	280.44
385.787	271.44
386.013	294.44
386.238	275.44
386.463	286.44
386.688	298.44
386.913	278.44
387.138	291.44
387.363	281.44
387.588	297.44
387.813	289.44
388.038	284.44
388.263	287.44
388.488	300.44
388.713	287.44
388.938	290.44
389.163	287.44
389.387	296.44
389.612	280.44
389.837	284.44
390.062	292.44
390.287	280.44
390.512	284.44
390.736	280.44
390.961	276.44
391.186	275.44
391.411	298.44
391.636	275.44
391.86	291.44
392.085	280.44
392.31	290.44
392.534	279.44
392.759	280.44
392.984	300.44
393.208	280.44
393.433	301.44
393.658	281.44
393.882	285.44
394.107	285.44
394.331	280.44
394.556	305.44
394.78	290.44
395.005	280.44
395.229	289.44
395.454	289.44
395.678	290.44
395.903	300.44
396.127	309.44
396.352	294.44
396.576	288.44
396.801	288.44
397.025	291.44
397.249	297.44
397.474	283.44
397.698	306.44
397.922	320.44
398.147	319.44
398.371	298.44
398.595	324.44
398.82	316.44
399.044	317.44
399.268	333.44
399.492	347.44
399.717	378.44
399.941	376.44
400.165	367.44
400.389	386.44
400.613	348.44
400.837	328.44
401.062	325.44
401.286	324.44
401.51	324.44
401.734	330.44
401.958	327.44
402.182	332.44
402.406	311.44
402.63	334.44
402.854	333.44
403.078	339.44
403.302	335.44
403.526	338.44
403.75	342.44
403.974	329.44
404.198	321.44
404.422	329.44
404.645	329.44
404.869	330.44
405.093	344.44
405.317	376.44
405.541	393.44
405.765	355.44
405.988	349.44
406.212	349.44
406.436	357.44
406.66	366.44
406.883	352.44
407.107	369.44
407.331	381.44
407.555	413.44
407.778	407.44
408.002	383.44
408.226	350.44
408.449	353.44
408.673	350.44
408.896	370.44
409.12	392.44
409.344	358.44
409.567	322.44
409.791	335.44
410.014	318.44
410.238	321.44
410.461	339.44
410.685	333.44
410.908	346.44
411.132	363.44
411.355	353.44
411.578	350.44
411.802	343.44
412.025	327.44
412.249	339.44
412.472	329.44
412.695	363.44
412.919	360.44
413.142	324.44
413.365	316.44
413.589	310.44
413.812	304.44
414.035	325.44
414.258	315.44
414.482	309.44
414.705	316.44
414.928	309.44
415.151	294.44
415.374	296.44
415.597	281.44
415.821	316.44
416.044	284.44
416.267	304.44
416.49	304.44
416.713	299.44
416.936	326.44
417.159	308.44
417.382	325.44
417.605	314.44
417.828	326.44
418.051	323.44
418.274	318.44
418.497	306.44
418.72	320.44
418.943	322.44
419.166	318.44
419.389	334.44
419.611	315.44
419.834	309.44
420.057	314.44
420.28	318.44
420.503	316.44
420.726	333.44
420.948	320.44
421.171	342.44
421.394	369.44
421.617	345.44
421.839	323.44
422.062	322.44
422.285	329.44
422.507	378.44
422.73	398.44
422.953	380.44
423.175	351.44
423.398	331.44
423.621	353.44
423.843	327.44
424.066	352.44
424.288	344.44
424.511	348.44
424.733	384.44
424.956	424.44
425.178	426.44
425.401	399.44
425.623	443.44
425.846	356.44
426.068	344.44
426.291	347.44
426.513	338.44
426.735	365.44
426.958	376.44
427.18	424.44
427.402	496.44
427.625	542.44
427.847	493.44
428.069	428.44
428.292	391.44
428.514	343.44
428.736	348.44
428.958	326.44
429.181	315.44
429.403	333.44
429.625	327.44
429.847	346.44
430.069	396.44
430.292	386.44
430.514	345.44
430.736	318.44
430.958	317.44
431.18	297.44
431.402	310.44
431.624	306.44
431.846	288.44
432.068	308.44
432.29	310.44
432.512	306.44
432.734	293.44
432.956	297.44
433.178	297.44
433.4	348.44
433.622	310.44
433.844	296.44
434.066	318.44
434.287	286.44
434.509	308.44
434.731	305.44
434.953	312.44
435.175	331.44
435.397	349.44
435.618	336.44
435.84	366.44
436.062	439.44
436.284	472.44
436.505	397.44
436.727	364.44
436.949	341.44
437.17	324.44
437.392	329.44
437.614	329.44
437.835	360.44
438.057	417.44
438.278	477.44
438.5	486.44
438.721	513.44
438.943	465.44
439.165	395.44
439.386	375.44
439.608	364.44
439.829	371.44
440.05	366.44
440.272	398.44
440.493	369.44
440.715	361.44
440.936	334.44
441.158	334.44
441.379	326.44
441.6	345.44
441.822	348.44
442.043	388.44
442.264	441.44
442.486	454.44
442.707	388.44
442.928	346.44
443.149	351.44
443.371	382.44
443.592	412.44
443.813	453.44
444.034	484.44
444.255	407.44
444.476	361.44
444.698	364.44
444.919	338.44
445.14	421.44
445.361	385.44
445.582	388.44
445.803	422.44
446.024	466.44
446.245	489.44
446.466	434.44
446.687	376.44
446.908	357.44
447.129	332.44
447.35	316.44
447.571	343.44
447.792	322.44
448.013	311.44
448.234	342.44
448.455	372.44
448.675	440.44
448.896	504.44
449.117	422.44
449.338	434.44
449.559	463.44
449.779	529.44
450	429.44
450.221	368.44
450.442	347.44
450.662	324.44
450.883	329.44
451.104	341.44
451.324	318.44
451.545	289.44
451.766	294.44
451.986	298.44
452.207	293.44
452.428	294.44
452.648	283.44
452.869	301.44
453.089	296.44
453.31	319.44
453.53	303.44
453.751	292.44
453.971	308.44
454.192	303.44
454.412	298.44
454.633	281.44
454.853	298.44
455.073	296.44
455.294	319.44
455.514	346.44
455.734	331.44
455.955	310.44
456.175	280.44
456.395	284.44
456.616	268.44
456.836	263.44
457.056	285.44
457.276	278.44
457.497	283.44
457.717	265.44
457.937	273.44
458.157	297.44
458.377	295.44
458.598	301.44
458.818	369.44
459.038	402.44
459.258	382.44
459.478	332.44
459.698	309.44
459.918	316.44
460.138	319.44
460.358	296.44
460.578	297.44
460.798	319.44
461.018	299.44
461.238	292.44
461.458	293.44
461.678	295.44
461.898	308.44
462.118	275.44
462.338	281.44
462.558	304.44
462.777	315.44
462.997	316.44
463.217	313.44
463.437	320.44
463.657	314.44
463.876	318.44
464.096	312.44
464.316	318.44
464.536	309.44
464.755	335.44
464.975	343.44
465.195	352.44
465.414	395.44
465.634	340.44
465.854	332.44
466.073	308.44
466.293	314.44
466.512	273.44
466.732	298.44
466.951	299.44
467.171	284.44
467.391	309.44
467.61	308.44
467.829	313.44
468.049	313.44
468.268	302.44
468.488	304.44
468.707	284.44
468.927	290.44
469.146	290.44
469.365	279.44
469.585	300.44
469.804	311.44
470.023	314.44
470.243	296.44
470.462	297.44
470.681	325.44
470.901	310.44
471.12	310.44
471.339	296.44
471.558	300.44
471.777	300.44
471.997	297.44
472.216	308.44
472.435	317.44
472.654	306.44
472.873	300.44
473.092	276.44
473.311	304.44
473.53	286.44
473.749	304.44
473.968	342.44
474.187	398.44
474.406	398.44
474.625	352.44
474.844	311.44
475.063	318.44
475.282	300.44
475.501	316.44
475.72	317.44
475.939	302.44
476.158	307.44
476.377	316.44
476.596	319.44
476.814	306.44
477.033	314.44
477.252	320.44
477.471	318.44
477.69	327.44
477.908	320.44
478.127	330.44
478.346	316.44
478.564	316.44
478.783	312.44
479.002	349.44
479.22	335.44
479.439	345.44
479.658	357.44
479.876	357.44
480.095	370.44
480.313	391.44
480.532	365.44
480.751	361.44
480.969	377.44
481.188	398.44
481.406	409.44
481.624	367.44
481.843	368.44
482.061	351.44
482.28	336.44
482.498	348.44
482.717	337.44
482.935	344.44
483.153	346.44
483.372	350.44
483.59	352.44
483.808	344.44
484.027	350.44
484.245	355.44
484.463	347.44
484.681	345.44
484.9	352.44
485.118	335.44
485.336	359.44
485.554	361.44
485.772	342.44
485.99	347.44
486.209	328.44
486.427	382.44
486.645	364.44
486.863	366.44
487.081	392.44
487.299	360.44
487.517	362.44
487.735	377.44
487.953	389.44
488.171	370.44
488.389	373.44
488.607	374.44
488.825	373.44
489.043	374.44
489.261	378.44
489.479	392.44
489.696	372.44
489.914	367.44
490.132	363.44
490.35	378.44
490.568	396.44
490.786	393.44
491.003	396.44
491.221	412.44
491.439	431.44
491.657	413.44
491.874	430.44
492.092	409.44
492.31	420.44
492.527	408.44
492.745	403.44
492.963	442.44
493.18	430.44
493.398	422.44
493.615	421.44
493.833	424.44
494.05	438.44
494.268	431.44
494.485	416.44
494.703	449.44
494.92	426.44
495.138	429.44
495.355	449.44
495.573	418.44
495.79	432.44
496.008	413.44
496.225	430.44
496.442	469.44
496.66	439.44
496.877	400.44
497.094	444.44
497.312	438.44
497.529	441.44
497.746	444.44
497.963	455.44
498.181	462.44
498.398	461.44
498.615	472.44
498.832	464.44
499.049	473.44
499.267	482.44
499.484	486.44
499.701	495.44
499.918	512.44
500.135	520.44
500.352	539.44
500.569	528.44
500.786	536.44
501.003	548.44
501.22	547.44
501.437	540.44
501.654	522.44
501.871	528.44
502.088	521.44
