Data from 1982.PennyLincolnUp.Lamp.En5.5.200Scan.071819.P1_HRD10591_16-47-35-962.txt Node
Date: Thu Jul 18 16:47:35 EDT 2019
User: cochatt
Spectrometer: HR+D1059
Trigger mode: 1
Integration Time (sec): 1.000000E-1
Scans to average: 1
Electric dark correction enabled: true
Nonlinearity correction enabled: false
Boxcar width: 0
XAxis mode: Wavelengths
Number of Pixels in Spectrum: 2048
>>>>>Begin Spectral Data<<<<<
223.165	-17.44
223.4	-17.44
223.635	-17.44
223.869	-17.44
224.104	-8.44
224.338	-16.44
224.573	-8.44
224.808	-19.44
225.042	-22.44
225.277	2.56
225.511	1.56
225.746	12.56
225.98	15.56
226.215	11.56
226.449	3.56
226.683	27.56
226.918	18.56
227.152	16.56
227.387	27.56
227.621	36.56
227.856	48.56
228.09	48.56
228.324	56.56
228.559	45.56
228.793	59.56
229.027	92.56
229.262	94.56
229.496	111.56
229.73	112.56
229.964	127.56
230.199	117.56
230.433	85.56
230.667	97.56
230.901	91.56
231.136	97.56
231.37	97.56
231.604	90.56
231.838	90.56
232.072	101.56
232.306	88.56
232.541	95.56
232.775	91.56
233.009	97.56
233.243	101.56
233.477	107.56
233.711	104.56
233.945	106.56
234.179	123.56
234.413	93.56
234.647	112.56
234.881	102.56
235.115	103.56
235.349	101.56
235.583	105.56
235.817	124.56
236.051	104.56
236.285	116.56
236.519	115.56
236.753	106.56
236.987	132.56
237.221	148.56
237.455	184.56
237.689	146.56
237.922	132.56
238.156	117.56
238.39	113.56
238.624	116.56
238.858	112.56
239.091	98.56
239.325	107.56
239.559	104.56
239.793	102.56
240.027	114.56
240.26	116.56
240.494	113.56
240.728	108.56
240.961	123.56
241.195	117.56
241.429	128.56
241.662	126.56
241.896	101.56
242.13	118.56
242.363	116.56
242.597	109.56
242.83	127.56
243.064	116.56
243.298	125.56
243.531	117.56
243.765	114.56
243.998	122.56
244.232	105.56
244.465	121.56
244.699	107.56
244.932	108.56
245.166	118.56
245.399	122.56
245.633	109.56
245.866	122.56
246.099	115.56
246.333	119.56
246.566	128.56
246.8	135.56
247.033	122.56
247.266	128.56
247.5	127.56
247.733	133.56
247.966	131.56
248.2	150.56
248.433	150.56
248.666	141.56
248.899	143.56
249.133	155.56
249.366	165.56
249.599	160.56
249.832	145.56
250.066	150.56
250.299	153.56
250.532	156.56
250.765	170.56
250.998	165.56
251.231	181.56
251.465	181.56
251.698	171.56
251.931	170.56
252.164	162.56
252.397	163.56
252.63	165.56
252.863	160.56
253.096	189.56
253.329	187.56
253.562	183.56
253.795	189.56
254.028	172.56
254.261	189.56
254.494	184.56
254.727	211.56
254.96	208.56
255.193	220.56
255.426	190.56
255.659	168.56
255.892	197.56
256.124	176.56
256.357	192.56
256.59	163.56
256.823	179.56
257.056	164.56
257.289	180.56
257.521	166.56
257.754	176.56
257.987	160.56
258.22	178.56
258.452	169.56
258.685	160.56
258.918	175.56
259.151	163.56
259.383	168.56
259.616	183.56
259.849	169.56
260.081	194.56
260.314	177.56
260.547	197.56
260.779	202.56
261.012	195.56
261.244	177.56
261.477	189.56
261.71	177.56
261.942	194.56
262.175	199.56
262.407	166.56
262.64	185.56
262.872	172.56
263.105	166.56
263.337	162.56
263.57	171.56
263.802	167.56
264.035	163.56
264.267	151.56
264.499	164.56
264.732	170.56
264.964	176.56
265.197	169.56
265.429	155.56
265.661	184.56
265.894	167.56
266.126	180.56
266.358	181.56
266.591	175.56
266.823	178.56
267.055	164.56
267.287	171.56
267.52	176.56
267.752	189.56
267.984	177.56
268.216	189.56
268.448	169.56
268.681	193.56
268.913	194.56
269.145	210.56
269.377	218.56
269.609	218.56
269.841	211.56
270.073	221.56
270.306	227.56
270.538	237.56
270.77	244.56
271.002	227.56
271.234	219.56
271.466	233.56
271.698	248.56
271.93	248.56
272.162	242.56
272.394	265.56
272.626	254.56
272.858	222.56
273.09	221.56
273.322	210.56
273.553	223.56
273.785	207.56
274.017	202.56
274.249	213.56
274.481	204.56
274.713	190.56
274.945	206.56
275.176	218.56
275.408	212.56
275.64	201.56
275.872	213.56
276.104	228.56
276.335	198.56
276.567	219.56
276.799	225.56
277.031	242.56
277.262	241.56
277.494	233.56
277.726	232.56
277.957	210.56
278.189	224.56
278.421	211.56
278.652	205.56
278.884	202.56
279.115	199.56
279.347	200.56
279.579	210.56
279.81	218.56
280.042	199.56
280.273	207.56
280.505	216.56
280.736	210.56
280.968	205.56
281.199	207.56
281.431	219.56
281.662	193.56
281.894	207.56
282.125	212.56
282.356	244.56
282.588	244.56
282.819	237.56
283.051	229.56
283.282	218.56
283.513	203.56
283.745	211.56
283.976	211.56
284.207	230.56
284.439	213.56
284.67	211.56
284.901	220.56
285.132	217.56
285.364	204.56
285.595	213.56
285.826	205.56
286.057	210.56
286.288	211.56
286.52	217.56
286.751	221.56
286.982	231.56
287.213	204.56
287.444	231.56
287.675	235.56
287.906	249.56
288.138	240.56
288.369	233.56
288.6	223.56
288.831	215.56
289.062	208.56
289.293	225.56
289.524	219.56
289.755	208.56
289.986	233.56
290.217	225.56
290.448	232.56
290.679	235.56
290.91	221.56
291.141	236.56
291.371	227.56
291.602	207.56
291.833	211.56
292.064	206.56
292.295	214.56
292.526	234.56
292.757	220.56
292.987	220.56
293.218	211.56
293.449	200.56
293.68	224.56
293.91	230.56
294.141	235.56
294.372	229.56
294.603	210.56
294.833	215.56
295.064	227.56
295.295	224.56
295.525	230.56
295.756	241.56
295.987	228.56
296.217	247.56
296.448	246.56
296.679	239.56
296.909	218.56
297.14	227.56
297.37	218.56
297.601	213.56
297.831	205.56
298.062	243.56
298.292	224.56
298.523	231.56
298.753	226.56
298.984	222.56
299.214	224.56
299.445	220.56
299.675	232.56
299.905	253.56
300.136	236.56
300.366	230.56
300.597	224.56
300.827	234.56
301.057	228.56
301.288	229.56
301.518	226.56
301.748	246.56
301.979	251.56
302.209	249.56
302.439	234.56
302.669	242.56
302.9	246.56
303.13	250.56
303.36	245.56
303.59	245.56
303.82	246.56
304.051	251.56
304.281	254.56
304.511	218.56
304.741	250.56
304.971	240.56
305.201	256.56
305.431	230.56
305.661	248.56
305.891	258.56
306.121	250.56
306.352	244.56
306.582	244.56
306.812	249.56
307.042	254.56
307.272	233.56
307.502	244.56
307.731	256.56
307.961	250.56
308.191	254.56
308.421	270.56
308.651	257.56
308.881	236.56
309.111	268.56
309.341	238.56
309.571	268.56
309.8	273.56
310.03	282.56
310.26	287.56
310.49	308.56
310.72	290.56
310.949	317.56
311.179	305.56
311.409	281.56
311.639	274.56
311.868	280.56
312.098	285.56
312.328	286.56
312.557	297.56
312.787	316.56
313.017	309.56
313.246	312.56
313.476	291.56
313.706	290.56
313.935	288.56
314.165	306.56
314.394	304.56
314.624	295.56
314.853	293.56
315.083	287.56
315.312	310.56
315.542	288.56
315.771	285.56
316.001	288.56
316.23	275.56
316.46	295.56
316.689	262.56
316.919	283.56
317.148	295.56
317.377	289.56
317.607	279.56
317.836	290.56
318.065	285.56
318.295	273.56
318.524	279.56
318.753	280.56
318.983	294.56
319.212	296.56
319.441	296.56
319.67	295.56
319.9	290.56
320.129	289.56
320.358	284.56
320.587	284.56
320.816	299.56
321.046	306.56
321.275	305.56
321.504	314.56
321.733	300.56
321.962	312.56
322.191	336.56
322.42	328.56
322.649	347.56
322.878	365.56
323.108	357.56
323.337	377.56
323.566	404.56
323.795	432.56
324.024	468.56
324.253	579.56
324.482	911.56
324.71	1314.56
324.939	1666.56
325.168	1393.56
325.397	741.56
325.626	510.56
325.855	419.56
326.084	401.56
326.313	390.56
326.542	416.56
326.77	440.56
326.999	540.56
327.228	778.56
327.457	1088.56
327.686	1202.56
327.914	813.56
328.143	579.56
328.372	500.56
328.6	461.56
328.829	468.56
329.058	436.56
329.287	438.56
329.515	417.56
329.744	405.56
329.972	396.56
330.201	424.56
330.43	430.56
330.658	442.56
330.887	487.56
331.115	457.56
331.344	394.56
331.572	373.56
331.801	376.56
332.03	356.56
332.258	346.56
332.486	352.56
332.715	315.56
332.943	341.56
333.172	334.56
333.4	335.56
333.629	336.56
333.857	357.56
334.085	364.56
334.314	371.56
334.542	381.56
334.771	400.56
334.999	370.56
335.227	336.56
335.455	328.56
335.684	323.56
335.912	332.56
336.14	341.56
336.369	334.56
336.597	328.56
336.825	324.56
337.053	316.56
337.281	326.56
337.51	314.56
337.738	305.56
337.966	300.56
338.194	320.56
338.422	325.56
338.65	319.56
338.878	325.56
339.106	324.56
339.334	323.56
339.562	322.56
339.79	305.56
340.018	331.56
340.246	320.56
340.474	314.56
340.702	306.56
340.93	300.56
341.158	301.56
341.386	309.56
341.614	309.56
341.842	315.56
342.07	304.56
342.298	290.56
342.526	311.56
342.754	305.56
342.981	324.56
343.209	291.56
343.437	295.56
343.665	318.56
343.893	302.56
344.12	309.56
344.348	317.56
344.576	289.56
344.804	309.56
345.031	317.56
345.259	329.56
345.487	314.56
345.714	320.56
345.942	301.56
346.17	322.56
346.397	312.56
346.625	320.56
346.853	311.56
347.08	294.56
347.308	312.56
347.535	322.56
347.763	300.56
347.99	314.56
348.218	311.56
348.445	320.56
348.673	301.56
348.9	280.56
349.128	311.56
349.355	294.56
349.583	306.56
349.81	281.56
350.037	289.56
350.265	302.56
350.492	282.56
350.72	289.56
350.947	301.56
351.174	305.56
351.402	293.56
351.629	309.56
351.856	317.56
352.083	307.56
352.311	315.56
352.538	313.56
352.765	312.56
352.992	316.56
353.22	300.56
353.447	308.56
353.674	304.56
353.901	278.56
354.128	286.56
354.355	285.56
354.583	279.56
354.81	280.56
355.037	269.56
355.264	270.56
355.491	273.56
355.718	282.56
355.945	281.56
356.172	290.56
356.399	280.56
356.626	280.56
356.853	270.56
357.08	277.56
357.307	278.56
357.534	288.56
357.761	278.56
357.988	272.56
358.215	274.56
358.441	292.56
358.668	283.56
358.895	285.56
359.122	288.56
359.349	306.56
359.576	312.56
359.802	314.56
360.029	338.56
360.256	360.56
360.483	317.56
360.709	309.56
360.936	317.56
361.163	297.56
361.39	294.56
361.616	289.56
361.843	315.56
362.07	303.56
362.296	293.56
362.523	280.56
362.749	299.56
362.976	274.56
363.203	290.56
363.429	280.56
363.656	270.56
363.882	272.56
364.109	268.56
364.335	279.56
364.562	281.56
364.788	282.56
365.015	265.56
365.241	274.56
365.468	298.56
365.694	271.56
365.92	278.56
366.147	279.56
366.373	275.56
366.599	289.56
366.826	279.56
367.052	258.56
367.278	268.56
367.505	272.56
367.731	277.56
367.957	288.56
368.184	290.56
368.41	277.56
368.636	285.56
368.862	297.56
369.089	289.56
369.315	277.56
369.541	279.56
369.767	279.56
369.993	266.56
370.219	272.56
370.445	299.56
370.672	283.56
370.898	271.56
371.124	275.56
371.35	268.56
371.576	287.56
371.802	256.56
372.028	263.56
372.254	262.56
372.48	286.56
372.706	276.56
372.932	249.56
373.158	276.56
373.384	281.56
373.61	260.56
373.835	278.56
374.061	274.56
374.287	268.56
374.513	278.56
374.739	275.56
374.965	279.56
375.191	278.56
375.416	273.56
375.642	276.56
375.868	274.56
376.094	269.56
376.319	268.56
376.545	270.56
376.771	270.56
376.997	267.56
377.222	271.56
377.448	275.56
377.674	256.56
377.899	272.56
378.125	245.56
378.35	269.56
378.576	266.56
378.802	276.56
379.027	262.56
379.253	256.56
379.478	279.56
379.704	263.56
379.929	283.56
380.155	276.56
380.38	269.56
380.606	258.56
380.831	276.56
381.057	274.56
381.282	271.56
381.507	269.56
381.733	263.56
381.958	263.56
382.184	273.56
382.409	280.56
382.634	251.56
382.86	270.56
383.085	269.56
383.31	264.56
383.535	268.56
383.761	260.56
383.986	284.56
384.211	271.56
384.436	279.56
384.662	253.56
384.887	268.56
385.112	264.56
385.337	269.56
385.562	262.56
385.787	267.56
386.013	296.56
386.238	277.56
386.463	272.56
386.688	288.56
386.913	251.56
387.138	278.56
387.363	300.56
387.588	269.56
387.813	276.56
388.038	292.56
388.263	288.56
388.488	273.56
388.713	288.56
388.938	290.56
389.163	268.56
389.387	276.56
389.612	266.56
389.837	282.56
390.062	290.56
390.287	256.56
390.512	266.56
390.736	268.56
390.961	270.56
391.186	277.56
391.411	289.56
391.636	283.56
391.86	268.56
392.085	290.56
392.31	278.56
392.534	281.56
392.759	281.56
392.984	263.56
393.208	293.56
393.433	283.56
393.658	270.56
393.882	284.56
394.107	278.56
394.331	255.56
394.556	268.56
394.78	279.56
395.005	273.56
395.229	276.56
395.454	290.56
395.678	281.56
395.903	285.56
396.127	303.56
396.352	282.56
396.576	301.56
396.801	288.56
397.025	276.56
397.249	306.56
397.474	300.56
397.698	276.56
397.922	326.56
398.147	314.56
398.371	317.56
398.595	291.56
398.82	290.56
399.044	298.56
399.268	315.56
399.492	321.56
399.717	340.56
399.941	345.56
400.165	369.56
400.389	365.56
400.613	332.56
400.837	317.56
401.062	317.56
401.286	315.56
401.51	326.56
401.734	330.56
401.958	321.56
402.182	308.56
402.406	328.56
402.63	325.56
402.854	299.56
403.078	308.56
403.302	325.56
403.526	346.56
403.75	308.56
403.974	304.56
404.198	295.56
404.422	286.56
404.645	319.56
404.869	328.56
405.093	348.56
405.317	392.56
405.541	387.56
405.765	362.56
405.988	324.56
406.212	329.56
406.436	352.56
406.66	357.56
406.883	337.56
407.107	368.56
407.331	384.56
407.555	421.56
407.778	389.56
408.002	387.56
408.226	353.56
408.449	364.56
408.673	350.56
408.896	360.56
409.12	390.56
409.344	374.56
409.567	337.56
409.791	312.56
410.014	336.56
410.238	316.56
410.461	318.56
410.685	323.56
410.908	304.56
411.132	368.56
411.355	372.56
411.578	339.56
411.802	334.56
412.025	310.56
412.249	333.56
412.472	352.56
412.695	363.56
412.919	355.56
413.142	334.56
413.365	319.56
413.589	300.56
413.812	306.56
414.035	314.56
414.258	296.56
414.482	296.56
414.705	296.56
414.928	307.56
415.151	298.56
415.374	304.56
415.597	292.56
415.821	281.56
416.044	296.56
416.267	300.56
416.49	310.56
416.713	300.56
416.936	285.56
417.159	305.56
417.382	299.56
417.605	298.56
417.828	311.56
418.051	311.56
418.274	310.56
418.497	303.56
418.72	299.56
418.943	308.56
419.166	306.56
419.389	324.56
419.611	333.56
419.834	320.56
420.057	320.56
420.28	315.56
420.503	312.56
420.726	323.56
420.948	333.56
421.171	362.56
421.394	348.56
421.617	343.56
421.839	321.56
422.062	306.56
422.285	320.56
422.507	364.56
422.73	384.56
422.953	379.56
423.175	336.56
423.398	332.56
423.621	352.56
423.843	336.56
424.066	371.56
424.288	324.56
424.511	359.56
424.733	384.56
424.956	413.56
425.178	404.56
425.401	425.56
425.623	420.56
425.846	362.56
426.068	334.56
426.291	336.56
426.513	314.56
426.735	352.56
426.958	379.56
427.18	445.56
427.402	496.56
427.625	544.56
427.847	491.56
428.069	461.56
428.292	369.56
428.514	332.56
428.736	324.56
428.958	315.56
429.181	313.56
429.403	326.56
429.625	320.56
429.847	368.56
430.069	381.56
430.292	377.56
430.514	326.56
430.736	326.56
430.958	305.56
431.18	305.56
431.402	305.56
431.624	315.56
431.846	284.56
432.068	314.56
432.29	302.56
432.512	301.56
432.734	307.56
432.956	285.56
433.178	284.56
433.4	331.56
433.622	320.56
433.844	309.56
434.066	307.56
434.287	301.56
434.509	309.56
434.731	327.56
434.953	325.56
435.175	332.56
435.397	347.56
435.618	339.56
435.84	388.56
436.062	444.56
436.284	451.56
436.505	394.56
436.727	350.56
436.949	321.56
437.17	326.56
437.392	335.56
437.614	324.56
437.835	345.56
438.057	412.56
438.278	480.56
438.5	468.56
438.721	512.56
438.943	476.56
439.165	400.56
439.386	356.56
439.608	363.56
439.829	344.56
440.05	380.56
440.272	403.56
440.493	398.56
440.715	340.56
440.936	338.56
441.158	329.56
441.379	307.56
441.6	332.56
441.822	344.56
442.043	380.56
442.264	412.56
442.486	460.56
442.707	394.56
442.928	381.56
443.149	362.56
443.371	370.56
443.592	427.56
443.813	458.56
444.034	466.56
444.255	395.56
444.476	349.56
444.698	355.56
444.919	331.56
445.14	438.56
445.361	403.56
445.582	365.56
445.803	426.56
446.024	474.56
446.245	501.56
446.466	441.56
446.687	372.56
446.908	343.56
447.129	340.56
447.35	323.56
447.571	326.56
447.792	325.56
448.013	335.56
448.234	327.56
448.455	363.56
448.675	454.56
448.896	491.56
449.117	406.56
449.338	409.56
449.559	499.56
449.779	523.56
450	439.56
450.221	352.56
450.442	325.56
450.662	334.56
450.883	321.56
451.104	314.56
451.324	334.56
451.545	294.56
451.766	298.56
451.986	283.56
452.207	277.56
452.428	284.56
452.648	271.56
452.869	283.56
453.089	300.56
453.31	301.56
453.53	309.56
453.751	293.56
453.971	293.56
454.192	302.56
454.412	306.56
454.633	286.56
454.853	281.56
455.073	283.56
455.294	312.56
455.514	340.56
455.734	332.56
455.955	268.56
456.175	293.56
456.395	263.56
456.616	281.56
456.836	281.56
457.056	285.56
457.276	275.56
457.497	277.56
457.717	282.56
457.937	285.56
458.157	285.56
458.377	285.56
458.598	291.56
458.818	333.56
459.038	392.56
459.258	381.56
459.478	327.56
459.698	308.56
459.918	297.56
460.138	299.56
460.358	300.56
460.578	284.56
460.798	296.56
461.018	303.56
461.238	312.56
461.458	314.56
461.678	305.56
461.898	291.56
462.118	295.56
462.338	296.56
462.558	290.56
462.777	316.56
462.997	309.56
463.217	289.56
463.437	292.56
463.657	315.56
463.876	288.56
464.096	285.56
464.316	299.56
464.536	313.56
464.755	320.56
464.975	308.56
465.195	341.56
465.414	382.56
465.634	327.56
465.854	327.56
466.073	292.56
466.293	285.56
466.512	295.56
466.732	296.56
466.951	287.56
467.171	296.56
467.391	321.56
467.61	304.56
467.829	298.56
468.049	308.56
468.268	283.56
468.488	277.56
468.707	284.56
468.927	294.56
469.146	289.56
469.365	279.56
469.585	270.56
469.804	288.56
470.023	301.56
470.243	306.56
470.462	294.56
470.681	305.56
470.901	307.56
471.12	292.56
471.339	290.56
471.558	288.56
471.777	305.56
471.997	288.56
472.216	288.56
472.435	321.56
472.654	317.56
472.873	296.56
473.092	292.56
473.311	277.56
473.53	296.56
473.749	306.56
473.968	337.56
474.187	417.56
474.406	408.56
474.625	338.56
474.844	307.56
475.063	302.56
475.282	282.56
475.501	279.56
475.72	328.56
475.939	306.56
476.158	291.56
476.377	304.56
476.596	289.56
476.814	308.56
477.033	299.56
477.252	313.56
477.471	308.56
477.69	302.56
477.908	312.56
478.127	320.56
478.346	320.56
478.564	333.56
478.783	318.56
479.002	339.56
479.22	321.56
479.439	319.56
479.658	343.56
479.876	347.56
480.095	335.56
480.313	385.56
480.532	354.56
480.751	349.56
480.969	355.56
481.188	410.56
481.406	428.56
481.624	381.56
481.843	361.56
482.061	352.56
482.28	349.56
482.498	345.56
482.717	349.56
482.935	342.56
483.153	344.56
483.372	335.56
483.59	333.56
483.808	340.56
484.027	345.56
484.245	350.56
484.463	360.56
484.681	365.56
484.9	359.56
485.118	332.56
485.336	342.56
485.554	347.56
485.772	343.56
485.99	354.56
486.209	350.56
486.427	346.56
486.645	353.56
486.863	369.56
487.081	371.56
487.299	384.56
487.517	376.56
487.735	346.56
487.953	364.56
488.171	372.56
488.389	368.56
488.607	370.56
488.825	372.56
489.043	372.56
489.261	383.56
489.479	371.56
489.696	357.56
489.914	364.56
490.132	381.56
490.35	372.56
490.568	382.56
490.786	388.56
491.003	401.56
491.221	391.56
491.439	393.56
491.657	414.56
491.874	395.56
492.092	417.56
492.31	427.56
492.527	429.56
492.745	412.56
492.963	407.56
493.18	414.56
493.398	411.56
493.615	438.56
493.833	432.56
494.05	420.56
494.268	422.56
494.485	424.56
494.703	417.56
494.92	432.56
495.138	434.56
495.355	407.56
495.573	423.56
495.79	440.56
496.008	426.56
496.225	445.56
496.442	418.56
496.66	424.56
496.877	420.56
497.094	441.56
497.312	406.56
497.529	427.56
497.746	448.56
497.963	450.56
498.181	436.56
498.398	461.56
498.615	461.56
498.832	480.56
499.049	482.56
499.267	490.56
499.484	480.56
499.701	500.56
499.918	500.56
500.135	530.56
500.352	535.56
500.569	547.56
500.786	527.56
501.003	522.56
501.22	515.56
501.437	516.56
501.654	508.56
501.871	528.56
502.088	493.56
