Data from 1982.PennyLincolnUp.Lamp.En5.5.200Scan.071819.P1_HRD10591_16-46-09-961.txt Node
Date: Thu Jul 18 16:46:09 EDT 2019
User: cochatt
Spectrometer: HR+D1059
Trigger mode: 1
Integration Time (sec): 1.000000E-1
Scans to average: 1
Electric dark correction enabled: true
Nonlinearity correction enabled: false
Boxcar width: 0
XAxis mode: Wavelengths
Number of Pixels in Spectrum: 2048
>>>>>Begin Spectral Data<<<<<
223.165	1.94
223.4	1.94
223.635	1.94
223.869	-9.06
224.104	-14.06
224.338	-22.06
224.573	-21.06
224.808	-20.06
225.042	-10.06
225.277	-14.06
225.511	-11.06
225.746	15.94
225.98	5.94
226.215	17.94
226.449	2.94
226.683	20.94
226.918	23.94
227.152	31.94
227.387	37.94
227.621	42.94
227.856	43.94
228.09	36.94
228.324	43.94
228.559	53.94
228.793	64.94
229.027	81.94
229.262	83.94
229.496	80.94
229.73	97.94
229.964	120.94
230.199	98.94
230.433	91.94
230.667	110.94
230.901	85.94
231.136	84.94
231.37	91.94
231.604	94.94
231.838	99.94
232.072	80.94
232.306	102.94
232.541	96.94
232.775	99.94
233.009	94.94
233.243	95.94
233.477	93.94
233.711	83.94
233.945	93.94
234.179	113.94
234.413	88.94
234.647	99.94
234.881	109.94
235.115	104.94
235.349	114.94
235.583	100.94
235.817	97.94
236.051	103.94
236.285	92.94
236.519	93.94
236.753	107.94
236.987	119.94
237.221	127.94
237.455	157.94
237.689	143.94
237.922	123.94
238.156	107.94
238.39	104.94
238.624	102.94
238.858	103.94
239.091	102.94
239.325	109.94
239.559	96.94
239.793	98.94
240.027	115.94
240.26	117.94
240.494	120.94
240.728	101.94
240.961	113.94
241.195	135.94
241.429	114.94
241.662	104.94
241.896	118.94
242.13	107.94
242.363	106.94
242.597	112.94
242.83	105.94
243.064	107.94
243.298	110.94
243.531	102.94
243.765	109.94
243.998	111.94
244.232	115.94
244.465	125.94
244.699	111.94
244.932	96.94
245.166	126.94
245.399	94.94
245.633	120.94
245.866	113.94
246.099	131.94
246.333	122.94
246.566	126.94
246.8	116.94
247.033	127.94
247.266	133.94
247.5	128.94
247.733	126.94
247.966	132.94
248.2	144.94
248.433	154.94
248.666	133.94
248.899	145.94
249.133	163.94
249.366	157.94
249.599	163.94
249.832	149.94
250.066	151.94
250.299	147.94
250.532	151.94
250.765	145.94
250.998	171.94
251.231	166.94
251.465	182.94
251.698	165.94
251.931	142.94
252.164	149.94
252.397	143.94
252.63	154.94
252.863	166.94
253.096	178.94
253.329	182.94
253.562	174.94
253.795	167.94
254.028	175.94
254.261	170.94
254.494	193.94
254.727	194.94
254.96	199.94
255.193	195.94
255.426	190.94
255.659	165.94
255.892	181.94
256.124	167.94
256.357	181.94
256.59	168.94
256.823	187.94
257.056	171.94
257.289	163.94
257.521	157.94
257.754	161.94
257.987	177.94
258.22	171.94
258.452	166.94
258.685	168.94
258.918	170.94
259.151	152.94
259.383	189.94
259.616	163.94
259.849	165.94
260.081	177.94
260.314	202.94
260.547	202.94
260.779	192.94
261.012	178.94
261.244	177.94
261.477	162.94
261.71	185.94
261.942	179.94
262.175	178.94
262.407	178.94
262.64	156.94
262.872	169.94
263.105	179.94
263.337	164.94
263.57	173.94
263.802	169.94
264.035	153.94
264.267	159.94
264.499	176.94
264.732	183.94
264.964	144.94
265.197	177.94
265.429	169.94
265.661	167.94
265.894	169.94
266.126	166.94
266.358	173.94
266.591	159.94
266.823	177.94
267.055	174.94
267.287	170.94
267.52	164.94
267.752	169.94
267.984	163.94
268.216	175.94
268.448	179.94
268.681	179.94
268.913	180.94
269.145	199.94
269.377	216.94
269.609	207.94
269.841	202.94
270.073	202.94
270.306	214.94
270.538	257.94
270.77	247.94
271.002	210.94
271.234	223.94
271.466	215.94
271.698	231.94
271.93	222.94
272.162	254.94
272.394	231.94
272.626	225.94
272.858	204.94
273.09	217.94
273.322	217.94
273.553	184.94
273.785	203.94
274.017	197.94
274.249	200.94
274.481	206.94
274.713	195.94
274.945	207.94
275.176	194.94
275.408	205.94
275.64	197.94
275.872	194.94
276.104	210.94
276.335	198.94
276.567	209.94
276.799	210.94
277.031	226.94
277.262	214.94
277.494	227.94
277.726	234.94
277.957	221.94
278.189	230.94
278.421	196.94
278.652	196.94
278.884	193.94
279.115	200.94
279.347	219.94
279.579	183.94
279.81	202.94
280.042	208.94
280.273	197.94
280.505	185.94
280.736	188.94
280.968	179.94
281.199	191.94
281.431	208.94
281.662	196.94
281.894	190.94
282.125	206.94
282.356	221.94
282.588	232.94
282.819	236.94
283.051	220.94
283.282	203.94
283.513	193.94
283.745	209.94
283.976	205.94
284.207	212.94
284.439	209.94
284.67	222.94
284.901	234.94
285.132	210.94
285.364	202.94
285.595	192.94
285.826	199.94
286.057	204.94
286.288	225.94
286.52	215.94
286.751	203.94
286.982	212.94
287.213	211.94
287.444	223.94
287.675	228.94
287.906	214.94
288.138	229.94
288.369	216.94
288.6	231.94
288.831	222.94
289.062	215.94
289.293	210.94
289.524	221.94
289.755	232.94
289.986	226.94
290.217	222.94
290.448	203.94
290.679	207.94
290.91	215.94
291.141	208.94
291.371	201.94
291.602	211.94
291.833	215.94
292.064	225.94
292.295	209.94
292.526	207.94
292.757	210.94
292.987	215.94
293.218	226.94
293.449	213.94
293.68	219.94
293.91	203.94
294.141	220.94
294.372	204.94
294.603	219.94
294.833	217.94
295.064	216.94
295.295	221.94
295.525	223.94
295.756	231.94
295.987	228.94
296.217	243.94
296.448	253.94
296.679	233.94
296.909	222.94
297.14	226.94
297.37	232.94
297.601	226.94
297.831	234.94
298.062	218.94
298.292	221.94
298.523	221.94
298.753	209.94
298.984	222.94
299.214	215.94
299.445	224.94
299.675	226.94
299.905	230.94
300.136	229.94
300.366	232.94
300.597	230.94
300.827	211.94
301.057	245.94
301.288	250.94
301.518	226.94
301.748	243.94
301.979	234.94
302.209	242.94
302.439	247.94
302.669	233.94
302.9	238.94
303.13	238.94
303.36	245.94
303.59	254.94
303.82	243.94
304.051	245.94
304.281	237.94
304.511	226.94
304.741	232.94
304.971	230.94
305.201	225.94
305.431	237.94
305.661	227.94
305.891	247.94
306.121	248.94
306.352	243.94
306.582	251.94
306.812	244.94
307.042	248.94
307.272	234.94
307.502	256.94
307.731	259.94
307.961	240.94
308.191	247.94
308.421	246.94
308.651	243.94
308.881	235.94
309.111	257.94
309.341	243.94
309.571	243.94
309.8	257.94
310.03	260.94
310.26	278.94
310.49	262.94
310.72	296.94
310.949	286.94
311.179	288.94
311.409	286.94
311.639	276.94
311.868	268.94
312.098	294.94
312.328	303.94
312.557	300.94
312.787	310.94
313.017	301.94
313.246	292.94
313.476	280.94
313.706	281.94
313.935	294.94
314.165	297.94
314.394	302.94
314.624	308.94
314.853	296.94
315.083	290.94
315.312	293.94
315.542	274.94
315.771	263.94
316.001	266.94
316.23	287.94
316.46	280.94
316.689	287.94
316.919	286.94
317.148	277.94
317.377	292.94
317.607	295.94
317.836	282.94
318.065	289.94
318.295	265.94
318.524	270.94
318.753	273.94
318.983	283.94
319.212	293.94
319.441	265.94
319.67	282.94
319.9	285.94
320.129	282.94
320.358	281.94
320.587	291.94
320.816	304.94
321.046	286.94
321.275	305.94
321.504	306.94
321.733	312.94
321.962	297.94
322.191	314.94
322.42	321.94
322.649	327.94
322.878	338.94
323.108	359.94
323.337	390.94
323.566	394.94
323.795	417.94
324.024	471.94
324.253	581.94
324.482	833.94
324.71	1276.94
324.939	1653.94
325.168	1328.94
325.397	715.94
325.626	506.94
325.855	437.94
326.084	406.94
326.313	392.94
326.542	383.94
326.77	426.94
326.999	517.94
327.228	764.94
327.457	1081.94
327.686	1165.94
327.914	799.94
328.143	529.94
328.372	472.94
328.6	460.94
328.829	415.94
329.058	438.94
329.287	421.94
329.515	401.94
329.744	382.94
329.972	407.94
330.201	385.94
330.43	415.94
330.658	430.94
330.887	446.94
331.115	417.94
331.344	357.94
331.572	359.94
331.801	364.94
332.03	354.94
332.258	337.94
332.486	306.94
332.715	318.94
332.943	310.94
333.172	329.94
333.4	328.94
333.629	342.94
333.857	330.94
334.085	344.94
334.314	358.94
334.542	375.94
334.771	385.94
334.999	357.94
335.227	352.94
335.455	325.94
335.684	310.94
335.912	312.94
336.14	309.94
336.369	331.94
336.597	331.94
336.825	321.94
337.053	306.94
337.281	305.94
337.51	325.94
337.738	312.94
337.966	308.94
338.194	317.94
338.422	309.94
338.65	306.94
338.878	306.94
339.106	319.94
339.334	291.94
339.562	305.94
339.79	313.94
340.018	299.94
340.246	309.94
340.474	319.94
340.702	313.94
340.93	298.94
341.158	293.94
341.386	285.94
341.614	303.94
341.842	306.94
342.07	308.94
342.298	289.94
342.526	307.94
342.754	299.94
342.981	319.94
343.209	293.94
343.437	305.94
343.665	293.94
343.893	307.94
344.12	307.94
344.348	318.94
344.576	303.94
344.804	304.94
345.031	325.94
345.259	344.94
345.487	325.94
345.714	304.94
345.942	287.94
346.17	305.94
346.397	317.94
346.625	305.94
346.853	320.94
347.08	319.94
347.308	298.94
347.535	309.94
347.763	317.94
347.99	284.94
348.218	321.94
348.445	315.94
348.673	301.94
348.9	297.94
349.128	283.94
349.355	291.94
349.583	288.94
349.81	273.94
350.037	274.94
350.265	266.94
350.492	280.94
350.72	286.94
350.947	285.94
351.174	305.94
351.402	299.94
351.629	312.94
351.856	309.94
352.083	297.94
352.311	301.94
352.538	309.94
352.765	291.94
352.992	301.94
353.22	316.94
353.447	297.94
353.674	293.94
353.901	283.94
354.128	272.94
354.355	267.94
354.583	275.94
354.81	270.94
355.037	260.94
355.264	265.94
355.491	251.94
355.718	278.94
355.945	256.94
356.172	269.94
356.399	270.94
356.626	270.94
356.853	258.94
357.08	243.94
357.307	269.94
357.534	258.94
357.761	242.94
357.988	261.94
358.215	286.94
358.441	266.94
358.668	284.94
358.895	272.94
359.122	275.94
359.349	278.94
359.576	292.94
359.802	317.94
360.029	345.94
360.256	320.94
360.483	303.94
360.709	291.94
360.936	278.94
361.163	302.94
361.39	281.94
361.616	279.94
361.843	295.94
362.07	285.94
362.296	296.94
362.523	287.94
362.749	302.94
362.976	271.94
363.203	292.94
363.429	273.94
363.656	277.94
363.882	262.94
364.109	286.94
364.335	274.94
364.562	267.94
364.788	272.94
365.015	262.94
365.241	281.94
365.468	282.94
365.694	277.94
365.92	290.94
366.147	281.94
366.373	272.94
366.599	264.94
366.826	272.94
367.052	278.94
367.278	288.94
367.505	289.94
367.731	277.94
367.957	260.94
368.184	279.94
368.41	271.94
368.636	298.94
368.862	278.94
369.089	281.94
369.315	266.94
369.541	277.94
369.767	271.94
369.993	261.94
370.219	261.94
370.445	274.94
370.672	260.94
370.898	257.94
371.124	251.94
371.35	265.94
371.576	266.94
371.802	265.94
372.028	274.94
372.254	253.94
372.48	257.94
372.706	253.94
372.932	272.94
373.158	267.94
373.384	273.94
373.61	257.94
373.835	270.94
374.061	293.94
374.287	260.94
374.513	276.94
374.739	255.94
374.965	273.94
375.191	284.94
375.416	265.94
375.642	277.94
375.868	271.94
376.094	261.94
376.319	267.94
376.545	264.94
376.771	269.94
376.997	257.94
377.222	247.94
377.448	269.94
377.674	265.94
377.899	253.94
378.125	266.94
378.35	258.94
378.576	254.94
378.802	270.94
379.027	264.94
379.253	262.94
379.478	256.94
379.704	268.94
379.929	249.94
380.155	246.94
380.38	262.94
380.606	262.94
380.831	241.94
381.057	245.94
381.282	263.94
381.507	259.94
381.733	263.94
381.958	277.94
382.184	248.94
382.409	237.94
382.634	274.94
382.86	242.94
383.085	267.94
383.31	284.94
383.535	262.94
383.761	245.94
383.986	266.94
384.211	276.94
384.436	258.94
384.662	274.94
384.887	282.94
385.112	277.94
385.337	298.94
385.562	279.94
385.787	268.94
386.013	274.94
386.238	259.94
386.463	269.94
386.688	278.94
386.913	269.94
387.138	281.94
387.363	273.94
387.588	271.94
387.813	290.94
388.038	284.94
388.263	262.94
388.488	273.94
388.713	273.94
388.938	278.94
389.163	282.94
389.387	273.94
389.612	261.94
389.837	282.94
390.062	264.94
390.287	280.94
390.512	285.94
390.736	271.94
390.961	295.94
391.186	266.94
391.411	261.94
391.636	264.94
391.86	279.94
392.085	267.94
392.31	280.94
392.534	273.94
392.759	273.94
392.984	273.94
393.208	265.94
393.433	273.94
393.658	255.94
393.882	277.94
394.107	266.94
394.331	291.94
394.556	278.94
394.78	259.94
395.005	256.94
395.229	259.94
395.454	276.94
395.678	277.94
395.903	284.94
396.127	308.94
396.352	275.94
396.576	280.94
396.801	281.94
397.025	282.94
397.249	272.94
397.474	290.94
397.698	282.94
397.922	301.94
398.147	289.94
398.371	296.94
398.595	283.94
398.82	300.94
399.044	285.94
399.268	300.94
399.492	330.94
399.717	337.94
399.941	342.94
400.165	375.94
400.389	354.94
400.613	335.94
400.837	307.94
401.062	316.94
401.286	314.94
401.51	293.94
401.734	294.94
401.958	296.94
402.182	304.94
402.406	303.94
402.63	324.94
402.854	307.94
403.078	297.94
403.302	316.94
403.526	312.94
403.75	296.94
403.974	318.94
404.198	290.94
404.422	305.94
404.645	310.94
404.869	312.94
405.093	346.94
405.317	357.94
405.541	370.94
405.765	357.94
405.988	313.94
406.212	337.94
406.436	341.94
406.66	355.94
406.883	354.94
407.107	366.94
407.331	365.94
407.555	397.94
407.778	399.94
408.002	368.94
408.226	343.94
408.449	317.94
408.673	339.94
408.896	331.94
409.12	362.94
409.344	367.94
409.567	321.94
409.791	306.94
410.014	311.94
410.238	301.94
410.461	319.94
410.685	320.94
410.908	328.94
411.132	327.94
411.355	360.94
411.578	342.94
411.802	331.94
412.025	307.94
412.249	295.94
412.472	333.94
412.695	355.94
412.919	337.94
413.142	330.94
413.365	309.94
413.589	288.94
413.812	289.94
414.035	303.94
414.258	293.94
414.482	289.94
414.705	259.94
414.928	291.94
415.151	296.94
415.374	288.94
415.597	289.94
415.821	277.94
416.044	286.94
416.267	283.94
416.49	295.94
416.713	286.94
416.936	281.94
417.159	269.94
417.382	302.94
417.605	291.94
417.828	310.94
418.051	313.94
418.274	295.94
418.497	268.94
418.72	298.94
418.943	279.94
419.166	296.94
419.389	309.94
419.611	326.94
419.834	306.94
420.057	319.94
420.28	294.94
420.503	310.94
420.726	314.94
420.948	326.94
421.171	342.94
421.394	353.94
421.617	349.94
421.839	305.94
422.062	313.94
422.285	298.94
422.507	351.94
422.73	401.94
422.953	365.94
423.175	341.94
423.398	328.94
423.621	320.94
423.843	321.94
424.066	321.94
424.288	331.94
424.511	343.94
424.733	380.94
424.956	403.94
425.178	397.94
425.401	411.94
425.623	414.94
425.846	365.94
426.068	325.94
426.291	346.94
426.513	323.94
426.735	340.94
426.958	360.94
427.18	422.94
427.402	483.94
427.625	548.94
427.847	478.94
428.069	436.94
428.292	370.94
428.514	338.94
428.736	317.94
428.958	289.94
429.181	310.94
429.403	311.94
429.625	333.94
429.847	344.94
430.069	385.94
430.292	369.94
430.514	323.94
430.736	309.94
430.958	279.94
431.18	296.94
431.402	296.94
431.624	289.94
431.846	290.94
432.068	290.94
432.29	309.94
432.512	295.94
432.734	310.94
432.956	317.94
433.178	312.94
433.4	319.94
433.622	299.94
433.844	283.94
434.066	294.94
434.287	269.94
434.509	289.94
434.731	296.94
434.953	294.94
435.175	316.94
435.397	339.94
435.618	344.94
435.84	385.94
436.062	413.94
436.284	437.94
436.505	373.94
436.727	355.94
436.949	335.94
437.17	305.94
437.392	298.94
437.614	338.94
437.835	339.94
438.057	413.94
438.278	466.94
438.5	474.94
438.721	477.94
438.943	474.94
439.165	371.94
439.386	350.94
439.608	345.94
439.829	336.94
440.05	369.94
440.272	377.94
440.493	362.94
440.715	325.94
440.936	304.94
441.158	306.94
441.379	313.94
441.6	308.94
441.822	338.94
442.043	354.94
442.264	390.94
442.486	435.94
442.707	358.94
442.928	353.94
443.149	369.94
443.371	380.94
443.592	410.94
443.813	433.94
444.034	474.94
444.255	399.94
444.476	342.94
444.698	320.94
444.919	340.94
445.14	430.94
445.361	375.94
445.582	359.94
445.803	405.94
446.024	474.94
446.245	487.94
446.466	421.94
446.687	368.94
446.908	356.94
447.129	313.94
447.35	317.94
447.571	311.94
447.792	302.94
448.013	326.94
448.234	330.94
448.455	385.94
448.675	443.94
448.896	478.94
449.117	406.94
449.338	421.94
449.559	466.94
449.779	486.94
450	405.94
450.221	322.94
450.442	303.94
450.662	323.94
450.883	325.94
451.104	326.94
451.324	323.94
451.545	296.94
451.766	292.94
451.986	296.94
452.207	282.94
452.428	265.94
452.648	271.94
452.869	291.94
453.089	276.94
453.31	297.94
453.53	322.94
453.751	286.94
453.971	284.94
454.192	309.94
454.412	282.94
454.633	284.94
454.853	276.94
455.073	290.94
455.294	306.94
455.514	352.94
455.734	331.94
455.955	277.94
456.175	255.94
456.395	265.94
456.616	286.94
456.836	249.94
457.056	257.94
457.276	266.94
457.497	275.94
457.717	279.94
457.937	276.94
458.157	281.94
458.377	281.94
458.598	292.94
458.818	337.94
459.038	377.94
459.258	367.94
459.478	318.94
459.698	280.94
459.918	287.94
460.138	303.94
460.358	296.94
460.578	292.94
460.798	303.94
461.018	293.94
461.238	280.94
461.458	281.94
461.678	273.94
461.898	266.94
462.118	275.94
462.338	307.94
462.558	296.94
462.777	289.94
462.997	309.94
463.217	295.94
463.437	294.94
463.657	298.94
463.876	306.94
464.096	296.94
464.316	295.94
464.536	312.94
464.755	302.94
464.975	321.94
465.195	345.94
465.414	384.94
465.634	331.94
465.854	321.94
466.073	284.94
466.293	288.94
466.512	275.94
466.732	288.94
466.951	291.94
467.171	257.94
467.391	294.94
467.61	286.94
467.829	283.94
468.049	291.94
468.268	298.94
468.488	297.94
468.707	287.94
468.927	270.94
469.146	278.94
469.365	277.94
469.585	271.94
469.804	278.94
470.023	310.94
470.243	301.94
470.462	310.94
470.681	290.94
470.901	296.94
471.12	288.94
471.339	297.94
471.558	288.94
471.777	283.94
471.997	272.94
472.216	280.94
472.435	309.94
472.654	291.94
472.873	301.94
473.092	266.94
473.311	278.94
473.53	293.94
473.749	291.94
473.968	330.94
474.187	400.94
474.406	381.94
474.625	339.94
474.844	317.94
475.063	306.94
475.282	282.94
475.501	303.94
475.72	294.94
475.939	281.94
476.158	320.94
476.377	291.94
476.596	310.94
476.814	293.94
477.033	289.94
477.252	301.94
477.471	303.94
477.69	303.94
477.908	306.94
478.127	309.94
478.346	310.94
478.564	305.94
478.783	317.94
479.002	318.94
479.22	337.94
479.439	329.94
479.658	338.94
479.876	322.94
480.095	329.94
480.313	372.94
480.532	341.94
480.751	383.94
480.969	349.94
481.188	393.94
481.406	421.94
481.624	380.94
481.843	359.94
482.061	343.94
482.28	349.94
482.498	330.94
482.717	321.94
482.935	321.94
483.153	323.94
483.372	325.94
483.59	333.94
483.808	327.94
484.027	328.94
484.245	330.94
484.463	322.94
484.681	345.94
484.9	337.94
485.118	323.94
485.336	342.94
485.554	349.94
485.772	351.94
485.99	336.94
486.209	330.94
486.427	345.94
486.645	353.94
486.863	370.94
487.081	373.94
487.299	371.94
487.517	368.94
487.735	373.94
487.953	363.94
488.171	346.94
488.389	371.94
488.607	370.94
488.825	358.94
489.043	365.94
489.261	369.94
489.479	365.94
489.696	360.94
489.914	352.94
490.132	365.94
490.35	383.94
490.568	374.94
490.786	369.94
491.003	375.94
491.221	399.94
491.439	384.94
491.657	383.94
491.874	384.94
492.092	396.94
492.31	393.94
492.527	406.94
492.745	410.94
492.963	405.94
493.18	432.94
493.398	427.94
493.615	397.94
493.833	410.94
494.05	408.94
494.268	410.94
494.485	417.94
494.703	415.94
494.92	421.94
495.138	407.94
495.355	432.94
495.573	424.94
495.79	411.94
496.008	413.94
496.225	407.94
496.442	419.94
496.66	403.94
496.877	417.94
497.094	442.94
497.312	420.94
497.529	410.94
497.746	416.94
497.963	439.94
498.181	452.94
498.398	448.94
498.615	447.94
498.832	455.94
499.049	452.94
499.267	461.94
499.484	476.94
499.701	480.94
499.918	484.94
500.135	482.94
500.352	511.94
500.569	514.94
500.786	517.94
501.003	521.94
501.22	514.94
501.437	491.94
501.654	501.94
501.871	498.94
502.088	523.94
502.305	481.94
