Data from 1982.PennyLincolnUp.Lamp.En5.5.200Scan.071819.P1_HRD10591_16-45-46-961.txt Node
Date: Thu Jul 18 16:45:46 EDT 2019
User: cochatt
Spectrometer: HR+D1059
Trigger mode: 1
Integration Time (sec): 1.000000E-1
Scans to average: 1
Electric dark correction enabled: true
Nonlinearity correction enabled: false
Boxcar width: 0
XAxis mode: Wavelengths
Number of Pixels in Spectrum: 2048
>>>>>Begin Spectral Data<<<<<
223.165	-15.62
223.4	-15.62
223.635	-15.62
223.869	-27.62
224.104	-19.62
224.338	-14.62
224.573	-13.62
224.808	-5.62
225.042	-0.62
225.277	-2.62
225.511	6.38
225.746	5.38
225.98	7.38
226.215	3.38
226.449	8.38
226.683	17.38
226.918	23.38
227.152	28.38
227.387	37.38
227.621	25.38
227.856	39.38
228.09	47.38
228.324	32.38
228.559	40.38
228.793	61.38
229.027	83.38
229.262	86.38
229.496	75.38
229.73	107.38
229.964	127.38
230.199	109.38
230.433	81.38
230.667	95.38
230.901	86.38
231.136	88.38
231.37	73.38
231.604	96.38
231.838	96.38
232.072	95.38
232.306	110.38
232.541	102.38
232.775	91.38
233.009	92.38
233.243	87.38
233.477	103.38
233.711	92.38
233.945	97.38
234.179	88.38
234.413	83.38
234.647	102.38
234.881	89.38
235.115	92.38
235.349	94.38
235.583	104.38
235.817	97.38
236.051	109.38
236.285	102.38
236.519	107.38
236.753	95.38
236.987	115.38
237.221	145.38
237.455	164.38
237.689	141.38
237.922	107.38
238.156	112.38
238.39	120.38
238.624	123.38
238.858	116.38
239.091	100.38
239.325	113.38
239.559	117.38
239.793	97.38
240.027	117.38
240.26	115.38
240.494	118.38
240.728	112.38
240.961	127.38
241.195	113.38
241.429	113.38
241.662	97.38
241.896	96.38
242.13	109.38
242.363	114.38
242.597	120.38
242.83	120.38
243.064	103.38
243.298	130.38
243.531	109.38
243.765	109.38
243.998	114.38
244.232	118.38
244.465	117.38
244.699	111.38
244.932	114.38
245.166	119.38
245.399	109.38
245.633	111.38
245.866	109.38
246.099	106.38
246.333	117.38
246.566	134.38
246.8	123.38
247.033	123.38
247.266	117.38
247.5	121.38
247.733	146.38
247.966	141.38
248.2	146.38
248.433	133.38
248.666	121.38
248.899	145.38
249.133	130.38
249.366	163.38
249.599	146.38
249.832	129.38
250.066	133.38
250.299	147.38
250.532	150.38
250.765	149.38
250.998	171.38
251.231	161.38
251.465	177.38
251.698	148.38
251.931	141.38
252.164	163.38
252.397	156.38
252.63	159.38
252.863	172.38
253.096	168.38
253.329	176.38
253.562	185.38
253.795	159.38
254.028	174.38
254.261	155.38
254.494	165.38
254.727	182.38
254.96	200.38
255.193	212.38
255.426	202.38
255.659	175.38
255.892	175.38
256.124	174.38
256.357	179.38
256.59	173.38
256.823	192.38
257.056	178.38
257.289	148.38
257.521	161.38
257.754	167.38
257.987	143.38
258.22	155.38
258.452	152.38
258.685	169.38
258.918	158.38
259.151	167.38
259.383	172.38
259.616	171.38
259.849	173.38
260.081	184.38
260.314	208.38
260.547	203.38
260.779	207.38
261.012	191.38
261.244	153.38
261.477	173.38
261.71	159.38
261.942	168.38
262.175	175.38
262.407	177.38
262.64	168.38
262.872	172.38
263.105	172.38
263.337	172.38
263.57	174.38
263.802	162.38
264.035	160.38
264.267	166.38
264.499	165.38
264.732	157.38
264.964	164.38
265.197	158.38
265.429	150.38
265.661	176.38
265.894	170.38
266.126	183.38
266.358	191.38
266.591	168.38
266.823	181.38
267.055	192.38
267.287	152.38
267.52	171.38
267.752	166.38
267.984	183.38
268.216	181.38
268.448	169.38
268.681	167.38
268.913	190.38
269.145	192.38
269.377	206.38
269.609	199.38
269.841	192.38
270.073	196.38
270.306	225.38
270.538	238.38
270.77	241.38
271.002	235.38
271.234	222.38
271.466	210.38
271.698	227.38
271.93	248.38
272.162	224.38
272.394	233.38
272.626	204.38
272.858	220.38
273.09	205.38
273.322	203.38
273.553	213.38
273.785	197.38
274.017	198.38
274.249	200.38
274.481	196.38
274.713	206.38
274.945	196.38
275.176	201.38
275.408	200.38
275.64	201.38
275.872	202.38
276.104	201.38
276.335	194.38
276.567	204.38
276.799	200.38
277.031	223.38
277.262	236.38
277.494	236.38
277.726	227.38
277.957	211.38
278.189	198.38
278.421	211.38
278.652	198.38
278.884	205.38
279.115	195.38
279.347	201.38
279.579	202.38
279.81	195.38
280.042	203.38
280.273	201.38
280.505	198.38
280.736	208.38
280.968	198.38
281.199	198.38
281.431	200.38
281.662	213.38
281.894	185.38
282.125	207.38
282.356	211.38
282.588	234.38
282.819	226.38
283.051	219.38
283.282	210.38
283.513	222.38
283.745	207.38
283.976	209.38
284.207	216.38
284.439	212.38
284.67	202.38
284.901	210.38
285.132	184.38
285.364	200.38
285.595	213.38
285.826	215.38
286.057	205.38
286.288	218.38
286.52	213.38
286.751	203.38
286.982	220.38
287.213	232.38
287.444	213.38
287.675	231.38
287.906	218.38
288.138	226.38
288.369	213.38
288.6	231.38
288.831	214.38
289.062	227.38
289.293	223.38
289.524	223.38
289.755	215.38
289.986	206.38
290.217	204.38
290.448	209.38
290.679	206.38
290.91	218.38
291.141	216.38
291.371	216.38
291.602	200.38
291.833	208.38
292.064	206.38
292.295	211.38
292.526	193.38
292.757	220.38
292.987	198.38
293.218	218.38
293.449	215.38
293.68	224.38
293.91	214.38
294.141	219.38
294.372	220.38
294.603	210.38
294.833	189.38
295.064	199.38
295.295	216.38
295.525	214.38
295.756	228.38
295.987	244.38
296.217	241.38
296.448	240.38
296.679	200.38
296.909	211.38
297.14	208.38
297.37	216.38
297.601	218.38
297.831	210.38
298.062	216.38
298.292	210.38
298.523	226.38
298.753	220.38
298.984	216.38
299.214	224.38
299.445	220.38
299.675	224.38
299.905	228.38
300.136	227.38
300.366	229.38
300.597	212.38
300.827	244.38
301.057	239.38
301.288	249.38
301.518	233.38
301.748	227.38
301.979	254.38
302.209	241.38
302.439	259.38
302.669	243.38
302.9	252.38
303.13	232.38
303.36	247.38
303.59	220.38
303.82	249.38
304.051	241.38
304.281	230.38
304.511	247.38
304.741	239.38
304.971	229.38
305.201	217.38
305.431	232.38
305.661	235.38
305.891	222.38
306.121	250.38
306.352	227.38
306.582	241.38
306.812	238.38
307.042	253.38
307.272	241.38
307.502	231.38
307.731	248.38
307.961	252.38
308.191	256.38
308.421	216.38
308.651	254.38
308.881	261.38
309.111	252.38
309.341	273.38
309.571	264.38
309.8	265.38
310.03	272.38
310.26	284.38
310.49	286.38
310.72	280.38
310.949	296.38
311.179	293.38
311.409	275.38
311.639	277.38
311.868	275.38
312.098	279.38
312.328	299.38
312.557	292.38
312.787	309.38
313.017	279.38
313.246	283.38
313.476	253.38
313.706	277.38
313.935	284.38
314.165	286.38
314.394	273.38
314.624	285.38
314.853	275.38
315.083	299.38
315.312	270.38
315.542	278.38
315.771	281.38
316.001	270.38
316.23	261.38
316.46	277.38
316.689	275.38
316.919	271.38
317.148	283.38
317.377	275.38
317.607	292.38
317.836	275.38
318.065	295.38
318.295	266.38
318.524	271.38
318.753	277.38
318.983	269.38
319.212	252.38
319.441	301.38
319.67	285.38
319.9	291.38
320.129	300.38
320.358	283.38
320.587	283.38
320.816	305.38
321.046	286.38
321.275	303.38
321.504	300.38
321.733	302.38
321.962	316.38
322.191	311.38
322.42	332.38
322.649	331.38
322.878	341.38
323.108	349.38
323.337	363.38
323.566	380.38
323.795	413.38
324.024	474.38
324.253	567.38
324.482	848.38
324.71	1216.38
324.939	1626.38
325.168	1315.38
325.397	692.38
325.626	484.38
325.855	428.38
326.084	388.38
326.313	401.38
326.542	389.38
326.77	435.38
326.999	510.38
327.228	723.38
327.457	1026.38
327.686	1171.38
327.914	756.38
328.143	529.38
328.372	454.38
328.6	439.38
328.829	430.38
329.058	413.38
329.287	439.38
329.515	391.38
329.744	387.38
329.972	370.38
330.201	401.38
330.43	417.38
330.658	414.38
330.887	471.38
331.115	418.38
331.344	385.38
331.572	382.38
331.801	364.38
332.03	359.38
332.258	347.38
332.486	349.38
332.715	329.38
332.943	324.38
333.172	314.38
333.4	350.38
333.629	328.38
333.857	350.38
334.085	350.38
334.314	350.38
334.542	357.38
334.771	399.38
334.999	363.38
335.227	342.38
335.455	333.38
335.684	323.38
335.912	328.38
336.14	300.38
336.369	322.38
336.597	332.38
336.825	337.38
337.053	310.38
337.281	320.38
337.51	313.38
337.738	323.38
337.966	293.38
338.194	332.38
338.422	322.38
338.65	319.38
338.878	311.38
339.106	318.38
339.334	308.38
339.562	307.38
339.79	314.38
340.018	317.38
340.246	319.38
340.474	303.38
340.702	305.38
340.93	294.38
341.158	310.38
341.386	309.38
341.614	317.38
341.842	312.38
342.07	292.38
342.298	316.38
342.526	309.38
342.754	289.38
342.981	308.38
343.209	296.38
343.437	298.38
343.665	303.38
343.893	293.38
344.12	321.38
344.348	311.38
344.576	293.38
344.804	343.38
345.031	324.38
345.259	295.38
345.487	326.38
345.714	320.38
345.942	304.38
346.17	311.38
346.397	305.38
346.625	300.38
346.853	317.38
347.08	285.38
347.308	308.38
347.535	309.38
347.763	318.38
347.99	317.38
348.218	301.38
348.445	300.38
348.673	306.38
348.9	301.38
349.128	297.38
349.355	272.38
349.583	284.38
349.81	290.38
350.037	283.38
350.265	287.38
350.492	282.38
350.72	305.38
350.947	303.38
351.174	316.38
351.402	299.38
351.629	295.38
351.856	293.38
352.083	304.38
352.311	287.38
352.538	307.38
352.765	319.38
352.992	314.38
353.22	294.38
353.447	294.38
353.674	271.38
353.901	279.38
354.128	276.38
354.355	290.38
354.583	284.38
354.81	273.38
355.037	289.38
355.264	285.38
355.491	263.38
355.718	269.38
355.945	259.38
356.172	280.38
356.399	264.38
356.626	257.38
356.853	270.38
357.08	258.38
357.307	263.38
357.534	275.38
357.761	268.38
357.988	266.38
358.215	260.38
358.441	263.38
358.668	279.38
358.895	270.38
359.122	285.38
359.349	290.38
359.576	271.38
359.802	315.38
360.029	343.38
360.256	316.38
360.483	291.38
360.709	315.38
360.936	308.38
361.163	305.38
361.39	290.38
361.616	286.38
361.843	289.38
362.07	295.38
362.296	290.38
362.523	309.38
362.749	278.38
362.976	276.38
363.203	294.38
363.429	283.38
363.656	285.38
363.882	296.38
364.109	281.38
364.335	276.38
364.562	276.38
364.788	280.38
365.015	264.38
365.241	267.38
365.468	269.38
365.694	288.38
365.92	285.38
366.147	285.38
366.373	270.38
366.599	280.38
366.826	257.38
367.052	276.38
367.278	258.38
367.505	264.38
367.731	276.38
367.957	277.38
368.184	269.38
368.41	278.38
368.636	288.38
368.862	285.38
369.089	271.38
369.315	279.38
369.541	265.38
369.767	284.38
369.993	271.38
370.219	262.38
370.445	274.38
370.672	273.38
370.898	269.38
371.124	266.38
371.35	265.38
371.576	289.38
371.802	260.38
372.028	277.38
372.254	269.38
372.48	272.38
372.706	252.38
372.932	255.38
373.158	263.38
373.384	268.38
373.61	273.38
373.835	264.38
374.061	280.38
374.287	278.38
374.513	269.38
374.739	270.38
374.965	280.38
375.191	284.38
375.416	262.38
375.642	269.38
375.868	265.38
376.094	283.38
376.319	260.38
376.545	271.38
376.771	269.38
376.997	262.38
377.222	255.38
377.448	256.38
377.674	260.38
377.899	255.38
378.125	279.38
378.35	267.38
378.576	266.38
378.802	251.38
379.027	265.38
379.253	262.38
379.478	249.38
379.704	257.38
379.929	276.38
380.155	251.38
380.38	240.38
380.606	268.38
380.831	277.38
381.057	265.38
381.282	263.38
381.507	264.38
381.733	262.38
381.958	262.38
382.184	258.38
382.409	257.38
382.634	265.38
382.86	239.38
383.085	274.38
383.31	265.38
383.535	289.38
383.761	277.38
383.986	278.38
384.211	253.38
384.436	287.38
384.662	279.38
384.887	289.38
385.112	263.38
385.337	267.38
385.562	271.38
385.787	272.38
386.013	282.38
386.238	291.38
386.463	286.38
386.688	292.38
386.913	263.38
387.138	289.38
387.363	275.38
387.588	279.38
387.813	278.38
388.038	287.38
388.263	272.38
388.488	278.38
388.713	285.38
388.938	272.38
389.163	288.38
389.387	286.38
389.612	272.38
389.837	273.38
390.062	270.38
390.287	283.38
390.512	261.38
390.736	271.38
390.961	279.38
391.186	288.38
391.411	272.38
391.636	283.38
391.86	275.38
392.085	272.38
392.31	289.38
392.534	278.38
392.759	271.38
392.984	274.38
393.208	280.38
393.433	279.38
393.658	275.38
393.882	287.38
394.107	295.38
394.331	269.38
394.556	283.38
394.78	282.38
395.005	298.38
395.229	270.38
395.454	270.38
395.678	277.38
395.903	275.38
396.127	299.38
396.352	292.38
396.576	296.38
396.801	285.38
397.025	279.38
397.249	308.38
397.474	304.38
397.698	273.38
397.922	305.38
398.147	319.38
398.371	299.38
398.595	287.38
398.82	295.38
399.044	308.38
399.268	303.38
399.492	314.38
399.717	324.38
399.941	381.38
400.165	373.38
400.389	360.38
400.613	363.38
400.837	325.38
401.062	319.38
401.286	319.38
401.51	318.38
401.734	290.38
401.958	314.38
402.182	312.38
402.406	327.38
402.63	318.38
402.854	319.38
403.078	320.38
403.302	318.38
403.526	324.38
403.75	311.38
403.974	303.38
404.198	307.38
404.422	327.38
404.645	324.38
404.869	335.38
405.093	345.38
405.317	364.38
405.541	372.38
405.765	354.38
405.988	311.38
406.212	360.38
406.436	332.38
406.66	361.38
406.883	348.38
407.107	354.38
407.331	378.38
407.555	402.38
407.778	406.38
408.002	367.38
408.226	350.38
408.449	352.38
408.673	340.38
408.896	369.38
409.12	388.38
409.344	372.38
409.567	339.38
409.791	336.38
410.014	316.38
410.238	300.38
410.461	307.38
410.685	338.38
410.908	328.38
411.132	357.38
411.355	349.38
411.578	336.38
411.802	315.38
412.025	330.38
412.249	317.38
412.472	334.38
412.695	353.38
412.919	354.38
413.142	326.38
413.365	318.38
413.589	303.38
413.812	304.38
414.035	316.38
414.258	303.38
414.482	305.38
414.705	300.38
414.928	300.38
415.151	304.38
415.374	296.38
415.597	289.38
415.821	312.38
416.044	315.38
416.267	324.38
416.49	296.38
416.713	299.38
416.936	304.38
417.159	284.38
417.382	305.38
417.605	305.38
417.828	311.38
418.051	304.38
418.274	295.38
418.497	310.38
418.72	291.38
418.943	307.38
419.166	300.38
419.389	318.38
419.611	332.38
419.834	329.38
420.057	315.38
420.28	316.38
420.503	316.38
420.726	302.38
420.948	333.38
421.171	349.38
421.394	356.38
421.617	331.38
421.839	309.38
422.062	295.38
422.285	343.38
422.507	367.38
422.73	392.38
422.953	379.38
423.175	341.38
423.398	315.38
423.621	321.38
423.843	335.38
424.066	334.38
424.288	338.38
424.511	360.38
424.733	375.38
424.956	437.38
425.178	429.38
425.401	440.38
425.623	417.38
425.846	368.38
426.068	348.38
426.291	333.38
426.513	334.38
426.735	360.38
426.958	369.38
427.18	421.38
427.402	509.38
427.625	556.38
427.847	476.38
428.069	431.38
428.292	381.38
428.514	344.38
428.736	333.38
428.958	326.38
429.181	316.38
429.403	315.38
429.625	317.38
429.847	355.38
430.069	389.38
430.292	387.38
430.514	310.38
430.736	323.38
430.958	316.38
431.18	309.38
431.402	301.38
431.624	274.38
431.846	294.38
432.068	304.38
432.29	287.38
432.512	283.38
432.734	284.38
432.956	284.38
433.178	309.38
433.4	297.38
433.622	289.38
433.844	294.38
434.066	302.38
434.287	296.38
434.509	308.38
434.731	307.38
434.953	319.38
435.175	349.38
435.397	332.38
435.618	353.38
435.84	375.38
436.062	418.38
436.284	448.38
436.505	403.38
436.727	350.38
436.949	331.38
437.17	320.38
437.392	319.38
437.614	337.38
437.835	357.38
438.057	440.38
438.278	449.38
438.5	462.38
438.721	498.38
438.943	480.38
439.165	397.38
439.386	349.38
439.608	357.38
439.829	364.38
440.05	373.38
440.272	405.38
440.493	366.38
440.715	359.38
440.936	324.38
441.158	314.38
441.379	321.38
441.6	323.38
441.822	336.38
442.043	346.38
442.264	414.38
442.486	411.38
442.707	383.38
442.928	364.38
443.149	336.38
443.371	374.38
443.592	401.38
443.813	460.38
444.034	468.38
444.255	382.38
444.476	356.38
444.698	347.38
444.919	327.38
445.14	432.38
445.361	381.38
445.582	378.38
445.803	410.38
446.024	481.38
446.245	470.38
446.466	426.38
446.687	374.38
446.908	347.38
447.129	358.38
447.35	319.38
447.571	302.38
447.792	315.38
448.013	339.38
448.234	341.38
448.455	374.38
448.675	454.38
448.896	490.38
449.117	427.38
449.338	400.38
449.559	462.38
449.779	512.38
450	420.38
450.221	361.38
450.442	324.38
450.662	323.38
450.883	327.38
451.104	321.38
451.324	340.38
451.545	319.38
451.766	300.38
451.986	285.38
452.207	280.38
452.428	291.38
452.648	295.38
452.869	294.38
453.089	286.38
453.31	290.38
453.53	277.38
453.751	288.38
453.971	295.38
454.192	291.38
454.412	275.38
454.633	283.38
454.853	266.38
455.073	301.38
455.294	312.38
455.514	342.38
455.734	334.38
455.955	294.38
456.175	286.38
456.395	291.38
456.616	292.38
456.836	245.38
457.056	252.38
457.276	256.38
457.497	272.38
457.717	277.38
457.937	285.38
458.157	286.38
458.377	269.38
458.598	318.38
458.818	339.38
459.038	390.38
459.258	401.38
459.478	342.38
459.698	294.38
459.918	303.38
460.138	300.38
460.358	300.38
460.578	276.38
460.798	294.38
461.018	305.38
461.238	315.38
461.458	283.38
461.678	296.38
461.898	313.38
462.118	307.38
462.338	292.38
462.558	301.38
462.777	312.38
462.997	296.38
463.217	336.38
463.437	315.38
463.657	313.38
463.876	305.38
464.096	317.38
464.316	316.38
464.536	301.38
464.755	326.38
464.975	325.38
465.195	334.38
465.414	392.38
465.634	337.38
465.854	328.38
466.073	291.38
466.293	296.38
466.512	289.38
466.732	292.38
466.951	280.38
467.171	295.38
467.391	294.38
467.61	309.38
467.829	312.38
468.049	302.38
468.268	300.38
468.488	295.38
468.707	303.38
468.927	277.38
469.146	296.38
469.365	289.38
469.585	273.38
469.804	285.38
470.023	297.38
470.243	286.38
470.462	313.38
470.681	308.38
470.901	286.38
471.12	278.38
471.339	290.38
471.558	305.38
471.777	290.38
471.997	316.38
472.216	295.38
472.435	320.38
472.654	287.38
472.873	306.38
473.092	288.38
473.311	293.38
473.53	296.38
473.749	303.38
473.968	323.38
474.187	387.38
474.406	393.38
474.625	320.38
474.844	308.38
475.063	286.38
475.282	322.38
475.501	296.38
475.72	306.38
475.939	295.38
476.158	315.38
476.377	303.38
476.596	309.38
476.814	304.38
477.033	314.38
477.252	302.38
477.471	336.38
477.69	307.38
477.908	316.38
478.127	321.38
478.346	328.38
478.564	319.38
478.783	313.38
479.002	337.38
479.22	328.38
479.439	337.38
479.658	337.38
479.876	362.38
480.095	349.38
480.313	392.38
480.532	365.38
480.751	356.38
480.969	348.38
481.188	393.38
481.406	412.38
481.624	363.38
481.843	353.38
482.061	347.38
482.28	332.38
482.498	339.38
482.717	332.38
482.935	344.38
483.153	356.38
483.372	328.38
483.59	359.38
483.808	327.38
484.027	332.38
484.245	351.38
484.463	355.38
484.681	342.38
484.9	334.38
485.118	363.38
485.336	351.38
485.554	356.38
485.772	350.38
485.99	343.38
486.209	338.38
486.427	357.38
486.645	369.38
486.863	395.38
487.081	380.38
487.299	376.38
487.517	369.38
487.735	373.38
487.953	367.38
488.171	393.38
488.389	379.38
488.607	360.38
488.825	365.38
489.043	368.38
489.261	371.38
489.479	368.38
489.696	377.38
489.914	369.38
490.132	370.38
490.35	394.38
490.568	376.38
490.786	396.38
491.003	377.38
491.221	401.38
491.439	400.38
491.657	391.38
491.874	404.38
492.092	400.38
492.31	435.38
492.527	398.38
492.745	408.38
492.963	418.38
493.18	423.38
493.398	420.38
493.615	448.38
493.833	421.38
494.05	433.38
494.268	422.38
494.485	436.38
494.703	441.38
494.92	422.38
495.138	429.38
495.355	406.38
495.573	423.38
495.79	417.38
496.008	432.38
496.225	411.38
496.442	408.38
496.66	420.38
496.877	441.38
497.094	431.38
497.312	439.38
497.529	435.38
497.746	442.38
497.963	447.38
498.181	449.38
498.398	461.38
498.615	461.38
498.832	463.38
499.049	479.38
499.267	482.38
499.484	479.38
499.701	517.38
499.918	517.38
500.135	547.38
500.352	509.38
500.569	533.38
500.786	547.38
501.003	534.38
501.22	543.38
501.437	526.38
501.654	505.38
501.871	511.38
502.088	513.38
502.305	485.38
