Data from 1982.PennyLincolnUp.Lamp.En5.5.200Scan.071819.P1_HRD10591_16-46-49-963.txt Node
Date: Thu Jul 18 16:46:49 EDT 2019
User: cochatt
Spectrometer: HR+D1059
Trigger mode: 1
Integration Time (sec): 1.000000E-1
Scans to average: 1
Electric dark correction enabled: true
Nonlinearity correction enabled: false
Boxcar width: 0
XAxis mode: Wavelengths
Number of Pixels in Spectrum: 2048
>>>>>Begin Spectral Data<<<<<
223.165	-14.31
223.4	-14.31
223.635	-14.31
223.869	-22.31
224.104	-17.31
224.338	-23.31
224.573	-3.31
224.808	-13.31
225.042	-10.31
225.277	-8.31
225.511	-6.31
225.746	14.69
225.98	13.69
226.215	5.69
226.449	15.69
226.683	14.69
226.918	28.69
227.152	25.69
227.387	27.69
227.621	44.69
227.856	32.69
228.09	33.69
228.324	36.69
228.559	74.69
228.793	71.69
229.027	94.69
229.262	89.69
229.496	89.69
229.73	110.69
229.964	121.69
230.199	115.69
230.433	108.69
230.667	103.69
230.901	102.69
231.136	109.69
231.37	97.69
231.604	108.69
231.838	112.69
232.072	94.69
232.306	101.69
232.541	101.69
232.775	92.69
233.009	105.69
233.243	97.69
233.477	93.69
233.711	87.69
233.945	103.69
234.179	107.69
234.413	113.69
234.647	109.69
234.881	100.69
235.115	89.69
235.349	121.69
235.583	122.69
235.817	110.69
236.051	117.69
236.285	114.69
236.519	117.69
236.753	114.69
236.987	120.69
237.221	178.69
237.455	189.69
237.689	137.69
237.922	124.69
238.156	117.69
238.39	102.69
238.624	107.69
238.858	122.69
239.091	112.69
239.325	108.69
239.559	116.69
239.793	124.69
240.027	135.69
240.26	124.69
240.494	133.69
240.728	124.69
240.961	128.69
241.195	132.69
241.429	128.69
241.662	114.69
241.896	108.69
242.13	120.69
242.363	122.69
242.597	103.69
242.83	128.69
243.064	109.69
243.298	114.69
243.531	125.69
243.765	114.69
243.998	114.69
244.232	106.69
244.465	114.69
244.699	118.69
244.932	121.69
245.166	122.69
245.399	133.69
245.633	118.69
245.866	117.69
246.099	128.69
246.333	142.69
246.566	121.69
246.8	137.69
247.033	123.69
247.266	138.69
247.5	144.69
247.733	134.69
247.966	140.69
248.2	143.69
248.433	148.69
248.666	154.69
248.899	157.69
249.133	170.69
249.366	174.69
249.599	139.69
249.832	148.69
250.066	147.69
250.299	155.69
250.532	167.69
250.765	178.69
250.998	173.69
251.231	196.69
251.465	166.69
251.698	154.69
251.931	153.69
252.164	145.69
252.397	161.69
252.63	167.69
252.863	169.69
253.096	162.69
253.329	192.69
253.562	176.69
253.795	169.69
254.028	163.69
254.261	188.69
254.494	186.69
254.727	225.69
254.96	194.69
255.193	220.69
255.426	194.69
255.659	195.69
255.892	192.69
256.124	189.69
256.357	171.69
256.59	190.69
256.823	162.69
257.056	169.69
257.289	176.69
257.521	161.69
257.754	182.69
257.987	182.69
258.22	168.69
258.452	165.69
258.685	169.69
258.918	180.69
259.151	176.69
259.383	170.69
259.616	177.69
259.849	182.69
260.081	187.69
260.314	202.69
260.547	197.69
260.779	184.69
261.012	202.69
261.244	178.69
261.477	178.69
261.71	180.69
261.942	177.69
262.175	195.69
262.407	188.69
262.64	171.69
262.872	176.69
263.105	175.69
263.337	188.69
263.57	165.69
263.802	168.69
264.035	160.69
264.267	179.69
264.499	178.69
264.732	182.69
264.964	176.69
265.197	183.69
265.429	163.69
265.661	150.69
265.894	187.69
266.126	176.69
266.358	182.69
266.591	182.69
266.823	182.69
267.055	192.69
267.287	184.69
267.52	171.69
267.752	180.69
267.984	183.69
268.216	185.69
268.448	197.69
268.681	181.69
268.913	195.69
269.145	192.69
269.377	217.69
269.609	190.69
269.841	197.69
270.073	213.69
270.306	235.69
270.538	261.69
270.77	243.69
271.002	232.69
271.234	234.69
271.466	237.69
271.698	253.69
271.93	264.69
272.162	246.69
272.394	264.69
272.626	247.69
272.858	247.69
273.09	210.69
273.322	212.69
273.553	214.69
273.785	200.69
274.017	209.69
274.249	204.69
274.481	197.69
274.713	216.69
274.945	210.69
275.176	201.69
275.408	220.69
275.64	205.69
275.872	201.69
276.104	213.69
276.335	212.69
276.567	226.69
276.799	237.69
277.031	239.69
277.262	232.69
277.494	246.69
277.726	236.69
277.957	231.69
278.189	228.69
278.421	217.69
278.652	208.69
278.884	199.69
279.115	200.69
279.347	204.69
279.579	188.69
279.81	205.69
280.042	201.69
280.273	204.69
280.505	214.69
280.736	202.69
280.968	199.69
281.199	213.69
281.431	194.69
281.662	206.69
281.894	198.69
282.125	214.69
282.356	237.69
282.588	226.69
282.819	240.69
283.051	219.69
283.282	197.69
283.513	217.69
283.745	225.69
283.976	229.69
284.207	226.69
284.439	207.69
284.67	214.69
284.901	211.69
285.132	219.69
285.364	205.69
285.595	210.69
285.826	221.69
286.057	205.69
286.288	204.69
286.52	206.69
286.751	216.69
286.982	200.69
287.213	225.69
287.444	223.69
287.675	215.69
287.906	217.69
288.138	225.69
288.369	233.69
288.6	230.69
288.831	224.69
289.062	229.69
289.293	235.69
289.524	221.69
289.755	218.69
289.986	227.69
290.217	232.69
290.448	195.69
290.679	224.69
290.91	192.69
291.141	227.69
291.371	222.69
291.602	218.69
291.833	222.69
292.064	225.69
292.295	217.69
292.526	224.69
292.757	216.69
292.987	224.69
293.218	203.69
293.449	206.69
293.68	229.69
293.91	221.69
294.141	230.69
294.372	211.69
294.603	204.69
294.833	236.69
295.064	218.69
295.295	215.69
295.525	225.69
295.756	237.69
295.987	237.69
296.217	244.69
296.448	239.69
296.679	225.69
296.909	224.69
297.14	217.69
297.37	232.69
297.601	217.69
297.831	216.69
298.062	235.69
298.292	224.69
298.523	218.69
298.753	221.69
298.984	225.69
299.214	230.69
299.445	219.69
299.675	235.69
299.905	250.69
300.136	242.69
300.366	221.69
300.597	216.69
300.827	247.69
301.057	237.69
301.288	255.69
301.518	231.69
301.748	250.69
301.979	260.69
302.209	234.69
302.439	238.69
302.669	234.69
302.9	250.69
303.13	252.69
303.36	237.69
303.59	260.69
303.82	264.69
304.051	260.69
304.281	247.69
304.511	242.69
304.741	249.69
304.971	240.69
305.201	254.69
305.431	256.69
305.661	252.69
305.891	229.69
306.121	256.69
306.352	248.69
306.582	269.69
306.812	223.69
307.042	237.69
307.272	235.69
307.502	270.69
307.731	264.69
307.961	234.69
308.191	241.69
308.421	246.69
308.651	256.69
308.881	247.69
309.111	256.69
309.341	265.69
309.571	263.69
309.8	260.69
310.03	288.69
310.26	278.69
310.49	288.69
310.72	294.69
310.949	306.69
311.179	312.69
311.409	298.69
311.639	302.69
311.868	299.69
312.098	298.69
312.328	313.69
312.557	300.69
312.787	313.69
313.017	326.69
313.246	293.69
313.476	301.69
313.706	287.69
313.935	282.69
314.165	312.69
314.394	304.69
314.624	313.69
314.853	308.69
315.083	290.69
315.312	294.69
315.542	288.69
315.771	291.69
316.001	276.69
316.23	284.69
316.46	284.69
316.689	290.69
316.919	304.69
317.148	276.69
317.377	307.69
317.607	290.69
317.836	291.69
318.065	277.69
318.295	292.69
318.524	276.69
318.753	282.69
318.983	269.69
319.212	290.69
319.441	299.69
319.67	285.69
319.9	301.69
320.129	301.69
320.358	292.69
320.587	299.69
320.816	300.69
321.046	327.69
321.275	308.69
321.504	313.69
321.733	317.69
321.962	315.69
322.191	322.69
322.42	322.69
322.649	342.69
322.878	364.69
323.108	369.69
323.337	380.69
323.566	405.69
323.795	442.69
324.024	504.69
324.253	628.69
324.482	898.69
324.71	1300.69
324.939	1726.69
325.168	1415.69
325.397	745.69
325.626	509.69
325.855	425.69
326.084	404.69
326.313	402.69
326.542	412.69
326.77	445.69
326.999	545.69
327.228	804.69
327.457	1142.69
327.686	1258.69
327.914	831.69
328.143	577.69
328.372	491.69
328.6	471.69
328.829	446.69
329.058	437.69
329.287	469.69
329.515	424.69
329.744	406.69
329.972	390.69
330.201	421.69
330.43	464.69
330.658	462.69
330.887	447.69
331.115	448.69
331.344	393.69
331.572	389.69
331.801	390.69
332.03	354.69
332.258	356.69
332.486	349.69
332.715	323.69
332.943	359.69
333.172	329.69
333.4	342.69
333.629	350.69
333.857	368.69
334.085	372.69
334.314	373.69
334.542	390.69
334.771	403.69
334.999	374.69
335.227	342.69
335.455	318.69
335.684	322.69
335.912	343.69
336.14	326.69
336.369	324.69
336.597	352.69
336.825	339.69
337.053	326.69
337.281	313.69
337.51	307.69
337.738	341.69
337.966	324.69
338.194	338.69
338.422	318.69
338.65	311.69
338.878	312.69
339.106	317.69
339.334	316.69
339.562	333.69
339.79	299.69
340.018	319.69
340.246	322.69
340.474	331.69
340.702	313.69
340.93	296.69
341.158	318.69
341.386	316.69
341.614	326.69
341.842	328.69
342.07	305.69
342.298	316.69
342.526	298.69
342.754	313.69
342.981	303.69
343.209	290.69
343.437	283.69
343.665	307.69
343.893	305.69
344.12	328.69
344.348	313.69
344.576	305.69
344.804	329.69
345.031	337.69
345.259	337.69
345.487	325.69
345.714	309.69
345.942	307.69
346.17	311.69
346.397	329.69
346.625	313.69
346.853	318.69
347.08	310.69
347.308	289.69
347.535	326.69
347.763	306.69
347.99	317.69
348.218	322.69
348.445	298.69
348.673	299.69
348.9	295.69
349.128	305.69
349.355	308.69
349.583	289.69
349.81	290.69
350.037	294.69
350.265	305.69
350.492	323.69
350.72	317.69
350.947	299.69
351.174	291.69
351.402	301.69
351.629	300.69
351.856	321.69
352.083	296.69
352.311	324.69
352.538	310.69
352.765	320.69
352.992	310.69
353.22	302.69
353.447	295.69
353.674	307.69
353.901	296.69
354.128	281.69
354.355	285.69
354.583	271.69
354.81	292.69
355.037	265.69
355.264	265.69
355.491	268.69
355.718	260.69
355.945	278.69
356.172	268.69
356.399	274.69
356.626	269.69
356.853	278.69
357.08	276.69
357.307	277.69
357.534	282.69
357.761	268.69
357.988	284.69
358.215	278.69
358.441	273.69
358.668	284.69
358.895	291.69
359.122	282.69
359.349	286.69
359.576	281.69
359.802	333.69
360.029	351.69
360.256	345.69
360.483	317.69
360.709	308.69
360.936	309.69
361.163	313.69
361.39	330.69
361.616	308.69
361.843	310.69
362.07	291.69
362.296	304.69
362.523	311.69
362.749	291.69
362.976	283.69
363.203	280.69
363.429	276.69
363.656	276.69
363.882	298.69
364.109	276.69
364.335	275.69
364.562	268.69
364.788	280.69
365.015	279.69
365.241	276.69
365.468	282.69
365.694	268.69
365.92	284.69
366.147	289.69
366.373	272.69
366.599	280.69
366.826	274.69
367.052	278.69
367.278	268.69
367.505	285.69
367.731	270.69
367.957	269.69
368.184	280.69
368.41	290.69
368.636	284.69
368.862	296.69
369.089	294.69
369.315	284.69
369.541	275.69
369.767	280.69
369.993	270.69
370.219	281.69
370.445	271.69
370.672	275.69
370.898	275.69
371.124	287.69
371.35	270.69
371.576	283.69
371.802	268.69
372.028	258.69
372.254	277.69
372.48	273.69
372.706	279.69
372.932	281.69
373.158	262.69
373.384	274.69
373.61	281.69
373.835	271.69
374.061	282.69
374.287	284.69
374.513	267.69
374.739	268.69
374.965	281.69
375.191	266.69
375.416	273.69
375.642	284.69
375.868	280.69
376.094	270.69
376.319	280.69
376.545	262.69
376.771	287.69
376.997	281.69
377.222	268.69
377.448	264.69
377.674	269.69
377.899	277.69
378.125	264.69
378.35	261.69
378.576	248.69
378.802	249.69
379.027	273.69
379.253	278.69
379.478	263.69
379.704	267.69
379.929	258.69
380.155	267.69
380.38	275.69
380.606	268.69
380.831	270.69
381.057	268.69
381.282	258.69
381.507	260.69
381.733	264.69
381.958	270.69
382.184	276.69
382.409	264.69
382.634	266.69
382.86	271.69
383.085	261.69
383.31	266.69
383.535	258.69
383.761	277.69
383.986	280.69
384.211	286.69
384.436	278.69
384.662	264.69
384.887	287.69
385.112	267.69
385.337	276.69
385.562	268.69
385.787	284.69
386.013	285.69
386.238	300.69
386.463	295.69
386.688	293.69
386.913	301.69
387.138	286.69
387.363	291.69
387.588	278.69
387.813	266.69
388.038	269.69
388.263	279.69
388.488	286.69
388.713	268.69
388.938	283.69
389.163	278.69
389.387	289.69
389.612	287.69
389.837	285.69
390.062	286.69
390.287	264.69
390.512	274.69
390.736	285.69
390.961	269.69
391.186	284.69
391.411	278.69
391.636	282.69
391.86	291.69
392.085	276.69
392.31	280.69
392.534	266.69
392.759	288.69
392.984	262.69
393.208	288.69
393.433	278.69
393.658	280.69
393.882	278.69
394.107	260.69
394.331	292.69
394.556	282.69
394.78	272.69
395.005	264.69
395.229	278.69
395.454	286.69
395.678	297.69
395.903	302.69
396.127	317.69
396.352	327.69
396.576	286.69
396.801	276.69
397.025	280.69
397.249	273.69
397.474	288.69
397.698	291.69
397.922	304.69
398.147	312.69
398.371	314.69
398.595	313.69
398.82	305.69
399.044	313.69
399.268	302.69
399.492	323.69
399.717	325.69
399.941	355.69
400.165	364.69
400.389	371.69
400.613	335.69
400.837	344.69
401.062	315.69
401.286	307.69
401.51	298.69
401.734	314.69
401.958	304.69
402.182	320.69
402.406	307.69
402.63	329.69
402.854	322.69
403.078	320.69
403.302	318.69
403.526	333.69
403.75	321.69
403.974	312.69
404.198	311.69
404.422	333.69
404.645	324.69
404.869	331.69
405.093	351.69
405.317	354.69
405.541	381.69
405.765	361.69
405.988	330.69
406.212	341.69
406.436	348.69
406.66	361.69
406.883	359.69
407.107	360.69
407.331	388.69
407.555	418.69
407.778	419.69
408.002	376.69
408.226	364.69
408.449	340.69
408.673	342.69
408.896	361.69
409.12	381.69
409.344	368.69
409.567	321.69
409.791	319.69
410.014	315.69
410.238	312.69
410.461	329.69
410.685	324.69
410.908	357.69
411.132	360.69
411.355	363.69
411.578	341.69
411.802	323.69
412.025	322.69
412.249	324.69
412.472	343.69
412.695	349.69
412.919	356.69
413.142	340.69
413.365	323.69
413.589	291.69
413.812	312.69
414.035	308.69
414.258	295.69
414.482	310.69
414.705	304.69
414.928	299.69
415.151	318.69
415.374	297.69
415.597	283.69
415.821	297.69
416.044	274.69
416.267	322.69
416.49	294.69
416.713	295.69
416.936	304.69
417.159	299.69
417.382	280.69
417.605	304.69
417.828	309.69
418.051	321.69
418.274	323.69
418.497	306.69
418.72	292.69
418.943	293.69
419.166	292.69
419.389	318.69
419.611	319.69
419.834	310.69
420.057	323.69
420.28	321.69
420.503	328.69
420.726	309.69
420.948	334.69
421.171	338.69
421.394	377.69
421.617	336.69
421.839	300.69
422.062	322.69
422.285	337.69
422.507	368.69
422.73	402.69
422.953	393.69
423.175	343.69
423.398	358.69
423.621	338.69
423.843	362.69
424.066	348.69
424.288	347.69
424.511	351.69
424.733	385.69
424.956	432.69
425.178	436.69
425.401	407.69
425.623	422.69
425.846	376.69
426.068	355.69
426.291	339.69
426.513	339.69
426.735	358.69
426.958	395.69
427.18	448.69
427.402	496.69
427.625	578.69
427.847	526.69
428.069	431.69
428.292	364.69
428.514	361.69
428.736	334.69
428.958	343.69
429.181	320.69
429.403	328.69
429.625	330.69
429.847	347.69
430.069	388.69
430.292	386.69
430.514	347.69
430.736	318.69
430.958	318.69
431.18	300.69
431.402	312.69
431.624	306.69
431.846	310.69
432.068	294.69
432.29	292.69
432.512	300.69
432.734	315.69
432.956	314.69
433.178	308.69
433.4	314.69
433.622	311.69
433.844	287.69
434.066	292.69
434.287	315.69
434.509	295.69
434.731	317.69
434.953	314.69
435.175	328.69
435.397	342.69
435.618	340.69
435.84	391.69
436.062	438.69
436.284	472.69
436.505	405.69
436.727	374.69
436.949	349.69
437.17	328.69
437.392	321.69
437.614	344.69
437.835	365.69
438.057	436.69
438.278	498.69
438.5	474.69
438.721	514.69
438.943	472.69
439.165	427.69
439.386	359.69
439.608	375.69
439.829	378.69
440.05	388.69
440.272	406.69
440.493	384.69
440.715	350.69
440.936	330.69
441.158	322.69
441.379	348.69
441.6	351.69
441.822	356.69
442.043	384.69
442.264	414.69
442.486	437.69
442.707	378.69
442.928	357.69
443.149	382.69
443.371	371.69
443.592	405.69
443.813	474.69
444.034	494.69
444.255	397.69
444.476	362.69
444.698	360.69
444.919	337.69
445.14	426.69
445.361	372.69
445.582	378.69
445.803	418.69
446.024	506.69
446.245	505.69
446.466	468.69
446.687	376.69
446.908	348.69
447.129	347.69
447.35	328.69
447.571	322.69
447.792	311.69
448.013	334.69
448.234	349.69
448.455	364.69
448.675	447.69
448.896	514.69
449.117	421.69
449.338	408.69
449.559	472.69
449.779	538.69
450	438.69
450.221	372.69
450.442	360.69
450.662	337.69
450.883	339.69
451.104	333.69
451.324	330.69
451.545	312.69
451.766	293.69
451.986	310.69
452.207	276.69
452.428	289.69
452.648	308.69
452.869	316.69
453.089	301.69
453.31	323.69
453.53	304.69
453.751	301.69
453.971	300.69
454.192	321.69
454.412	306.69
454.633	284.69
454.853	295.69
455.073	292.69
455.294	319.69
455.514	354.69
455.734	356.69
455.955	315.69
456.175	274.69
456.395	282.69
456.616	279.69
456.836	289.69
457.056	282.69
457.276	282.69
457.497	268.69
457.717	295.69
457.937	289.69
458.157	282.69
458.377	293.69
458.598	294.69
458.818	337.69
459.038	392.69
459.258	388.69
459.478	346.69
459.698	300.69
459.918	306.69
460.138	304.69
460.358	295.69
460.578	296.69
460.798	298.69
461.018	290.69
461.238	303.69
461.458	306.69
461.678	293.69
461.898	298.69
462.118	296.69
462.338	304.69
462.558	293.69
462.777	312.69
462.997	322.69
463.217	303.69
463.437	315.69
463.657	329.69
463.876	306.69
464.096	321.69
464.316	304.69
464.536	331.69
464.755	334.69
464.975	312.69
465.195	355.69
465.414	401.69
465.634	363.69
465.854	323.69
466.073	296.69
466.293	292.69
466.512	290.69
466.732	304.69
466.951	296.69
467.171	288.69
467.391	292.69
467.61	285.69
467.829	305.69
468.049	294.69
468.268	298.69
468.488	302.69
468.707	269.69
468.927	284.69
469.146	292.69
469.365	285.69
469.585	267.69
469.804	309.69
470.023	296.69
470.243	298.69
470.462	288.69
470.681	328.69
470.901	320.69
471.12	292.69
471.339	328.69
471.558	290.69
471.777	330.69
471.997	302.69
472.216	301.69
472.435	334.69
472.654	311.69
472.873	310.69
473.092	289.69
473.311	289.69
473.53	307.69
473.749	313.69
473.968	323.69
474.187	417.69
474.406	410.69
474.625	353.69
474.844	304.69
475.063	313.69
475.282	306.69
475.501	313.69
475.72	300.69
475.939	292.69
476.158	312.69
476.377	312.69
476.596	309.69
476.814	305.69
477.033	316.69
477.252	330.69
477.471	328.69
477.69	321.69
477.908	299.69
478.127	306.69
478.346	324.69
478.564	311.69
478.783	335.69
479.002	341.69
479.22	349.69
479.439	329.69
479.658	338.69
479.876	360.69
480.095	350.69
480.313	385.69
480.532	381.69
480.751	349.69
480.969	372.69
481.188	401.69
481.406	433.69
481.624	378.69
481.843	355.69
482.061	361.69
482.28	339.69
482.498	354.69
482.717	364.69
482.935	343.69
483.153	331.69
483.372	357.69
483.59	342.69
483.808	363.69
484.027	374.69
484.245	352.69
484.463	356.69
484.681	366.69
484.9	340.69
485.118	340.69
485.336	363.69
485.554	341.69
485.772	373.69
485.99	337.69
486.209	352.69
486.427	362.69
486.645	369.69
486.863	386.69
487.081	376.69
487.299	338.69
487.517	365.69
487.735	376.69
487.953	373.69
488.171	369.69
488.389	384.69
488.607	361.69
488.825	359.69
489.043	379.69
489.261	376.69
489.479	363.69
489.696	351.69
489.914	383.69
490.132	378.69
490.35	384.69
490.568	416.69
490.786	378.69
491.003	401.69
491.221	393.69
491.439	401.69
491.657	408.69
491.874	419.69
492.092	434.69
492.31	437.69
492.527	423.69
492.745	428.69
492.963	435.69
493.18	433.69
493.398	414.69
493.615	432.69
493.833	434.69
494.05	435.69
494.268	428.69
494.485	454.69
494.703	442.69
494.92	443.69
495.138	440.69
495.355	448.69
495.573	433.69
495.79	454.69
496.008	457.69
496.225	432.69
496.442	446.69
496.66	418.69
496.877	412.69
497.094	450.69
497.312	444.69
497.529	442.69
497.746	456.69
497.963	448.69
498.181	477.69
498.398	473.69
498.615	476.69
498.832	466.69
499.049	490.69
499.267	479.69
499.484	501.69
499.701	463.69
499.918	497.69
500.135	518.69
500.352	519.69
500.569	546.69
500.786	540.69
501.003	560.69
501.22	528.69
501.437	521.69
501.654	519.69
501.871	523.69
502.088	510.69
