Data from 1982.PennyLincolnUp.Lamp.En5.5.200Scan.071819.P1_HRD10591_16-46-17-961.txt Node
Date: Thu Jul 18 16:46:17 EDT 2019
User: cochatt
Spectrometer: HR+D1059
Trigger mode: 1
Integration Time (sec): 1.000000E-1
Scans to average: 1
Electric dark correction enabled: true
Nonlinearity correction enabled: false
Boxcar width: 0
XAxis mode: Wavelengths
Number of Pixels in Spectrum: 2048
>>>>>Begin Spectral Data<<<<<
223.165	-19.12
223.4	-19.12
223.635	-19.12
223.869	-6.12
224.104	-20.12
224.338	-7.12
224.573	-2.12
224.808	-19.12
225.042	-5.12
225.277	-10.12
225.511	-11.12
225.746	6.88
225.98	6.88
226.215	14.88
226.449	4.88
226.683	18.88
226.918	23.88
227.152	23.88
227.387	40.88
227.621	33.88
227.856	59.88
228.09	37.88
228.324	41.88
228.559	47.88
228.793	72.88
229.027	89.88
229.262	98.88
229.496	93.88
229.73	116.88
229.964	115.88
230.199	110.88
230.433	102.88
230.667	92.88
230.901	100.88
231.136	91.88
231.37	106.88
231.604	100.88
231.838	97.88
232.072	102.88
232.306	104.88
232.541	103.88
232.775	104.88
233.009	101.88
233.243	101.88
233.477	88.88
233.711	99.88
233.945	110.88
234.179	101.88
234.413	102.88
234.647	107.88
234.881	98.88
235.115	108.88
235.349	110.88
235.583	107.88
235.817	104.88
236.051	113.88
236.285	107.88
236.519	124.88
236.753	116.88
236.987	128.88
237.221	151.88
237.455	178.88
237.689	162.88
237.922	127.88
238.156	115.88
238.39	104.88
238.624	116.88
238.858	114.88
239.091	112.88
239.325	122.88
239.559	122.88
239.793	103.88
240.027	119.88
240.26	114.88
240.494	128.88
240.728	129.88
240.961	125.88
241.195	120.88
241.429	126.88
241.662	117.88
241.896	111.88
242.13	128.88
242.363	102.88
242.597	102.88
242.83	97.88
243.064	119.88
243.298	111.88
243.531	116.88
243.765	118.88
243.998	127.88
244.232	114.88
244.465	129.88
244.699	125.88
244.932	126.88
245.166	138.88
245.399	123.88
245.633	124.88
245.866	114.88
246.099	116.88
246.333	124.88
246.566	118.88
246.8	110.88
247.033	131.88
247.266	118.88
247.5	121.88
247.733	125.88
247.966	130.88
248.2	152.88
248.433	141.88
248.666	150.88
248.899	136.88
249.133	158.88
249.366	180.88
249.599	159.88
249.832	138.88
250.066	144.88
250.299	143.88
250.532	143.88
250.765	182.88
250.998	180.88
251.231	197.88
251.465	159.88
251.698	166.88
251.931	156.88
252.164	168.88
252.397	163.88
252.63	178.88
252.863	183.88
253.096	164.88
253.329	187.88
253.562	186.88
253.795	178.88
254.028	182.88
254.261	186.88
254.494	200.88
254.727	213.88
254.96	220.88
255.193	215.88
255.426	200.88
255.659	198.88
255.892	199.88
256.124	189.88
256.357	188.88
256.59	179.88
256.823	174.88
257.056	165.88
257.289	164.88
257.521	176.88
257.754	154.88
257.987	154.88
258.22	172.88
258.452	173.88
258.685	176.88
258.918	162.88
259.151	161.88
259.383	175.88
259.616	175.88
259.849	195.88
260.081	189.88
260.314	214.88
260.547	194.88
260.779	192.88
261.012	172.88
261.244	175.88
261.477	183.88
261.71	170.88
261.942	164.88
262.175	187.88
262.407	194.88
262.64	171.88
262.872	168.88
263.105	164.88
263.337	178.88
263.57	191.88
263.802	167.88
264.035	185.88
264.267	168.88
264.499	182.88
264.732	173.88
264.964	161.88
265.197	175.88
265.429	159.88
265.661	174.88
265.894	172.88
266.126	173.88
266.358	153.88
266.591	185.88
266.823	192.88
267.055	174.88
267.287	186.88
267.52	170.88
267.752	165.88
267.984	172.88
268.216	176.88
268.448	192.88
268.681	211.88
268.913	193.88
269.145	184.88
269.377	208.88
269.609	206.88
269.841	221.88
270.073	224.88
270.306	230.88
270.538	255.88
270.77	233.88
271.002	228.88
271.234	246.88
271.466	242.88
271.698	243.88
271.93	244.88
272.162	234.88
272.394	234.88
272.626	239.88
272.858	244.88
273.09	230.88
273.322	201.88
273.553	196.88
273.785	206.88
274.017	201.88
274.249	192.88
274.481	203.88
274.713	198.88
274.945	223.88
275.176	204.88
275.408	210.88
275.64	195.88
275.872	214.88
276.104	210.88
276.335	219.88
276.567	206.88
276.799	230.88
277.031	233.88
277.262	235.88
277.494	247.88
277.726	209.88
277.957	236.88
278.189	200.88
278.421	199.88
278.652	221.88
278.884	209.88
279.115	220.88
279.347	207.88
279.579	211.88
279.81	225.88
280.042	203.88
280.273	208.88
280.505	219.88
280.736	205.88
280.968	191.88
281.199	218.88
281.431	209.88
281.662	211.88
281.894	214.88
282.125	199.88
282.356	210.88
282.588	240.88
282.819	256.88
283.051	201.88
283.282	199.88
283.513	205.88
283.745	201.88
283.976	218.88
284.207	217.88
284.439	214.88
284.67	207.88
284.901	217.88
285.132	219.88
285.364	230.88
285.595	204.88
285.826	207.88
286.057	214.88
286.288	208.88
286.52	207.88
286.751	224.88
286.982	203.88
287.213	227.88
287.444	224.88
287.675	222.88
287.906	218.88
288.138	238.88
288.369	231.88
288.6	231.88
288.831	206.88
289.062	205.88
289.293	219.88
289.524	220.88
289.755	218.88
289.986	220.88
290.217	208.88
290.448	229.88
290.679	215.88
290.91	208.88
291.141	225.88
291.371	220.88
291.602	206.88
291.833	203.88
292.064	223.88
292.295	226.88
292.526	219.88
292.757	224.88
292.987	226.88
293.218	214.88
293.449	215.88
293.68	230.88
293.91	232.88
294.141	218.88
294.372	216.88
294.603	228.88
294.833	235.88
295.064	233.88
295.295	220.88
295.525	219.88
295.756	248.88
295.987	231.88
296.217	263.88
296.448	268.88
296.679	244.88
296.909	224.88
297.14	242.88
297.37	235.88
297.601	221.88
297.831	246.88
298.062	218.88
298.292	236.88
298.523	224.88
298.753	230.88
298.984	232.88
299.214	227.88
299.445	231.88
299.675	239.88
299.905	228.88
300.136	215.88
300.366	246.88
300.597	230.88
300.827	249.88
301.057	246.88
301.288	235.88
301.518	224.88
301.748	246.88
301.979	262.88
302.209	245.88
302.439	245.88
302.669	242.88
302.9	246.88
303.13	255.88
303.36	262.88
303.59	239.88
303.82	258.88
304.051	247.88
304.281	242.88
304.511	241.88
304.741	232.88
304.971	252.88
305.201	237.88
305.431	239.88
305.661	263.88
305.891	238.88
306.121	232.88
306.352	264.88
306.582	247.88
306.812	260.88
307.042	266.88
307.272	244.88
307.502	259.88
307.731	271.88
307.961	254.88
308.191	259.88
308.421	254.88
308.651	264.88
308.881	265.88
309.111	266.88
309.341	264.88
309.571	280.88
309.8	281.88
310.03	267.88
310.26	289.88
310.49	296.88
310.72	290.88
310.949	308.88
311.179	312.88
311.409	300.88
311.639	286.88
311.868	289.88
312.098	301.88
312.328	302.88
312.557	290.88
312.787	323.88
313.017	308.88
313.246	308.88
313.476	288.88
313.706	292.88
313.935	310.88
314.165	313.88
314.394	312.88
314.624	316.88
314.853	296.88
315.083	302.88
315.312	283.88
315.542	286.88
315.771	261.88
316.001	290.88
316.23	287.88
316.46	287.88
316.689	280.88
316.919	276.88
317.148	293.88
317.377	286.88
317.607	294.88
317.836	294.88
318.065	288.88
318.295	271.88
318.524	285.88
318.753	284.88
318.983	282.88
319.212	271.88
319.441	293.88
319.67	288.88
319.9	290.88
320.129	278.88
320.358	286.88
320.587	310.88
320.816	310.88
321.046	307.88
321.275	299.88
321.504	321.88
321.733	316.88
321.962	310.88
322.191	327.88
322.42	351.88
322.649	333.88
322.878	342.88
323.108	362.88
323.337	400.88
323.566	410.88
323.795	431.88
324.024	475.88
324.253	585.88
324.482	871.88
324.71	1307.88
324.939	1714.88
325.168	1426.88
325.397	754.88
325.626	508.88
325.855	421.88
326.084	408.88
326.313	377.88
326.542	419.88
326.77	462.88
326.999	562.88
327.228	764.88
327.457	1122.88
327.686	1250.88
327.914	820.88
328.143	572.88
328.372	512.88
328.6	482.88
328.829	428.88
329.058	464.88
329.287	445.88
329.515	443.88
329.744	409.88
329.972	415.88
330.201	426.88
330.43	438.88
330.658	455.88
330.887	479.88
331.115	455.88
331.344	401.88
331.572	378.88
331.801	366.88
332.03	378.88
332.258	343.88
332.486	334.88
332.715	328.88
332.943	331.88
333.172	337.88
333.4	347.88
333.629	361.88
333.857	355.88
334.085	363.88
334.314	380.88
334.542	386.88
334.771	399.88
334.999	382.88
335.227	345.88
335.455	335.88
335.684	319.88
335.912	316.88
336.14	329.88
336.369	330.88
336.597	332.88
336.825	337.88
337.053	322.88
337.281	345.88
337.51	335.88
337.738	313.88
337.966	328.88
338.194	330.88
338.422	342.88
338.65	318.88
338.878	319.88
339.106	314.88
339.334	291.88
339.562	314.88
339.79	314.88
340.018	307.88
340.246	307.88
340.474	326.88
340.702	324.88
340.93	344.88
341.158	300.88
341.386	318.88
341.614	295.88
341.842	325.88
342.07	314.88
342.298	297.88
342.526	318.88
342.754	294.88
342.981	331.88
343.209	292.88
343.437	304.88
343.665	321.88
343.893	317.88
344.12	328.88
344.348	304.88
344.576	298.88
344.804	314.88
345.031	335.88
345.259	355.88
345.487	326.88
345.714	328.88
345.942	308.88
346.17	319.88
346.397	302.88
346.625	302.88
346.853	299.88
347.08	315.88
347.308	338.88
347.535	306.88
347.763	331.88
347.99	318.88
348.218	308.88
348.445	336.88
348.673	302.88
348.9	301.88
349.128	292.88
349.355	281.88
349.583	302.88
349.81	307.88
350.037	280.88
350.265	303.88
350.492	306.88
350.72	284.88
350.947	308.88
351.174	312.88
351.402	311.88
351.629	319.88
351.856	315.88
352.083	331.88
352.311	330.88
352.538	308.88
352.765	331.88
352.992	331.88
353.22	288.88
353.447	300.88
353.674	276.88
353.901	294.88
354.128	286.88
354.355	289.88
354.583	276.88
354.81	278.88
355.037	302.88
355.264	296.88
355.491	295.88
355.718	286.88
355.945	270.88
356.172	281.88
356.399	256.88
356.626	264.88
356.853	273.88
357.08	278.88
357.307	277.88
357.534	290.88
357.761	292.88
357.988	268.88
358.215	267.88
358.441	280.88
358.668	294.88
358.895	282.88
359.122	290.88
359.349	304.88
359.576	319.88
359.802	319.88
360.029	351.88
360.256	360.88
360.483	328.88
360.709	315.88
360.936	316.88
361.163	286.88
361.39	317.88
361.616	315.88
361.843	315.88
362.07	303.88
362.296	292.88
362.523	288.88
362.749	290.88
362.976	282.88
363.203	278.88
363.429	275.88
363.656	293.88
363.882	290.88
364.109	272.88
364.335	270.88
364.562	297.88
364.788	288.88
365.015	280.88
365.241	300.88
365.468	285.88
365.694	281.88
365.92	296.88
366.147	293.88
366.373	283.88
366.599	276.88
366.826	289.88
367.052	269.88
367.278	275.88
367.505	275.88
367.731	273.88
367.957	274.88
368.184	290.88
368.41	282.88
368.636	298.88
368.862	302.88
369.089	295.88
369.315	280.88
369.541	276.88
369.767	282.88
369.993	270.88
370.219	279.88
370.445	276.88
370.672	288.88
370.898	294.88
371.124	295.88
371.35	271.88
371.576	258.88
371.802	267.88
372.028	277.88
372.254	256.88
372.48	268.88
372.706	290.88
372.932	275.88
373.158	266.88
373.384	282.88
373.61	280.88
373.835	250.88
374.061	244.88
374.287	254.88
374.513	265.88
374.739	271.88
374.965	282.88
375.191	283.88
375.416	282.88
375.642	286.88
375.868	289.88
376.094	284.88
376.319	262.88
376.545	282.88
376.771	283.88
376.997	273.88
377.222	271.88
377.448	269.88
377.674	265.88
377.899	264.88
378.125	260.88
378.35	244.88
378.576	264.88
378.802	266.88
379.027	279.88
379.253	252.88
379.478	266.88
379.704	255.88
379.929	273.88
380.155	269.88
380.38	253.88
380.606	251.88
380.831	274.88
381.057	273.88
381.282	276.88
381.507	275.88
381.733	275.88
381.958	264.88
382.184	271.88
382.409	281.88
382.634	247.88
382.86	262.88
383.085	279.88
383.31	264.88
383.535	280.88
383.761	270.88
383.986	278.88
384.211	289.88
384.436	283.88
384.662	275.88
384.887	287.88
385.112	285.88
385.337	296.88
385.562	288.88
385.787	281.88
386.013	308.88
386.238	263.88
386.463	288.88
386.688	262.88
386.913	280.88
387.138	277.88
387.363	279.88
387.588	295.88
387.813	278.88
388.038	278.88
388.263	282.88
388.488	280.88
388.713	271.88
388.938	292.88
389.163	278.88
389.387	285.88
389.612	264.88
389.837	292.88
390.062	272.88
390.287	274.88
390.512	276.88
390.736	285.88
390.961	276.88
391.186	258.88
391.411	291.88
391.636	281.88
391.86	285.88
392.085	285.88
392.31	274.88
392.534	282.88
392.759	292.88
392.984	290.88
393.208	285.88
393.433	262.88
393.658	274.88
393.882	264.88
394.107	283.88
394.331	272.88
394.556	280.88
394.78	279.88
395.005	279.88
395.229	295.88
395.454	260.88
395.678	294.88
395.903	296.88
396.127	306.88
396.352	296.88
396.576	310.88
396.801	295.88
397.025	287.88
397.249	285.88
397.474	276.88
397.698	281.88
397.922	295.88
398.147	309.88
398.371	318.88
398.595	307.88
398.82	301.88
399.044	292.88
399.268	312.88
399.492	323.88
399.717	322.88
399.941	334.88
400.165	347.88
400.389	367.88
400.613	355.88
400.837	326.88
401.062	326.88
401.286	312.88
401.51	314.88
401.734	302.88
401.958	322.88
402.182	312.88
402.406	318.88
402.63	292.88
402.854	327.88
403.078	327.88
403.302	306.88
403.526	319.88
403.75	318.88
403.974	314.88
404.198	334.88
404.422	339.88
404.645	320.88
404.869	342.88
405.093	352.88
405.317	378.88
405.541	377.88
405.765	342.88
405.988	338.88
406.212	347.88
406.436	380.88
406.66	366.88
406.883	349.88
407.107	373.88
407.331	400.88
407.555	430.88
407.778	423.88
408.002	382.88
408.226	347.88
408.449	354.88
408.673	336.88
408.896	383.88
409.12	394.88
409.344	382.88
409.567	351.88
409.791	312.88
410.014	306.88
410.238	300.88
410.461	324.88
410.685	310.88
410.908	334.88
411.132	357.88
411.355	375.88
411.578	358.88
411.802	322.88
412.025	327.88
412.249	316.88
412.472	343.88
412.695	360.88
412.919	335.88
413.142	330.88
413.365	308.88
413.589	304.88
413.812	314.88
414.035	291.88
414.258	296.88
414.482	312.88
414.705	294.88
414.928	313.88
415.151	289.88
415.374	298.88
415.597	310.88
415.821	286.88
416.044	306.88
416.267	314.88
416.49	299.88
416.713	291.88
416.936	302.88
417.159	292.88
417.382	318.88
417.605	312.88
417.828	319.88
418.051	324.88
418.274	332.88
418.497	318.88
418.72	310.88
418.943	313.88
419.166	300.88
419.389	309.88
419.611	331.88
419.834	340.88
420.057	320.88
420.28	310.88
420.503	307.88
420.726	308.88
420.948	348.88
421.171	357.88
421.394	360.88
421.617	328.88
421.839	327.88
422.062	318.88
422.285	315.88
422.507	355.88
422.73	397.88
422.953	382.88
423.175	341.88
423.398	335.88
423.621	349.88
423.843	343.88
424.066	339.88
424.288	362.88
424.511	364.88
424.733	382.88
424.956	439.88
425.178	432.88
425.401	420.88
425.623	415.88
425.846	349.88
426.068	349.88
426.291	334.88
426.513	341.88
426.735	352.88
426.958	364.88
427.18	435.88
427.402	500.88
427.625	561.88
427.847	488.88
428.069	432.88
428.292	405.88
428.514	346.88
428.736	324.88
428.958	348.88
429.181	322.88
429.403	314.88
429.625	339.88
429.847	347.88
430.069	376.88
430.292	412.88
430.514	359.88
430.736	314.88
430.958	312.88
431.18	293.88
431.402	324.88
431.624	294.88
431.846	286.88
432.068	295.88
432.29	294.88
432.512	304.88
432.734	313.88
432.956	304.88
433.178	314.88
433.4	315.88
433.622	303.88
433.844	292.88
434.066	299.88
434.287	296.88
434.509	321.88
434.731	311.88
434.953	302.88
435.175	330.88
435.397	352.88
435.618	325.88
435.84	375.88
436.062	428.88
436.284	470.88
436.505	402.88
436.727	362.88
436.949	318.88
437.17	335.88
437.392	327.88
437.614	346.88
437.835	370.88
438.057	437.88
438.278	479.88
438.5	483.88
438.721	525.88
438.943	463.88
439.165	400.88
439.386	362.88
439.608	344.88
439.829	382.88
440.05	366.88
440.272	412.88
440.493	386.88
440.715	339.88
440.936	338.88
441.158	321.88
441.379	329.88
441.6	323.88
441.822	351.88
442.043	389.88
442.264	434.88
442.486	436.88
442.707	383.88
442.928	356.88
443.149	356.88
443.371	393.88
443.592	424.88
443.813	446.88
444.034	477.88
444.255	408.88
444.476	344.88
444.698	347.88
444.919	360.88
445.14	431.88
445.361	394.88
445.582	378.88
445.803	414.88
446.024	486.88
446.245	500.88
446.466	441.88
446.687	390.88
446.908	357.88
447.129	335.88
447.35	330.88
447.571	342.88
447.792	322.88
448.013	338.88
448.234	335.88
448.455	380.88
448.675	441.88
448.896	495.88
449.117	436.88
449.338	416.88
449.559	474.88
449.779	498.88
450	433.88
450.221	362.88
450.442	344.88
450.662	318.88
450.883	334.88
451.104	330.88
451.324	331.88
451.545	310.88
451.766	308.88
451.986	282.88
452.207	288.88
452.428	302.88
452.648	299.88
452.869	291.88
453.089	275.88
453.31	318.88
453.53	298.88
453.751	287.88
453.971	308.88
454.192	315.88
454.412	290.88
454.633	300.88
454.853	294.88
455.073	290.88
455.294	333.88
455.514	358.88
455.734	325.88
455.955	277.88
456.175	278.88
456.395	276.88
456.616	267.88
456.836	290.88
457.056	264.88
457.276	271.88
457.497	259.88
457.717	276.88
457.937	268.88
458.157	268.88
458.377	272.88
458.598	296.88
458.818	338.88
459.038	400.88
459.258	418.88
459.478	333.88
459.698	306.88
459.918	323.88
460.138	284.88
460.358	282.88
460.578	316.88
460.798	309.88
461.018	310.88
461.238	296.88
461.458	285.88
461.678	296.88
461.898	297.88
462.118	306.88
462.338	314.88
462.558	311.88
462.777	320.88
462.997	284.88
463.217	314.88
463.437	317.88
463.657	322.88
463.876	317.88
464.096	306.88
464.316	291.88
464.536	328.88
464.755	325.88
464.975	328.88
465.195	389.88
465.414	396.88
465.634	351.88
465.854	330.88
466.073	318.88
466.293	291.88
466.512	290.88
466.732	307.88
466.951	288.88
467.171	306.88
467.391	299.88
467.61	330.88
467.829	292.88
468.049	299.88
468.268	296.88
468.488	285.88
468.707	285.88
468.927	270.88
469.146	278.88
469.365	278.88
469.585	287.88
469.804	294.88
470.023	311.88
470.243	298.88
470.462	322.88
470.681	320.88
470.901	311.88
471.12	293.88
471.339	273.88
471.558	301.88
471.777	284.88
471.997	290.88
472.216	302.88
472.435	322.88
472.654	300.88
472.873	295.88
473.092	290.88
473.311	306.88
473.53	294.88
473.749	320.88
473.968	322.88
474.187	392.88
474.406	408.88
474.625	346.88
474.844	310.88
475.063	307.88
475.282	295.88
475.501	292.88
475.72	315.88
475.939	312.88
476.158	303.88
476.377	317.88
476.596	330.88
476.814	302.88
477.033	310.88
477.252	306.88
477.471	322.88
477.69	327.88
477.908	307.88
478.127	306.88
478.346	322.88
478.564	321.88
478.783	334.88
479.002	309.88
479.22	343.88
479.439	346.88
479.658	350.88
479.876	340.88
480.095	371.88
480.313	382.88
480.532	360.88
480.751	350.88
480.969	346.88
481.188	404.88
481.406	425.88
481.624	367.88
481.843	352.88
482.061	342.88
482.28	347.88
482.498	342.88
482.717	330.88
482.935	346.88
483.153	342.88
483.372	343.88
483.59	348.88
483.808	346.88
484.027	334.88
484.245	355.88
484.463	356.88
484.681	359.88
484.9	341.88
485.118	356.88
485.336	348.88
485.554	368.88
485.772	372.88
485.99	366.88
486.209	342.88
486.427	378.88
486.645	350.88
486.863	388.88
487.081	378.88
487.299	372.88
487.517	366.88
487.735	360.88
487.953	363.88
488.171	373.88
488.389	359.88
488.607	360.88
488.825	377.88
489.043	354.88
489.261	361.88
489.479	376.88
489.696	370.88
489.914	378.88
490.132	376.88
490.35	371.88
490.568	375.88
490.786	393.88
491.003	413.88
491.221	395.88
491.439	414.88
491.657	420.88
491.874	420.88
492.092	443.88
492.31	422.88
492.527	420.88
492.745	434.88
492.963	442.88
493.18	428.88
493.398	426.88
493.615	434.88
493.833	448.88
494.05	429.88
494.268	448.88
494.485	439.88
494.703	423.88
494.92	419.88
495.138	439.88
495.355	424.88
495.573	446.88
495.79	454.88
496.008	412.88
496.225	440.88
496.442	417.88
496.66	453.88
496.877	438.88
497.094	450.88
497.312	429.88
497.529	444.88
497.746	454.88
497.963	450.88
498.181	480.88
498.398	455.88
498.615	470.88
498.832	479.88
499.049	463.88
499.267	490.88
499.484	475.88
499.701	491.88
499.918	501.88
500.135	536.88
500.352	534.88
500.569	546.88
500.786	542.88
501.003	511.88
501.22	546.88
501.437	501.88
501.654	512.88
501.871	487.88
502.088	506.88
