Data from 1982.PennyLincolnUp.Lamp.En5.5.200Scan.071819.P1_HRD10591_16-45-31-961.txt Node
Date: Thu Jul 18 16:45:31 EDT 2019
User: cochatt
Spectrometer: HR+D1059
Trigger mode: 1
Integration Time (sec): 1.000000E-1
Scans to average: 1
Electric dark correction enabled: true
Nonlinearity correction enabled: false
Boxcar width: 0
XAxis mode: Wavelengths
Number of Pixels in Spectrum: 2048
>>>>>Begin Spectral Data<<<<<
223.165	-17.25
223.4	-17.25
223.635	-17.25
223.869	-31.25
224.104	-9.25
224.338	-18.25
224.573	-12.25
224.808	-13.25
225.042	-10.25
225.277	-4.25
225.511	2.75
225.746	8.75
225.98	5.75
226.215	8.75
226.449	13.75
226.683	12.75
226.918	26.75
227.152	36.75
227.387	43.75
227.621	16.75
227.856	46.75
228.09	39.75
228.324	59.75
228.559	58.75
228.793	65.75
229.027	92.75
229.262	91.75
229.496	94.75
229.73	97.75
229.964	134.75
230.199	97.75
230.433	101.75
230.667	90.75
230.901	90.75
231.136	109.75
231.37	96.75
231.604	105.75
231.838	106.75
232.072	103.75
232.306	115.75
232.541	96.75
232.775	104.75
233.009	97.75
233.243	100.75
233.477	98.75
233.711	93.75
233.945	114.75
234.179	106.75
234.413	93.75
234.647	91.75
234.881	99.75
235.115	97.75
235.349	109.75
235.583	112.75
235.817	116.75
236.051	107.75
236.285	117.75
236.519	97.75
236.753	111.75
236.987	132.75
237.221	162.75
237.455	167.75
237.689	128.75
237.922	107.75
238.156	114.75
238.39	100.75
238.624	109.75
238.858	102.75
239.091	106.75
239.325	119.75
239.559	119.75
239.793	93.75
240.027	113.75
240.26	121.75
240.494	132.75
240.728	116.75
240.961	127.75
241.195	128.75
241.429	117.75
241.662	117.75
241.896	114.75
242.13	115.75
242.363	98.75
242.597	109.75
242.83	95.75
243.064	103.75
243.298	113.75
243.531	120.75
243.765	114.75
243.998	108.75
244.232	120.75
244.465	112.75
244.699	110.75
244.932	104.75
245.166	119.75
245.399	105.75
245.633	122.75
245.866	120.75
246.099	126.75
246.333	120.75
246.566	119.75
246.8	121.75
247.033	117.75
247.266	120.75
247.5	128.75
247.733	130.75
247.966	133.75
248.2	128.75
248.433	136.75
248.666	143.75
248.899	140.75
249.133	160.75
249.366	158.75
249.599	156.75
249.832	143.75
250.066	133.75
250.299	152.75
250.532	150.75
250.765	170.75
250.998	160.75
251.231	181.75
251.465	170.75
251.698	143.75
251.931	156.75
252.164	150.75
252.397	160.75
252.63	146.75
252.863	169.75
253.096	157.75
253.329	189.75
253.562	186.75
253.795	173.75
254.028	166.75
254.261	164.75
254.494	168.75
254.727	182.75
254.96	202.75
255.193	209.75
255.426	181.75
255.659	186.75
255.892	189.75
256.124	180.75
256.357	168.75
256.59	169.75
256.823	173.75
257.056	163.75
257.289	167.75
257.521	166.75
257.754	162.75
257.987	155.75
258.22	167.75
258.452	164.75
258.685	155.75
258.918	154.75
259.151	160.75
259.383	165.75
259.616	165.75
259.849	190.75
260.081	188.75
260.314	191.75
260.547	186.75
260.779	183.75
261.012	166.75
261.244	178.75
261.477	184.75
261.71	191.75
261.942	171.75
262.175	184.75
262.407	164.75
262.64	180.75
262.872	166.75
263.105	174.75
263.337	161.75
263.57	162.75
263.802	173.75
264.035	176.75
264.267	160.75
264.499	178.75
264.732	171.75
264.964	184.75
265.197	164.75
265.429	149.75
265.661	160.75
265.894	160.75
266.126	179.75
266.358	162.75
266.591	162.75
266.823	161.75
267.055	170.75
267.287	171.75
267.52	171.75
267.752	170.75
267.984	186.75
268.216	184.75
268.448	186.75
268.681	188.75
268.913	193.75
269.145	196.75
269.377	220.75
269.609	212.75
269.841	204.75
270.073	205.75
270.306	237.75
270.538	232.75
270.77	244.75
271.002	224.75
271.234	218.75
271.466	228.75
271.698	213.75
271.93	228.75
272.162	241.75
272.394	250.75
272.626	224.75
272.858	240.75
273.09	209.75
273.322	215.75
273.553	201.75
273.785	190.75
274.017	187.75
274.249	189.75
274.481	220.75
274.713	200.75
274.945	212.75
275.176	200.75
275.408	212.75
275.64	192.75
275.872	192.75
276.104	186.75
276.335	203.75
276.567	207.75
276.799	208.75
277.031	217.75
277.262	252.75
277.494	249.75
277.726	221.75
277.957	214.75
278.189	213.75
278.421	203.75
278.652	195.75
278.884	203.75
279.115	209.75
279.347	204.75
279.579	208.75
279.81	220.75
280.042	210.75
280.273	199.75
280.505	201.75
280.736	194.75
280.968	202.75
281.199	192.75
281.431	193.75
281.662	201.75
281.894	202.75
282.125	208.75
282.356	220.75
282.588	219.75
282.819	226.75
283.051	229.75
283.282	205.75
283.513	200.75
283.745	208.75
283.976	202.75
284.207	209.75
284.439	216.75
284.67	212.75
284.901	190.75
285.132	208.75
285.364	197.75
285.595	199.75
285.826	202.75
286.057	213.75
286.288	213.75
286.52	196.75
286.751	209.75
286.982	209.75
287.213	212.75
287.444	211.75
287.675	213.75
287.906	212.75
288.138	212.75
288.369	224.75
288.6	229.75
288.831	216.75
289.062	201.75
289.293	220.75
289.524	206.75
289.755	221.75
289.986	219.75
290.217	212.75
290.448	204.75
290.679	215.75
290.91	202.75
291.141	201.75
291.371	216.75
291.602	213.75
291.833	205.75
292.064	195.75
292.295	209.75
292.526	215.75
292.757	212.75
292.987	205.75
293.218	209.75
293.449	221.75
293.68	218.75
293.91	209.75
294.141	200.75
294.372	202.75
294.603	221.75
294.833	210.75
295.064	214.75
295.295	202.75
295.525	215.75
295.756	223.75
295.987	231.75
296.217	244.75
296.448	225.75
296.679	237.75
296.909	230.75
297.14	217.75
297.37	238.75
297.601	214.75
297.831	227.75
298.062	226.75
298.292	202.75
298.523	229.75
298.753	236.75
298.984	232.75
299.214	225.75
299.445	215.75
299.675	221.75
299.905	241.75
300.136	209.75
300.366	215.75
300.597	218.75
300.827	237.75
301.057	240.75
301.288	242.75
301.518	220.75
301.748	223.75
301.979	244.75
302.209	246.75
302.439	233.75
302.669	242.75
302.9	242.75
303.13	235.75
303.36	258.75
303.59	237.75
303.82	249.75
304.051	250.75
304.281	229.75
304.511	240.75
304.741	230.75
304.971	241.75
305.201	240.75
305.431	261.75
305.661	228.75
305.891	224.75
306.121	241.75
306.352	225.75
306.582	267.75
306.812	255.75
307.042	254.75
307.272	248.75
307.502	229.75
307.731	244.75
307.961	228.75
308.191	247.75
308.421	246.75
308.651	235.75
308.881	258.75
309.111	248.75
309.341	262.75
309.571	277.75
309.8	272.75
310.03	270.75
310.26	282.75
310.49	283.75
310.72	273.75
310.949	280.75
311.179	271.75
311.409	270.75
311.639	291.75
311.868	295.75
312.098	270.75
312.328	274.75
312.557	299.75
312.787	304.75
313.017	297.75
313.246	290.75
313.476	277.75
313.706	276.75
313.935	280.75
314.165	283.75
314.394	294.75
314.624	290.75
314.853	250.75
315.083	288.75
315.312	288.75
315.542	265.75
315.771	255.75
316.001	266.75
316.23	275.75
316.46	257.75
316.689	253.75
316.919	295.75
317.148	281.75
317.377	292.75
317.607	269.75
317.836	284.75
318.065	278.75
318.295	278.75
318.524	283.75
318.753	265.75
318.983	267.75
319.212	259.75
319.441	292.75
319.67	288.75
319.9	306.75
320.129	275.75
320.358	280.75
320.587	281.75
320.816	296.75
321.046	285.75
321.275	310.75
321.504	306.75
321.733	309.75
321.962	288.75
322.191	312.75
322.42	321.75
322.649	324.75
322.878	346.75
323.108	355.75
323.337	375.75
323.566	372.75
323.795	414.75
324.024	444.75
324.253	566.75
324.482	834.75
324.71	1190.75
324.939	1575.75
325.168	1300.75
325.397	665.75
325.626	470.75
325.855	403.75
326.084	390.75
326.313	370.75
326.542	390.75
326.77	415.75
326.999	528.75
327.228	713.75
327.457	1020.75
327.686	1131.75
327.914	752.75
328.143	508.75
328.372	452.75
328.6	449.75
328.829	421.75
329.058	439.75
329.287	436.75
329.515	411.75
329.744	372.75
329.972	373.75
330.201	378.75
330.43	408.75
330.658	433.75
330.887	421.75
331.115	431.75
331.344	371.75
331.572	343.75
331.801	357.75
332.03	363.75
332.258	333.75
332.486	350.75
332.715	314.75
332.943	332.75
333.172	334.75
333.4	332.75
333.629	319.75
333.857	336.75
334.085	346.75
334.314	340.75
334.542	349.75
334.771	372.75
334.999	324.75
335.227	338.75
335.455	327.75
335.684	315.75
335.912	324.75
336.14	299.75
336.369	316.75
336.597	313.75
336.825	314.75
337.053	324.75
337.281	312.75
337.51	321.75
337.738	324.75
337.966	308.75
338.194	306.75
338.422	308.75
338.65	321.75
338.878	318.75
339.106	300.75
339.334	311.75
339.562	323.75
339.79	316.75
340.018	311.75
340.246	314.75
340.474	320.75
340.702	304.75
340.93	324.75
341.158	320.75
341.386	322.75
341.614	306.75
341.842	307.75
342.07	294.75
342.298	309.75
342.526	284.75
342.754	283.75
342.981	284.75
343.209	279.75
343.437	298.75
343.665	306.75
343.893	286.75
344.12	304.75
344.348	298.75
344.576	304.75
344.804	318.75
345.031	312.75
345.259	311.75
345.487	308.75
345.714	306.75
345.942	302.75
346.17	293.75
346.397	306.75
346.625	307.75
346.853	294.75
347.08	291.75
347.308	311.75
347.535	316.75
347.763	314.75
347.99	301.75
348.218	296.75
348.445	305.75
348.673	296.75
348.9	286.75
349.128	286.75
349.355	285.75
349.583	283.75
349.81	276.75
350.037	299.75
350.265	285.75
350.492	279.75
350.72	273.75
350.947	316.75
351.174	294.75
351.402	294.75
351.629	296.75
351.856	288.75
352.083	311.75
352.311	312.75
352.538	333.75
352.765	296.75
352.992	278.75
353.22	293.75
353.447	295.75
353.674	291.75
353.901	274.75
354.128	285.75
354.355	292.75
354.583	267.75
354.81	284.75
355.037	273.75
355.264	267.75
355.491	264.75
355.718	281.75
355.945	258.75
356.172	277.75
356.399	270.75
356.626	269.75
356.853	263.75
357.08	270.75
357.307	268.75
357.534	277.75
357.761	262.75
357.988	270.75
358.215	266.75
358.441	264.75
358.668	274.75
358.895	266.75
359.122	267.75
359.349	285.75
359.576	286.75
359.802	331.75
360.029	325.75
360.256	315.75
360.483	312.75
360.709	297.75
360.936	299.75
361.163	296.75
361.39	294.75
361.616	293.75
361.843	288.75
362.07	294.75
362.296	293.75
362.523	298.75
362.749	307.75
362.976	290.75
363.203	293.75
363.429	284.75
363.656	290.75
363.882	289.75
364.109	290.75
364.335	268.75
364.562	274.75
364.788	270.75
365.015	270.75
365.241	285.75
365.468	280.75
365.694	281.75
365.92	279.75
366.147	277.75
366.373	262.75
366.599	279.75
366.826	247.75
367.052	278.75
367.278	285.75
367.505	283.75
367.731	293.75
367.957	268.75
368.184	289.75
368.41	276.75
368.636	282.75
368.862	272.75
369.089	270.75
369.315	291.75
369.541	278.75
369.767	256.75
369.993	286.75
370.219	263.75
370.445	277.75
370.672	270.75
370.898	271.75
371.124	268.75
371.35	275.75
371.576	270.75
371.802	272.75
372.028	262.75
372.254	260.75
372.48	263.75
372.706	269.75
372.932	260.75
373.158	276.75
373.384	268.75
373.61	271.75
373.835	260.75
374.061	282.75
374.287	266.75
374.513	283.75
374.739	273.75
374.965	261.75
375.191	270.75
375.416	270.75
375.642	274.75
375.868	270.75
376.094	258.75
376.319	269.75
376.545	260.75
376.771	263.75
376.997	274.75
377.222	244.75
377.448	265.75
377.674	260.75
377.899	267.75
378.125	262.75
378.35	264.75
378.576	265.75
378.802	263.75
379.027	277.75
379.253	261.75
379.478	261.75
379.704	271.75
379.929	261.75
380.155	250.75
380.38	249.75
380.606	256.75
380.831	266.75
381.057	277.75
381.282	262.75
381.507	269.75
381.733	258.75
381.958	255.75
382.184	273.75
382.409	278.75
382.634	251.75
382.86	267.75
383.085	272.75
383.31	254.75
383.535	272.75
383.761	280.75
383.986	263.75
384.211	266.75
384.436	288.75
384.662	279.75
384.887	297.75
385.112	268.75
385.337	265.75
385.562	259.75
385.787	274.75
386.013	295.75
386.238	280.75
386.463	279.75
386.688	269.75
386.913	265.75
387.138	287.75
387.363	281.75
387.588	273.75
387.813	280.75
388.038	268.75
388.263	288.75
388.488	274.75
388.713	275.75
388.938	274.75
389.163	281.75
389.387	285.75
389.612	287.75
389.837	287.75
390.062	282.75
390.287	274.75
390.512	264.75
390.736	253.75
390.961	274.75
391.186	256.75
391.411	282.75
391.636	286.75
391.86	278.75
392.085	293.75
392.31	289.75
392.534	285.75
392.759	278.75
392.984	266.75
393.208	272.75
393.433	288.75
393.658	289.75
393.882	285.75
394.107	286.75
394.331	268.75
394.556	272.75
394.78	266.75
395.005	277.75
395.229	277.75
395.454	290.75
395.678	276.75
395.903	299.75
396.127	287.75
396.352	294.75
396.576	289.75
396.801	289.75
397.025	291.75
397.249	292.75
397.474	301.75
397.698	299.75
397.922	265.75
398.147	309.75
398.371	286.75
398.595	310.75
398.82	306.75
399.044	316.75
399.268	330.75
399.492	317.75
399.717	340.75
399.941	370.75
400.165	371.75
400.389	357.75
400.613	348.75
400.837	328.75
401.062	314.75
401.286	312.75
401.51	310.75
401.734	306.75
401.958	297.75
402.182	306.75
402.406	323.75
402.63	301.75
402.854	291.75
403.078	317.75
403.302	320.75
403.526	319.75
403.75	309.75
403.974	304.75
404.198	323.75
404.422	312.75
404.645	308.75
404.869	312.75
405.093	321.75
405.317	363.75
405.541	382.75
405.765	341.75
405.988	338.75
406.212	350.75
406.436	327.75
406.66	356.75
406.883	333.75
407.107	354.75
407.331	380.75
407.555	404.75
407.778	426.75
408.002	381.75
408.226	358.75
408.449	328.75
408.673	364.75
408.896	376.75
409.12	359.75
409.344	351.75
409.567	330.75
409.791	316.75
410.014	342.75
410.238	304.75
410.461	322.75
410.685	328.75
410.908	313.75
411.132	344.75
411.355	372.75
411.578	356.75
411.802	330.75
412.025	320.75
412.249	310.75
412.472	338.75
412.695	344.75
412.919	328.75
413.142	309.75
413.365	320.75
413.589	293.75
413.812	308.75
414.035	306.75
414.258	295.75
414.482	320.75
414.705	317.75
414.928	281.75
415.151	306.75
415.374	294.75
415.597	301.75
415.821	311.75
416.044	292.75
416.267	283.75
416.49	295.75
416.713	288.75
416.936	306.75
417.159	297.75
417.382	317.75
417.605	282.75
417.828	295.75
418.051	314.75
418.274	313.75
418.497	296.75
418.72	306.75
418.943	276.75
419.166	292.75
419.389	310.75
419.611	298.75
419.834	310.75
420.057	315.75
420.28	308.75
420.503	306.75
420.726	308.75
420.948	330.75
421.171	332.75
421.394	352.75
421.617	336.75
421.839	308.75
422.062	314.75
422.285	331.75
422.507	358.75
422.73	384.75
422.953	376.75
423.175	345.75
423.398	324.75
423.621	339.75
423.843	344.75
424.066	340.75
424.288	333.75
424.511	338.75
424.733	395.75
424.956	432.75
425.178	426.75
425.401	408.75
425.623	406.75
425.846	368.75
426.068	342.75
426.291	360.75
426.513	348.75
426.735	330.75
426.958	371.75
427.18	419.75
427.402	501.75
427.625	542.75
427.847	479.75
428.069	412.75
428.292	375.75
428.514	341.75
428.736	332.75
428.958	326.75
429.181	316.75
429.403	318.75
429.625	334.75
429.847	365.75
430.069	385.75
430.292	375.75
430.514	319.75
430.736	331.75
430.958	306.75
431.18	301.75
431.402	292.75
431.624	302.75
431.846	299.75
432.068	281.75
432.29	286.75
432.512	304.75
432.734	292.75
432.956	316.75
433.178	311.75
433.4	317.75
433.622	298.75
433.844	289.75
434.066	303.75
434.287	304.75
434.509	307.75
434.731	301.75
434.953	304.75
435.175	314.75
435.397	322.75
435.618	354.75
435.84	378.75
436.062	437.75
436.284	447.75
436.505	382.75
436.727	348.75
436.949	341.75
437.17	319.75
437.392	325.75
437.614	330.75
437.835	357.75
438.057	394.75
438.278	470.75
438.5	458.75
438.721	501.75
438.943	474.75
439.165	381.75
439.386	361.75
439.608	345.75
439.829	362.75
440.05	370.75
440.272	388.75
440.493	372.75
440.715	322.75
440.936	324.75
441.158	312.75
441.379	308.75
441.6	341.75
441.822	331.75
442.043	345.75
442.264	412.75
442.486	412.75
442.707	352.75
442.928	353.75
443.149	354.75
443.371	367.75
443.592	386.75
443.813	441.75
444.034	491.75
444.255	411.75
444.476	365.75
444.698	349.75
444.919	336.75
445.14	432.75
445.361	400.75
445.582	398.75
445.803	419.75
446.024	475.75
446.245	471.75
446.466	433.75
446.687	365.75
446.908	335.75
447.129	332.75
447.35	324.75
447.571	314.75
447.792	316.75
448.013	330.75
448.234	359.75
448.455	380.75
448.675	434.75
448.896	476.75
449.117	432.75
449.338	421.75
449.559	476.75
449.779	504.75
450	421.75
450.221	369.75
450.442	320.75
450.662	309.75
450.883	308.75
451.104	312.75
451.324	313.75
451.545	316.75
451.766	299.75
451.986	292.75
452.207	278.75
452.428	285.75
452.648	278.75
452.869	277.75
453.089	278.75
453.31	293.75
453.53	274.75
453.751	290.75
453.971	299.75
454.192	296.75
454.412	293.75
454.633	298.75
454.853	264.75
455.073	285.75
455.294	293.75
455.514	358.75
455.734	344.75
455.955	295.75
456.175	284.75
456.395	258.75
456.616	260.75
456.836	264.75
457.056	264.75
457.276	266.75
457.497	271.75
457.717	274.75
457.937	279.75
458.157	277.75
458.377	284.75
458.598	267.75
458.818	322.75
459.038	379.75
459.258	388.75
459.478	334.75
459.698	330.75
459.918	299.75
460.138	284.75
460.358	298.75
460.578	297.75
460.798	296.75
461.018	283.75
461.238	270.75
461.458	294.75
461.678	297.75
461.898	299.75
462.118	295.75
462.338	281.75
462.558	298.75
462.777	297.75
462.997	295.75
463.217	321.75
463.437	316.75
463.657	305.75
463.876	299.75
464.096	305.75
464.316	304.75
464.536	319.75
464.755	324.75
464.975	313.75
465.195	349.75
465.414	370.75
465.634	349.75
465.854	309.75
466.073	298.75
466.293	290.75
466.512	304.75
466.732	296.75
466.951	290.75
467.171	293.75
467.391	274.75
467.61	310.75
467.829	313.75
468.049	301.75
468.268	278.75
468.488	282.75
468.707	263.75
468.927	268.75
469.146	289.75
469.365	281.75
469.585	276.75
469.804	296.75
470.023	293.75
470.243	294.75
470.462	306.75
470.681	300.75
470.901	298.75
471.12	322.75
471.339	282.75
471.558	273.75
471.777	292.75
471.997	279.75
472.216	294.75
472.435	312.75
472.654	298.75
472.873	286.75
473.092	274.75
473.311	289.75
473.53	324.75
473.749	315.75
473.968	328.75
474.187	398.75
474.406	396.75
474.625	341.75
474.844	314.75
475.063	287.75
475.282	314.75
475.501	288.75
475.72	311.75
475.939	296.75
476.158	313.75
476.377	304.75
476.596	295.75
476.814	297.75
477.033	302.75
477.252	317.75
477.471	299.75
477.69	321.75
477.908	322.75
478.127	317.75
478.346	314.75
478.564	330.75
478.783	328.75
479.002	332.75
479.22	326.75
479.439	355.75
479.658	349.75
479.876	354.75
480.095	355.75
480.313	354.75
480.532	361.75
480.751	329.75
480.969	358.75
481.188	384.75
481.406	396.75
481.624	371.75
481.843	347.75
482.061	354.75
482.28	331.75
482.498	334.75
482.717	325.75
482.935	340.75
483.153	320.75
483.372	340.75
483.59	333.75
483.808	324.75
484.027	322.75
484.245	329.75
484.463	329.75
484.681	350.75
484.9	326.75
485.118	350.75
485.336	330.75
485.554	345.75
485.772	351.75
485.99	342.75
486.209	340.75
486.427	359.75
486.645	347.75
486.863	364.75
487.081	360.75
487.299	368.75
487.517	378.75
487.735	357.75
487.953	349.75
488.171	364.75
488.389	359.75
488.607	373.75
488.825	360.75
489.043	352.75
489.261	377.75
489.479	342.75
489.696	361.75
489.914	363.75
490.132	376.75
490.35	365.75
490.568	380.75
490.786	396.75
491.003	407.75
491.221	389.75
491.439	405.75
491.657	406.75
491.874	397.75
492.092	408.75
492.31	415.75
492.527	396.75
492.745	424.75
492.963	436.75
493.18	427.75
493.398	428.75
493.615	430.75
493.833	416.75
494.05	430.75
494.268	419.75
494.485	416.75
494.703	409.75
494.92	438.75
495.138	409.75
495.355	450.75
495.573	452.75
495.79	427.75
496.008	428.75
496.225	412.75
496.442	424.75
496.66	428.75
496.877	434.75
497.094	418.75
497.312	414.75
497.529	438.75
497.746	445.75
497.963	423.75
498.181	436.75
498.398	461.75
498.615	445.75
498.832	464.75
499.049	470.75
499.267	470.75
499.484	454.75
499.701	500.75
499.918	493.75
500.135	505.75
500.352	516.75
500.569	536.75
500.786	526.75
501.003	537.75
501.22	531.75
501.437	537.75
501.654	528.75
501.871	491.75
502.088	490.75
502.305	484.75
