Data from 1982.PennyLincolnUp.Lamp.En5.5.200Scan.071819.P1_HRD10591_16-46-11-961.txt Node
Date: Thu Jul 18 16:46:11 EDT 2019
User: cochatt
Spectrometer: HR+D1059
Trigger mode: 1
Integration Time (sec): 1.000000E-1
Scans to average: 1
Electric dark correction enabled: true
Nonlinearity correction enabled: false
Boxcar width: 0
XAxis mode: Wavelengths
Number of Pixels in Spectrum: 2048
>>>>>Begin Spectral Data<<<<<
223.165	-9.19
223.4	-9.19
223.635	-9.19
223.869	-11.19
224.104	-22.19
224.338	-17.19
224.573	-15.19
224.808	-18.19
225.042	-9.19
225.277	1.81
225.511	2.81
225.746	-1.19
225.98	-0.19
226.215	7.81
226.449	13.81
226.683	22.81
226.918	24.81
227.152	29.81
227.387	35.81
227.621	25.81
227.856	36.81
228.09	48.81
228.324	37.81
228.559	55.81
228.793	63.81
229.027	68.81
229.262	97.81
229.496	95.81
229.73	104.81
229.964	117.81
230.199	104.81
230.433	97.81
230.667	105.81
230.901	104.81
231.136	94.81
231.37	80.81
231.604	108.81
231.838	96.81
232.072	102.81
232.306	108.81
232.541	102.81
232.775	101.81
233.009	107.81
233.243	118.81
233.477	104.81
233.711	106.81
233.945	88.81
234.179	97.81
234.413	107.81
234.647	104.81
234.881	116.81
235.115	88.81
235.349	117.81
235.583	104.81
235.817	104.81
236.051	115.81
236.285	100.81
236.519	99.81
236.753	110.81
236.987	128.81
237.221	145.81
237.455	167.81
237.689	157.81
237.922	117.81
238.156	111.81
238.39	110.81
238.624	97.81
238.858	111.81
239.091	112.81
239.325	95.81
239.559	99.81
239.793	107.81
240.027	110.81
240.26	116.81
240.494	129.81
240.728	118.81
240.961	114.81
241.195	108.81
241.429	114.81
241.662	115.81
241.896	114.81
242.13	107.81
242.363	107.81
242.597	115.81
242.83	128.81
243.064	117.81
243.298	112.81
243.531	108.81
243.765	118.81
243.998	110.81
244.232	124.81
244.465	126.81
244.699	122.81
244.932	112.81
245.166	107.81
245.399	123.81
245.633	126.81
245.866	131.81
246.099	129.81
246.333	135.81
246.566	125.81
246.8	130.81
247.033	124.81
247.266	148.81
247.5	124.81
247.733	124.81
247.966	138.81
248.2	132.81
248.433	133.81
248.666	139.81
248.899	159.81
249.133	167.81
249.366	166.81
249.599	162.81
249.832	144.81
250.066	132.81
250.299	154.81
250.532	136.81
250.765	155.81
250.998	177.81
251.231	182.81
251.465	166.81
251.698	156.81
251.931	150.81
252.164	154.81
252.397	169.81
252.63	156.81
252.863	148.81
253.096	178.81
253.329	176.81
253.562	156.81
253.795	176.81
254.028	183.81
254.261	171.81
254.494	195.81
254.727	209.81
254.96	213.81
255.193	198.81
255.426	196.81
255.659	189.81
255.892	182.81
256.124	177.81
256.357	187.81
256.59	169.81
256.823	174.81
257.056	171.81
257.289	162.81
257.521	170.81
257.754	159.81
257.987	171.81
258.22	181.81
258.452	177.81
258.685	167.81
258.918	179.81
259.151	167.81
259.383	181.81
259.616	170.81
259.849	159.81
260.081	170.81
260.314	190.81
260.547	210.81
260.779	196.81
261.012	167.81
261.244	182.81
261.477	172.81
261.71	169.81
261.942	171.81
262.175	185.81
262.407	185.81
262.64	164.81
262.872	174.81
263.105	160.81
263.337	179.81
263.57	161.81
263.802	160.81
264.035	159.81
264.267	168.81
264.499	188.81
264.732	192.81
264.964	171.81
265.197	159.81
265.429	182.81
265.661	181.81
265.894	171.81
266.126	171.81
266.358	158.81
266.591	182.81
266.823	198.81
267.055	180.81
267.287	173.81
267.52	176.81
267.752	167.81
267.984	169.81
268.216	183.81
268.448	182.81
268.681	170.81
268.913	218.81
269.145	208.81
269.377	218.81
269.609	231.81
269.841	211.81
270.073	216.81
270.306	229.81
270.538	242.81
270.77	243.81
271.002	236.81
271.234	216.81
271.466	236.81
271.698	235.81
271.93	253.81
272.162	252.81
272.394	252.81
272.626	242.81
272.858	195.81
273.09	213.81
273.322	210.81
273.553	214.81
273.785	201.81
274.017	205.81
274.249	208.81
274.481	202.81
274.713	207.81
274.945	207.81
275.176	210.81
275.408	205.81
275.64	211.81
275.872	196.81
276.104	218.81
276.335	186.81
276.567	214.81
276.799	207.81
277.031	228.81
277.262	244.81
277.494	247.81
277.726	224.81
277.957	220.81
278.189	217.81
278.421	222.81
278.652	224.81
278.884	199.81
279.115	200.81
279.347	199.81
279.579	200.81
279.81	223.81
280.042	190.81
280.273	195.81
280.505	196.81
280.736	199.81
280.968	199.81
281.199	195.81
281.431	208.81
281.662	206.81
281.894	207.81
282.125	235.81
282.356	215.81
282.588	230.81
282.819	230.81
283.051	222.81
283.282	212.81
283.513	200.81
283.745	210.81
283.976	204.81
284.207	215.81
284.439	211.81
284.67	209.81
284.901	210.81
285.132	196.81
285.364	204.81
285.595	199.81
285.826	216.81
286.057	193.81
286.288	213.81
286.52	211.81
286.751	213.81
286.982	215.81
287.213	204.81
287.444	199.81
287.675	224.81
287.906	226.81
288.138	234.81
288.369	219.81
288.6	213.81
288.831	231.81
289.062	212.81
289.293	209.81
289.524	217.81
289.755	236.81
289.986	218.81
290.217	227.81
290.448	207.81
290.679	214.81
290.91	211.81
291.141	224.81
291.371	225.81
291.602	223.81
291.833	228.81
292.064	232.81
292.295	211.81
292.526	203.81
292.757	222.81
292.987	204.81
293.218	218.81
293.449	220.81
293.68	236.81
293.91	231.81
294.141	204.81
294.372	207.81
294.603	213.81
294.833	214.81
295.064	198.81
295.295	215.81
295.525	215.81
295.756	215.81
295.987	239.81
296.217	246.81
296.448	260.81
296.679	215.81
296.909	215.81
297.14	219.81
297.37	221.81
297.601	228.81
297.831	219.81
298.062	230.81
298.292	221.81
298.523	223.81
298.753	242.81
298.984	239.81
299.214	225.81
299.445	238.81
299.675	216.81
299.905	250.81
300.136	233.81
300.366	234.81
300.597	232.81
300.827	238.81
301.057	245.81
301.288	236.81
301.518	250.81
301.748	258.81
301.979	236.81
302.209	231.81
302.439	233.81
302.669	254.81
302.9	244.81
303.13	248.81
303.36	258.81
303.59	240.81
303.82	256.81
304.051	252.81
304.281	245.81
304.511	240.81
304.741	239.81
304.971	229.81
305.201	247.81
305.431	244.81
305.661	239.81
305.891	246.81
306.121	249.81
306.352	253.81
306.582	247.81
306.812	258.81
307.042	262.81
307.272	253.81
307.502	257.81
307.731	246.81
307.961	260.81
308.191	244.81
308.421	252.81
308.651	258.81
308.881	248.81
309.111	239.81
309.341	265.81
309.571	258.81
309.8	279.81
310.03	272.81
310.26	289.81
310.49	283.81
310.72	314.81
310.949	321.81
311.179	315.81
311.409	277.81
311.639	265.81
311.868	262.81
312.098	297.81
312.328	305.81
312.557	302.81
312.787	329.81
313.017	299.81
313.246	308.81
313.476	309.81
313.706	260.81
313.935	284.81
314.165	281.81
314.394	294.81
314.624	313.81
314.853	291.81
315.083	306.81
315.312	287.81
315.542	283.81
315.771	267.81
316.001	292.81
316.23	278.81
316.46	278.81
316.689	291.81
316.919	282.81
317.148	306.81
317.377	310.81
317.607	304.81
317.836	288.81
318.065	295.81
318.295	293.81
318.524	282.81
318.753	281.81
318.983	287.81
319.212	283.81
319.441	312.81
319.67	285.81
319.9	290.81
320.129	294.81
320.358	286.81
320.587	286.81
320.816	291.81
321.046	293.81
321.275	311.81
321.504	290.81
321.733	302.81
321.962	321.81
322.191	330.81
322.42	322.81
322.649	354.81
322.878	377.81
323.108	354.81
323.337	386.81
323.566	392.81
323.795	432.81
324.024	474.81
324.253	611.81
324.482	870.81
324.71	1306.81
324.939	1695.81
325.168	1385.81
325.397	740.81
325.626	481.81
325.855	435.81
326.084	397.81
326.313	382.81
326.542	387.81
326.77	427.81
326.999	571.81
327.228	781.81
327.457	1102.81
327.686	1233.81
327.914	810.81
328.143	562.81
328.372	462.81
328.6	442.81
328.829	415.81
329.058	448.81
329.287	439.81
329.515	408.81
329.744	394.81
329.972	391.81
330.201	407.81
330.43	456.81
330.658	460.81
330.887	455.81
331.115	452.81
331.344	388.81
331.572	385.81
331.801	371.81
332.03	378.81
332.258	358.81
332.486	347.81
332.715	352.81
332.943	341.81
333.172	338.81
333.4	335.81
333.629	363.81
333.857	329.81
334.085	355.81
334.314	374.81
334.542	372.81
334.771	396.81
334.999	360.81
335.227	350.81
335.455	339.81
335.684	339.81
335.912	324.81
336.14	316.81
336.369	330.81
336.597	326.81
336.825	323.81
337.053	342.81
337.281	334.81
337.51	335.81
337.738	345.81
337.966	328.81
338.194	329.81
338.422	335.81
338.65	327.81
338.878	311.81
339.106	323.81
339.334	316.81
339.562	302.81
339.79	319.81
340.018	288.81
340.246	315.81
340.474	331.81
340.702	324.81
340.93	317.81
341.158	286.81
341.386	299.81
341.614	309.81
341.842	322.81
342.07	322.81
342.298	297.81
342.526	314.81
342.754	311.81
342.981	298.81
343.209	300.81
343.437	322.81
343.665	316.81
343.893	307.81
344.12	320.81
344.348	294.81
344.576	315.81
344.804	312.81
345.031	331.81
345.259	319.81
345.487	321.81
345.714	326.81
345.942	301.81
346.17	317.81
346.397	328.81
346.625	311.81
346.853	307.81
347.08	302.81
347.308	315.81
347.535	326.81
347.763	314.81
347.99	310.81
348.218	342.81
348.445	319.81
348.673	309.81
348.9	299.81
349.128	280.81
349.355	310.81
349.583	312.81
349.81	300.81
350.037	291.81
350.265	281.81
350.492	281.81
350.72	289.81
350.947	299.81
351.174	310.81
351.402	312.81
351.629	299.81
351.856	323.81
352.083	297.81
352.311	304.81
352.538	295.81
352.765	331.81
352.992	304.81
353.22	304.81
353.447	309.81
353.674	312.81
353.901	312.81
354.128	288.81
354.355	262.81
354.583	283.81
354.81	288.81
355.037	285.81
355.264	260.81
355.491	278.81
355.718	253.81
355.945	272.81
356.172	295.81
356.399	278.81
356.626	278.81
356.853	281.81
357.08	271.81
357.307	264.81
357.534	260.81
357.761	279.81
357.988	287.81
358.215	282.81
358.441	281.81
358.668	284.81
358.895	290.81
359.122	279.81
359.349	283.81
359.576	301.81
359.802	331.81
360.029	350.81
360.256	324.81
360.483	327.81
360.709	327.81
360.936	303.81
361.163	299.81
361.39	322.81
361.616	288.81
361.843	289.81
362.07	297.81
362.296	318.81
362.523	300.81
362.749	294.81
362.976	298.81
363.203	311.81
363.429	278.81
363.656	297.81
363.882	290.81
364.109	281.81
364.335	270.81
364.562	269.81
364.788	272.81
365.015	290.81
365.241	276.81
365.468	290.81
365.694	282.81
365.92	289.81
366.147	271.81
366.373	285.81
366.599	267.81
366.826	274.81
367.052	274.81
367.278	278.81
367.505	260.81
367.731	266.81
367.957	276.81
368.184	279.81
368.41	281.81
368.636	279.81
368.862	288.81
369.089	280.81
369.315	280.81
369.541	283.81
369.767	287.81
369.993	278.81
370.219	272.81
370.445	272.81
370.672	278.81
370.898	289.81
371.124	266.81
371.35	269.81
371.576	266.81
371.802	266.81
372.028	262.81
372.254	273.81
372.48	281.81
372.706	261.81
372.932	257.81
373.158	273.81
373.384	267.81
373.61	277.81
373.835	275.81
374.061	273.81
374.287	272.81
374.513	265.81
374.739	253.81
374.965	267.81
375.191	252.81
375.416	269.81
375.642	292.81
375.868	265.81
376.094	291.81
376.319	296.81
376.545	258.81
376.771	264.81
376.997	267.81
377.222	267.81
377.448	272.81
377.674	269.81
377.899	254.81
378.125	242.81
378.35	273.81
378.576	283.81
378.802	266.81
379.027	263.81
379.253	254.81
379.478	254.81
379.704	243.81
379.929	272.81
380.155	264.81
380.38	272.81
380.606	262.81
380.831	277.81
381.057	275.81
381.282	275.81
381.507	270.81
381.733	262.81
381.958	261.81
382.184	272.81
382.409	265.81
382.634	286.81
382.86	269.81
383.085	268.81
383.31	254.81
383.535	272.81
383.761	271.81
383.986	266.81
384.211	275.81
384.436	248.81
384.662	282.81
384.887	286.81
385.112	282.81
385.337	283.81
385.562	281.81
385.787	290.81
386.013	312.81
386.238	308.81
386.463	287.81
386.688	278.81
386.913	282.81
387.138	291.81
387.363	278.81
387.588	286.81
387.813	268.81
388.038	292.81
388.263	270.81
388.488	288.81
388.713	287.81
388.938	286.81
389.163	279.81
389.387	291.81
389.612	294.81
389.837	284.81
390.062	283.81
390.287	272.81
390.512	282.81
390.736	285.81
390.961	293.81
391.186	274.81
391.411	274.81
391.636	281.81
391.86	272.81
392.085	283.81
392.31	289.81
392.534	277.81
392.759	267.81
392.984	285.81
393.208	277.81
393.433	270.81
393.658	281.81
393.882	273.81
394.107	283.81
394.331	282.81
394.556	286.81
394.78	286.81
395.005	267.81
395.229	285.81
395.454	288.81
395.678	306.81
395.903	284.81
396.127	308.81
396.352	308.81
396.576	319.81
396.801	299.81
397.025	296.81
397.249	290.81
397.474	314.81
397.698	282.81
397.922	297.81
398.147	316.81
398.371	308.81
398.595	336.81
398.82	322.81
399.044	315.81
399.268	328.81
399.492	306.81
399.717	327.81
399.941	370.81
400.165	368.81
400.389	370.81
400.613	371.81
400.837	326.81
401.062	315.81
401.286	310.81
401.51	312.81
401.734	291.81
401.958	306.81
402.182	305.81
402.406	318.81
402.63	328.81
402.854	315.81
403.078	324.81
403.302	321.81
403.526	316.81
403.75	323.81
403.974	318.81
404.198	302.81
404.422	324.81
404.645	326.81
404.869	338.81
405.093	357.81
405.317	379.81
405.541	388.81
405.765	372.81
405.988	345.81
406.212	338.81
406.436	371.81
406.66	375.81
406.883	355.81
407.107	370.81
407.331	368.81
407.555	417.81
407.778	431.81
408.002	377.81
408.226	352.81
408.449	353.81
408.673	337.81
408.896	339.81
409.12	387.81
409.344	368.81
409.567	334.81
409.791	322.81
410.014	312.81
410.238	342.81
410.461	326.81
410.685	332.81
410.908	344.81
411.132	354.81
411.355	359.81
411.578	366.81
411.802	338.81
412.025	330.81
412.249	338.81
412.472	353.81
412.695	352.81
412.919	345.81
413.142	310.81
413.365	309.81
413.589	297.81
413.812	307.81
414.035	315.81
414.258	313.81
414.482	313.81
414.705	306.81
414.928	298.81
415.151	319.81
415.374	306.81
415.597	306.81
415.821	291.81
416.044	308.81
416.267	315.81
416.49	280.81
416.713	286.81
416.936	286.81
417.159	297.81
417.382	299.81
417.605	313.81
417.828	333.81
418.051	335.81
418.274	305.81
418.497	294.81
418.72	307.81
418.943	310.81
419.166	306.81
419.389	326.81
419.611	326.81
419.834	304.81
420.057	331.81
420.28	330.81
420.503	317.81
420.726	311.81
420.948	308.81
421.171	346.81
421.394	360.81
421.617	316.81
421.839	324.81
422.062	311.81
422.285	345.81
422.507	367.81
422.73	409.81
422.953	382.81
423.175	349.81
423.398	332.81
423.621	342.81
423.843	338.81
424.066	320.81
424.288	345.81
424.511	352.81
424.733	380.81
424.956	456.81
425.178	428.81
425.401	416.81
425.623	444.81
425.846	382.81
426.068	354.81
426.291	344.81
426.513	343.81
426.735	347.81
426.958	375.81
427.18	416.81
427.402	514.81
427.625	549.81
427.847	494.81
428.069	428.81
428.292	363.81
428.514	334.81
428.736	331.81
428.958	312.81
429.181	321.81
429.403	338.81
429.625	327.81
429.847	344.81
430.069	375.81
430.292	380.81
430.514	332.81
430.736	316.81
430.958	316.81
431.18	303.81
431.402	302.81
431.624	298.81
431.846	282.81
432.068	302.81
432.29	299.81
432.512	290.81
432.734	310.81
432.956	308.81
433.178	292.81
433.4	323.81
433.622	321.81
433.844	307.81
434.066	298.81
434.287	302.81
434.509	293.81
434.731	307.81
434.953	318.81
435.175	311.81
435.397	341.81
435.618	337.81
435.84	356.81
436.062	425.81
436.284	474.81
436.505	389.81
436.727	352.81
436.949	331.81
437.17	310.81
437.392	320.81
437.614	325.81
437.835	374.81
438.057	442.81
438.278	470.81
438.5	454.81
438.721	516.81
438.943	473.81
439.165	379.81
439.386	352.81
439.608	359.81
439.829	368.81
440.05	364.81
440.272	419.81
440.493	390.81
440.715	355.81
440.936	323.81
441.158	342.81
441.379	306.81
441.6	325.81
441.822	338.81
442.043	371.81
442.264	425.81
442.486	430.81
442.707	380.81
442.928	366.81
443.149	344.81
443.371	364.81
443.592	404.81
443.813	438.81
444.034	472.81
444.255	399.81
444.476	367.81
444.698	362.81
444.919	346.81
445.14	421.81
445.361	395.81
445.582	381.81
445.803	419.81
446.024	484.81
446.245	498.81
446.466	444.81
446.687	380.81
446.908	353.81
447.129	326.81
447.35	322.81
447.571	318.81
447.792	314.81
448.013	324.81
448.234	335.81
448.455	376.81
448.675	443.81
448.896	485.81
449.117	443.81
449.338	421.81
449.559	478.81
449.779	531.81
450	446.81
450.221	359.81
450.442	332.81
450.662	329.81
450.883	338.81
451.104	347.81
451.324	338.81
451.545	320.81
451.766	289.81
451.986	324.81
452.207	293.81
452.428	281.81
452.648	277.81
452.869	280.81
453.089	294.81
453.31	303.81
453.53	292.81
453.751	292.81
453.971	302.81
454.192	303.81
454.412	292.81
454.633	285.81
454.853	291.81
455.073	300.81
455.294	316.81
455.514	361.81
455.734	323.81
455.955	292.81
456.175	266.81
456.395	280.81
456.616	283.81
456.836	275.81
457.056	260.81
457.276	268.81
457.497	272.81
457.717	273.81
457.937	260.81
458.157	274.81
458.377	287.81
458.598	305.81
458.818	338.81
459.038	389.81
459.258	400.81
459.478	337.81
459.698	323.81
459.918	311.81
460.138	298.81
460.358	306.81
460.578	290.81
460.798	305.81
461.018	296.81
461.238	289.81
461.458	325.81
461.678	304.81
461.898	302.81
462.118	294.81
462.338	294.81
462.558	287.81
462.777	302.81
462.997	315.81
463.217	318.81
463.437	329.81
463.657	324.81
463.876	304.81
464.096	305.81
464.316	296.81
464.536	322.81
464.755	319.81
464.975	338.81
465.195	348.81
465.414	378.81
465.634	359.81
465.854	304.81
466.073	305.81
466.293	302.81
466.512	274.81
466.732	294.81
466.951	297.81
467.171	267.81
467.391	295.81
467.61	300.81
467.829	309.81
468.049	314.81
468.268	305.81
468.488	282.81
468.707	290.81
468.927	282.81
469.146	278.81
469.365	273.81
469.585	281.81
469.804	302.81
470.023	294.81
470.243	296.81
470.462	293.81
470.681	322.81
470.901	319.81
471.12	301.81
471.339	300.81
471.558	286.81
471.777	297.81
471.997	286.81
472.216	303.81
472.435	317.81
472.654	314.81
472.873	300.81
473.092	292.81
473.311	300.81
473.53	302.81
473.749	319.81
473.968	323.81
474.187	408.81
474.406	395.81
474.625	333.81
474.844	304.81
475.063	296.81
475.282	302.81
475.501	296.81
475.72	293.81
475.939	306.81
476.158	321.81
476.377	299.81
476.596	312.81
476.814	295.81
477.033	313.81
477.252	325.81
477.471	314.81
477.69	309.81
477.908	316.81
478.127	314.81
478.346	330.81
478.564	330.81
478.783	310.81
479.002	334.81
479.22	343.81
479.439	333.81
479.658	358.81
479.876	366.81
480.095	340.81
480.313	363.81
480.532	353.81
480.751	344.81
480.969	348.81
481.188	404.81
481.406	425.81
481.624	379.81
481.843	351.81
482.061	361.81
482.28	357.81
482.498	350.81
482.717	340.81
482.935	339.81
483.153	345.81
483.372	345.81
483.59	338.81
483.808	339.81
484.027	366.81
484.245	338.81
484.463	357.81
484.681	345.81
484.9	348.81
485.118	354.81
485.336	338.81
485.554	348.81
485.772	363.81
485.99	356.81
486.209	358.81
486.427	370.81
486.645	353.81
486.863	368.81
487.081	390.81
487.299	393.81
487.517	345.81
487.735	369.81
487.953	388.81
488.171	375.81
488.389	369.81
488.607	354.81
488.825	365.81
489.043	372.81
489.261	378.81
489.479	378.81
489.696	367.81
489.914	374.81
490.132	380.81
490.35	373.81
490.568	390.81
490.786	373.81
491.003	383.81
491.221	391.81
491.439	424.81
491.657	406.81
491.874	416.81
492.092	417.81
492.31	414.81
492.527	426.81
492.745	443.81
492.963	432.81
493.18	430.81
493.398	444.81
493.615	441.81
493.833	415.81
494.05	410.81
494.268	425.81
494.485	423.81
494.703	435.81
494.92	427.81
495.138	456.81
495.355	436.81
495.573	441.81
495.79	423.81
496.008	418.81
496.225	414.81
496.442	424.81
496.66	424.81
496.877	418.81
497.094	423.81
497.312	433.81
497.529	428.81
497.746	453.81
497.963	446.81
498.181	458.81
498.398	471.81
498.615	472.81
498.832	441.81
499.049	464.81
499.267	484.81
499.484	489.81
499.701	502.81
499.918	482.81
500.135	507.81
500.352	546.81
500.569	529.81
500.786	536.81
501.003	530.81
501.22	518.81
501.437	535.81
501.654	507.81
501.871	515.81
502.088	492.81
