Data from 1982.PennyLincolnUp.Lamp.En5.5.200Scan.071819.P1_HRD10591_16-47-44-962.txt Node
Date: Thu Jul 18 16:47:44 EDT 2019
User: cochatt
Spectrometer: HR+D1059
Trigger mode: 1
Integration Time (sec): 1.000000E-1
Scans to average: 1
Electric dark correction enabled: true
Nonlinearity correction enabled: false
Boxcar width: 0
XAxis mode: Wavelengths
Number of Pixels in Spectrum: 2048
>>>>>Begin Spectral Data<<<<<
223.165	-20.94
223.4	-20.94
223.635	-20.94
223.869	-20.94
224.104	-16.94
224.338	-16.94
224.573	-1.94
224.808	-20.94
225.042	-12.94
225.277	-0.94
225.511	-14.94
225.746	-7.94
225.98	21.06
226.215	7.06
226.449	26.06
226.683	20.06
226.918	18.06
227.152	43.06
227.387	34.06
227.621	48.06
227.856	51.06
228.09	61.06
228.324	59.06
228.559	65.06
228.793	75.06
229.027	86.06
229.262	92.06
229.496	101.06
229.73	118.06
229.964	128.06
230.199	106.06
230.433	110.06
230.667	108.06
230.901	95.06
231.136	104.06
231.37	99.06
231.604	95.06
231.838	108.06
232.072	104.06
232.306	94.06
232.541	112.06
232.775	101.06
233.009	103.06
233.243	95.06
233.477	97.06
233.711	108.06
233.945	105.06
234.179	122.06
234.413	109.06
234.647	104.06
234.881	111.06
235.115	109.06
235.349	123.06
235.583	107.06
235.817	116.06
236.051	109.06
236.285	125.06
236.519	129.06
236.753	111.06
236.987	127.06
237.221	149.06
237.455	181.06
237.689	150.06
237.922	127.06
238.156	119.06
238.39	114.06
238.624	124.06
238.858	111.06
239.091	97.06
239.325	110.06
239.559	115.06
239.793	119.06
240.027	124.06
240.26	119.06
240.494	143.06
240.728	127.06
240.961	122.06
241.195	127.06
241.429	124.06
241.662	125.06
241.896	126.06
242.13	125.06
242.363	111.06
242.597	123.06
242.83	115.06
243.064	129.06
243.298	127.06
243.531	127.06
243.765	126.06
243.998	131.06
244.232	126.06
244.465	130.06
244.699	134.06
244.932	134.06
245.166	121.06
245.399	127.06
245.633	121.06
245.866	127.06
246.099	127.06
246.333	141.06
246.566	137.06
246.8	135.06
247.033	133.06
247.266	138.06
247.5	142.06
247.733	152.06
247.966	156.06
248.2	150.06
248.433	139.06
248.666	141.06
248.899	159.06
249.133	174.06
249.366	168.06
249.599	175.06
249.832	141.06
250.066	166.06
250.299	149.06
250.532	159.06
250.765	176.06
250.998	172.06
251.231	181.06
251.465	169.06
251.698	184.06
251.931	168.06
252.164	167.06
252.397	163.06
252.63	171.06
252.863	183.06
253.096	189.06
253.329	190.06
253.562	198.06
253.795	191.06
254.028	199.06
254.261	195.06
254.494	191.06
254.727	228.06
254.96	230.06
255.193	214.06
255.426	221.06
255.659	200.06
255.892	203.06
256.124	203.06
256.357	187.06
256.59	194.06
256.823	178.06
257.056	180.06
257.289	182.06
257.521	186.06
257.754	179.06
257.987	189.06
258.22	177.06
258.452	182.06
258.685	183.06
258.918	163.06
259.151	167.06
259.383	168.06
259.616	176.06
259.849	202.06
260.081	200.06
260.314	234.06
260.547	220.06
260.779	209.06
261.012	195.06
261.244	191.06
261.477	187.06
261.71	169.06
261.942	188.06
262.175	204.06
262.407	199.06
262.64	199.06
262.872	177.06
263.105	183.06
263.337	165.06
263.57	187.06
263.802	172.06
264.035	176.06
264.267	187.06
264.499	169.06
264.732	185.06
264.964	180.06
265.197	181.06
265.429	181.06
265.661	181.06
265.894	172.06
266.126	177.06
266.358	176.06
266.591	189.06
266.823	194.06
267.055	192.06
267.287	214.06
267.52	179.06
267.752	181.06
267.984	198.06
268.216	194.06
268.448	200.06
268.681	193.06
268.913	197.06
269.145	203.06
269.377	232.06
269.609	232.06
269.841	221.06
270.073	229.06
270.306	243.06
270.538	279.06
270.77	240.06
271.002	220.06
271.234	259.06
271.466	248.06
271.698	269.06
271.93	248.06
272.162	265.06
272.394	277.06
272.626	252.06
272.858	257.06
273.09	243.06
273.322	217.06
273.553	197.06
273.785	207.06
274.017	221.06
274.249	229.06
274.481	223.06
274.713	230.06
274.945	202.06
275.176	221.06
275.408	217.06
275.64	222.06
275.872	207.06
276.104	228.06
276.335	221.06
276.567	230.06
276.799	225.06
277.031	251.06
277.262	259.06
277.494	266.06
277.726	257.06
277.957	229.06
278.189	244.06
278.421	241.06
278.652	229.06
278.884	240.06
279.115	219.06
279.347	220.06
279.579	205.06
279.81	215.06
280.042	206.06
280.273	201.06
280.505	213.06
280.736	209.06
280.968	214.06
281.199	215.06
281.431	216.06
281.662	212.06
281.894	210.06
282.125	232.06
282.356	237.06
282.588	240.06
282.819	254.06
283.051	221.06
283.282	222.06
283.513	233.06
283.745	217.06
283.976	229.06
284.207	222.06
284.439	223.06
284.67	220.06
284.901	227.06
285.132	226.06
285.364	221.06
285.595	247.06
285.826	233.06
286.057	239.06
286.288	238.06
286.52	231.06
286.751	243.06
286.982	229.06
287.213	232.06
287.444	229.06
287.675	235.06
287.906	242.06
288.138	240.06
288.369	248.06
288.6	259.06
288.831	235.06
289.062	223.06
289.293	227.06
289.524	228.06
289.755	233.06
289.986	229.06
290.217	244.06
290.448	231.06
290.679	243.06
290.91	223.06
291.141	222.06
291.371	236.06
291.602	228.06
291.833	225.06
292.064	221.06
292.295	254.06
292.526	249.06
292.757	218.06
292.987	238.06
293.218	236.06
293.449	247.06
293.68	233.06
293.91	223.06
294.141	234.06
294.372	233.06
294.603	231.06
294.833	220.06
295.064	234.06
295.295	230.06
295.525	236.06
295.756	245.06
295.987	257.06
296.217	286.06
296.448	262.06
296.679	245.06
296.909	245.06
297.14	251.06
297.37	244.06
297.601	238.06
297.831	233.06
298.062	245.06
298.292	235.06
298.523	247.06
298.753	227.06
298.984	222.06
299.214	245.06
299.445	260.06
299.675	262.06
299.905	251.06
300.136	240.06
300.366	256.06
300.597	246.06
300.827	256.06
301.057	253.06
301.288	263.06
301.518	277.06
301.748	251.06
301.979	264.06
302.209	279.06
302.439	272.06
302.669	272.06
302.9	246.06
303.13	263.06
303.36	265.06
303.59	265.06
303.82	277.06
304.051	253.06
304.281	243.06
304.511	251.06
304.741	248.06
304.971	258.06
305.201	256.06
305.431	253.06
305.661	265.06
305.891	250.06
306.121	239.06
306.352	268.06
306.582	281.06
306.812	267.06
307.042	273.06
307.272	271.06
307.502	256.06
307.731	267.06
307.961	248.06
308.191	254.06
308.421	265.06
308.651	246.06
308.881	281.06
309.111	285.06
309.341	278.06
309.571	271.06
309.8	288.06
310.03	294.06
310.26	301.06
310.49	292.06
310.72	298.06
310.949	328.06
311.179	329.06
311.409	315.06
311.639	308.06
311.868	303.06
312.098	311.06
312.328	321.06
312.557	324.06
312.787	331.06
313.017	323.06
313.246	330.06
313.476	317.06
313.706	307.06
313.935	316.06
314.165	316.06
314.394	319.06
314.624	320.06
314.853	316.06
315.083	312.06
315.312	293.06
315.542	310.06
315.771	299.06
316.001	292.06
316.23	303.06
316.46	309.06
316.689	309.06
316.919	307.06
317.148	298.06
317.377	313.06
317.607	302.06
317.836	303.06
318.065	281.06
318.295	291.06
318.524	294.06
318.753	309.06
318.983	304.06
319.212	305.06
319.441	318.06
319.67	300.06
319.9	303.06
320.129	323.06
320.358	318.06
320.587	309.06
320.816	330.06
321.046	329.06
321.275	333.06
321.504	319.06
321.733	320.06
321.962	338.06
322.191	351.06
322.42	343.06
322.649	369.06
322.878	364.06
323.108	380.06
323.337	404.06
323.566	413.06
323.795	423.06
324.024	500.06
324.253	659.06
324.482	957.06
324.71	1390.06
324.939	1848.06
325.168	1542.06
325.397	815.06
325.626	550.06
325.855	462.06
326.084	420.06
326.313	413.06
326.542	424.06
326.77	487.06
326.999	605.06
327.228	823.06
327.457	1242.06
327.686	1357.06
327.914	901.06
328.143	574.06
328.372	523.06
328.6	499.06
328.829	474.06
329.058	483.06
329.287	481.06
329.515	459.06
329.744	416.06
329.972	429.06
330.201	433.06
330.43	468.06
330.658	495.06
330.887	519.06
331.115	478.06
331.344	424.06
331.572	393.06
331.801	390.06
332.03	410.06
332.258	380.06
332.486	364.06
332.715	359.06
332.943	368.06
333.172	360.06
333.4	366.06
333.629	371.06
333.857	376.06
334.085	375.06
334.314	393.06
334.542	414.06
334.771	421.06
334.999	376.06
335.227	362.06
335.455	367.06
335.684	364.06
335.912	336.06
336.14	348.06
336.369	335.06
336.597	350.06
336.825	331.06
337.053	332.06
337.281	336.06
337.51	331.06
337.738	343.06
337.966	357.06
338.194	342.06
338.422	326.06
338.65	333.06
338.878	327.06
339.106	332.06
339.334	341.06
339.562	318.06
339.79	333.06
340.018	337.06
340.246	337.06
340.474	361.06
340.702	319.06
340.93	338.06
341.158	357.06
341.386	343.06
341.614	341.06
341.842	353.06
342.07	337.06
342.298	336.06
342.526	330.06
342.754	313.06
342.981	290.06
343.209	322.06
343.437	333.06
343.665	321.06
343.893	343.06
344.12	328.06
344.348	334.06
344.576	324.06
344.804	340.06
345.031	353.06
345.259	337.06
345.487	345.06
345.714	342.06
345.942	331.06
346.17	335.06
346.397	314.06
346.625	334.06
346.853	314.06
347.08	322.06
347.308	310.06
347.535	325.06
347.763	347.06
347.99	330.06
348.218	328.06
348.445	341.06
348.673	329.06
348.9	328.06
349.128	312.06
349.355	302.06
349.583	315.06
349.81	309.06
350.037	315.06
350.265	313.06
350.492	297.06
350.72	302.06
350.947	303.06
351.174	327.06
351.402	342.06
351.629	325.06
351.856	339.06
352.083	335.06
352.311	341.06
352.538	326.06
352.765	323.06
352.992	333.06
353.22	313.06
353.447	321.06
353.674	313.06
353.901	305.06
354.128	287.06
354.355	297.06
354.583	280.06
354.81	303.06
355.037	299.06
355.264	283.06
355.491	291.06
355.718	295.06
355.945	297.06
356.172	300.06
356.399	290.06
356.626	296.06
356.853	289.06
357.08	290.06
357.307	278.06
357.534	296.06
357.761	289.06
357.988	313.06
358.215	299.06
358.441	305.06
358.668	287.06
358.895	306.06
359.122	287.06
359.349	316.06
359.576	299.06
359.802	334.06
360.029	359.06
360.256	363.06
360.483	333.06
360.709	328.06
360.936	309.06
361.163	320.06
361.39	328.06
361.616	310.06
361.843	317.06
362.07	315.06
362.296	313.06
362.523	309.06
362.749	324.06
362.976	310.06
363.203	307.06
363.429	308.06
363.656	314.06
363.882	294.06
364.109	297.06
364.335	304.06
364.562	302.06
364.788	288.06
365.015	286.06
365.241	299.06
365.468	307.06
365.694	315.06
365.92	300.06
366.147	295.06
366.373	301.06
366.599	284.06
366.826	272.06
367.052	276.06
367.278	284.06
367.505	298.06
367.731	296.06
367.957	283.06
368.184	300.06
368.41	293.06
368.636	332.06
368.862	303.06
369.089	303.06
369.315	307.06
369.541	287.06
369.767	289.06
369.993	303.06
370.219	298.06
370.445	292.06
370.672	277.06
370.898	273.06
371.124	304.06
371.35	268.06
371.576	297.06
371.802	269.06
372.028	290.06
372.254	290.06
372.48	288.06
372.706	271.06
372.932	300.06
373.158	298.06
373.384	275.06
373.61	297.06
373.835	299.06
374.061	280.06
374.287	289.06
374.513	293.06
374.739	305.06
374.965	288.06
375.191	281.06
375.416	302.06
375.642	281.06
375.868	298.06
376.094	281.06
376.319	293.06
376.545	283.06
376.771	291.06
376.997	271.06
377.222	282.06
377.448	274.06
377.674	273.06
377.899	274.06
378.125	266.06
378.35	276.06
378.576	270.06
378.802	267.06
379.027	291.06
379.253	278.06
379.478	259.06
379.704	265.06
379.929	245.06
380.155	268.06
380.38	270.06
380.606	280.06
380.831	279.06
381.057	280.06
381.282	295.06
381.507	294.06
381.733	277.06
381.958	294.06
382.184	284.06
382.409	281.06
382.634	285.06
382.86	282.06
383.085	295.06
383.31	287.06
383.535	283.06
383.761	279.06
383.986	280.06
384.211	292.06
384.436	283.06
384.662	280.06
384.887	299.06
385.112	288.06
385.337	315.06
385.562	279.06
385.787	298.06
386.013	317.06
386.238	290.06
386.463	311.06
386.688	283.06
386.913	273.06
387.138	305.06
387.363	311.06
387.588	293.06
387.813	299.06
388.038	286.06
388.263	287.06
388.488	291.06
388.713	294.06
388.938	288.06
389.163	304.06
389.387	302.06
389.612	285.06
389.837	295.06
390.062	282.06
390.287	284.06
390.512	283.06
390.736	289.06
390.961	272.06
391.186	298.06
391.411	286.06
391.636	301.06
391.86	287.06
392.085	301.06
392.31	303.06
392.534	297.06
392.759	284.06
392.984	283.06
393.208	299.06
393.433	290.06
393.658	283.06
393.882	299.06
394.107	291.06
394.331	281.06
394.556	275.06
394.78	297.06
395.005	290.06
395.229	291.06
395.454	307.06
395.678	299.06
395.903	312.06
396.127	323.06
396.352	319.06
396.576	311.06
396.801	305.06
397.025	303.06
397.249	303.06
397.474	317.06
397.698	316.06
397.922	325.06
398.147	325.06
398.371	329.06
398.595	315.06
398.82	311.06
399.044	340.06
399.268	335.06
399.492	342.06
399.717	351.06
399.941	373.06
400.165	396.06
400.389	413.06
400.613	358.06
400.837	335.06
401.062	341.06
401.286	329.06
401.51	323.06
401.734	313.06
401.958	308.06
402.182	324.06
402.406	342.06
402.63	317.06
402.854	337.06
403.078	341.06
403.302	330.06
403.526	330.06
403.75	336.06
403.974	347.06
404.198	330.06
404.422	336.06
404.645	330.06
404.869	357.06
405.093	356.06
405.317	403.06
405.541	413.06
405.765	355.06
405.988	371.06
406.212	352.06
406.436	383.06
406.66	376.06
406.883	372.06
407.107	382.06
407.331	399.06
407.555	448.06
407.778	431.06
408.002	409.06
408.226	381.06
408.449	372.06
408.673	367.06
408.896	393.06
409.12	395.06
409.344	382.06
409.567	342.06
409.791	345.06
410.014	325.06
410.238	321.06
410.461	333.06
410.685	324.06
410.908	350.06
411.132	381.06
411.355	400.06
411.578	376.06
411.802	349.06
412.025	329.06
412.249	339.06
412.472	365.06
412.695	390.06
412.919	399.06
413.142	353.06
413.365	337.06
413.589	325.06
413.812	334.06
414.035	333.06
414.258	318.06
414.482	315.06
414.705	323.06
414.928	293.06
415.151	329.06
415.374	312.06
415.597	327.06
415.821	324.06
416.044	318.06
416.267	317.06
416.49	312.06
416.713	290.06
416.936	311.06
417.159	313.06
417.382	299.06
417.605	314.06
417.828	350.06
418.051	325.06
418.274	330.06
418.497	329.06
418.72	312.06
418.943	310.06
419.166	328.06
419.389	348.06
419.611	328.06
419.834	339.06
420.057	337.06
420.28	341.06
420.503	323.06
420.726	345.06
420.948	347.06
421.171	375.06
421.394	391.06
421.617	350.06
421.839	331.06
422.062	347.06
422.285	336.06
422.507	376.06
422.73	411.06
422.953	404.06
423.175	363.06
423.398	362.06
423.621	366.06
423.843	365.06
424.066	365.06
424.288	373.06
424.511	395.06
424.733	431.06
424.956	464.06
425.178	444.06
425.401	440.06
425.623	425.06
425.846	391.06
426.068	372.06
426.291	359.06
426.513	363.06
426.735	383.06
426.958	413.06
427.18	477.06
427.402	558.06
427.625	593.06
427.847	530.06
428.069	449.06
428.292	402.06
428.514	346.06
428.736	338.06
428.958	336.06
429.181	337.06
429.403	333.06
429.625	360.06
429.847	373.06
430.069	413.06
430.292	392.06
430.514	348.06
430.736	347.06
430.958	325.06
431.18	311.06
431.402	319.06
431.624	321.06
431.846	309.06
432.068	315.06
432.29	320.06
432.512	322.06
432.734	311.06
432.956	323.06
433.178	325.06
433.4	350.06
433.622	316.06
433.844	324.06
434.066	323.06
434.287	312.06
434.509	319.06
434.731	323.06
434.953	325.06
435.175	347.06
435.397	333.06
435.618	360.06
435.84	409.06
436.062	470.06
436.284	502.06
436.505	399.06
436.727	388.06
436.949	351.06
437.17	347.06
437.392	331.06
437.614	353.06
437.835	390.06
438.057	471.06
438.278	520.06
438.5	495.06
438.721	533.06
438.943	514.06
439.165	416.06
439.386	395.06
439.608	373.06
439.829	381.06
440.05	399.06
440.272	445.06
440.493	419.06
440.715	375.06
440.936	359.06
441.158	354.06
441.379	347.06
441.6	358.06
441.822	371.06
442.043	393.06
442.264	456.06
442.486	457.06
442.707	416.06
442.928	394.06
443.149	380.06
443.371	414.06
443.592	428.06
443.813	491.06
444.034	491.06
444.255	441.06
444.476	366.06
444.698	361.06
444.919	349.06
445.14	474.06
445.361	431.06
445.582	396.06
445.803	459.06
446.024	533.06
446.245	520.06
446.466	468.06
446.687	396.06
446.908	371.06
447.129	360.06
447.35	346.06
447.571	342.06
447.792	328.06
448.013	344.06
448.234	343.06
448.455	419.06
448.675	467.06
448.896	539.06
449.117	471.06
449.338	425.06
449.559	490.06
449.779	555.06
450	446.06
450.221	399.06
450.442	353.06
450.662	344.06
450.883	351.06
451.104	361.06
451.324	344.06
451.545	312.06
451.766	311.06
451.986	308.06
452.207	288.06
452.428	322.06
452.648	308.06
452.869	294.06
453.089	304.06
453.31	316.06
453.53	331.06
453.751	306.06
453.971	317.06
454.192	327.06
454.412	320.06
454.633	298.06
454.853	320.06
455.073	315.06
455.294	321.06
455.514	371.06
455.734	345.06
455.955	285.06
456.175	285.06
456.395	288.06
456.616	276.06
456.836	287.06
457.056	284.06
457.276	269.06
457.497	298.06
457.717	281.06
457.937	304.06
458.157	292.06
458.377	301.06
458.598	321.06
458.818	367.06
459.038	392.06
459.258	409.06
459.478	364.06
459.698	320.06
459.918	311.06
460.138	296.06
460.358	314.06
460.578	306.06
460.798	319.06
461.018	297.06
461.238	320.06
461.458	331.06
461.678	318.06
461.898	307.06
462.118	301.06
462.338	329.06
462.558	332.06
462.777	317.06
462.997	331.06
463.217	325.06
463.437	343.06
463.657	324.06
463.876	324.06
464.096	305.06
464.316	313.06
464.536	326.06
464.755	338.06
464.975	358.06
465.195	390.06
465.414	423.06
465.634	373.06
465.854	334.06
466.073	319.06
466.293	332.06
466.512	316.06
466.732	308.06
466.951	316.06
467.171	304.06
467.391	320.06
467.61	332.06
467.829	309.06
468.049	317.06
468.268	333.06
468.488	316.06
468.707	311.06
468.927	300.06
469.146	295.06
469.365	302.06
469.585	308.06
469.804	325.06
470.023	308.06
470.243	315.06
470.462	328.06
470.681	335.06
470.901	301.06
471.12	319.06
471.339	323.06
471.558	319.06
471.777	304.06
471.997	331.06
472.216	336.06
472.435	346.06
472.654	345.06
472.873	314.06
473.092	317.06
473.311	308.06
473.53	311.06
473.749	328.06
473.968	375.06
474.187	423.06
474.406	424.06
474.625	362.06
474.844	342.06
475.063	315.06
475.282	311.06
475.501	316.06
475.72	336.06
475.939	323.06
476.158	343.06
476.377	317.06
476.596	334.06
476.814	334.06
477.033	337.06
477.252	328.06
477.471	330.06
477.69	344.06
477.908	327.06
478.127	331.06
478.346	341.06
478.564	349.06
478.783	351.06
479.002	341.06
479.22	344.06
479.439	354.06
479.658	367.06
479.876	368.06
480.095	389.06
480.313	393.06
480.532	375.06
480.751	385.06
480.969	390.06
481.188	442.06
481.406	473.06
481.624	406.06
481.843	381.06
482.061	387.06
482.28	375.06
482.498	358.06
482.717	378.06
482.935	366.06
483.153	350.06
483.372	349.06
483.59	361.06
483.808	371.06
484.027	379.06
484.245	369.06
484.463	363.06
484.681	371.06
484.9	362.06
485.118	383.06
485.336	353.06
485.554	367.06
485.772	362.06
485.99	370.06
486.209	389.06
486.427	367.06
486.645	381.06
486.863	391.06
487.081	379.06
487.299	394.06
487.517	379.06
487.735	387.06
487.953	368.06
488.171	399.06
488.389	373.06
488.607	395.06
488.825	396.06
489.043	378.06
489.261	388.06
489.479	393.06
489.696	380.06
489.914	412.06
490.132	404.06
490.35	401.06
490.568	419.06
490.786	413.06
491.003	423.06
491.221	423.06
491.439	430.06
491.657	447.06
491.874	440.06
492.092	452.06
492.31	448.06
492.527	435.06
492.745	444.06
492.963	455.06
493.18	437.06
493.398	458.06
493.615	431.06
493.833	446.06
494.05	449.06
494.268	436.06
494.485	474.06
494.703	437.06
494.92	443.06
495.138	462.06
495.355	471.06
495.573	456.06
495.79	474.06
496.008	464.06
496.225	447.06
496.442	452.06
496.66	478.06
496.877	443.06
497.094	473.06
497.312	464.06
497.529	467.06
497.746	471.06
497.963	455.06
498.181	489.06
498.398	491.06
498.615	488.06
498.832	482.06
499.049	504.06
499.267	505.06
499.484	519.06
499.701	528.06
499.918	540.06
500.135	538.06
500.352	560.06
500.569	576.06
500.786	582.06
501.003	557.06
501.22	556.06
501.437	533.06
501.654	548.06
501.871	535.06
502.088	526.06
