Data from 1982.PennyLincolnUp.Lamp.En5.5.200Scan.071819.P1_HRD10591_16-44-44-960.txt Node
Date: Thu Jul 18 16:44:44 EDT 2019
User: cochatt
Spectrometer: HR+D1059
Trigger mode: 1
Integration Time (sec): 1.000000E-1
Scans to average: 1
Electric dark correction enabled: true
Nonlinearity correction enabled: false
Boxcar width: 0
XAxis mode: Wavelengths
Number of Pixels in Spectrum: 2048
>>>>>Begin Spectral Data<<<<<
223.165	1.69
223.4	1.69
223.635	1.69
223.869	-20.31
224.104	-22.31
224.338	-19.31
224.573	-15.31
224.808	-4.31
225.042	-11.31
225.277	-14.31
225.511	-12.31
225.746	7.69
225.98	2.69
226.215	11.69
226.449	17.69
226.683	18.69
226.918	25.69
227.152	33.69
227.387	26.69
227.621	36.69
227.856	47.69
228.09	31.69
228.324	37.69
228.559	67.69
228.793	67.69
229.027	79.69
229.262	74.69
229.496	70.69
229.73	99.69
229.964	105.69
230.199	105.69
230.433	83.69
230.667	96.69
230.901	100.69
231.136	90.69
231.37	92.69
231.604	102.69
231.838	96.69
232.072	109.69
232.306	94.69
232.541	92.69
232.775	96.69
233.009	109.69
233.243	102.69
233.477	104.69
233.711	92.69
233.945	82.69
234.179	84.69
234.413	99.69
234.647	90.69
234.881	103.69
235.115	95.69
235.349	90.69
235.583	94.69
235.817	104.69
236.051	104.69
236.285	91.69
236.519	102.69
236.753	97.69
236.987	112.69
237.221	115.69
237.455	120.69
237.689	125.69
237.922	110.69
238.156	107.69
238.39	104.69
238.624	89.69
238.858	100.69
239.091	99.69
239.325	98.69
239.559	103.69
239.793	109.69
240.027	95.69
240.26	103.69
240.494	105.69
240.728	117.69
240.961	116.69
241.195	106.69
241.429	108.69
241.662	101.69
241.896	104.69
242.13	98.69
242.363	112.69
242.597	101.69
242.83	105.69
243.064	100.69
243.298	108.69
243.531	115.69
243.765	100.69
243.998	112.69
244.232	104.69
244.465	104.69
244.699	111.69
244.932	126.69
245.166	110.69
245.399	124.69
245.633	109.69
245.866	103.69
246.099	103.69
246.333	117.69
246.566	120.69
246.8	123.69
247.033	130.69
247.266	118.69
247.5	134.69
247.733	121.69
247.966	114.69
248.2	119.69
248.433	132.69
248.666	114.69
248.899	126.69
249.133	134.69
249.366	129.69
249.599	121.69
249.832	145.69
250.066	132.69
250.299	126.69
250.532	130.69
250.765	133.69
250.998	138.69
251.231	142.69
251.465	145.69
251.698	149.69
251.931	130.69
252.164	134.69
252.397	144.69
252.63	144.69
252.863	130.69
253.096	138.69
253.329	146.69
253.562	144.69
253.795	160.69
254.028	149.69
254.261	143.69
254.494	152.69
254.727	154.69
254.96	176.69
255.193	168.69
255.426	143.69
255.659	148.69
255.892	156.69
256.124	138.69
256.357	144.69
256.59	142.69
256.823	148.69
257.056	128.69
257.289	146.69
257.521	134.69
257.754	133.69
257.987	142.69
258.22	124.69
258.452	143.69
258.685	136.69
258.918	140.69
259.151	144.69
259.383	142.69
259.616	138.69
259.849	137.69
260.081	147.69
260.314	152.69
260.547	147.69
260.779	153.69
261.012	162.69
261.244	144.69
261.477	142.69
261.71	157.69
261.942	146.69
262.175	145.69
262.407	154.69
262.64	158.69
262.872	143.69
263.105	131.69
263.337	149.69
263.57	144.69
263.802	148.69
264.035	131.69
264.267	135.69
264.499	160.69
264.732	149.69
264.964	144.69
265.197	162.69
265.429	143.69
265.661	150.69
265.894	148.69
266.126	150.69
266.358	148.69
266.591	144.69
266.823	135.69
267.055	150.69
267.287	158.69
267.52	144.69
267.752	160.69
267.984	165.69
268.216	142.69
268.448	163.69
268.681	157.69
268.913	154.69
269.145	169.69
269.377	168.69
269.609	172.69
269.841	179.69
270.073	184.69
270.306	180.69
270.538	190.69
270.77	189.69
271.002	194.69
271.234	163.69
271.466	177.69
271.698	188.69
271.93	192.69
272.162	201.69
272.394	199.69
272.626	185.69
272.858	173.69
273.09	193.69
273.322	173.69
273.553	168.69
273.785	162.69
274.017	178.69
274.249	172.69
274.481	171.69
274.713	173.69
274.945	156.69
275.176	177.69
275.408	164.69
275.64	171.69
275.872	165.69
276.104	161.69
276.335	174.69
276.567	180.69
276.799	186.69
277.031	171.69
277.262	188.69
277.494	183.69
277.726	178.69
277.957	196.69
278.189	176.69
278.421	174.69
278.652	182.69
278.884	172.69
279.115	182.69
279.347	184.69
279.579	182.69
279.81	181.69
280.042	178.69
280.273	169.69
280.505	188.69
280.736	170.69
280.968	184.69
281.199	172.69
281.431	154.69
281.662	172.69
281.894	172.69
282.125	184.69
282.356	184.69
282.588	192.69
282.819	198.69
283.051	183.69
283.282	171.69
283.513	183.69
283.745	182.69
283.976	173.69
284.207	189.69
284.439	179.69
284.67	170.69
284.901	164.69
285.132	184.69
285.364	151.69
285.595	174.69
285.826	167.69
286.057	181.69
286.288	171.69
286.52	182.69
286.751	172.69
286.982	196.69
287.213	194.69
287.444	188.69
287.675	186.69
287.906	184.69
288.138	192.69
288.369	192.69
288.6	203.69
288.831	190.69
289.062	180.69
289.293	164.69
289.524	174.69
289.755	188.69
289.986	168.69
290.217	209.69
290.448	180.69
290.679	176.69
290.91	166.69
291.141	199.69
291.371	173.69
291.602	185.69
291.833	196.69
292.064	183.69
292.295	186.69
292.526	178.69
292.757	182.69
292.987	178.69
293.218	188.69
293.449	172.69
293.68	171.69
293.91	170.69
294.141	189.69
294.372	190.69
294.603	197.69
294.833	197.69
295.064	182.69
295.295	178.69
295.525	183.69
295.756	179.69
295.987	196.69
296.217	186.69
296.448	191.69
296.679	190.69
296.909	167.69
297.14	188.69
297.37	182.69
297.601	204.69
297.831	191.69
298.062	175.69
298.292	188.69
298.523	188.69
298.753	186.69
298.984	174.69
299.214	200.69
299.445	184.69
299.675	208.69
299.905	172.69
300.136	186.69
300.366	181.69
300.597	191.69
300.827	202.69
301.057	204.69
301.288	189.69
301.518	201.69
301.748	202.69
301.979	205.69
302.209	212.69
302.439	206.69
302.669	189.69
302.9	196.69
303.13	200.69
303.36	204.69
303.59	213.69
303.82	206.69
304.051	205.69
304.281	203.69
304.511	202.69
304.741	201.69
304.971	220.69
305.201	194.69
305.431	199.69
305.661	188.69
305.891	202.69
306.121	211.69
306.352	212.69
306.582	207.69
306.812	200.69
307.042	215.69
307.272	190.69
307.502	199.69
307.731	204.69
307.961	213.69
308.191	206.69
308.421	199.69
308.651	212.69
308.881	215.69
309.111	215.69
309.341	215.69
309.571	207.69
309.8	215.69
310.03	190.69
310.26	209.69
310.49	214.69
310.72	222.69
310.949	224.69
311.179	229.69
311.409	226.69
311.639	220.69
311.868	206.69
312.098	222.69
312.328	220.69
312.557	219.69
312.787	231.69
313.017	222.69
313.246	208.69
313.476	220.69
313.706	211.69
313.935	219.69
314.165	226.69
314.394	215.69
314.624	223.69
314.853	222.69
315.083	207.69
315.312	233.69
315.542	211.69
315.771	218.69
316.001	230.69
316.23	226.69
316.46	224.69
316.689	225.69
316.919	221.69
317.148	229.69
317.377	229.69
317.607	212.69
317.836	229.69
318.065	220.69
318.295	218.69
318.524	227.69
318.753	252.69
318.983	235.69
319.212	235.69
319.441	230.69
319.67	224.69
319.9	219.69
320.129	218.69
320.358	245.69
320.587	242.69
320.816	234.69
321.046	231.69
321.275	229.69
321.504	238.69
321.733	228.69
321.962	249.69
322.191	259.69
322.42	247.69
322.649	268.69
322.878	260.69
323.108	261.69
323.337	280.69
323.566	286.69
323.795	286.69
324.024	307.69
324.253	372.69
324.482	498.69
324.71	717.69
324.939	943.69
325.168	744.69
325.397	437.69
325.626	315.69
325.855	270.69
326.084	289.69
326.313	259.69
326.542	260.69
326.77	306.69
326.999	339.69
327.228	459.69
327.457	624.69
327.686	692.69
327.914	480.69
328.143	335.69
328.372	318.69
328.6	288.69
328.829	291.69
329.058	287.69
329.287	313.69
329.515	290.69
329.744	259.69
329.972	281.69
330.201	268.69
330.43	295.69
330.658	307.69
330.887	318.69
331.115	300.69
331.344	282.69
331.572	278.69
331.801	266.69
332.03	279.69
332.258	258.69
332.486	257.69
332.715	246.69
332.943	265.69
333.172	252.69
333.4	257.69
333.629	254.69
333.857	270.69
334.085	263.69
334.314	257.69
334.542	263.69
334.771	269.69
334.999	279.69
335.227	275.69
335.455	267.69
335.684	242.69
335.912	271.69
336.14	251.69
336.369	257.69
336.597	247.69
336.825	261.69
337.053	251.69
337.281	237.69
337.51	231.69
337.738	260.69
337.966	238.69
338.194	239.69
338.422	250.69
338.65	254.69
338.878	246.69
339.106	255.69
339.334	230.69
339.562	250.69
339.79	262.69
340.018	250.69
340.246	260.69
340.474	241.69
340.702	262.69
340.93	249.69
341.158	263.69
341.386	257.69
341.614	255.69
341.842	253.69
342.07	236.69
342.298	240.69
342.526	233.69
342.754	226.69
342.981	237.69
343.209	240.69
343.437	241.69
343.665	232.69
343.893	242.69
344.12	237.69
344.348	247.69
344.576	264.69
344.804	251.69
345.031	242.69
345.259	252.69
345.487	238.69
345.714	259.69
345.942	249.69
346.17	239.69
346.397	237.69
346.625	245.69
346.853	243.69
347.08	245.69
347.308	248.69
347.535	251.69
347.763	239.69
347.99	242.69
348.218	251.69
348.445	250.69
348.673	246.69
348.9	245.69
349.128	245.69
349.355	258.69
349.583	249.69
349.81	246.69
350.037	228.69
350.265	227.69
350.492	245.69
350.72	229.69
350.947	245.69
351.174	218.69
351.402	245.69
351.629	229.69
351.856	245.69
352.083	245.69
352.311	266.69
352.538	259.69
352.765	245.69
352.992	250.69
353.22	237.69
353.447	233.69
353.674	233.69
353.901	240.69
354.128	242.69
354.355	224.69
354.583	242.69
354.81	238.69
355.037	222.69
355.264	227.69
355.491	222.69
355.718	217.69
355.945	240.69
356.172	233.69
356.399	233.69
356.626	228.69
356.853	228.69
357.08	249.69
357.307	230.69
357.534	234.69
357.761	232.69
357.988	223.69
358.215	237.69
358.441	227.69
358.668	222.69
358.895	225.69
359.122	232.69
359.349	232.69
359.576	249.69
359.802	250.69
360.029	269.69
360.256	246.69
360.483	242.69
360.709	232.69
360.936	240.69
361.163	226.69
361.39	235.69
361.616	215.69
361.843	239.69
362.07	224.69
362.296	244.69
362.523	248.69
362.749	243.69
362.976	224.69
363.203	246.69
363.429	233.69
363.656	230.69
363.882	218.69
364.109	233.69
364.335	250.69
364.562	221.69
364.788	228.69
365.015	234.69
365.241	221.69
365.468	238.69
365.694	225.69
365.92	227.69
366.147	244.69
366.373	235.69
366.599	222.69
366.826	225.69
367.052	219.69
367.278	231.69
367.505	232.69
367.731	227.69
367.957	231.69
368.184	231.69
368.41	233.69
368.636	235.69
368.862	230.69
369.089	233.69
369.315	242.69
369.541	214.69
369.767	226.69
369.993	242.69
370.219	209.69
370.445	223.69
370.672	231.69
370.898	216.69
371.124	221.69
371.35	223.69
371.576	222.69
371.802	209.69
372.028	230.69
372.254	225.69
372.48	239.69
372.706	223.69
372.932	238.69
373.158	230.69
373.384	213.69
373.61	233.69
373.835	221.69
374.061	227.69
374.287	250.69
374.513	216.69
374.739	232.69
374.965	233.69
375.191	228.69
375.416	239.69
375.642	236.69
375.868	228.69
376.094	222.69
376.319	237.69
376.545	232.69
376.771	220.69
376.997	222.69
377.222	221.69
377.448	226.69
377.674	234.69
377.899	226.69
378.125	230.69
378.35	230.69
378.576	226.69
378.802	250.69
379.027	231.69
379.253	232.69
379.478	203.69
379.704	221.69
379.929	245.69
380.155	232.69
380.38	231.69
380.606	226.69
380.831	222.69
381.057	225.69
381.282	230.69
381.507	239.69
381.733	227.69
381.958	223.69
382.184	228.69
382.409	230.69
382.634	231.69
382.86	231.69
383.085	242.69
383.31	236.69
383.535	237.69
383.761	230.69
383.986	242.69
384.211	215.69
384.436	211.69
384.662	226.69
384.887	239.69
385.112	247.69
385.337	245.69
385.562	238.69
385.787	244.69
386.013	262.69
386.238	243.69
386.463	262.69
386.688	237.69
386.913	233.69
387.138	243.69
387.363	226.69
387.588	242.69
387.813	253.69
388.038	235.69
388.263	229.69
388.488	232.69
388.713	238.69
388.938	237.69
389.163	250.69
389.387	244.69
389.612	243.69
389.837	252.69
390.062	242.69
390.287	247.69
390.512	258.69
390.736	234.69
390.961	232.69
391.186	231.69
391.411	242.69
391.636	242.69
391.86	252.69
392.085	246.69
392.31	254.69
392.534	236.69
392.759	245.69
392.984	242.69
393.208	238.69
393.433	239.69
393.658	240.69
393.882	236.69
394.107	228.69
394.331	224.69
394.556	222.69
394.78	251.69
395.005	238.69
395.229	219.69
395.454	256.69
395.678	230.69
395.903	254.69
396.127	266.69
396.352	263.69
396.576	270.69
396.801	256.69
397.025	243.69
397.249	255.69
397.474	266.69
397.698	237.69
397.922	245.69
398.147	256.69
398.371	285.69
398.595	273.69
398.82	282.69
399.044	271.69
399.268	278.69
399.492	273.69
399.717	295.69
399.941	302.69
400.165	299.69
400.389	267.69
400.613	297.69
400.837	277.69
401.062	260.69
401.286	266.69
401.51	254.69
401.734	246.69
401.958	264.69
402.182	270.69
402.406	259.69
402.63	250.69
402.854	259.69
403.078	248.69
403.302	258.69
403.526	276.69
403.75	244.69
403.974	272.69
404.198	263.69
404.422	268.69
404.645	272.69
404.869	287.69
405.093	290.69
405.317	300.69
405.541	296.69
405.765	272.69
405.988	291.69
406.212	270.69
406.436	276.69
406.66	288.69
406.883	283.69
407.107	298.69
407.331	298.69
407.555	349.69
407.778	335.69
408.002	312.69
408.226	290.69
408.449	288.69
408.673	289.69
408.896	290.69
409.12	310.69
409.344	297.69
409.567	294.69
409.791	285.69
410.014	244.69
410.238	259.69
410.461	280.69
410.685	288.69
410.908	280.69
411.132	303.69
411.355	294.69
411.578	294.69
411.802	264.69
412.025	258.69
412.249	272.69
412.472	283.69
412.695	284.69
412.919	270.69
413.142	270.69
413.365	262.69
413.589	262.69
413.812	247.69
414.035	254.69
414.258	262.69
414.482	264.69
414.705	252.69
414.928	239.69
415.151	252.69
415.374	266.69
415.597	245.69
415.821	239.69
416.044	268.69
416.267	258.69
416.49	254.69
416.713	237.69
416.936	252.69
417.159	240.69
417.382	244.69
417.605	257.69
417.828	260.69
418.051	262.69
418.274	266.69
418.497	260.69
418.72	248.69
418.943	243.69
419.166	258.69
419.389	268.69
419.611	266.69
419.834	262.69
420.057	259.69
420.28	276.69
420.503	270.69
420.726	283.69
420.948	264.69
421.171	276.69
421.394	301.69
421.617	270.69
421.839	239.69
422.062	252.69
422.285	243.69
422.507	283.69
422.73	324.69
422.953	311.69
423.175	281.69
423.398	266.69
423.621	276.69
423.843	279.69
424.066	281.69
424.288	281.69
424.511	290.69
424.733	300.69
424.956	341.69
425.178	309.69
425.401	319.69
425.623	336.69
425.846	292.69
426.068	288.69
426.291	268.69
426.513	284.69
426.735	290.69
426.958	314.69
427.18	346.69
427.402	396.69
427.625	415.69
427.847	370.69
428.069	316.69
428.292	293.69
428.514	281.69
428.736	285.69
428.958	279.69
429.181	269.69
429.403	270.69
429.625	288.69
429.847	269.69
430.069	311.69
430.292	305.69
430.514	272.69
430.736	264.69
430.958	259.69
431.18	254.69
431.402	258.69
431.624	232.69
431.846	240.69
432.068	242.69
432.29	253.69
432.512	226.69
432.734	246.69
432.956	270.69
433.178	281.69
433.4	275.69
433.622	260.69
433.844	252.69
434.066	264.69
434.287	239.69
434.509	260.69
434.731	262.69
434.953	275.69
435.175	266.69
435.397	278.69
435.618	286.69
435.84	304.69
436.062	349.69
436.284	364.69
436.505	316.69
436.727	284.69
436.949	262.69
437.17	276.69
437.392	253.69
437.614	280.69
437.835	266.69
438.057	309.69
438.278	349.69
438.5	367.69
438.721	403.69
438.943	373.69
439.165	312.69
439.386	292.69
439.608	292.69
439.829	263.69
440.05	288.69
440.272	310.69
440.493	298.69
440.715	277.69
440.936	280.69
441.158	260.69
441.379	263.69
441.6	279.69
441.822	291.69
442.043	318.69
442.264	332.69
442.486	338.69
442.707	310.69
442.928	280.69
443.149	290.69
443.371	293.69
443.592	301.69
443.813	355.69
444.034	353.69
444.255	301.69
444.476	282.69
444.698	287.69
444.919	262.69
445.14	356.69
445.361	322.69
445.582	291.69
445.803	320.69
446.024	376.69
446.245	367.69
446.466	333.69
446.687	300.69
446.908	266.69
447.129	263.69
447.35	261.69
447.571	267.69
447.792	264.69
448.013	272.69
448.234	271.69
448.455	300.69
448.675	322.69
448.896	378.69
449.117	339.69
449.338	303.69
449.559	381.69
449.779	402.69
450	326.69
450.221	273.69
450.442	282.69
450.662	248.69
450.883	266.69
451.104	253.69
451.324	246.69
451.545	235.69
451.766	220.69
451.986	244.69
452.207	237.69
452.428	232.69
452.648	226.69
452.869	244.69
453.089	254.69
453.31	262.69
453.53	239.69
453.751	238.69
453.971	220.69
454.192	234.69
454.412	229.69
454.633	228.69
454.853	248.69
455.073	244.69
455.294	238.69
455.514	286.69
455.734	260.69
455.955	250.69
456.175	233.69
456.395	206.69
456.616	225.69
456.836	238.69
457.056	232.69
457.276	222.69
457.497	224.69
457.717	231.69
457.937	225.69
458.157	248.69
458.377	223.69
458.598	261.69
458.818	261.69
459.038	287.69
459.258	296.69
459.478	268.69
459.698	232.69
459.918	245.69
460.138	252.69
460.358	232.69
460.578	244.69
460.798	247.69
461.018	240.69
461.238	243.69
461.458	244.69
461.678	263.69
461.898	258.69
462.118	247.69
462.338	251.69
462.558	254.69
462.777	256.69
462.997	245.69
463.217	277.69
463.437	259.69
463.657	275.69
463.876	263.69
464.096	259.69
464.316	276.69
464.536	260.69
464.755	263.69
464.975	257.69
465.195	282.69
465.414	312.69
465.634	289.69
465.854	266.69
466.073	250.69
466.293	256.69
466.512	231.69
466.732	230.69
466.951	246.69
467.171	250.69
467.391	235.69
467.61	246.69
467.829	250.69
468.049	269.69
468.268	238.69
468.488	241.69
468.707	232.69
468.927	249.69
469.146	242.69
469.365	240.69
469.585	238.69
469.804	244.69
470.023	253.69
470.243	243.69
470.462	243.69
470.681	249.69
470.901	252.69
471.12	239.69
471.339	243.69
471.558	258.69
471.777	239.69
471.997	235.69
472.216	253.69
472.435	254.69
472.654	255.69
472.873	245.69
473.092	258.69
473.311	247.69
473.53	252.69
473.749	258.69
473.968	272.69
474.187	317.69
474.406	303.69
474.625	254.69
474.844	259.69
475.063	262.69
475.282	240.69
475.501	245.69
475.72	251.69
475.939	246.69
476.158	252.69
476.377	259.69
476.596	252.69
476.814	267.69
477.033	242.69
477.252	246.69
477.471	268.69
477.69	263.69
477.908	270.69
478.127	282.69
478.346	270.69
478.564	264.69
478.783	290.69
479.002	257.69
479.22	291.69
479.439	276.69
479.658	287.69
479.876	288.69
480.095	306.69
480.313	289.69
480.532	292.69
480.751	296.69
480.969	298.69
481.188	309.69
481.406	311.69
481.624	285.69
481.843	295.69
482.061	272.69
482.28	287.69
482.498	279.69
482.717	278.69
482.935	273.69
483.153	288.69
483.372	291.69
483.59	269.69
483.808	298.69
484.027	277.69
484.245	286.69
484.463	283.69
484.681	286.69
484.9	281.69
485.118	284.69
485.336	290.69
485.554	283.69
485.772	277.69
485.99	310.69
486.209	297.69
486.427	303.69
486.645	292.69
486.863	296.69
487.081	291.69
487.299	293.69
487.517	318.69
487.735	294.69
487.953	292.69
488.171	296.69
488.389	303.69
488.607	298.69
488.825	310.69
489.043	298.69
489.261	322.69
489.479	299.69
489.696	316.69
489.914	318.69
490.132	302.69
490.35	303.69
490.568	307.69
490.786	297.69
491.003	302.69
491.221	320.69
491.439	325.69
491.657	348.69
491.874	324.69
492.092	324.69
492.31	331.69
492.527	327.69
492.745	324.69
492.963	336.69
493.18	338.69
493.398	349.69
493.615	343.69
493.833	330.69
494.05	354.69
494.268	354.69
494.485	347.69
494.703	334.69
494.92	341.69
495.138	367.69
495.355	345.69
495.573	346.69
495.79	352.69
496.008	356.69
496.225	343.69
496.442	335.69
496.66	336.69
496.877	362.69
497.094	358.69
497.312	349.69
497.529	363.69
497.746	362.69
497.963	363.69
498.181	358.69
498.398	362.69
498.615	386.69
498.832	382.69
499.049	380.69
499.267	391.69
499.484	382.69
499.701	394.69
499.918	424.69
500.135	425.69
500.352	436.69
500.569	454.69
500.786	469.69
501.003	430.69
501.22	427.69
501.437	438.69
501.654	428.69
501.871	412.69
502.088	412.69
502.305	393.69
502.522	381.69
