Data from 1982.PennyLincolnUp.Lamp.En5.5.200Scan.071819.P1_HRD10591_16-45-22-960.txt Node
Date: Thu Jul 18 16:45:22 EDT 2019
User: cochatt
Spectrometer: HR+D1059
Trigger mode: 1
Integration Time (sec): 1.000000E-1
Scans to average: 1
Electric dark correction enabled: true
Nonlinearity correction enabled: false
Boxcar width: 0
XAxis mode: Wavelengths
Number of Pixels in Spectrum: 2048
>>>>>Begin Spectral Data<<<<<
223.165	-20
223.4	-20
223.635	-20
223.869	-17
224.104	-18
224.338	-27
224.573	-12
224.808	-2
225.042	-2
225.277	0
225.511	5
225.746	3
225.98	-4
226.215	6
226.449	7
226.683	24
226.918	29
227.152	28
227.387	18
227.621	34
227.856	61
228.09	47
228.324	44
228.559	57
228.793	47
229.027	85
229.262	94
229.496	109
229.73	111
229.964	118
230.199	98
230.433	104
230.667	101
230.901	106
231.136	106
231.37	113
231.604	105
231.838	106
232.072	109
232.306	119
232.541	84
232.775	99
233.009	110
233.243	97
233.477	122
233.711	118
233.945	101
234.179	92
234.413	110
234.647	96
234.881	110
235.115	113
235.349	100
235.583	113
235.817	115
236.051	110
236.285	108
236.519	119
236.753	106
236.987	123
237.221	161
237.455	175
237.689	138
237.922	118
238.156	123
238.39	108
238.624	134
238.858	110
239.091	126
239.325	107
239.559	98
239.793	120
240.027	107
240.26	126
240.494	137
240.728	131
240.961	111
241.195	122
241.429	116
241.662	124
241.896	119
242.13	113
242.363	109
242.597	115
242.83	133
243.064	134
243.298	120
243.531	110
243.765	105
243.998	117
244.232	121
244.465	133
244.699	132
244.932	114
245.166	126
245.399	125
245.633	131
245.866	131
246.099	113
246.333	130
246.566	126
246.8	137
247.033	135
247.266	132
247.5	134
247.733	126
247.966	134
248.2	150
248.433	119
248.666	148
248.899	150
249.133	155
249.366	143
249.599	151
249.832	148
250.066	142
250.299	147
250.532	150
250.765	172
250.998	177
251.231	185
251.465	158
251.698	157
251.931	168
252.164	150
252.397	156
252.63	160
252.863	164
253.096	159
253.329	173
253.562	183
253.795	176
254.028	180
254.261	174
254.494	182
254.727	204
254.96	213
255.193	202
255.426	198
255.659	180
255.892	190
256.124	178
256.357	181
256.59	174
256.823	176
257.056	168
257.289	165
257.521	161
257.754	178
257.987	164
258.22	178
258.452	155
258.685	158
258.918	165
259.151	167
259.383	171
259.616	169
259.849	187
260.081	204
260.314	178
260.547	193
260.779	184
261.012	175
261.244	186
261.477	185
261.71	188
261.942	196
262.175	182
262.407	182
262.64	183
262.872	171
263.105	173
263.337	169
263.57	154
263.802	161
264.035	165
264.267	158
264.499	169
264.732	175
264.964	166
265.197	168
265.429	165
265.661	165
265.894	176
266.126	169
266.358	180
266.591	172
266.823	170
267.055	173
267.287	154
267.52	172
267.752	172
267.984	180
268.216	174
268.448	192
268.681	171
268.913	184
269.145	195
269.377	206
269.609	213
269.841	208
270.073	202
270.306	230
270.538	233
270.77	235
271.002	239
271.234	229
271.466	225
271.698	246
271.93	242
272.162	226
272.394	221
272.626	213
272.858	216
273.09	219
273.322	208
273.553	193
273.785	203
274.017	213
274.249	198
274.481	191
274.713	184
274.945	203
275.176	213
275.408	208
275.64	180
275.872	202
276.104	204
276.335	199
276.567	200
276.799	205
277.031	229
277.262	237
277.494	230
277.726	219
277.957	226
278.189	217
278.421	201
278.652	209
278.884	210
279.115	206
279.347	192
279.579	181
279.81	198
280.042	201
280.273	221
280.505	217
280.736	193
280.968	199
281.199	194
281.431	215
281.662	219
281.894	216
282.125	190
282.356	215
282.588	232
282.819	235
283.051	205
283.282	212
283.513	196
283.745	204
283.976	210
284.207	213
284.439	203
284.67	208
284.901	191
285.132	211
285.364	204
285.595	222
285.826	205
286.057	188
286.288	212
286.52	200
286.751	218
286.982	201
287.213	224
287.444	218
287.675	213
287.906	210
288.138	219
288.369	223
288.6	225
288.831	234
289.062	226
289.293	224
289.524	208
289.755	204
289.986	205
290.217	201
290.448	215
290.679	201
290.91	225
291.141	211
291.371	219
291.602	208
291.833	216
292.064	211
292.295	209
292.526	213
292.757	224
292.987	222
293.218	213
293.449	210
293.68	233
293.91	222
294.141	215
294.372	210
294.603	219
294.833	207
295.064	208
295.295	213
295.525	229
295.756	210
295.987	219
296.217	244
296.448	246
296.679	220
296.909	230
297.14	211
297.37	226
297.601	232
297.831	221
298.062	212
298.292	216
298.523	218
298.753	201
298.984	221
299.214	220
299.445	222
299.675	232
299.905	222
300.136	216
300.366	210
300.597	223
300.827	231
301.057	250
301.288	245
301.518	238
301.748	216
301.979	248
302.209	234
302.439	226
302.669	231
302.9	241
303.13	236
303.36	229
303.59	235
303.82	257
304.051	259
304.281	246
304.511	238
304.741	236
304.971	242
305.201	249
305.431	264
305.661	244
305.891	234
306.121	254
306.352	246
306.582	245
306.812	233
307.042	246
307.272	245
307.502	250
307.731	231
307.961	231
308.191	241
308.421	266
308.651	252
308.881	250
309.111	247
309.341	258
309.571	275
309.8	274
310.03	260
310.26	264
310.49	261
310.72	279
310.949	289
311.179	292
311.409	267
311.639	286
311.868	265
312.098	266
312.328	261
312.557	268
312.787	299
313.017	297
313.246	288
313.476	284
313.706	267
313.935	280
314.165	280
314.394	281
314.624	302
314.853	294
315.083	275
315.312	278
315.542	268
315.771	272
316.001	280
316.23	258
316.46	285
316.689	280
316.919	280
317.148	287
317.377	296
317.607	280
317.836	295
318.065	276
318.295	268
318.524	292
318.753	282
318.983	285
319.212	260
319.441	280
319.67	290
319.9	287
320.129	285
320.358	286
320.587	297
320.816	281
321.046	270
321.275	294
321.504	287
321.733	292
321.962	294
322.191	309
322.42	310
322.649	324
322.878	326
323.108	344
323.337	346
323.566	369
323.795	401
324.024	450
324.253	540
324.482	785
324.71	1174
324.939	1522
325.168	1232
325.397	670
325.626	476
325.855	401
326.084	360
326.313	372
326.542	378
326.77	394
326.999	501
327.228	713
327.457	1017
327.686	1104
327.914	719
328.143	520
328.372	457
328.6	430
328.829	410
329.058	408
329.287	408
329.515	380
329.744	377
329.972	346
330.201	384
330.43	382
330.658	415
330.887	425
331.115	426
331.344	359
331.572	344
331.801	343
332.03	356
332.258	345
332.486	330
332.715	297
332.943	328
333.172	328
333.4	317
333.629	315
333.857	337
334.085	349
334.314	341
334.542	364
334.771	364
334.999	352
335.227	341
335.455	335
335.684	315
335.912	309
336.14	303
336.369	316
336.597	320
336.825	327
337.053	317
337.281	301
337.51	297
337.738	309
337.966	315
338.194	314
338.422	314
338.65	313
338.878	300
339.106	303
339.334	309
339.562	309
339.79	294
340.018	298
340.246	309
340.474	308
340.702	295
340.93	306
341.158	301
341.386	295
341.614	290
341.842	305
342.07	284
342.298	310
342.526	284
342.754	282
342.981	280
343.209	310
343.437	298
343.665	292
343.893	304
344.12	315
344.348	301
344.576	280
344.804	294
345.031	304
345.259	303
345.487	301
345.714	312
345.942	288
346.17	290
346.397	293
346.625	284
346.853	303
347.08	274
347.308	303
347.535	303
347.763	294
347.99	313
348.218	292
348.445	306
348.673	303
348.9	307
349.128	295
349.355	282
349.583	283
349.81	306
350.037	288
350.265	275
350.492	282
350.72	295
350.947	289
351.174	296
351.402	297
351.629	316
351.856	292
352.083	302
352.311	305
352.538	301
352.765	311
352.992	313
353.22	306
353.447	305
353.674	306
353.901	286
354.128	277
354.355	262
354.583	263
354.81	284
355.037	276
355.264	274
355.491	263
355.718	272
355.945	252
356.172	274
356.399	269
356.626	279
356.853	268
357.08	255
357.307	264
357.534	277
357.761	250
357.988	281
358.215	267
358.441	261
358.668	270
358.895	269
359.122	266
359.349	276
359.576	293
359.802	307
360.029	321
360.256	334
360.483	315
360.709	292
360.936	281
361.163	284
361.39	307
361.616	297
361.843	289
362.07	294
362.296	300
362.523	293
362.749	302
362.976	293
363.203	276
363.429	272
363.656	281
363.882	271
364.109	286
364.335	287
364.562	290
364.788	286
365.015	283
365.241	281
365.468	284
365.694	296
365.92	287
366.147	303
366.373	275
366.599	273
366.826	268
367.052	283
367.278	278
367.505	278
367.731	283
367.957	278
368.184	271
368.41	285
368.636	278
368.862	276
369.089	285
369.315	266
369.541	253
369.767	272
369.993	256
370.219	284
370.445	288
370.672	269
370.898	256
371.124	264
371.35	277
371.576	278
371.802	272
372.028	267
372.254	260
372.48	254
372.706	280
372.932	262
373.158	274
373.384	262
373.61	259
373.835	265
374.061	276
374.287	282
374.513	275
374.739	271
374.965	273
375.191	264
375.416	290
375.642	283
375.868	273
376.094	280
376.319	266
376.545	261
376.771	288
376.997	254
377.222	240
377.448	269
377.674	264
377.899	261
378.125	281
378.35	265
378.576	272
378.802	269
379.027	252
379.253	253
379.478	268
379.704	260
379.929	255
380.155	270
380.38	260
380.606	266
380.831	256
381.057	255
381.282	262
381.507	263
381.733	288
381.958	292
382.184	278
382.409	252
382.634	288
382.86	277
383.085	266
383.31	267
383.535	261
383.761	268
383.986	242
384.211	264
384.436	265
384.662	280
384.887	275
385.112	273
385.337	257
385.562	249
385.787	273
386.013	265
386.238	270
386.463	297
386.688	282
386.913	284
387.138	283
387.363	289
387.588	284
387.813	304
388.038	286
388.263	290
388.488	272
388.713	290
388.938	268
389.163	285
389.387	255
389.612	270
389.837	277
390.062	282
390.287	287
390.512	275
390.736	279
390.961	269
391.186	295
391.411	271
391.636	267
391.86	288
392.085	290
392.31	297
392.534	277
392.759	276
392.984	266
393.208	290
393.433	272
393.658	278
393.882	264
394.107	267
394.331	285
394.556	282
394.78	289
395.005	287
395.229	288
395.454	272
395.678	282
395.903	285
396.127	304
396.352	322
396.576	288
396.801	295
397.025	274
397.249	276
397.474	300
397.698	299
397.922	305
398.147	304
398.371	298
398.595	318
398.82	300
399.044	314
399.268	297
399.492	300
399.717	330
399.941	349
400.165	356
400.389	370
400.613	331
400.837	305
401.062	311
401.286	313
401.51	302
401.734	308
401.958	296
402.182	306
402.406	307
402.63	303
402.854	312
403.078	300
403.302	312
403.526	313
403.75	325
403.974	303
404.198	308
404.422	312
404.645	320
404.869	335
405.093	338
405.317	336
405.541	365
405.765	351
405.988	342
406.212	338
406.436	357
406.66	354
406.883	330
407.107	360
407.331	366
407.555	403
407.778	396
408.002	382
408.226	333
408.449	338
408.673	338
408.896	357
409.12	357
409.344	355
409.567	330
409.791	313
410.014	309
410.238	290
410.461	305
410.685	329
410.908	334
411.132	351
411.355	357
411.578	345
411.802	313
412.025	305
412.249	322
412.472	328
412.695	329
412.919	352
413.142	341
413.365	305
413.589	299
413.812	298
414.035	289
414.258	289
414.482	294
414.705	300
414.928	303
415.151	277
415.374	287
415.597	287
415.821	289
416.044	298
416.267	292
416.49	298
416.713	297
416.936	274
417.159	293
417.382	292
417.605	300
417.828	303
418.051	286
418.274	304
418.497	298
418.72	318
418.943	295
419.166	305
419.389	321
419.611	323
419.834	311
420.057	319
420.28	281
420.503	307
420.726	305
420.948	305
421.171	346
421.394	353
421.617	334
421.839	308
422.062	320
422.285	320
422.507	352
422.73	388
422.953	372
423.175	344
423.398	317
423.621	328
423.843	341
424.066	343
424.288	346
424.511	364
424.733	360
424.956	412
425.178	430
425.401	422
425.623	422
425.846	352
426.068	334
426.291	348
426.513	328
426.735	344
426.958	374
427.18	428
427.402	494
427.625	514
427.847	460
428.069	405
428.292	368
428.514	331
428.736	331
428.958	311
429.181	295
429.403	316
429.625	305
429.847	350
430.069	382
430.292	372
430.514	315
430.736	303
430.958	289
431.18	301
431.402	303
431.624	294
431.846	280
432.068	296
432.29	292
432.512	303
432.734	298
432.956	296
433.178	309
433.4	300
433.622	301
433.844	283
434.066	295
434.287	271
434.509	303
434.731	297
434.953	290
435.175	321
435.397	339
435.618	332
435.84	369
436.062	415
436.284	468
436.505	374
436.727	359
436.949	321
437.17	310
437.392	320
437.614	331
437.835	336
438.057	417
438.278	461
438.5	457
438.721	477
438.943	461
439.165	369
439.386	360
439.608	350
439.829	338
440.05	373
440.272	389
440.493	366
440.715	328
440.936	316
441.158	312
441.379	302
441.6	318
441.822	324
442.043	353
442.264	399
442.486	408
442.707	337
442.928	322
443.149	333
443.371	361
443.592	390
443.813	450
444.034	470
444.255	387
444.476	349
444.698	336
444.919	322
445.14	426
445.361	387
445.582	378
445.803	410
446.024	484
446.245	460
446.466	405
446.687	375
446.908	321
447.129	312
447.35	308
447.571	319
447.792	308
448.013	320
448.234	326
448.455	378
448.675	417
448.896	467
449.117	433
449.338	392
449.559	474
449.779	511
450	401
450.221	337
450.442	335
450.662	308
450.883	335
451.104	325
451.324	305
451.545	292
451.766	298
451.986	296
452.207	278
452.428	282
452.648	285
452.869	289
453.089	297
453.31	290
453.53	291
453.751	265
453.971	282
454.192	297
454.412	284
454.633	279
454.853	287
455.073	289
455.294	301
455.514	322
455.734	319
455.955	294
456.175	284
456.395	270
456.616	253
456.836	262
457.056	266
457.276	265
457.497	261
457.717	274
457.937	274
458.157	273
458.377	264
458.598	284
458.818	325
459.038	378
459.258	369
459.478	331
459.698	310
459.918	296
460.138	317
460.358	284
460.578	297
460.798	294
461.018	293
461.238	296
461.458	301
461.678	312
461.898	284
462.118	296
462.338	297
462.558	277
462.777	309
462.997	281
463.217	299
463.437	310
463.657	302
463.876	306
464.096	317
464.316	315
464.536	305
464.755	317
464.975	301
465.195	335
465.414	403
465.634	328
465.854	328
466.073	304
466.293	310
466.512	292
466.732	277
466.951	271
467.171	285
467.391	293
467.61	283
467.829	302
468.049	286
468.268	294
468.488	287
468.707	286
468.927	280
469.146	284
469.365	282
469.585	282
469.804	285
470.023	291
470.243	283
470.462	296
470.681	293
470.901	297
471.12	295
471.339	288
471.558	292
471.777	266
471.997	293
472.216	276
472.435	313
472.654	298
472.873	296
473.092	294
473.311	286
473.53	271
473.749	305
473.968	329
474.187	391
474.406	393
474.625	316
474.844	297
475.063	301
475.282	304
475.501	288
475.72	298
475.939	305
476.158	297
476.377	304
476.596	310
476.814	313
477.033	314
477.252	298
477.471	306
477.69	305
477.908	328
478.127	311
478.346	316
478.564	326
478.783	326
479.002	314
479.22	320
479.439	322
479.658	345
479.876	329
480.095	335
480.313	382
480.532	340
480.751	352
480.969	356
481.188	375
481.406	398
481.624	383
481.843	328
482.061	326
482.28	341
482.498	333
482.717	360
482.935	357
483.153	325
483.372	336
483.59	326
483.808	319
484.027	328
484.245	345
484.463	345
484.681	340
484.9	344
485.118	352
485.336	362
485.554	356
485.772	358
485.99	359
486.209	367
486.427	352
486.645	364
486.863	372
487.081	364
487.299	362
487.517	352
487.735	366
487.953	378
488.171	373
488.389	344
488.607	354
488.825	359
489.043	374
489.261	360
489.479	380
489.696	359
489.914	368
490.132	383
490.35	363
490.568	362
490.786	380
491.003	390
491.221	375
491.439	409
491.657	402
491.874	421
492.092	396
492.31	398
492.527	403
492.745	396
492.963	425
493.18	410
493.398	399
493.615	413
493.833	413
494.05	425
494.268	407
494.485	434
494.703	398
494.92	432
495.138	418
495.355	432
495.573	418
495.79	409
496.008	418
496.225	425
496.442	398
496.66	440
496.877	422
497.094	440
497.312	436
497.529	426
497.746	432
497.963	426
498.181	444
498.398	440
498.615	456
498.832	451
499.049	466
499.267	442
499.484	491
499.701	500
499.918	506
500.135	537
500.352	528
500.569	515
500.786	526
501.003	531
501.22	522
501.437	526
501.654	508
501.871	505
502.088	486
502.305	482
502.522	479
502.739	471
502.956	446
503.172	441
503.389	449
503.606	424
503.823	449
504.04	436
504.256	436
504.473	423
504.69	408
504.907	425
505.123	395
505.34	395
505.557	408
505.773	388
505.99	393
506.207	400
506.423	413
506.64	396
506.856	406
507.073	394
507.289	412
507.506	398
507.722	417
507.939	421
508.155	408
508.372	414
508.588	396
508.805	387
509.021	391
509.238	401
509.454	400
509.67	375
509.887	412
510.103	408
510.319	420
510.536	473
510.752	714
510.968	577
511.184	390
511.401	385
511.617	389
511.833	412
512.049	355
512.265	370
512.481	362
512.698	369
512.914	379
513.13	372
513.346	348
513.562	375
513.778	358
513.994	384
514.21	388
514.426	409
514.642	428
514.858	427
515.074	471
515.29	550
515.506	812
515.721	645
515.937	441
516.153	417
516.369	404
516.585	397
516.801	385
517.016	358
517.232	386
517.448	390
517.664	383
517.879	377
518.095	378
518.311	375
518.527	373
518.742	384
518.958	376
519.173	360
519.389	369
519.605	384
519.82	380
520.036	400
520.251	408
520.467	408
520.682	415
520.898	392
521.113	423
521.329	465
521.544	512
521.76	671
521.975	1074
522.19	1005
522.406	562
522.621	444
522.836	381
523.052	395
523.267	351
523.482	348
523.698	346
523.913	376
524.128	345
524.343	342
524.559	343
524.774	338
524.989	347
525.204	344
525.419	340
525.634	297
525.849	308
526.064	321
526.28	319
526.495	302
526.71	310
526.925	322
527.14	298
527.355	312
527.57	302
527.785	301
527.999	306
528.214	320
528.429	323
528.644	333
528.859	329
529.074	293
529.289	342
529.503	355
529.718	361
529.933	324
530.148	305
530.363	305
530.577	298
530.792	328
531.007	304
531.221	296
531.436	286
531.651	305
531.865	287
532.08	297
532.295	299
532.509	277
532.724	297
532.938	286
533.153	295
533.367	292
533.582	289
533.796	302
534.011	302
534.225	280
534.44	278
534.654	295
534.868	296
535.083	310
535.297	288
535.511	291
535.726	276
535.94	299
536.154	298
536.369	286
536.583	274
536.797	275
537.011	277
537.225	277
537.44	291
537.654	286
537.868	286
538.082	270
538.296	292
538.51	309
538.724	291
538.938	296
539.153	288
539.367	295
539.581	289
539.795	260
540.009	294
540.222	276
540.436	285
540.65	293
540.864	298
541.078	291
541.292	303
541.506	291
541.72	286
541.934	296
542.147	269
542.361	271
542.575	283
542.789	288
543.002	273
543.216	289
543.43	302
543.644	278
543.857	287
544.071	294
544.285	270
544.498	286
544.712	261
544.925	294
545.139	284
545.352	281
545.566	283
545.779	266
545.993	276
546.206	286
546.42	296
546.633	283
546.847	278
547.06	256
547.274	248
547.487	266
547.7	292
547.914	258
548.127	272
548.34	262
548.554	261
548.767	271
548.98	265
549.193	256
549.407	270
549.62	278
549.833	269
550.046	264
550.259	263
550.473	267
550.686	265
550.899	261
551.112	262
551.325	264
551.538	280
551.751	266
551.964	266
552.177	278
552.39	257
552.603	279
552.816	269
553.029	275
553.242	278
553.455	268
553.667	286
553.88	296
554.093	289
554.306	267
554.519	265
554.732	272
554.944	274
555.157	271
555.37	262
555.583	264
555.795	269
556.008	271
556.221	265
556.433	234
556.646	259
556.859	236
557.071	246
557.284	249
557.496	259
557.709	230
557.921	260
558.134	260
558.346	251
558.559	241
558.771	246
558.984	244
559.196	241
559.409	236
559.621	243
559.833	232
560.046	237
560.258	246
560.47	229
560.683	248
560.895	249
561.107	234
561.32	248
561.532	248
561.744	238
561.956	246
562.168	238
562.381	240
562.593	253
562.805	244
563.017	244
563.229	263
563.441	244
563.653	247
563.865	230
