Data from 1982.PennyLincolnUp.Lamp.En5.5.200Scan.071819.P1_HRD10591_16-46-44-963.txt Node
Date: Thu Jul 18 16:46:44 EDT 2019
User: cochatt
Spectrometer: HR+D1059
Trigger mode: 1
Integration Time (sec): 1.000000E-1
Scans to average: 1
Electric dark correction enabled: true
Nonlinearity correction enabled: false
Boxcar width: 0
XAxis mode: Wavelengths
Number of Pixels in Spectrum: 2048
>>>>>Begin Spectral Data<<<<<
223.165	-25.5
223.4	-25.5
223.635	-25.5
223.869	-24.5
224.104	-16.5
224.338	-2.5
224.573	6.5
224.808	-25.5
225.042	-11.5
225.277	1.5
225.511	-7.5
225.746	4.5
225.98	6.5
226.215	10.5
226.449	25.5
226.683	19.5
226.918	17.5
227.152	21.5
227.387	36.5
227.621	36.5
227.856	52.5
228.09	47.5
228.324	48.5
228.559	47.5
228.793	67.5
229.027	78.5
229.262	88.5
229.496	98.5
229.73	115.5
229.964	119.5
230.199	119.5
230.433	108.5
230.667	109.5
230.901	111.5
231.136	91.5
231.37	108.5
231.604	95.5
231.838	96.5
232.072	93.5
232.306	99.5
232.541	99.5
232.775	104.5
233.009	102.5
233.243	97.5
233.477	114.5
233.711	103.5
233.945	93.5
234.179	110.5
234.413	117.5
234.647	106.5
234.881	102.5
235.115	101.5
235.349	88.5
235.583	101.5
235.817	103.5
236.051	117.5
236.285	124.5
236.519	110.5
236.753	113.5
236.987	138.5
237.221	146.5
237.455	185.5
237.689	156.5
237.922	128.5
238.156	115.5
238.39	109.5
238.624	116.5
238.858	107.5
239.091	108.5
239.325	107.5
239.559	107.5
239.793	107.5
240.027	115.5
240.26	129.5
240.494	122.5
240.728	132.5
240.961	119.5
241.195	118.5
241.429	119.5
241.662	102.5
241.896	109.5
242.13	132.5
242.363	118.5
242.597	126.5
242.83	108.5
243.064	121.5
243.298	124.5
243.531	122.5
243.765	118.5
243.998	113.5
244.232	116.5
244.465	98.5
244.699	121.5
244.932	131.5
245.166	113.5
245.399	132.5
245.633	120.5
245.866	124.5
246.099	126.5
246.333	118.5
246.566	123.5
246.8	129.5
247.033	129.5
247.266	98.5
247.5	155.5
247.733	133.5
247.966	134.5
248.2	150.5
248.433	141.5
248.666	127.5
248.899	142.5
249.133	179.5
249.366	176.5
249.599	167.5
249.832	163.5
250.066	149.5
250.299	150.5
250.532	161.5
250.765	172.5
250.998	190.5
251.231	173.5
251.465	172.5
251.698	169.5
251.931	171.5
252.164	167.5
252.397	154.5
252.63	157.5
252.863	165.5
253.096	178.5
253.329	180.5
253.562	188.5
253.795	194.5
254.028	183.5
254.261	182.5
254.494	188.5
254.727	198.5
254.96	221.5
255.193	208.5
255.426	200.5
255.659	193.5
255.892	177.5
256.124	188.5
256.357	178.5
256.59	166.5
256.823	175.5
257.056	173.5
257.289	164.5
257.521	183.5
257.754	162.5
257.987	158.5
258.22	162.5
258.452	181.5
258.685	173.5
258.918	183.5
259.151	166.5
259.383	187.5
259.616	169.5
259.849	180.5
260.081	185.5
260.314	194.5
260.547	211.5
260.779	190.5
261.012	191.5
261.244	187.5
261.477	163.5
261.71	180.5
261.942	177.5
262.175	199.5
262.407	195.5
262.64	165.5
262.872	181.5
263.105	163.5
263.337	177.5
263.57	170.5
263.802	157.5
264.035	164.5
264.267	181.5
264.499	166.5
264.732	166.5
264.964	169.5
265.197	186.5
265.429	163.5
265.661	165.5
265.894	162.5
266.126	177.5
266.358	176.5
266.591	175.5
266.823	184.5
267.055	193.5
267.287	174.5
267.52	179.5
267.752	178.5
267.984	190.5
268.216	198.5
268.448	185.5
268.681	203.5
268.913	187.5
269.145	207.5
269.377	233.5
269.609	224.5
269.841	219.5
270.073	208.5
270.306	231.5
270.538	246.5
270.77	249.5
271.002	231.5
271.234	234.5
271.466	234.5
271.698	228.5
271.93	266.5
272.162	266.5
272.394	249.5
272.626	222.5
272.858	226.5
273.09	204.5
273.322	215.5
273.553	219.5
273.785	203.5
274.017	207.5
274.249	198.5
274.481	213.5
274.713	234.5
274.945	214.5
275.176	218.5
275.408	212.5
275.64	216.5
275.872	211.5
276.104	211.5
276.335	208.5
276.567	217.5
276.799	233.5
277.031	234.5
277.262	267.5
277.494	227.5
277.726	210.5
277.957	212.5
278.189	217.5
278.421	215.5
278.652	204.5
278.884	205.5
279.115	190.5
279.347	209.5
279.579	205.5
279.81	222.5
280.042	210.5
280.273	207.5
280.505	205.5
280.736	217.5
280.968	201.5
281.199	193.5
281.431	193.5
281.662	203.5
281.894	187.5
282.125	212.5
282.356	225.5
282.588	227.5
282.819	232.5
283.051	215.5
283.282	203.5
283.513	222.5
283.745	224.5
283.976	215.5
284.207	226.5
284.439	224.5
284.67	220.5
284.901	202.5
285.132	217.5
285.364	217.5
285.595	233.5
285.826	182.5
286.057	212.5
286.288	204.5
286.52	223.5
286.751	228.5
286.982	222.5
287.213	220.5
287.444	229.5
287.675	211.5
287.906	233.5
288.138	246.5
288.369	216.5
288.6	232.5
288.831	239.5
289.062	225.5
289.293	225.5
289.524	222.5
289.755	227.5
289.986	220.5
290.217	234.5
290.448	202.5
290.679	206.5
290.91	208.5
291.141	217.5
291.371	223.5
291.602	217.5
291.833	209.5
292.064	222.5
292.295	202.5
292.526	227.5
292.757	223.5
292.987	223.5
293.218	226.5
293.449	223.5
293.68	213.5
293.91	218.5
294.141	216.5
294.372	209.5
294.603	220.5
294.833	211.5
295.064	229.5
295.295	207.5
295.525	228.5
295.756	236.5
295.987	225.5
296.217	247.5
296.448	261.5
296.679	242.5
296.909	215.5
297.14	212.5
297.37	222.5
297.601	213.5
297.831	218.5
298.062	224.5
298.292	245.5
298.523	234.5
298.753	243.5
298.984	224.5
299.214	236.5
299.445	223.5
299.675	244.5
299.905	246.5
300.136	225.5
300.366	240.5
300.597	234.5
300.827	236.5
301.057	233.5
301.288	250.5
301.518	263.5
301.748	257.5
301.979	247.5
302.209	258.5
302.439	252.5
302.669	236.5
302.9	263.5
303.13	234.5
303.36	238.5
303.59	257.5
303.82	253.5
304.051	248.5
304.281	247.5
304.511	261.5
304.741	235.5
304.971	237.5
305.201	233.5
305.431	237.5
305.661	241.5
305.891	231.5
306.121	243.5
306.352	235.5
306.582	239.5
306.812	267.5
307.042	265.5
307.272	242.5
307.502	246.5
307.731	268.5
307.961	261.5
308.191	252.5
308.421	243.5
308.651	259.5
308.881	256.5
309.111	261.5
309.341	269.5
309.571	270.5
309.8	281.5
310.03	276.5
310.26	291.5
310.49	295.5
310.72	302.5
310.949	316.5
311.179	316.5
311.409	271.5
311.639	289.5
311.868	290.5
312.098	287.5
312.328	295.5
312.557	310.5
312.787	314.5
313.017	303.5
313.246	300.5
313.476	309.5
313.706	289.5
313.935	292.5
314.165	305.5
314.394	302.5
314.624	296.5
314.853	283.5
315.083	273.5
315.312	284.5
315.542	276.5
315.771	276.5
316.001	295.5
316.23	272.5
316.46	295.5
316.689	280.5
316.919	299.5
317.148	301.5
317.377	289.5
317.607	311.5
317.836	285.5
318.065	289.5
318.295	290.5
318.524	289.5
318.753	285.5
318.983	310.5
319.212	289.5
319.441	305.5
319.67	293.5
319.9	292.5
320.129	295.5
320.358	290.5
320.587	305.5
320.816	330.5
321.046	307.5
321.275	317.5
321.504	301.5
321.733	300.5
321.962	321.5
322.191	321.5
322.42	353.5
322.649	347.5
322.878	355.5
323.108	356.5
323.337	387.5
323.566	402.5
323.795	411.5
324.024	476.5
324.253	593.5
324.482	873.5
324.71	1323.5
324.939	1706.5
325.168	1417.5
325.397	758.5
325.626	520.5
325.855	411.5
326.084	382.5
326.313	409.5
326.542	422.5
326.77	426.5
326.999	565.5
327.228	783.5
327.457	1105.5
327.686	1242.5
327.914	806.5
328.143	558.5
328.372	489.5
328.6	478.5
328.829	455.5
329.058	460.5
329.287	470.5
329.515	435.5
329.744	400.5
329.972	404.5
330.201	395.5
330.43	441.5
330.658	443.5
330.887	460.5
331.115	429.5
331.344	410.5
331.572	362.5
331.801	364.5
332.03	373.5
332.258	361.5
332.486	331.5
332.715	327.5
332.943	341.5
333.172	334.5
333.4	341.5
333.629	357.5
333.857	344.5
334.085	358.5
334.314	386.5
334.542	375.5
334.771	400.5
334.999	362.5
335.227	355.5
335.455	338.5
335.684	347.5
335.912	328.5
336.14	312.5
336.369	323.5
336.597	326.5
336.825	347.5
337.053	325.5
337.281	316.5
337.51	329.5
337.738	334.5
337.966	329.5
338.194	338.5
338.422	323.5
338.65	309.5
338.878	325.5
339.106	310.5
339.334	309.5
339.562	330.5
339.79	306.5
340.018	324.5
340.246	303.5
340.474	326.5
340.702	318.5
340.93	316.5
341.158	319.5
341.386	330.5
341.614	340.5
341.842	322.5
342.07	294.5
342.298	301.5
342.526	322.5
342.754	300.5
342.981	318.5
343.209	300.5
343.437	323.5
343.665	319.5
343.893	310.5
344.12	314.5
344.348	317.5
344.576	313.5
344.804	331.5
345.031	318.5
345.259	322.5
345.487	326.5
345.714	332.5
345.942	292.5
346.17	295.5
346.397	296.5
346.625	303.5
346.853	297.5
347.08	323.5
347.308	317.5
347.535	338.5
347.763	335.5
347.99	315.5
348.218	303.5
348.445	327.5
348.673	317.5
348.9	309.5
349.128	291.5
349.355	293.5
349.583	301.5
349.81	295.5
350.037	283.5
350.265	297.5
350.492	295.5
350.72	306.5
350.947	308.5
351.174	318.5
351.402	325.5
351.629	306.5
351.856	315.5
352.083	300.5
352.311	325.5
352.538	322.5
352.765	336.5
352.992	323.5
353.22	286.5
353.447	303.5
353.674	287.5
353.901	286.5
354.128	280.5
354.355	266.5
354.583	277.5
354.81	271.5
355.037	300.5
355.264	293.5
355.491	254.5
355.718	288.5
355.945	295.5
356.172	282.5
356.399	289.5
356.626	281.5
356.853	268.5
357.08	271.5
357.307	285.5
357.534	268.5
357.761	271.5
357.988	285.5
358.215	288.5
358.441	260.5
358.668	298.5
358.895	278.5
359.122	298.5
359.349	302.5
359.576	323.5
359.802	319.5
360.029	335.5
360.256	348.5
360.483	319.5
360.709	297.5
360.936	330.5
361.163	319.5
361.39	285.5
361.616	312.5
361.843	305.5
362.07	294.5
362.296	317.5
362.523	296.5
362.749	299.5
362.976	299.5
363.203	299.5
363.429	277.5
363.656	300.5
363.882	282.5
364.109	263.5
364.335	280.5
364.562	265.5
364.788	266.5
365.015	277.5
365.241	272.5
365.468	300.5
365.694	277.5
365.92	279.5
366.147	279.5
366.373	269.5
366.599	278.5
366.826	283.5
367.052	254.5
367.278	285.5
367.505	282.5
367.731	282.5
367.957	291.5
368.184	271.5
368.41	282.5
368.636	300.5
368.862	290.5
369.089	276.5
369.315	275.5
369.541	272.5
369.767	277.5
369.993	290.5
370.219	284.5
370.445	284.5
370.672	279.5
370.898	263.5
371.124	260.5
371.35	262.5
371.576	268.5
371.802	267.5
372.028	271.5
372.254	262.5
372.48	276.5
372.706	277.5
372.932	248.5
373.158	287.5
373.384	287.5
373.61	258.5
373.835	285.5
374.061	264.5
374.287	278.5
374.513	253.5
374.739	264.5
374.965	259.5
375.191	281.5
375.416	271.5
375.642	268.5
375.868	271.5
376.094	272.5
376.319	267.5
376.545	278.5
376.771	259.5
376.997	265.5
377.222	289.5
377.448	276.5
377.674	275.5
377.899	250.5
378.125	262.5
378.35	266.5
378.576	267.5
378.802	270.5
379.027	264.5
379.253	264.5
379.478	277.5
379.704	266.5
379.929	272.5
380.155	242.5
380.38	274.5
380.606	269.5
380.831	277.5
381.057	282.5
381.282	267.5
381.507	252.5
381.733	265.5
381.958	243.5
382.184	260.5
382.409	264.5
382.634	268.5
382.86	277.5
383.085	271.5
383.31	279.5
383.535	274.5
383.761	276.5
383.986	279.5
384.211	282.5
384.436	275.5
384.662	293.5
384.887	290.5
385.112	276.5
385.337	278.5
385.562	266.5
385.787	285.5
386.013	286.5
386.238	290.5
386.463	283.5
386.688	294.5
386.913	273.5
387.138	275.5
387.363	286.5
387.588	290.5
387.813	275.5
388.038	273.5
388.263	281.5
388.488	266.5
388.713	278.5
388.938	287.5
389.163	272.5
389.387	271.5
389.612	273.5
389.837	287.5
390.062	294.5
390.287	278.5
390.512	274.5
390.736	292.5
390.961	287.5
391.186	292.5
391.411	290.5
391.636	276.5
391.86	285.5
392.085	283.5
392.31	288.5
392.534	274.5
392.759	292.5
392.984	280.5
393.208	295.5
393.433	284.5
393.658	278.5
393.882	277.5
394.107	267.5
394.331	261.5
394.556	270.5
394.78	262.5
395.005	272.5
395.229	263.5
395.454	263.5
395.678	269.5
395.903	295.5
396.127	325.5
396.352	317.5
396.576	285.5
396.801	291.5
397.025	285.5
397.249	283.5
397.474	296.5
397.698	295.5
397.922	317.5
398.147	300.5
398.371	305.5
398.595	290.5
398.82	296.5
399.044	306.5
399.268	317.5
399.492	305.5
399.717	333.5
399.941	363.5
400.165	375.5
400.389	389.5
400.613	357.5
400.837	326.5
401.062	332.5
401.286	301.5
401.51	319.5
401.734	299.5
401.958	313.5
402.182	315.5
402.406	311.5
402.63	309.5
402.854	314.5
403.078	330.5
403.302	305.5
403.526	321.5
403.75	307.5
403.974	316.5
404.198	317.5
404.422	312.5
404.645	308.5
404.869	321.5
405.093	342.5
405.317	357.5
405.541	401.5
405.765	343.5
405.988	341.5
406.212	353.5
406.436	346.5
406.66	358.5
406.883	381.5
407.107	366.5
407.331	377.5
407.555	413.5
407.778	400.5
408.002	367.5
408.226	359.5
408.449	344.5
408.673	339.5
408.896	364.5
409.12	389.5
409.344	373.5
409.567	342.5
409.791	331.5
410.014	324.5
410.238	322.5
410.461	326.5
410.685	321.5
410.908	331.5
411.132	343.5
411.355	367.5
411.578	358.5
411.802	334.5
412.025	333.5
412.249	322.5
412.472	331.5
412.695	358.5
412.919	351.5
413.142	338.5
413.365	317.5
413.589	310.5
413.812	300.5
414.035	301.5
414.258	309.5
414.482	305.5
414.705	310.5
414.928	305.5
415.151	287.5
415.374	295.5
415.597	285.5
415.821	311.5
416.044	314.5
416.267	287.5
416.49	305.5
416.713	280.5
416.936	310.5
417.159	302.5
417.382	315.5
417.605	305.5
417.828	310.5
418.051	314.5
418.274	332.5
418.497	297.5
418.72	297.5
418.943	293.5
419.166	296.5
419.389	332.5
419.611	319.5
419.834	313.5
420.057	314.5
420.28	315.5
420.503	334.5
420.726	312.5
420.948	315.5
421.171	358.5
421.394	363.5
421.617	339.5
421.839	315.5
422.062	322.5
422.285	323.5
422.507	358.5
422.73	399.5
422.953	369.5
423.175	354.5
423.398	330.5
423.621	340.5
423.843	341.5
424.066	338.5
424.288	335.5
424.511	357.5
424.733	380.5
424.956	428.5
425.178	402.5
425.401	407.5
425.623	427.5
425.846	369.5
426.068	330.5
426.291	346.5
426.513	339.5
426.735	349.5
426.958	357.5
427.18	437.5
427.402	493.5
427.625	549.5
427.847	516.5
428.069	429.5
428.292	380.5
428.514	359.5
428.736	344.5
428.958	315.5
429.181	343.5
429.403	325.5
429.625	316.5
429.847	351.5
430.069	382.5
430.292	388.5
430.514	339.5
430.736	322.5
430.958	310.5
431.18	301.5
431.402	299.5
431.624	303.5
431.846	265.5
432.068	290.5
432.29	294.5
432.512	316.5
432.734	313.5
432.956	309.5
433.178	322.5
433.4	311.5
433.622	317.5
433.844	313.5
434.066	305.5
434.287	292.5
434.509	305.5
434.731	302.5
434.953	315.5
435.175	333.5
435.397	332.5
435.618	357.5
435.84	375.5
436.062	441.5
436.284	452.5
436.505	399.5
436.727	371.5
436.949	329.5
437.17	310.5
437.392	326.5
437.614	346.5
437.835	374.5
438.057	420.5
438.278	477.5
438.5	469.5
438.721	483.5
438.943	480.5
439.165	378.5
439.386	355.5
439.608	360.5
439.829	358.5
440.05	385.5
440.272	401.5
440.493	375.5
440.715	356.5
440.936	333.5
441.158	341.5
441.379	319.5
441.6	325.5
441.822	349.5
442.043	382.5
442.264	416.5
442.486	437.5
442.707	386.5
442.928	345.5
443.149	346.5
443.371	382.5
443.592	395.5
443.813	473.5
444.034	490.5
444.255	412.5
444.476	361.5
444.698	339.5
444.919	335.5
445.14	411.5
445.361	377.5
445.582	394.5
445.803	421.5
446.024	497.5
446.245	480.5
446.466	441.5
446.687	370.5
446.908	337.5
447.129	325.5
447.35	328.5
447.571	317.5
447.792	317.5
448.013	322.5
448.234	331.5
448.455	387.5
448.675	446.5
448.896	491.5
449.117	427.5
449.338	444.5
449.559	481.5
449.779	520.5
450	427.5
450.221	353.5
450.442	321.5
450.662	313.5
450.883	339.5
451.104	329.5
451.324	339.5
451.545	319.5
451.766	314.5
451.986	305.5
452.207	293.5
452.428	297.5
452.648	294.5
452.869	292.5
453.089	292.5
453.31	308.5
453.53	289.5
453.751	286.5
453.971	290.5
454.192	321.5
454.412	311.5
454.633	280.5
454.853	301.5
455.073	299.5
455.294	334.5
455.514	353.5
455.734	338.5
455.955	311.5
456.175	270.5
456.395	296.5
456.616	289.5
456.836	289.5
457.056	275.5
457.276	273.5
457.497	261.5
457.717	271.5
457.937	265.5
458.157	279.5
458.377	300.5
458.598	296.5
458.818	350.5
459.038	402.5
459.258	390.5
459.478	344.5
459.698	301.5
459.918	303.5
460.138	287.5
460.358	306.5
460.578	303.5
460.798	273.5
461.018	299.5
461.238	301.5
461.458	295.5
461.678	288.5
461.898	287.5
462.118	305.5
462.338	305.5
462.558	313.5
462.777	302.5
462.997	313.5
463.217	309.5
463.437	298.5
463.657	305.5
463.876	320.5
464.096	313.5
464.316	316.5
464.536	319.5
464.755	327.5
464.975	329.5
465.195	354.5
465.414	383.5
465.634	338.5
465.854	335.5
466.073	309.5
466.293	307.5
466.512	298.5
466.732	298.5
466.951	300.5
467.171	285.5
467.391	300.5
467.61	308.5
467.829	305.5
468.049	311.5
468.268	294.5
468.488	286.5
468.707	282.5
468.927	290.5
469.146	299.5
469.365	295.5
469.585	282.5
469.804	308.5
470.023	313.5
470.243	301.5
470.462	299.5
470.681	291.5
470.901	316.5
471.12	302.5
471.339	322.5
471.558	300.5
471.777	301.5
471.997	295.5
472.216	299.5
472.435	348.5
472.654	311.5
472.873	303.5
473.092	298.5
473.311	286.5
473.53	284.5
473.749	303.5
473.968	336.5
474.187	400.5
474.406	401.5
474.625	333.5
474.844	313.5
475.063	314.5
475.282	299.5
475.501	301.5
475.72	313.5
475.939	309.5
476.158	300.5
476.377	294.5
476.596	308.5
476.814	307.5
477.033	313.5
477.252	305.5
477.471	301.5
477.69	296.5
477.908	319.5
478.127	321.5
478.346	305.5
478.564	321.5
478.783	316.5
479.002	342.5
479.22	322.5
479.439	342.5
479.658	354.5
479.876	344.5
480.095	356.5
480.313	370.5
480.532	363.5
480.751	362.5
480.969	377.5
481.188	405.5
481.406	442.5
481.624	374.5
481.843	369.5
482.061	361.5
482.28	348.5
482.498	357.5
482.717	335.5
482.935	351.5
483.153	342.5
483.372	348.5
483.59	353.5
483.808	331.5
484.027	350.5
484.245	339.5
484.463	340.5
484.681	364.5
484.9	356.5
485.118	356.5
485.336	359.5
485.554	363.5
485.772	355.5
485.99	356.5
486.209	349.5
486.427	349.5
486.645	355.5
486.863	363.5
487.081	377.5
487.299	385.5
487.517	370.5
487.735	358.5
487.953	369.5
488.171	359.5
488.389	368.5
488.607	357.5
488.825	375.5
489.043	383.5
489.261	386.5
489.479	378.5
489.696	378.5
489.914	357.5
490.132	391.5
490.35	375.5
490.568	375.5
490.786	382.5
491.003	407.5
491.221	399.5
491.439	395.5
491.657	421.5
491.874	435.5
492.092	410.5
492.31	427.5
492.527	439.5
492.745	410.5
492.963	411.5
493.18	414.5
493.398	423.5
493.615	411.5
493.833	423.5
494.05	429.5
494.268	420.5
494.485	419.5
494.703	436.5
494.92	413.5
495.138	429.5
495.355	421.5
495.573	445.5
495.79	439.5
496.008	441.5
496.225	430.5
496.442	443.5
496.66	448.5
496.877	433.5
497.094	455.5
497.312	437.5
497.529	456.5
497.746	459.5
497.963	437.5
498.181	483.5
498.398	459.5
498.615	456.5
498.832	458.5
499.049	470.5
499.267	487.5
499.484	478.5
499.701	474.5
499.918	503.5
500.135	544.5
500.352	531.5
500.569	526.5
500.786	522.5
501.003	521.5
501.22	536.5
501.437	517.5
501.654	519.5
501.871	536.5
502.088	489.5
502.305	482.5
502.522	467.5
502.739	471.5
502.956	464.5
503.172	443.5
503.389	441.5
503.606	446.5
503.823	435.5
504.04	443.5
504.256	443.5
504.473	434.5
504.69	426.5
504.907	449.5
505.123	425.5
505.34	420.5
505.557	415.5
505.773	418.5
505.99	415.5
506.207	415.5
506.423	414.5
506.64	421.5
506.856	429.5
507.073	407.5
507.289	430.5
507.506	409.5
507.722	429.5
507.939	435.5
508.155	421.5
508.372	393.5
508.588	415.5
508.805	393.5
509.021	399.5
509.238	416.5
509.454	406.5
509.67	398.5
509.887	409.5
510.103	417.5
510.319	424.5
510.536	489.5
510.752	791.5
510.968	627.5
511.184	430.5
511.401	381.5
511.617	416.5
511.833	375.5
512.049	396.5
512.265	376.5
512.481	387.5
512.698	399.5
512.914	393.5
513.13	394.5
513.346	370.5
513.562	386.5
513.778	380.5
513.994	394.5
514.21	408.5
514.426	436.5
514.642	446.5
514.858	463.5
515.074	511.5
515.29	588.5
515.506	891.5
515.721	720.5
515.937	490.5
516.153	430.5
516.369	418.5
516.585	394.5
516.801	410.5
517.016	410.5
517.232	390.5
517.448	397.5
517.664	381.5
517.879	387.5
518.095	383.5
518.311	365.5
518.527	381.5
518.742	393.5
518.958	406.5
519.173	389.5
519.389	379.5
519.605	391.5
519.82	386.5
520.036	408.5
