Data from 1982.PennyLincolnUp.Lamp.En5.5.200Scan.071819.P1_HRD10591_16-47-27-962.txt Node
Date: Thu Jul 18 16:47:27 EDT 2019
User: cochatt
Spectrometer: HR+D1059
Trigger mode: 1
Integration Time (sec): 1.000000E-1
Scans to average: 1
Electric dark correction enabled: true
Nonlinearity correction enabled: false
Boxcar width: 0
XAxis mode: Wavelengths
Number of Pixels in Spectrum: 2048
>>>>>Begin Spectral Data<<<<<
223.165	-24.25
223.4	-24.25
223.635	-24.25
223.869	-6.25
224.104	-21.25
224.338	-13.25
224.573	-12.25
224.808	-12.25
225.042	-6.25
225.277	-4.25
225.511	0.75
225.746	0.75
225.98	8.75
226.215	14.75
226.449	7.75
226.683	18.75
226.918	21.75
227.152	26.75
227.387	29.75
227.621	36.75
227.856	42.75
228.09	46.75
228.324	54.75
228.559	57.75
228.793	68.75
229.027	93.75
229.262	102.75
229.496	106.75
229.73	107.75
229.964	125.75
230.199	119.75
230.433	102.75
230.667	107.75
230.901	107.75
231.136	93.75
231.37	102.75
231.604	104.75
231.838	105.75
232.072	88.75
232.306	86.75
232.541	97.75
232.775	104.75
233.009	104.75
233.243	105.75
233.477	99.75
233.711	119.75
233.945	108.75
234.179	111.75
234.413	116.75
234.647	99.75
234.881	94.75
235.115	102.75
235.349	123.75
235.583	105.75
235.817	104.75
236.051	103.75
236.285	120.75
236.519	106.75
236.753	119.75
236.987	110.75
237.221	152.75
237.455	178.75
237.689	133.75
237.922	117.75
238.156	110.75
238.39	111.75
238.624	122.75
238.858	113.75
239.091	106.75
239.325	124.75
239.559	106.75
239.793	117.75
240.027	119.75
240.26	129.75
240.494	141.75
240.728	135.75
240.961	132.75
241.195	115.75
241.429	139.75
241.662	108.75
241.896	92.75
242.13	131.75
242.363	131.75
242.597	114.75
242.83	117.75
243.064	119.75
243.298	121.75
243.531	126.75
243.765	124.75
243.998	125.75
244.232	124.75
244.465	136.75
244.699	130.75
244.932	127.75
245.166	107.75
245.399	137.75
245.633	124.75
245.866	117.75
246.099	129.75
246.333	123.75
246.566	122.75
246.8	135.75
247.033	121.75
247.266	131.75
247.5	148.75
247.733	139.75
247.966	139.75
248.2	141.75
248.433	142.75
248.666	150.75
248.899	167.75
249.133	171.75
249.366	171.75
249.599	160.75
249.832	148.75
250.066	163.75
250.299	146.75
250.532	167.75
250.765	169.75
250.998	178.75
251.231	184.75
251.465	191.75
251.698	180.75
251.931	167.75
252.164	159.75
252.397	166.75
252.63	159.75
252.863	185.75
253.096	175.75
253.329	199.75
253.562	180.75
253.795	190.75
254.028	184.75
254.261	190.75
254.494	185.75
254.727	211.75
254.96	228.75
255.193	229.75
255.426	203.75
255.659	199.75
255.892	183.75
256.124	189.75
256.357	199.75
256.59	170.75
256.823	185.75
257.056	179.75
257.289	173.75
257.521	165.75
257.754	156.75
257.987	170.75
258.22	175.75
258.452	174.75
258.685	174.75
258.918	185.75
259.151	182.75
259.383	178.75
259.616	193.75
259.849	199.75
260.081	201.75
260.314	203.75
260.547	216.75
260.779	211.75
261.012	185.75
261.244	185.75
261.477	186.75
261.71	197.75
261.942	184.75
262.175	197.75
262.407	183.75
262.64	166.75
262.872	202.75
263.105	190.75
263.337	170.75
263.57	183.75
263.802	188.75
264.035	178.75
264.267	171.75
264.499	174.75
264.732	192.75
264.964	168.75
265.197	168.75
265.429	155.75
265.661	179.75
265.894	185.75
266.126	184.75
266.358	166.75
266.591	166.75
266.823	181.75
267.055	183.75
267.287	173.75
267.52	199.75
267.752	183.75
267.984	193.75
268.216	190.75
268.448	183.75
268.681	190.75
268.913	216.75
269.145	218.75
269.377	216.75
269.609	213.75
269.841	213.75
270.073	241.75
270.306	235.75
270.538	251.75
270.77	256.75
271.002	241.75
271.234	236.75
271.466	249.75
271.698	248.75
271.93	241.75
272.162	258.75
272.394	242.75
272.626	249.75
272.858	244.75
273.09	242.75
273.322	219.75
273.553	227.75
273.785	217.75
274.017	193.75
274.249	204.75
274.481	214.75
274.713	210.75
274.945	208.75
275.176	230.75
275.408	218.75
275.64	206.75
275.872	203.75
276.104	201.75
276.335	214.75
276.567	234.75
276.799	253.75
277.031	257.75
277.262	265.75
277.494	263.75
277.726	229.75
277.957	243.75
278.189	211.75
278.421	205.75
278.652	214.75
278.884	217.75
279.115	225.75
279.347	223.75
279.579	215.75
279.81	215.75
280.042	205.75
280.273	234.75
280.505	221.75
280.736	217.75
280.968	221.75
281.199	216.75
281.431	220.75
281.662	219.75
281.894	227.75
282.125	229.75
282.356	235.75
282.588	249.75
282.819	246.75
283.051	218.75
283.282	206.75
283.513	224.75
283.745	215.75
283.976	222.75
284.207	239.75
284.439	228.75
284.67	235.75
284.901	208.75
285.132	233.75
285.364	234.75
285.595	208.75
285.826	214.75
286.057	207.75
286.288	218.75
286.52	236.75
286.751	227.75
286.982	222.75
287.213	220.75
287.444	225.75
287.675	211.75
287.906	235.75
288.138	235.75
288.369	242.75
288.6	233.75
288.831	233.75
289.062	233.75
289.293	247.75
289.524	256.75
289.755	245.75
289.986	239.75
290.217	229.75
290.448	235.75
290.679	212.75
290.91	234.75
291.141	230.75
291.371	248.75
291.602	225.75
291.833	226.75
292.064	216.75
292.295	246.75
292.526	227.75
292.757	249.75
292.987	232.75
293.218	243.75
293.449	234.75
293.68	231.75
293.91	241.75
294.141	225.75
294.372	225.75
294.603	212.75
294.833	225.75
295.064	226.75
295.295	231.75
295.525	225.75
295.756	233.75
295.987	246.75
296.217	256.75
296.448	263.75
296.679	258.75
296.909	235.75
297.14	222.75
297.37	222.75
297.601	237.75
297.831	244.75
298.062	260.75
298.292	231.75
298.523	213.75
298.753	252.75
298.984	227.75
299.214	239.75
299.445	237.75
299.675	259.75
299.905	236.75
300.136	241.75
300.366	241.75
300.597	252.75
300.827	249.75
301.057	254.75
301.288	266.75
301.518	263.75
301.748	238.75
301.979	248.75
302.209	236.75
302.439	267.75
302.669	271.75
302.9	242.75
303.13	261.75
303.36	253.75
303.59	251.75
303.82	256.75
304.051	251.75
304.281	259.75
304.511	250.75
304.741	235.75
304.971	248.75
305.201	245.75
305.431	268.75
305.661	260.75
305.891	259.75
306.121	279.75
306.352	277.75
306.582	283.75
306.812	248.75
307.042	260.75
307.272	253.75
307.502	271.75
307.731	286.75
307.961	265.75
308.191	243.75
308.421	262.75
308.651	263.75
308.881	263.75
309.111	266.75
309.341	277.75
309.571	276.75
309.8	300.75
310.03	302.75
310.26	297.75
310.49	274.75
310.72	305.75
310.949	319.75
311.179	322.75
311.409	301.75
311.639	305.75
311.868	306.75
312.098	295.75
312.328	316.75
312.557	328.75
312.787	317.75
313.017	318.75
313.246	305.75
313.476	310.75
313.706	294.75
313.935	320.75
314.165	305.75
314.394	326.75
314.624	307.75
314.853	293.75
315.083	305.75
315.312	313.75
315.542	302.75
315.771	290.75
316.001	287.75
316.23	312.75
316.46	302.75
316.689	305.75
316.919	307.75
317.148	313.75
317.377	293.75
317.607	334.75
317.836	317.75
318.065	300.75
318.295	313.75
318.524	310.75
318.753	294.75
318.983	311.75
319.212	296.75
319.441	300.75
319.67	302.75
319.9	312.75
320.129	317.75
320.358	299.75
320.587	318.75
320.816	314.75
321.046	313.75
321.275	346.75
321.504	336.75
321.733	336.75
321.962	321.75
322.191	331.75
322.42	349.75
322.649	361.75
322.878	376.75
323.108	380.75
323.337	399.75
323.566	405.75
323.795	445.75
324.024	503.75
324.253	651.75
324.482	935.75
324.71	1409.75
324.939	1865.75
325.168	1463.75
325.397	782.75
325.626	554.75
325.855	467.75
326.084	435.75
326.313	411.75
326.542	433.75
326.77	490.75
326.999	597.75
327.228	835.75
327.457	1212.75
327.686	1333.75
327.914	885.75
328.143	591.75
328.372	535.75
328.6	480.75
328.829	461.75
329.058	473.75
329.287	491.75
329.515	444.75
329.744	430.75
329.972	419.75
330.201	435.75
330.43	474.75
330.658	464.75
330.887	508.75
331.115	469.75
331.344	425.75
331.572	375.75
331.801	386.75
332.03	396.75
332.258	370.75
332.486	358.75
332.715	363.75
332.943	345.75
333.172	343.75
333.4	370.75
333.629	357.75
333.857	376.75
334.085	389.75
334.314	399.75
334.542	417.75
334.771	405.75
334.999	381.75
335.227	366.75
335.455	366.75
335.684	338.75
335.912	339.75
336.14	328.75
336.369	347.75
336.597	358.75
336.825	354.75
337.053	345.75
337.281	325.75
337.51	337.75
337.738	347.75
337.966	343.75
338.194	349.75
338.422	342.75
338.65	335.75
338.878	329.75
339.106	331.75
339.334	331.75
339.562	333.75
339.79	333.75
340.018	326.75
340.246	346.75
340.474	343.75
340.702	331.75
340.93	331.75
341.158	313.75
341.386	336.75
341.614	325.75
341.842	318.75
342.07	308.75
342.298	302.75
342.526	323.75
342.754	318.75
342.981	323.75
343.209	331.75
343.437	323.75
343.665	323.75
343.893	331.75
344.12	312.75
344.348	325.75
344.576	327.75
344.804	341.75
345.031	329.75
345.259	342.75
345.487	355.75
345.714	333.75
345.942	323.75
346.17	317.75
346.397	322.75
346.625	309.75
346.853	323.75
347.08	318.75
347.308	327.75
347.535	332.75
347.763	334.75
347.99	324.75
348.218	339.75
348.445	343.75
348.673	350.75
348.9	323.75
349.128	319.75
349.355	289.75
349.583	319.75
349.81	299.75
350.037	308.75
350.265	312.75
350.492	302.75
350.72	306.75
350.947	312.75
351.174	334.75
351.402	334.75
351.629	331.75
351.856	318.75
352.083	319.75
352.311	335.75
352.538	338.75
352.765	324.75
352.992	315.75
353.22	325.75
353.447	304.75
353.674	318.75
353.901	310.75
354.128	298.75
354.355	277.75
354.583	290.75
354.81	291.75
355.037	306.75
355.264	295.75
355.491	284.75
355.718	283.75
355.945	289.75
356.172	282.75
356.399	295.75
356.626	293.75
356.853	285.75
357.08	273.75
357.307	297.75
357.534	261.75
357.761	299.75
357.988	291.75
358.215	292.75
358.441	290.75
358.668	284.75
358.895	293.75
359.122	286.75
359.349	301.75
359.576	326.75
359.802	322.75
360.029	346.75
360.256	366.75
360.483	346.75
360.709	301.75
360.936	320.75
361.163	318.75
361.39	313.75
361.616	320.75
361.843	310.75
362.07	314.75
362.296	314.75
362.523	283.75
362.749	302.75
362.976	309.75
363.203	311.75
363.429	281.75
363.656	310.75
363.882	292.75
364.109	277.75
364.335	293.75
364.562	290.75
364.788	291.75
365.015	288.75
365.241	311.75
365.468	317.75
365.694	285.75
365.92	308.75
366.147	279.75
366.373	280.75
366.599	305.75
366.826	301.75
367.052	301.75
367.278	281.75
367.505	299.75
367.731	291.75
367.957	289.75
368.184	277.75
368.41	280.75
368.636	302.75
368.862	319.75
369.089	269.75
369.315	288.75
369.541	274.75
369.767	291.75
369.993	281.75
370.219	291.75
370.445	287.75
370.672	269.75
370.898	289.75
371.124	292.75
371.35	269.75
371.576	271.75
371.802	287.75
372.028	270.75
372.254	258.75
372.48	262.75
372.706	271.75
372.932	280.75
373.158	277.75
373.384	297.75
373.61	282.75
373.835	291.75
374.061	276.75
374.287	290.75
374.513	282.75
374.739	272.75
374.965	266.75
375.191	275.75
375.416	259.75
375.642	285.75
375.868	257.75
376.094	293.75
376.319	272.75
376.545	265.75
376.771	277.75
376.997	275.75
377.222	275.75
377.448	269.75
377.674	288.75
377.899	257.75
378.125	277.75
378.35	280.75
378.576	281.75
378.802	271.75
379.027	257.75
379.253	283.75
379.478	274.75
379.704	254.75
379.929	286.75
380.155	283.75
380.38	274.75
380.606	277.75
380.831	277.75
381.057	286.75
381.282	278.75
381.507	284.75
381.733	274.75
381.958	277.75
382.184	290.75
382.409	295.75
382.634	279.75
382.86	286.75
383.085	271.75
383.31	283.75
383.535	292.75
383.761	300.75
383.986	268.75
384.211	286.75
384.436	277.75
384.662	299.75
384.887	295.75
385.112	294.75
385.337	277.75
385.562	295.75
385.787	278.75
386.013	297.75
386.238	302.75
386.463	298.75
386.688	305.75
386.913	279.75
387.138	282.75
387.363	293.75
387.588	285.75
387.813	316.75
388.038	291.75
388.263	289.75
388.488	281.75
388.713	301.75
388.938	279.75
389.163	296.75
389.387	292.75
389.612	275.75
389.837	271.75
390.062	282.75
390.287	277.75
390.512	276.75
390.736	269.75
390.961	287.75
391.186	281.75
391.411	273.75
391.636	297.75
391.86	284.75
392.085	294.75
392.31	278.75
392.534	301.75
392.759	298.75
392.984	292.75
393.208	299.75
393.433	292.75
393.658	277.75
393.882	269.75
394.107	289.75
394.331	291.75
394.556	270.75
394.78	275.75
395.005	300.75
395.229	290.75
395.454	303.75
395.678	311.75
395.903	303.75
396.127	311.75
396.352	311.75
396.576	314.75
396.801	302.75
397.025	297.75
397.249	290.75
397.474	300.75
397.698	321.75
397.922	307.75
398.147	326.75
398.371	318.75
398.595	306.75
398.82	300.75
399.044	327.75
399.268	321.75
399.492	328.75
399.717	364.75
399.941	378.75
400.165	377.75
400.389	385.75
400.613	357.75
400.837	327.75
401.062	326.75
401.286	328.75
401.51	310.75
401.734	323.75
401.958	329.75
402.182	329.75
402.406	329.75
402.63	333.75
402.854	335.75
403.078	319.75
403.302	318.75
403.526	331.75
403.75	339.75
403.974	321.75
404.198	323.75
404.422	340.75
404.645	327.75
404.869	338.75
405.093	353.75
405.317	378.75
405.541	403.75
405.765	371.75
405.988	345.75
406.212	379.75
406.436	358.75
406.66	366.75
406.883	350.75
407.107	375.75
407.331	383.75
407.555	442.75
407.778	447.75
408.002	412.75
408.226	377.75
408.449	375.75
408.673	363.75
408.896	371.75
409.12	411.75
409.344	394.75
409.567	335.75
409.791	326.75
410.014	335.75
410.238	342.75
410.461	327.75
410.685	351.75
410.908	334.75
411.132	357.75
411.355	383.75
411.578	353.75
411.802	341.75
412.025	314.75
412.249	344.75
412.472	366.75
412.695	391.75
412.919	371.75
413.142	336.75
413.365	333.75
413.589	331.75
413.812	307.75
414.035	315.75
414.258	300.75
414.482	299.75
414.705	315.75
414.928	325.75
415.151	311.75
415.374	298.75
415.597	316.75
415.821	305.75
416.044	319.75
416.267	324.75
416.49	311.75
416.713	307.75
416.936	327.75
417.159	298.75
417.382	332.75
417.605	314.75
417.828	331.75
418.051	321.75
418.274	322.75
418.497	327.75
418.72	329.75
418.943	316.75
419.166	313.75
419.389	325.75
419.611	343.75
419.834	335.75
420.057	322.75
420.28	351.75
420.503	320.75
420.726	327.75
420.948	332.75
421.171	358.75
421.394	390.75
421.617	341.75
421.839	320.75
422.062	332.75
422.285	355.75
422.507	369.75
422.73	432.75
422.953	393.75
423.175	348.75
423.398	341.75
423.621	316.75
423.843	376.75
424.066	356.75
424.288	353.75
424.511	355.75
424.733	412.75
424.956	459.75
425.178	446.75
425.401	420.75
425.623	446.75
425.846	375.75
426.068	341.75
426.291	367.75
426.513	369.75
426.735	375.75
426.958	407.75
427.18	467.75
427.402	531.75
427.625	586.75
427.847	505.75
428.069	437.75
428.292	373.75
428.514	367.75
428.736	348.75
428.958	361.75
429.181	354.75
429.403	325.75
429.625	333.75
429.847	351.75
430.069	411.75
430.292	389.75
430.514	347.75
430.736	338.75
430.958	320.75
431.18	332.75
431.402	301.75
431.624	319.75
431.846	307.75
432.068	311.75
432.29	301.75
432.512	318.75
432.734	311.75
432.956	307.75
433.178	323.75
433.4	329.75
433.622	313.75
433.844	315.75
434.066	297.75
434.287	309.75
434.509	331.75
434.731	335.75
434.953	320.75
435.175	343.75
435.397	359.75
435.618	372.75
435.84	395.75
436.062	444.75
436.284	468.75
436.505	404.75
436.727	382.75
436.949	343.75
437.17	343.75
437.392	339.75
437.614	360.75
437.835	385.75
438.057	438.75
438.278	515.75
438.5	497.75
438.721	535.75
438.943	509.75
439.165	397.75
439.386	377.75
439.608	382.75
439.829	367.75
440.05	401.75
440.272	426.75
440.493	417.75
440.715	351.75
440.936	343.75
441.158	323.75
441.379	347.75
441.6	371.75
441.822	357.75
442.043	390.75
442.264	441.75
442.486	475.75
442.707	397.75
442.928	381.75
443.149	387.75
443.371	397.75
443.592	418.75
443.813	488.75
444.034	503.75
444.255	424.75
444.476	370.75
444.698	357.75
444.919	371.75
445.14	457.75
445.361	416.75
445.582	390.75
445.803	441.75
446.024	514.75
446.245	527.75
446.466	469.75
446.687	389.75
446.908	378.75
447.129	354.75
447.35	351.75
447.571	367.75
447.792	331.75
448.013	348.75
448.234	374.75
448.455	382.75
448.675	476.75
448.896	545.75
449.117	449.75
449.338	427.75
449.559	509.75
449.779	568.75
450	426.75
450.221	379.75
450.442	350.75
450.662	346.75
450.883	322.75
451.104	340.75
451.324	340.75
451.545	318.75
451.766	312.75
451.986	303.75
452.207	315.75
452.428	307.75
452.648	297.75
452.869	311.75
453.089	301.75
453.31	315.75
453.53	299.75
453.751	311.75
453.971	319.75
454.192	314.75
454.412	325.75
454.633	293.75
454.853	295.75
455.073	315.75
455.294	337.75
455.514	381.75
455.734	361.75
455.955	309.75
456.175	301.75
456.395	286.75
456.616	302.75
456.836	284.75
457.056	291.75
457.276	288.75
457.497	296.75
457.717	276.75
457.937	298.75
458.157	281.75
458.377	298.75
458.598	319.75
458.818	365.75
459.038	402.75
459.258	403.75
459.478	361.75
459.698	307.75
459.918	295.75
460.138	301.75
460.358	311.75
460.578	335.75
460.798	321.75
461.018	326.75
461.238	313.75
461.458	298.75
461.678	308.75
461.898	305.75
462.118	301.75
462.338	297.75
462.558	296.75
462.777	324.75
462.997	314.75
463.217	321.75
463.437	315.75
463.657	326.75
463.876	317.75
464.096	320.75
464.316	319.75
464.536	332.75
464.755	303.75
464.975	331.75
465.195	366.75
465.414	445.75
465.634	376.75
465.854	325.75
466.073	328.75
466.293	315.75
466.512	305.75
466.732	310.75
466.951	313.75
467.171	293.75
467.391	316.75
467.61	309.75
467.829	313.75
468.049	321.75
468.268	314.75
468.488	309.75
468.707	306.75
468.927	280.75
469.146	284.75
469.365	280.75
469.585	296.75
469.804	294.75
470.023	310.75
470.243	306.75
470.462	316.75
470.681	342.75
470.901	306.75
471.12	315.75
471.339	331.75
471.558	324.75
471.777	316.75
471.997	281.75
472.216	296.75
472.435	325.75
472.654	316.75
472.873	310.75
473.092	295.75
473.311	310.75
473.53	306.75
473.749	319.75
473.968	355.75
474.187	414.75
474.406	433.75
474.625	358.75
474.844	327.75
475.063	311.75
475.282	314.75
475.501	305.75
475.72	322.75
475.939	318.75
476.158	337.75
476.377	314.75
476.596	311.75
476.814	326.75
477.033	331.75
477.252	341.75
477.471	323.75
477.69	324.75
477.908	335.75
478.127	356.75
478.346	365.75
478.564	332.75
478.783	334.75
479.002	326.75
479.22	357.75
479.439	364.75
479.658	385.75
479.876	355.75
480.095	370.75
480.313	407.75
480.532	381.75
480.751	367.75
480.969	365.75
481.188	437.75
481.406	450.75
481.624	384.75
481.843	378.75
482.061	358.75
482.28	362.75
482.498	364.75
482.717	353.75
482.935	349.75
483.153	369.75
483.372	365.75
483.59	360.75
483.808	364.75
484.027	371.75
484.245	364.75
484.463	358.75
484.681	376.75
484.9	371.75
485.118	346.75
485.336	385.75
485.554	371.75
485.772	371.75
485.99	370.75
486.209	364.75
486.427	371.75
486.645	378.75
486.863	383.75
487.081	395.75
487.299	390.75
487.517	403.75
487.735	379.75
487.953	379.75
488.171	381.75
488.389	388.75
488.607	389.75
488.825	381.75
489.043	381.75
489.261	398.75
489.479	380.75
489.696	384.75
489.914	381.75
490.132	395.75
490.35	382.75
490.568	385.75
490.786	406.75
491.003	414.75
491.221	403.75
491.439	423.75
491.657	436.75
491.874	422.75
492.092	435.75
492.31	455.75
492.527	445.75
492.745	438.75
492.963	456.75
493.18	435.75
493.398	444.75
493.615	443.75
493.833	444.75
494.05	452.75
494.268	447.75
494.485	443.75
494.703	445.75
494.92	458.75
495.138	472.75
495.355	436.75
495.573	456.75
495.79	441.75
496.008	452.75
496.225	445.75
496.442	442.75
496.66	450.75
496.877	433.75
497.094	463.75
497.312	460.75
497.529	462.75
497.746	482.75
497.963	473.75
498.181	483.75
498.398	508.75
498.615	506.75
498.832	478.75
499.049	487.75
499.267	486.75
499.484	512.75
499.701	525.75
499.918	527.75
500.135	540.75
500.352	574.75
500.569	533.75
500.786	559.75
501.003	567.75
501.22	549.75
501.437	534.75
501.654	558.75
501.871	540.75
502.088	530.75
