Data from 1982.PennyLincolnUp.Lamp.En5.5.200Scan.071819.P1_HRD10591_16-45-55-963.txt Node
Date: Thu Jul 18 16:45:55 EDT 2019
User: cochatt
Spectrometer: HR+D1059
Trigger mode: 1
Integration Time (sec): 1.000000E-1
Scans to average: 1
Electric dark correction enabled: true
Nonlinearity correction enabled: false
Boxcar width: 0
XAxis mode: Wavelengths
Number of Pixels in Spectrum: 2048
>>>>>Begin Spectral Data<<<<<
223.165	-11.94
223.4	-11.94
223.635	-11.94
223.869	-6.94
224.104	-11.94
224.338	-22.94
224.573	-20.94
224.808	-6.94
225.042	-15.94
225.277	-3.94
225.511	-5.94
225.746	-0.94
225.98	9.06
226.215	7.06
226.449	11.06
226.683	14.06
226.918	32.06
227.152	35.06
227.387	45.06
227.621	28.06
227.856	45.06
228.09	56.06
228.324	50.06
228.559	69.06
228.793	62.06
229.027	75.06
229.262	95.06
229.496	97.06
229.73	119.06
229.964	135.06
230.199	109.06
230.433	102.06
230.667	96.06
230.901	106.06
231.136	105.06
231.37	113.06
231.604	112.06
231.838	98.06
232.072	105.06
232.306	93.06
232.541	107.06
232.775	104.06
233.009	103.06
233.243	116.06
233.477	111.06
233.711	107.06
233.945	101.06
234.179	98.06
234.413	112.06
234.647	109.06
234.881	104.06
235.115	101.06
235.349	108.06
235.583	105.06
235.817	93.06
236.051	122.06
236.285	118.06
236.519	113.06
236.753	118.06
236.987	102.06
237.221	149.06
237.455	185.06
237.689	155.06
237.922	110.06
238.156	116.06
238.39	112.06
238.624	127.06
238.858	113.06
239.091	98.06
239.325	127.06
239.559	113.06
239.793	131.06
240.027	117.06
240.26	127.06
240.494	143.06
240.728	119.06
240.961	124.06
241.195	114.06
241.429	125.06
241.662	127.06
241.896	109.06
242.13	102.06
242.363	104.06
242.597	104.06
242.83	106.06
243.064	125.06
243.298	119.06
243.531	115.06
243.765	116.06
243.998	106.06
244.232	119.06
244.465	112.06
244.699	125.06
244.932	118.06
245.166	128.06
245.399	121.06
245.633	133.06
245.866	131.06
246.099	121.06
246.333	119.06
246.566	136.06
246.8	129.06
247.033	103.06
247.266	144.06
247.5	141.06
247.733	142.06
247.966	142.06
248.2	138.06
248.433	153.06
248.666	155.06
248.899	144.06
249.133	172.06
249.366	169.06
249.599	150.06
249.832	156.06
250.066	148.06
250.299	142.06
250.532	155.06
250.765	157.06
250.998	186.06
251.231	174.06
251.465	167.06
251.698	154.06
251.931	167.06
252.164	147.06
252.397	169.06
252.63	175.06
252.863	168.06
253.096	171.06
253.329	199.06
253.562	187.06
253.795	179.06
254.028	185.06
254.261	159.06
254.494	171.06
254.727	212.06
254.96	216.06
255.193	212.06
255.426	190.06
255.659	189.06
255.892	198.06
256.124	181.06
256.357	183.06
256.59	185.06
256.823	181.06
257.056	185.06
257.289	163.06
257.521	176.06
257.754	173.06
257.987	184.06
258.22	168.06
258.452	163.06
258.685	170.06
258.918	144.06
259.151	171.06
259.383	164.06
259.616	181.06
259.849	193.06
260.081	189.06
260.314	192.06
260.547	214.06
260.779	203.06
261.012	170.06
261.244	173.06
261.477	175.06
261.71	179.06
261.942	180.06
262.175	197.06
262.407	188.06
262.64	181.06
262.872	183.06
263.105	175.06
263.337	163.06
263.57	199.06
263.802	168.06
264.035	179.06
264.267	186.06
264.499	181.06
264.732	179.06
264.964	168.06
265.197	163.06
265.429	158.06
265.661	174.06
265.894	163.06
266.126	184.06
266.358	166.06
266.591	163.06
266.823	184.06
267.055	191.06
267.287	184.06
267.52	163.06
267.752	169.06
267.984	177.06
268.216	188.06
268.448	166.06
268.681	192.06
268.913	186.06
269.145	201.06
269.377	213.06
269.609	210.06
269.841	217.06
270.073	218.06
270.306	222.06
270.538	236.06
270.77	253.06
271.002	215.06
271.234	228.06
271.466	236.06
271.698	244.06
271.93	237.06
272.162	239.06
272.394	246.06
272.626	231.06
272.858	237.06
273.09	222.06
273.322	196.06
273.553	220.06
273.785	222.06
274.017	219.06
274.249	207.06
274.481	202.06
274.713	192.06
274.945	223.06
275.176	189.06
275.408	202.06
275.64	191.06
275.872	219.06
276.104	217.06
276.335	216.06
276.567	230.06
276.799	233.06
277.031	215.06
277.262	237.06
277.494	240.06
277.726	238.06
277.957	222.06
278.189	200.06
278.421	227.06
278.652	224.06
278.884	228.06
279.115	227.06
279.347	207.06
279.579	200.06
279.81	209.06
280.042	197.06
280.273	204.06
280.505	209.06
280.736	214.06
280.968	195.06
281.199	208.06
281.431	208.06
281.662	198.06
281.894	217.06
282.125	220.06
282.356	221.06
282.588	220.06
282.819	242.06
283.051	214.06
283.282	208.06
283.513	222.06
283.745	208.06
283.976	213.06
284.207	219.06
284.439	236.06
284.67	210.06
284.901	218.06
285.132	218.06
285.364	230.06
285.595	222.06
285.826	199.06
286.057	223.06
286.288	204.06
286.52	219.06
286.751	221.06
286.982	221.06
287.213	202.06
287.444	218.06
287.675	216.06
287.906	234.06
288.138	239.06
288.369	248.06
288.6	228.06
288.831	224.06
289.062	227.06
289.293	224.06
289.524	226.06
289.755	214.06
289.986	216.06
290.217	213.06
290.448	220.06
290.679	223.06
290.91	227.06
291.141	213.06
291.371	230.06
291.602	238.06
291.833	233.06
292.064	223.06
292.295	220.06
292.526	224.06
292.757	213.06
292.987	214.06
293.218	209.06
293.449	223.06
293.68	234.06
293.91	230.06
294.141	244.06
294.372	195.06
294.603	235.06
294.833	215.06
295.064	235.06
295.295	231.06
295.525	229.06
295.756	208.06
295.987	255.06
296.217	250.06
296.448	254.06
296.679	243.06
296.909	228.06
297.14	235.06
297.37	217.06
297.601	224.06
297.831	224.06
298.062	240.06
298.292	231.06
298.523	226.06
298.753	235.06
298.984	238.06
299.214	239.06
299.445	234.06
299.675	216.06
299.905	223.06
300.136	225.06
300.366	234.06
300.597	229.06
300.827	252.06
301.057	251.06
301.288	255.06
301.518	247.06
301.748	243.06
301.979	251.06
302.209	243.06
302.439	245.06
302.669	251.06
302.9	250.06
303.13	241.06
303.36	235.06
303.59	255.06
303.82	259.06
304.051	251.06
304.281	254.06
304.511	240.06
304.741	243.06
304.971	247.06
305.201	237.06
305.431	246.06
305.661	245.06
305.891	245.06
306.121	252.06
306.352	247.06
306.582	262.06
306.812	249.06
307.042	265.06
307.272	251.06
307.502	259.06
307.731	266.06
307.961	252.06
308.191	248.06
308.421	277.06
308.651	259.06
308.881	263.06
309.111	255.06
309.341	246.06
309.571	273.06
309.8	284.06
310.03	286.06
310.26	283.06
310.49	293.06
310.72	298.06
310.949	298.06
311.179	315.06
311.409	275.06
311.639	295.06
311.868	282.06
312.098	291.06
312.328	291.06
312.557	309.06
312.787	309.06
313.017	297.06
313.246	301.06
313.476	272.06
313.706	289.06
313.935	292.06
314.165	284.06
314.394	296.06
314.624	301.06
314.853	292.06
315.083	302.06
315.312	280.06
315.542	299.06
315.771	294.06
316.001	270.06
316.23	289.06
316.46	299.06
316.689	298.06
316.919	289.06
317.148	288.06
317.377	280.06
317.607	305.06
317.836	297.06
318.065	285.06
318.295	279.06
318.524	280.06
318.753	285.06
318.983	286.06
319.212	290.06
319.441	288.06
319.67	288.06
319.9	297.06
320.129	296.06
320.358	301.06
320.587	275.06
320.816	311.06
321.046	294.06
321.275	312.06
321.504	313.06
321.733	326.06
321.962	307.06
322.191	311.06
322.42	355.06
322.649	344.06
322.878	349.06
323.108	367.06
323.337	375.06
323.566	405.06
323.795	428.06
324.024	473.06
324.253	596.06
324.482	855.06
324.71	1307.06
324.939	1662.06
325.168	1372.06
325.397	749.06
325.626	503.06
325.855	433.06
326.084	393.06
326.313	394.06
326.542	408.06
326.77	443.06
326.999	537.06
327.228	749.06
327.457	1098.06
327.686	1215.06
327.914	795.06
328.143	536.06
328.372	479.06
328.6	459.06
328.829	437.06
329.058	448.06
329.287	462.06
329.515	408.06
329.744	387.06
329.972	412.06
330.201	396.06
330.43	437.06
330.658	456.06
330.887	457.06
331.115	460.06
331.344	378.06
331.572	374.06
331.801	365.06
332.03	379.06
332.258	332.06
332.486	350.06
332.715	363.06
332.943	329.06
333.172	343.06
333.4	336.06
333.629	341.06
333.857	349.06
334.085	355.06
334.314	360.06
334.542	389.06
334.771	367.06
334.999	359.06
335.227	344.06
335.455	350.06
335.684	328.06
335.912	328.06
336.14	332.06
336.369	304.06
336.597	328.06
336.825	334.06
337.053	344.06
337.281	337.06
337.51	314.06
337.738	324.06
337.966	319.06
338.194	330.06
338.422	332.06
338.65	319.06
338.878	308.06
339.106	312.06
339.334	317.06
339.562	337.06
339.79	313.06
340.018	321.06
340.246	307.06
340.474	331.06
340.702	315.06
340.93	316.06
341.158	319.06
341.386	320.06
341.614	307.06
341.842	323.06
342.07	312.06
342.298	304.06
342.526	307.06
342.754	315.06
342.981	306.06
343.209	307.06
343.437	301.06
343.665	315.06
343.893	305.06
344.12	329.06
344.348	312.06
344.576	324.06
344.804	335.06
345.031	327.06
345.259	332.06
345.487	323.06
345.714	327.06
345.942	295.06
346.17	305.06
346.397	319.06
346.625	315.06
346.853	310.06
347.08	318.06
347.308	299.06
347.535	319.06
347.763	320.06
347.99	322.06
348.218	323.06
348.445	325.06
348.673	323.06
348.9	305.06
349.128	305.06
349.355	283.06
349.583	294.06
349.81	295.06
350.037	292.06
350.265	287.06
350.492	312.06
350.72	295.06
350.947	321.06
351.174	297.06
351.402	325.06
351.629	309.06
351.856	289.06
352.083	300.06
352.311	305.06
352.538	311.06
352.765	313.06
352.992	327.06
353.22	315.06
353.447	307.06
353.674	276.06
353.901	304.06
354.128	273.06
354.355	277.06
354.583	259.06
354.81	264.06
355.037	275.06
355.264	268.06
355.491	293.06
355.718	284.06
355.945	274.06
356.172	277.06
356.399	286.06
356.626	270.06
356.853	264.06
357.08	281.06
357.307	263.06
357.534	276.06
357.761	287.06
357.988	301.06
358.215	296.06
358.441	263.06
358.668	257.06
358.895	286.06
359.122	272.06
359.349	295.06
359.576	321.06
359.802	303.06
360.029	315.06
360.256	325.06
360.483	329.06
360.709	300.06
360.936	302.06
361.163	300.06
361.39	293.06
361.616	305.06
361.843	289.06
362.07	311.06
362.296	311.06
362.523	289.06
362.749	309.06
362.976	293.06
363.203	294.06
363.429	276.06
363.656	281.06
363.882	272.06
364.109	286.06
364.335	281.06
364.562	273.06
364.788	279.06
365.015	278.06
365.241	272.06
365.468	272.06
365.694	267.06
365.92	300.06
366.147	278.06
366.373	280.06
366.599	284.06
366.826	283.06
367.052	269.06
367.278	267.06
367.505	278.06
367.731	285.06
367.957	294.06
368.184	283.06
368.41	286.06
368.636	283.06
368.862	305.06
369.089	283.06
369.315	278.06
369.541	276.06
369.767	271.06
369.993	274.06
370.219	267.06
370.445	293.06
370.672	283.06
370.898	281.06
371.124	272.06
371.35	267.06
371.576	269.06
371.802	267.06
372.028	279.06
372.254	272.06
372.48	271.06
372.706	273.06
372.932	286.06
373.158	281.06
373.384	284.06
373.61	300.06
373.835	276.06
374.061	268.06
374.287	253.06
374.513	259.06
374.739	295.06
374.965	285.06
375.191	289.06
375.416	288.06
375.642	276.06
375.868	269.06
376.094	265.06
376.319	260.06
376.545	279.06
376.771	269.06
376.997	279.06
377.222	280.06
377.448	264.06
377.674	283.06
377.899	265.06
378.125	263.06
378.35	270.06
378.576	253.06
378.802	254.06
379.027	266.06
379.253	262.06
379.478	270.06
379.704	272.06
379.929	273.06
380.155	271.06
380.38	254.06
380.606	270.06
380.831	280.06
381.057	271.06
381.282	256.06
381.507	263.06
381.733	273.06
381.958	268.06
382.184	282.06
382.409	273.06
382.634	281.06
382.86	286.06
383.085	275.06
383.31	283.06
383.535	283.06
383.761	286.06
383.986	282.06
384.211	280.06
384.436	282.06
384.662	266.06
384.887	289.06
385.112	267.06
385.337	263.06
385.562	287.06
385.787	296.06
386.013	289.06
386.238	286.06
386.463	300.06
386.688	288.06
386.913	283.06
387.138	284.06
387.363	283.06
387.588	276.06
387.813	284.06
388.038	293.06
388.263	275.06
388.488	294.06
388.713	276.06
388.938	301.06
389.163	290.06
389.387	297.06
389.612	281.06
389.837	299.06
390.062	288.06
390.287	287.06
390.512	277.06
390.736	275.06
390.961	287.06
391.186	293.06
391.411	285.06
391.636	284.06
391.86	292.06
392.085	288.06
392.31	296.06
392.534	271.06
392.759	268.06
392.984	296.06
393.208	297.06
393.433	269.06
393.658	261.06
393.882	276.06
394.107	287.06
394.331	273.06
394.556	292.06
394.78	293.06
395.005	298.06
395.229	279.06
395.454	287.06
395.678	296.06
395.903	291.06
396.127	287.06
396.352	288.06
396.576	286.06
396.801	295.06
397.025	288.06
397.249	280.06
397.474	284.06
397.698	294.06
397.922	313.06
398.147	308.06
398.371	300.06
398.595	301.06
398.82	294.06
399.044	301.06
399.268	328.06
399.492	327.06
399.717	328.06
399.941	365.06
400.165	383.06
400.389	371.06
400.613	359.06
400.837	334.06
401.062	317.06
401.286	318.06
401.51	317.06
401.734	299.06
401.958	335.06
402.182	329.06
402.406	317.06
402.63	327.06
402.854	326.06
403.078	308.06
403.302	304.06
403.526	329.06
403.75	314.06
403.974	305.06
404.198	313.06
404.422	308.06
404.645	313.06
404.869	343.06
405.093	344.06
405.317	378.06
405.541	383.06
405.765	357.06
405.988	335.06
406.212	345.06
406.436	368.06
406.66	353.06
406.883	357.06
407.107	379.06
407.331	405.06
407.555	435.06
407.778	423.06
408.002	395.06
408.226	347.06
408.449	355.06
408.673	362.06
408.896	372.06
409.12	387.06
409.344	372.06
409.567	328.06
409.791	340.06
410.014	341.06
410.238	316.06
410.461	326.06
410.685	327.06
410.908	355.06
411.132	371.06
411.355	375.06
411.578	360.06
411.802	335.06
412.025	344.06
412.249	335.06
412.472	337.06
412.695	351.06
412.919	333.06
413.142	316.06
413.365	328.06
413.589	318.06
413.812	328.06
414.035	304.06
414.258	311.06
414.482	296.06
414.705	295.06
414.928	292.06
415.151	305.06
415.374	319.06
415.597	316.06
415.821	300.06
416.044	300.06
416.267	304.06
416.49	314.06
416.713	301.06
416.936	307.06
417.159	289.06
417.382	320.06
417.605	325.06
417.828	321.06
418.051	319.06
418.274	300.06
418.497	316.06
418.72	295.06
418.943	295.06
419.166	295.06
419.389	313.06
419.611	313.06
419.834	313.06
420.057	317.06
420.28	319.06
420.503	323.06
420.726	329.06
420.948	344.06
421.171	358.06
421.394	355.06
421.617	333.06
421.839	327.06
422.062	309.06
422.285	331.06
422.507	374.06
422.73	413.06
422.953	383.06
423.175	350.06
423.398	334.06
423.621	320.06
423.843	346.06
424.066	360.06
424.288	357.06
424.511	356.06
424.733	393.06
424.956	442.06
425.178	431.06
425.401	409.06
425.623	423.06
425.846	368.06
426.068	362.06
426.291	336.06
426.513	342.06
426.735	336.06
426.958	393.06
427.18	440.06
427.402	509.06
427.625	564.06
427.847	492.06
428.069	431.06
428.292	391.06
428.514	352.06
428.736	334.06
428.958	343.06
429.181	307.06
429.403	319.06
429.625	326.06
429.847	355.06
430.069	392.06
430.292	393.06
430.514	339.06
430.736	321.06
430.958	334.06
431.18	324.06
431.402	321.06
431.624	299.06
431.846	286.06
432.068	323.06
432.29	312.06
432.512	301.06
432.734	317.06
432.956	315.06
433.178	313.06
433.4	325.06
433.622	293.06
433.844	302.06
434.066	307.06
434.287	312.06
434.509	299.06
434.731	299.06
434.953	314.06
435.175	309.06
435.397	339.06
435.618	354.06
435.84	365.06
436.062	440.06
436.284	476.06
436.505	379.06
436.727	366.06
436.949	317.06
437.17	325.06
437.392	316.06
437.614	343.06
437.835	374.06
438.057	410.06
438.278	488.06
438.5	492.06
438.721	501.06
438.943	479.06
439.165	409.06
439.386	351.06
439.608	356.06
439.829	349.06
440.05	384.06
440.272	399.06
440.493	360.06
440.715	348.06
440.936	318.06
441.158	332.06
441.379	337.06
441.6	347.06
441.822	333.06
442.043	377.06
442.264	413.06
442.486	453.06
442.707	407.06
442.928	338.06
443.149	371.06
443.371	391.06
443.592	417.06
443.813	468.06
444.034	465.06
444.255	413.06
444.476	357.06
444.698	351.06
444.919	345.06
445.14	421.06
445.361	393.06
445.582	389.06
445.803	427.06
446.024	480.06
446.245	488.06
446.466	449.06
446.687	368.06
446.908	353.06
447.129	352.06
447.35	342.06
447.571	319.06
447.792	332.06
448.013	326.06
448.234	341.06
448.455	393.06
448.675	452.06
448.896	494.06
449.117	422.06
449.338	427.06
449.559	471.06
449.779	545.06
450	433.06
450.221	357.06
450.442	347.06
450.662	324.06
450.883	319.06
451.104	327.06
451.324	311.06
451.545	320.06
451.766	295.06
451.986	311.06
452.207	279.06
452.428	291.06
452.648	296.06
452.869	304.06
453.089	289.06
453.31	301.06
453.53	308.06
453.751	289.06
453.971	312.06
454.192	313.06
454.412	310.06
454.633	307.06
454.853	295.06
455.073	283.06
455.294	321.06
455.514	375.06
455.734	328.06
455.955	291.06
456.175	294.06
456.395	279.06
456.616	263.06
456.836	283.06
457.056	257.06
457.276	254.06
457.497	277.06
457.717	251.06
457.937	285.06
458.157	298.06
458.377	283.06
458.598	299.06
458.818	344.06
459.038	387.06
459.258	395.06
459.478	335.06
459.698	303.06
459.918	305.06
460.138	294.06
460.358	301.06
460.578	301.06
460.798	304.06
461.018	303.06
461.238	298.06
461.458	310.06
461.678	299.06
461.898	296.06
462.118	295.06
462.338	300.06
462.558	316.06
462.777	323.06
462.997	322.06
463.217	317.06
463.437	311.06
463.657	307.06
463.876	325.06
464.096	313.06
464.316	335.06
464.536	319.06
464.755	318.06
464.975	335.06
465.195	359.06
465.414	388.06
465.634	368.06
465.854	333.06
466.073	317.06
466.293	316.06
466.512	298.06
466.732	317.06
466.951	311.06
467.171	300.06
467.391	297.06
467.61	295.06
467.829	292.06
468.049	299.06
468.268	306.06
468.488	293.06
468.707	285.06
468.927	291.06
469.146	286.06
469.365	291.06
469.585	279.06
469.804	304.06
470.023	309.06
470.243	321.06
470.462	308.06
470.681	311.06
470.901	301.06
471.12	300.06
471.339	302.06
471.558	314.06
471.777	315.06
471.997	293.06
472.216	307.06
472.435	295.06
472.654	331.06
472.873	321.06
473.092	283.06
473.311	311.06
473.53	302.06
473.749	295.06
473.968	360.06
474.187	415.06
474.406	391.06
474.625	353.06
474.844	325.06
475.063	307.06
475.282	307.06
475.501	291.06
475.72	293.06
475.939	302.06
476.158	297.06
476.377	326.06
476.596	303.06
476.814	320.06
477.033	332.06
477.252	314.06
477.471	320.06
477.69	331.06
477.908	326.06
478.127	308.06
478.346	330.06
478.564	311.06
478.783	318.06
479.002	334.06
479.22	344.06
479.439	337.06
479.658	356.06
479.876	348.06
480.095	341.06
480.313	361.06
480.532	361.06
480.751	348.06
480.969	366.06
481.188	408.06
481.406	419.06
481.624	366.06
481.843	358.06
482.061	368.06
482.28	353.06
482.498	348.06
482.717	359.06
482.935	364.06
483.153	343.06
483.372	360.06
483.59	349.06
483.808	359.06
484.027	348.06
484.245	353.06
484.463	341.06
484.681	355.06
484.9	341.06
485.118	339.06
485.336	341.06
485.554	351.06
485.772	349.06
485.99	348.06
486.209	366.06
486.427	353.06
486.645	368.06
486.863	379.06
487.081	371.06
487.299	381.06
487.517	369.06
487.735	357.06
487.953	366.06
488.171	362.06
488.389	376.06
488.607	367.06
488.825	374.06
489.043	369.06
489.261	364.06
489.479	380.06
489.696	386.06
489.914	382.06
490.132	395.06
490.35	391.06
490.568	389.06
490.786	387.06
491.003	398.06
491.221	409.06
491.439	422.06
491.657	399.06
491.874	413.06
492.092	432.06
492.31	411.06
492.527	437.06
492.745	436.06
492.963	426.06
493.18	441.06
493.398	424.06
493.615	428.06
493.833	426.06
494.05	446.06
494.268	440.06
494.485	444.06
494.703	418.06
494.92	419.06
495.138	428.06
495.355	444.06
495.573	441.06
495.79	434.06
496.008	440.06
496.225	442.06
496.442	421.06
496.66	447.06
496.877	456.06
497.094	439.06
497.312	464.06
497.529	451.06
497.746	427.06
497.963	440.06
498.181	454.06
498.398	487.06
498.615	458.06
498.832	482.06
499.049	495.06
499.267	458.06
499.484	505.06
499.701	497.06
499.918	497.06
500.135	539.06
500.352	546.06
500.569	535.06
500.786	555.06
501.003	525.06
501.22	512.06
501.437	545.06
501.654	544.06
501.871	515.06
502.088	533.06
