Data from 1982.PennyLincolnUp.Lamp.En5.5.200Scan.071819.P1_HRD10591_16-47-03-962.txt Node
Date: Thu Jul 18 16:47:03 EDT 2019
User: cochatt
Spectrometer: HR+D1059
Trigger mode: 1
Integration Time (sec): 1.000000E-1
Scans to average: 1
Electric dark correction enabled: true
Nonlinearity correction enabled: false
Boxcar width: 0
XAxis mode: Wavelengths
Number of Pixels in Spectrum: 2048
>>>>>Begin Spectral Data<<<<<
223.165	-16.12
223.4	-16.12
223.635	-16.12
223.869	-11.12
224.104	-25.12
224.338	-14.12
224.573	-16.12
224.808	-8.12
225.042	-13.12
225.277	3.88
225.511	1.88
225.746	1.88
225.98	-4.12
226.215	11.88
226.449	5.88
226.683	23.88
226.918	24.88
227.152	33.88
227.387	23.88
227.621	44.88
227.856	35.88
228.09	38.88
228.324	58.88
228.559	66.88
228.793	75.88
229.027	93.88
229.262	79.88
229.496	91.88
229.73	119.88
229.964	125.88
230.199	107.88
230.433	97.88
230.667	97.88
230.901	82.88
231.136	104.88
231.37	107.88
231.604	110.88
231.838	104.88
232.072	100.88
232.306	111.88
232.541	103.88
232.775	115.88
233.009	99.88
233.243	116.88
233.477	97.88
233.711	117.88
233.945	108.88
234.179	100.88
234.413	103.88
234.647	103.88
234.881	108.88
235.115	103.88
235.349	116.88
235.583	102.88
235.817	104.88
236.051	101.88
236.285	94.88
236.519	115.88
236.753	114.88
236.987	122.88
237.221	146.88
237.455	179.88
237.689	145.88
237.922	130.88
238.156	114.88
238.39	115.88
238.624	103.88
238.858	99.88
239.091	110.88
239.325	100.88
239.559	100.88
239.793	117.88
240.027	112.88
240.26	124.88
240.494	145.88
240.728	126.88
240.961	117.88
241.195	131.88
241.429	106.88
241.662	116.88
241.896	110.88
242.13	107.88
242.363	129.88
242.597	127.88
242.83	123.88
243.064	119.88
243.298	122.88
243.531	113.88
243.765	105.88
243.998	122.88
244.232	111.88
244.465	132.88
244.699	115.88
244.932	136.88
245.166	115.88
245.399	109.88
245.633	129.88
245.866	132.88
246.099	127.88
246.333	130.88
246.566	114.88
246.8	138.88
247.033	131.88
247.266	151.88
247.5	135.88
247.733	146.88
247.966	152.88
248.2	147.88
248.433	136.88
248.666	133.88
248.899	143.88
249.133	157.88
249.366	158.88
249.599	145.88
249.832	153.88
250.066	151.88
250.299	153.88
250.532	154.88
250.765	155.88
250.998	170.88
251.231	179.88
251.465	179.88
251.698	171.88
251.931	163.88
252.164	151.88
252.397	157.88
252.63	163.88
252.863	167.88
253.096	167.88
253.329	159.88
253.562	175.88
253.795	183.88
254.028	159.88
254.261	184.88
254.494	188.88
254.727	209.88
254.96	221.88
255.193	209.88
255.426	192.88
255.659	163.88
255.892	206.88
256.124	187.88
256.357	179.88
256.59	185.88
256.823	191.88
257.056	163.88
257.289	192.88
257.521	180.88
257.754	168.88
257.987	180.88
258.22	179.88
258.452	172.88
258.685	166.88
258.918	161.88
259.151	176.88
259.383	184.88
259.616	177.88
259.849	185.88
260.081	182.88
260.314	201.88
260.547	194.88
260.779	193.88
261.012	182.88
261.244	184.88
261.477	166.88
261.71	180.88
261.942	179.88
262.175	184.88
262.407	195.88
262.64	175.88
262.872	164.88
263.105	168.88
263.337	163.88
263.57	156.88
263.802	160.88
264.035	173.88
264.267	160.88
264.499	182.88
264.732	173.88
264.964	169.88
265.197	180.88
265.429	178.88
265.661	164.88
265.894	171.88
266.126	179.88
266.358	179.88
266.591	170.88
266.823	163.88
267.055	174.88
267.287	191.88
267.52	174.88
267.752	202.88
267.984	178.88
268.216	181.88
268.448	176.88
268.681	192.88
268.913	203.88
269.145	224.88
269.377	215.88
269.609	202.88
269.841	230.88
270.073	222.88
270.306	217.88
270.538	236.88
270.77	254.88
271.002	240.88
271.234	236.88
271.466	240.88
271.698	228.88
271.93	251.88
272.162	257.88
272.394	264.88
272.626	231.88
272.858	215.88
273.09	228.88
273.322	225.88
273.553	210.88
273.785	209.88
274.017	199.88
274.249	195.88
274.481	197.88
274.713	212.88
274.945	208.88
275.176	200.88
275.408	212.88
275.64	209.88
275.872	210.88
276.104	199.88
276.335	219.88
276.567	196.88
276.799	219.88
277.031	231.88
277.262	262.88
277.494	259.88
277.726	236.88
277.957	241.88
278.189	215.88
278.421	207.88
278.652	202.88
278.884	199.88
279.115	215.88
279.347	208.88
279.579	205.88
279.81	208.88
280.042	217.88
280.273	218.88
280.505	223.88
280.736	200.88
280.968	218.88
281.199	198.88
281.431	211.88
281.662	205.88
281.894	218.88
282.125	210.88
282.356	210.88
282.588	253.88
282.819	236.88
283.051	215.88
283.282	204.88
283.513	207.88
283.745	232.88
283.976	219.88
284.207	220.88
284.439	222.88
284.67	226.88
284.901	228.88
285.132	220.88
285.364	204.88
285.595	205.88
285.826	204.88
286.057	218.88
286.288	211.88
286.52	219.88
286.751	202.88
286.982	204.88
287.213	220.88
287.444	220.88
287.675	215.88
287.906	219.88
288.138	216.88
288.369	204.88
288.6	236.88
288.831	217.88
289.062	228.88
289.293	243.88
289.524	222.88
289.755	217.88
289.986	210.88
290.217	236.88
290.448	222.88
290.679	213.88
290.91	216.88
291.141	226.88
291.371	227.88
291.602	229.88
291.833	219.88
292.064	211.88
292.295	218.88
292.526	219.88
292.757	204.88
292.987	213.88
293.218	232.88
293.449	224.88
293.68	223.88
293.91	229.88
294.141	235.88
294.372	224.88
294.603	217.88
294.833	220.88
295.064	216.88
295.295	214.88
295.525	218.88
295.756	234.88
295.987	247.88
296.217	244.88
296.448	261.88
296.679	245.88
296.909	219.88
297.14	220.88
297.37	233.88
297.601	236.88
297.831	226.88
298.062	224.88
298.292	232.88
298.523	237.88
298.753	228.88
298.984	240.88
299.214	234.88
299.445	236.88
299.675	234.88
299.905	230.88
300.136	238.88
300.366	252.88
300.597	249.88
300.827	262.88
301.057	246.88
301.288	252.88
301.518	237.88
301.748	235.88
301.979	241.88
302.209	261.88
302.439	252.88
302.669	234.88
302.9	239.88
303.13	233.88
303.36	250.88
303.59	256.88
303.82	242.88
304.051	244.88
304.281	235.88
304.511	241.88
304.741	244.88
304.971	238.88
305.201	239.88
305.431	232.88
305.661	248.88
305.891	250.88
306.121	255.88
306.352	257.88
306.582	235.88
306.812	253.88
307.042	255.88
307.272	250.88
307.502	264.88
307.731	263.88
307.961	258.88
308.191	255.88
308.421	253.88
308.651	245.88
308.881	271.88
309.111	266.88
309.341	260.88
309.571	280.88
309.8	281.88
310.03	300.88
310.26	290.88
310.49	305.88
310.72	292.88
310.949	305.88
311.179	299.88
311.409	291.88
311.639	293.88
311.868	289.88
312.098	289.88
312.328	311.88
312.557	307.88
312.787	311.88
313.017	319.88
313.246	293.88
313.476	284.88
313.706	288.88
313.935	309.88
314.165	294.88
314.394	298.88
314.624	312.88
314.853	289.88
315.083	298.88
315.312	290.88
315.542	288.88
315.771	297.88
316.001	292.88
316.23	269.88
316.46	292.88
316.689	282.88
316.919	299.88
317.148	306.88
317.377	285.88
317.607	300.88
317.836	291.88
318.065	285.88
318.295	283.88
318.524	287.88
318.753	299.88
318.983	278.88
319.212	287.88
319.441	326.88
319.67	305.88
319.9	298.88
320.129	301.88
320.358	291.88
320.587	300.88
320.816	294.88
321.046	303.88
321.275	308.88
321.504	316.88
321.733	322.88
321.962	321.88
322.191	336.88
322.42	346.88
322.649	361.88
322.878	367.88
323.108	367.88
323.337	396.88
323.566	413.88
323.795	442.88
324.024	480.88
324.253	641.88
324.482	912.88
324.71	1340.88
324.939	1787.88
325.168	1434.88
325.397	780.88
325.626	519.88
325.855	459.88
326.084	409.88
326.313	403.88
326.542	411.88
326.77	449.88
326.999	542.88
327.228	779.88
327.457	1163.88
327.686	1286.88
327.914	851.88
328.143	551.88
328.372	502.88
328.6	469.88
328.829	460.88
329.058	445.88
329.287	460.88
329.515	444.88
329.744	412.88
329.972	417.88
330.201	414.88
330.43	458.88
330.658	439.88
330.887	480.88
331.115	469.88
331.344	424.88
331.572	401.88
331.801	394.88
332.03	371.88
332.258	356.88
332.486	351.88
332.715	348.88
332.943	353.88
333.172	338.88
333.4	335.88
333.629	353.88
333.857	363.88
334.085	383.88
334.314	378.88
334.542	388.88
334.771	403.88
334.999	371.88
335.227	345.88
335.455	335.88
335.684	341.88
335.912	345.88
336.14	324.88
336.369	323.88
336.597	327.88
336.825	337.88
337.053	325.88
337.281	317.88
337.51	323.88
337.738	317.88
337.966	320.88
338.194	329.88
338.422	341.88
338.65	341.88
338.878	317.88
339.106	340.88
339.334	329.88
339.562	309.88
339.79	331.88
340.018	332.88
340.246	332.88
340.474	338.88
340.702	313.88
340.93	294.88
341.158	300.88
341.386	319.88
341.614	323.88
341.842	326.88
342.07	319.88
342.298	303.88
342.526	316.88
342.754	307.88
342.981	305.88
343.209	307.88
343.437	320.88
343.665	309.88
343.893	319.88
344.12	327.88
344.348	319.88
344.576	321.88
344.804	309.88
345.031	327.88
345.259	356.88
345.487	326.88
345.714	331.88
345.942	312.88
346.17	291.88
346.397	321.88
346.625	327.88
346.853	325.88
347.08	313.88
347.308	331.88
347.535	326.88
347.763	303.88
347.99	328.88
348.218	317.88
348.445	341.88
348.673	329.88
348.9	313.88
349.128	309.88
349.355	298.88
349.583	304.88
349.81	299.88
350.037	285.88
350.265	307.88
350.492	308.88
350.72	294.88
350.947	313.88
351.174	324.88
351.402	312.88
351.629	303.88
351.856	313.88
352.083	317.88
352.311	312.88
352.538	322.88
352.765	312.88
352.992	307.88
353.22	320.88
353.447	298.88
353.674	307.88
353.901	294.88
354.128	292.88
354.355	288.88
354.583	292.88
354.81	281.88
355.037	283.88
355.264	267.88
355.491	288.88
355.718	275.88
355.945	277.88
356.172	274.88
356.399	285.88
356.626	286.88
356.853	275.88
357.08	289.88
357.307	275.88
357.534	279.88
357.761	295.88
357.988	285.88
358.215	287.88
358.441	277.88
358.668	291.88
358.895	292.88
359.122	296.88
359.349	305.88
359.576	313.88
359.802	347.88
360.029	356.88
360.256	359.88
360.483	337.88
360.709	316.88
360.936	299.88
361.163	315.88
361.39	313.88
361.616	298.88
361.843	298.88
362.07	314.88
362.296	303.88
362.523	290.88
362.749	313.88
362.976	289.88
363.203	313.88
363.429	307.88
363.656	294.88
363.882	295.88
364.109	263.88
364.335	299.88
364.562	287.88
364.788	285.88
365.015	264.88
365.241	293.88
365.468	298.88
365.694	284.88
365.92	293.88
366.147	280.88
366.373	294.88
366.599	287.88
366.826	289.88
367.052	287.88
367.278	305.88
367.505	279.88
367.731	276.88
367.957	279.88
368.184	292.88
368.41	289.88
368.636	311.88
368.862	300.88
369.089	293.88
369.315	283.88
369.541	280.88
369.767	282.88
369.993	280.88
370.219	282.88
370.445	262.88
370.672	274.88
370.898	278.88
371.124	263.88
371.35	285.88
371.576	277.88
371.802	257.88
372.028	277.88
372.254	285.88
372.48	280.88
372.706	263.88
372.932	269.88
373.158	259.88
373.384	285.88
373.61	275.88
373.835	264.88
374.061	282.88
374.287	263.88
374.513	278.88
374.739	281.88
374.965	288.88
375.191	268.88
375.416	277.88
375.642	282.88
375.868	268.88
376.094	266.88
376.319	281.88
376.545	272.88
376.771	276.88
376.997	278.88
377.222	279.88
377.448	256.88
377.674	270.88
377.899	261.88
378.125	281.88
378.35	276.88
378.576	253.88
378.802	243.88
379.027	277.88
379.253	260.88
379.478	280.88
379.704	275.88
379.929	259.88
380.155	254.88
380.38	263.88
380.606	267.88
380.831	273.88
381.057	265.88
381.282	277.88
381.507	259.88
381.733	260.88
381.958	264.88
382.184	281.88
382.409	271.88
382.634	268.88
382.86	270.88
383.085	291.88
383.31	271.88
383.535	270.88
383.761	290.88
383.986	278.88
384.211	280.88
384.436	279.88
384.662	279.88
384.887	266.88
385.112	271.88
385.337	290.88
385.562	287.88
385.787	293.88
386.013	281.88
386.238	295.88
386.463	287.88
386.688	290.88
386.913	285.88
387.138	273.88
387.363	296.88
387.588	281.88
387.813	261.88
388.038	281.88
388.263	269.88
388.488	287.88
388.713	257.88
388.938	276.88
389.163	284.88
389.387	292.88
389.612	291.88
389.837	279.88
390.062	299.88
390.287	285.88
390.512	310.88
390.736	293.88
390.961	297.88
391.186	280.88
391.411	276.88
391.636	290.88
391.86	259.88
392.085	277.88
392.31	289.88
392.534	290.88
392.759	287.88
392.984	288.88
393.208	289.88
393.433	266.88
393.658	283.88
393.882	287.88
394.107	288.88
394.331	285.88
394.556	274.88
394.78	289.88
395.005	291.88
395.229	284.88
395.454	294.88
395.678	296.88
395.903	300.88
396.127	314.88
396.352	291.88
396.576	299.88
396.801	280.88
397.025	289.88
397.249	300.88
397.474	301.88
397.698	287.88
397.922	314.88
398.147	310.88
398.371	316.88
398.595	309.88
398.82	288.88
399.044	322.88
399.268	331.88
399.492	334.88
399.717	359.88
399.941	367.88
400.165	373.88
400.389	369.88
400.613	351.88
400.837	337.88
401.062	323.88
401.286	319.88
401.51	308.88
401.734	319.88
401.958	332.88
402.182	311.88
402.406	325.88
402.63	323.88
402.854	338.88
403.078	319.88
403.302	319.88
403.526	331.88
403.75	352.88
403.974	306.88
404.198	325.88
404.422	319.88
404.645	335.88
404.869	344.88
405.093	360.88
405.317	375.88
405.541	399.88
405.765	363.88
405.988	337.88
406.212	346.88
406.436	367.88
406.66	375.88
406.883	370.88
407.107	378.88
407.331	409.88
407.555	426.88
407.778	428.88
408.002	390.88
408.226	363.88
408.449	363.88
408.673	350.88
408.896	375.88
409.12	411.88
409.344	346.88
409.567	340.88
409.791	326.88
410.014	337.88
410.238	345.88
410.461	323.88
410.685	326.88
410.908	336.88
411.132	364.88
411.355	371.88
411.578	359.88
411.802	336.88
412.025	329.88
412.249	329.88
412.472	324.88
412.695	371.88
412.919	351.88
413.142	329.88
413.365	324.88
413.589	316.88
413.812	300.88
414.035	306.88
414.258	295.88
414.482	310.88
414.705	293.88
414.928	295.88
415.151	298.88
415.374	315.88
415.597	311.88
415.821	321.88
416.044	304.88
416.267	297.88
416.49	324.88
416.713	291.88
416.936	336.88
417.159	291.88
417.382	298.88
417.605	299.88
417.828	323.88
418.051	319.88
418.274	311.88
418.497	291.88
418.72	290.88
418.943	298.88
419.166	312.88
419.389	313.88
419.611	317.88
419.834	310.88
420.057	316.88
420.28	327.88
420.503	312.88
420.726	322.88
420.948	324.88
421.171	355.88
421.394	359.88
421.617	345.88
421.839	333.88
422.062	328.88
422.285	347.88
422.507	369.88
422.73	398.88
422.953	388.88
423.175	346.88
423.398	346.88
423.621	321.88
423.843	351.88
424.066	352.88
424.288	346.88
424.511	353.88
424.733	383.88
424.956	451.88
425.178	444.88
425.401	421.88
425.623	426.88
425.846	398.88
426.068	347.88
426.291	341.88
426.513	343.88
426.735	361.88
426.958	403.88
427.18	428.88
427.402	523.88
427.625	576.88
427.847	504.88
428.069	439.88
428.292	394.88
428.514	348.88
428.736	355.88
428.958	355.88
429.181	344.88
429.403	333.88
429.625	315.88
429.847	373.88
430.069	391.88
430.292	400.88
430.514	339.88
430.736	323.88
430.958	321.88
431.18	309.88
431.402	318.88
431.624	303.88
431.846	306.88
432.068	287.88
432.29	307.88
432.512	309.88
432.734	300.88
432.956	320.88
433.178	319.88
433.4	328.88
433.622	316.88
433.844	314.88
434.066	299.88
434.287	318.88
434.509	307.88
434.731	308.88
434.953	312.88
435.175	329.88
435.397	364.88
435.618	343.88
435.84	390.88
436.062	456.88
436.284	450.88
436.505	389.88
436.727	364.88
436.949	343.88
437.17	347.88
437.392	344.88
437.614	340.88
437.835	359.88
438.057	422.88
438.278	481.88
438.5	484.88
438.721	531.88
438.943	477.88
439.165	404.88
439.386	384.88
439.608	384.88
439.829	381.88
440.05	380.88
440.272	415.88
440.493	399.88
440.715	343.88
440.936	341.88
441.158	330.88
441.379	345.88
441.6	349.88
441.822	348.88
442.043	371.88
442.264	467.88
442.486	450.88
442.707	376.88
442.928	379.88
443.149	367.88
443.371	376.88
443.592	407.88
443.813	456.88
444.034	515.88
444.255	404.88
444.476	375.88
444.698	341.88
444.919	338.88
445.14	421.88
445.361	409.88
445.582	405.88
445.803	431.88
446.024	502.88
446.245	511.88
446.466	452.88
446.687	407.88
446.908	353.88
447.129	370.88
447.35	335.88
447.571	340.88
447.792	332.88
448.013	340.88
448.234	346.88
448.455	375.88
448.675	458.88
448.896	496.88
449.117	450.88
449.338	431.88
449.559	488.88
449.779	507.88
450	420.88
450.221	385.88
450.442	328.88
450.662	327.88
450.883	344.88
451.104	334.88
451.324	329.88
451.545	314.88
451.766	288.88
451.986	283.88
452.207	290.88
452.428	279.88
452.648	295.88
452.869	290.88
453.089	323.88
453.31	300.88
453.53	287.88
453.751	303.88
453.971	300.88
454.192	309.88
454.412	311.88
454.633	269.88
454.853	289.88
455.073	292.88
455.294	310.88
455.514	347.88
455.734	343.88
455.955	299.88
456.175	274.88
456.395	276.88
456.616	287.88
456.836	293.88
457.056	279.88
457.276	271.88
457.497	275.88
457.717	281.88
457.937	277.88
458.157	266.88
458.377	305.88
458.598	319.88
458.818	375.88
459.038	387.88
459.258	405.88
459.478	342.88
459.698	307.88
459.918	300.88
460.138	296.88
460.358	301.88
460.578	304.88
460.798	304.88
461.018	301.88
461.238	293.88
461.458	289.88
461.678	293.88
461.898	291.88
462.118	312.88
462.338	305.88
462.558	311.88
462.777	311.88
462.997	300.88
463.217	298.88
463.437	321.88
463.657	313.88
463.876	316.88
464.096	308.88
464.316	310.88
464.536	309.88
464.755	309.88
464.975	334.88
465.195	365.88
465.414	409.88
465.634	365.88
465.854	328.88
466.073	317.88
466.293	306.88
466.512	302.88
466.732	298.88
466.951	284.88
467.171	283.88
467.391	297.88
467.61	317.88
467.829	326.88
468.049	301.88
468.268	297.88
468.488	314.88
468.707	297.88
468.927	307.88
469.146	294.88
469.365	293.88
469.585	307.88
469.804	303.88
470.023	308.88
470.243	304.88
470.462	308.88
470.681	296.88
470.901	307.88
471.12	290.88
471.339	295.88
471.558	305.88
471.777	291.88
471.997	287.88
472.216	306.88
472.435	332.88
472.654	321.88
472.873	305.88
473.092	292.88
473.311	290.88
473.53	305.88
473.749	309.88
473.968	353.88
474.187	401.88
474.406	405.88
474.625	336.88
474.844	300.88
475.063	321.88
475.282	304.88
475.501	320.88
475.72	307.88
475.939	303.88
476.158	303.88
476.377	315.88
476.596	283.88
476.814	317.88
477.033	332.88
477.252	324.88
477.471	333.88
477.69	319.88
477.908	321.88
478.127	306.88
478.346	311.88
478.564	315.88
478.783	318.88
479.002	331.88
479.22	346.88
479.439	347.88
479.658	351.88
479.876	336.88
480.095	355.88
480.313	359.88
480.532	354.88
480.751	357.88
480.969	370.88
481.188	426.88
481.406	458.88
481.624	352.88
481.843	369.88
482.061	357.88
482.28	347.88
482.498	353.88
482.717	356.88
482.935	360.88
483.153	322.88
483.372	350.88
483.59	356.88
483.808	359.88
484.027	342.88
484.245	372.88
484.463	362.88
484.681	351.88
484.9	344.88
485.118	364.88
485.336	342.88
485.554	361.88
485.772	384.88
485.99	365.88
486.209	362.88
486.427	365.88
486.645	361.88
486.863	377.88
487.081	380.88
487.299	367.88
487.517	393.88
487.735	383.88
487.953	373.88
488.171	389.88
488.389	374.88
488.607	384.88
488.825	363.88
489.043	391.88
489.261	369.88
489.479	371.88
489.696	381.88
489.914	392.88
490.132	397.88
490.35	392.88
490.568	395.88
490.786	392.88
491.003	387.88
491.221	407.88
491.439	418.88
491.657	421.88
491.874	420.88
492.092	436.88
492.31	427.88
492.527	421.88
492.745	426.88
492.963	421.88
493.18	435.88
493.398	445.88
493.615	435.88
493.833	441.88
494.05	442.88
494.268	422.88
494.485	447.88
494.703	445.88
494.92	423.88
495.138	437.88
495.355	433.88
495.573	452.88
495.79	420.88
496.008	425.88
496.225	433.88
496.442	459.88
496.66	460.88
496.877	435.88
497.094	445.88
497.312	429.88
497.529	462.88
497.746	453.88
497.963	454.88
498.181	483.88
498.398	477.88
498.615	473.88
498.832	476.88
499.049	484.88
499.267	491.88
499.484	479.88
499.701	497.88
499.918	530.88
500.135	525.88
500.352	533.88
500.569	527.88
500.786	536.88
501.003	559.88
501.22	552.88
501.437	550.88
501.654	531.88
501.871	512.88
502.088	531.88
