Data from 1982.PennyLincolnUp.Lamp.En5.5.200Scan.071819.P1_HRD10591_16-45-07-961.txt Node
Date: Thu Jul 18 16:45:07 EDT 2019
User: cochatt
Spectrometer: HR+D1059
Trigger mode: 1
Integration Time (sec): 1.000000E-1
Scans to average: 1
Electric dark correction enabled: true
Nonlinearity correction enabled: false
Boxcar width: 0
XAxis mode: Wavelengths
Number of Pixels in Spectrum: 2048
>>>>>Begin Spectral Data<<<<<
223.165	-9.75
223.4	-9.75
223.635	-9.75
223.869	-9.75
224.104	5.25
224.338	-15.75
224.573	-12.75
224.808	-16.75
225.042	-1.75
225.277	-11.75
225.511	-3.75
225.746	-0.75
225.98	0.25
226.215	13.25
226.449	7.25
226.683	14.25
226.918	17.25
227.152	25.25
227.387	33.25
227.621	29.25
227.856	39.25
228.09	54.25
228.324	44.25
228.559	40.25
228.793	66.25
229.027	73.25
229.262	86.25
229.496	101.25
229.73	100.25
229.964	109.25
230.199	114.25
230.433	95.25
230.667	81.25
230.901	106.25
231.136	105.25
231.37	97.25
231.604	102.25
231.838	95.25
232.072	106.25
232.306	92.25
232.541	89.25
232.775	98.25
233.009	89.25
233.243	97.25
233.477	106.25
233.711	99.25
233.945	106.25
234.179	108.25
234.413	99.25
234.647	115.25
234.881	97.25
235.115	109.25
235.349	101.25
235.583	100.25
235.817	102.25
236.051	88.25
236.285	113.25
236.519	98.25
236.753	112.25
236.987	124.25
237.221	140.25
237.455	160.25
237.689	133.25
237.922	115.25
238.156	122.25
238.39	104.25
238.624	90.25
238.858	102.25
239.091	101.25
239.325	98.25
239.559	104.25
239.793	94.25
240.027	113.25
240.26	102.25
240.494	129.25
240.728	119.25
240.961	111.25
241.195	116.25
241.429	114.25
241.662	115.25
241.896	110.25
242.13	115.25
242.363	125.25
242.597	126.25
242.83	115.25
243.064	110.25
243.298	114.25
243.531	104.25
243.765	117.25
243.998	111.25
244.232	106.25
244.465	131.25
244.699	108.25
244.932	123.25
245.166	123.25
245.399	118.25
245.633	117.25
245.866	107.25
246.099	117.25
246.333	109.25
246.566	119.25
246.8	117.25
247.033	122.25
247.266	122.25
247.5	134.25
247.733	135.25
247.966	146.25
248.2	123.25
248.433	129.25
248.666	131.25
248.899	140.25
249.133	147.25
249.366	157.25
249.599	156.25
249.832	134.25
250.066	142.25
250.299	153.25
250.532	141.25
250.765	150.25
250.998	154.25
251.231	156.25
251.465	157.25
251.698	158.25
251.931	143.25
252.164	141.25
252.397	139.25
252.63	156.25
252.863	155.25
253.096	165.25
253.329	167.25
253.562	191.25
253.795	153.25
254.028	150.25
254.261	197.25
254.494	179.25
254.727	187.25
254.96	193.25
255.193	189.25
255.426	183.25
255.659	161.25
255.892	166.25
256.124	159.25
256.357	170.25
256.59	163.25
256.823	162.25
257.056	159.25
257.289	153.25
257.521	151.25
257.754	155.25
257.987	154.25
258.22	158.25
258.452	149.25
258.685	177.25
258.918	161.25
259.151	163.25
259.383	163.25
259.616	172.25
259.849	159.25
260.081	171.25
260.314	178.25
260.547	164.25
260.779	169.25
261.012	178.25
261.244	155.25
261.477	174.25
261.71	165.25
261.942	165.25
262.175	161.25
262.407	169.25
262.64	154.25
262.872	167.25
263.105	158.25
263.337	159.25
263.57	164.25
263.802	159.25
264.035	156.25
264.267	159.25
264.499	148.25
264.732	155.25
264.964	163.25
265.197	152.25
265.429	154.25
265.661	151.25
265.894	158.25
266.126	169.25
266.358	156.25
266.591	157.25
266.823	173.25
267.055	177.25
267.287	171.25
267.52	161.25
267.752	177.25
267.984	177.25
268.216	159.25
268.448	189.25
268.681	172.25
268.913	169.25
269.145	185.25
269.377	196.25
269.609	188.25
269.841	190.25
270.073	197.25
270.306	221.25
270.538	211.25
270.77	223.25
271.002	214.25
271.234	187.25
271.466	210.25
271.698	214.25
271.93	224.25
272.162	229.25
272.394	221.25
272.626	191.25
272.858	204.25
273.09	191.25
273.322	183.25
273.553	180.25
273.785	188.25
274.017	171.25
274.249	199.25
274.481	190.25
274.713	174.25
274.945	181.25
275.176	199.25
275.408	194.25
275.64	185.25
275.872	190.25
276.104	203.25
276.335	182.25
276.567	192.25
276.799	207.25
277.031	204.25
277.262	215.25
277.494	227.25
277.726	219.25
277.957	198.25
278.189	180.25
278.421	201.25
278.652	174.25
278.884	196.25
279.115	180.25
279.347	180.25
279.579	189.25
279.81	199.25
280.042	195.25
280.273	188.25
280.505	189.25
280.736	180.25
280.968	177.25
281.199	187.25
281.431	202.25
281.662	201.25
281.894	196.25
282.125	184.25
282.356	197.25
282.588	211.25
282.819	198.25
283.051	187.25
283.282	177.25
283.513	186.25
283.745	207.25
283.976	185.25
284.207	204.25
284.439	193.25
284.67	203.25
284.901	195.25
285.132	185.25
285.364	183.25
285.595	201.25
285.826	196.25
286.057	205.25
286.288	202.25
286.52	183.25
286.751	189.25
286.982	201.25
287.213	207.25
287.444	205.25
287.675	207.25
287.906	228.25
288.138	209.25
288.369	201.25
288.6	218.25
288.831	201.25
289.062	211.25
289.293	196.25
289.524	197.25
289.755	190.25
289.986	187.25
290.217	206.25
290.448	213.25
290.679	184.25
290.91	202.25
291.141	195.25
291.371	204.25
291.602	216.25
291.833	194.25
292.064	204.25
292.295	203.25
292.526	207.25
292.757	204.25
292.987	210.25
293.218	211.25
293.449	208.25
293.68	196.25
293.91	199.25
294.141	197.25
294.372	190.25
294.603	213.25
294.833	210.25
295.064	203.25
295.295	197.25
295.525	190.25
295.756	216.25
295.987	206.25
296.217	209.25
296.448	217.25
296.679	203.25
296.909	190.25
297.14	203.25
297.37	221.25
297.601	201.25
297.831	199.25
298.062	216.25
298.292	208.25
298.523	229.25
298.753	203.25
298.984	187.25
299.214	201.25
299.445	220.25
299.675	223.25
299.905	221.25
300.136	217.25
300.366	202.25
300.597	204.25
300.827	218.25
301.057	213.25
301.288	209.25
301.518	227.25
301.748	212.25
301.979	219.25
302.209	224.25
302.439	219.25
302.669	225.25
302.9	225.25
303.13	223.25
303.36	244.25
303.59	233.25
303.82	221.25
304.051	222.25
304.281	224.25
304.511	213.25
304.741	204.25
304.971	216.25
305.201	211.25
305.431	223.25
305.661	219.25
305.891	213.25
306.121	234.25
306.352	236.25
306.582	215.25
306.812	210.25
307.042	210.25
307.272	220.25
307.502	206.25
307.731	214.25
307.961	230.25
308.191	225.25
308.421	228.25
308.651	220.25
308.881	234.25
309.111	229.25
309.341	250.25
309.571	227.25
309.8	250.25
310.03	238.25
310.26	252.25
310.49	250.25
310.72	251.25
310.949	264.25
311.179	260.25
311.409	269.25
311.639	253.25
311.868	259.25
312.098	250.25
312.328	273.25
312.557	265.25
312.787	270.25
313.017	266.25
313.246	276.25
313.476	257.25
313.706	264.25
313.935	239.25
314.165	269.25
314.394	268.25
314.624	262.25
314.853	243.25
315.083	268.25
315.312	261.25
315.542	244.25
315.771	261.25
316.001	258.25
316.23	262.25
316.46	263.25
316.689	260.25
316.919	250.25
317.148	265.25
317.377	259.25
317.607	238.25
317.836	271.25
318.065	264.25
318.295	237.25
318.524	245.25
318.753	236.25
318.983	234.25
319.212	266.25
319.441	264.25
319.67	243.25
319.9	247.25
320.129	255.25
320.358	262.25
320.587	260.25
320.816	265.25
321.046	268.25
321.275	276.25
321.504	271.25
321.733	257.25
321.962	264.25
322.191	270.25
322.42	300.25
322.649	301.25
322.878	303.25
323.108	316.25
323.337	343.25
323.566	333.25
323.795	369.25
324.024	391.25
324.253	484.25
324.482	707.25
324.71	1024.25
324.939	1336.25
325.168	1096.25
325.397	609.25
325.626	414.25
325.855	358.25
326.084	347.25
326.313	342.25
326.542	339.25
326.77	364.25
326.999	455.25
327.228	612.25
327.457	890.25
327.686	981.25
327.914	667.25
328.143	463.25
328.372	400.25
328.6	398.25
328.829	373.25
329.058	393.25
329.287	362.25
329.515	357.25
329.744	348.25
329.972	329.25
330.201	337.25
330.43	359.25
330.658	376.25
330.887	391.25
331.115	375.25
331.344	322.25
331.572	318.25
331.801	334.25
332.03	315.25
332.258	309.25
332.486	286.25
332.715	288.25
332.943	299.25
333.172	292.25
333.4	297.25
333.629	310.25
333.857	323.25
334.085	330.25
334.314	307.25
334.542	331.25
334.771	319.25
334.999	328.25
335.227	305.25
335.455	293.25
335.684	294.25
335.912	312.25
336.14	285.25
336.369	311.25
336.597	306.25
336.825	283.25
337.053	294.25
337.281	302.25
337.51	283.25
337.738	286.25
337.966	296.25
338.194	291.25
338.422	297.25
338.65	277.25
338.878	292.25
339.106	253.25
339.334	279.25
339.562	268.25
339.79	286.25
340.018	276.25
340.246	286.25
340.474	286.25
340.702	303.25
340.93	260.25
341.158	284.25
341.386	279.25
341.614	287.25
341.842	290.25
342.07	277.25
342.298	290.25
342.526	278.25
342.754	260.25
342.981	285.25
343.209	267.25
343.437	261.25
343.665	268.25
343.893	289.25
344.12	267.25
344.348	279.25
344.576	278.25
344.804	283.25
345.031	298.25
345.259	298.25
345.487	294.25
345.714	269.25
345.942	255.25
346.17	274.25
346.397	261.25
346.625	282.25
346.853	267.25
347.08	269.25
347.308	269.25
347.535	281.25
347.763	269.25
347.99	273.25
348.218	283.25
348.445	262.25
348.673	278.25
348.9	275.25
349.128	267.25
349.355	281.25
349.583	280.25
349.81	277.25
350.037	272.25
350.265	274.25
350.492	244.25
350.72	249.25
350.947	259.25
351.174	268.25
351.402	292.25
351.629	268.25
351.856	288.25
352.083	274.25
352.311	279.25
352.538	274.25
352.765	295.25
352.992	262.25
353.22	261.25
353.447	273.25
353.674	268.25
353.901	273.25
354.128	252.25
354.355	254.25
354.583	280.25
354.81	268.25
355.037	246.25
355.264	245.25
355.491	247.25
355.718	251.25
355.945	249.25
356.172	243.25
356.399	249.25
356.626	243.25
356.853	250.25
357.08	254.25
357.307	261.25
357.534	233.25
357.761	252.25
357.988	269.25
358.215	277.25
358.441	232.25
358.668	238.25
358.895	249.25
359.122	243.25
359.349	259.25
359.576	262.25
359.802	285.25
360.029	315.25
360.256	305.25
360.483	284.25
360.709	281.25
360.936	278.25
361.163	258.25
361.39	266.25
361.616	276.25
361.843	265.25
362.07	246.25
362.296	268.25
362.523	238.25
362.749	254.25
362.976	270.25
363.203	269.25
363.429	267.25
363.656	263.25
363.882	253.25
364.109	257.25
364.335	252.25
364.562	251.25
364.788	248.25
365.015	267.25
365.241	238.25
365.468	253.25
365.694	277.25
365.92	274.25
366.147	257.25
366.373	252.25
366.599	250.25
366.826	243.25
367.052	248.25
367.278	259.25
367.505	241.25
367.731	273.25
367.957	262.25
368.184	258.25
368.41	268.25
368.636	263.25
368.862	275.25
369.089	252.25
369.315	259.25
369.541	265.25
369.767	262.25
369.993	270.25
370.219	257.25
370.445	259.25
370.672	253.25
370.898	250.25
371.124	249.25
371.35	244.25
371.576	260.25
371.802	232.25
372.028	255.25
372.254	263.25
372.48	252.25
372.706	246.25
372.932	263.25
373.158	238.25
373.384	269.25
373.61	259.25
373.835	227.25
374.061	257.25
374.287	280.25
374.513	241.25
374.739	252.25
374.965	241.25
375.191	239.25
375.416	241.25
375.642	236.25
375.868	239.25
376.094	243.25
376.319	257.25
376.545	233.25
376.771	255.25
376.997	257.25
377.222	246.25
377.448	256.25
377.674	236.25
377.899	237.25
378.125	246.25
378.35	238.25
378.576	245.25
378.802	244.25
379.027	237.25
379.253	258.25
379.478	234.25
379.704	231.25
379.929	242.25
380.155	250.25
380.38	248.25
380.606	257.25
380.831	239.25
381.057	252.25
381.282	236.25
381.507	250.25
381.733	246.25
381.958	242.25
382.184	241.25
382.409	249.25
382.634	242.25
382.86	238.25
383.085	239.25
383.31	257.25
383.535	243.25
383.761	259.25
383.986	258.25
384.211	265.25
384.436	268.25
384.662	257.25
384.887	256.25
385.112	248.25
385.337	245.25
385.562	270.25
385.787	263.25
386.013	262.25
386.238	263.25
386.463	252.25
386.688	254.25
386.913	249.25
387.138	253.25
387.363	276.25
387.588	288.25
387.813	268.25
388.038	267.25
388.263	260.25
388.488	279.25
388.713	269.25
388.938	274.25
389.163	264.25
389.387	267.25
389.612	238.25
389.837	231.25
390.062	257.25
390.287	240.25
390.512	243.25
390.736	263.25
390.961	254.25
391.186	244.25
391.411	250.25
391.636	261.25
391.86	260.25
392.085	275.25
392.31	271.25
392.534	258.25
392.759	270.25
392.984	269.25
393.208	270.25
393.433	254.25
393.658	266.25
393.882	246.25
394.107	265.25
394.331	268.25
394.556	261.25
394.78	261.25
395.005	262.25
395.229	251.25
395.454	269.25
395.678	267.25
395.903	277.25
396.127	281.25
396.352	284.25
396.576	271.25
396.801	276.25
397.025	286.25
397.249	279.25
397.474	267.25
397.698	266.25
397.922	289.25
398.147	277.25
398.371	294.25
398.595	283.25
398.82	298.25
399.044	303.25
399.268	300.25
399.492	316.25
399.717	299.25
399.941	324.25
400.165	318.25
400.389	346.25
400.613	305.25
400.837	318.25
401.062	305.25
401.286	277.25
401.51	286.25
401.734	288.25
401.958	293.25
402.182	265.25
402.406	294.25
402.63	289.25
402.854	283.25
403.078	300.25
403.302	298.25
403.526	292.25
403.75	280.25
403.974	297.25
404.198	277.25
404.422	289.25
404.645	299.25
404.869	295.25
405.093	321.25
405.317	329.25
405.541	355.25
405.765	331.25
405.988	315.25
406.212	313.25
406.436	315.25
406.66	335.25
406.883	326.25
407.107	356.25
407.331	353.25
407.555	389.25
407.778	373.25
408.002	339.25
408.226	328.25
408.449	318.25
408.673	314.25
408.896	340.25
409.12	339.25
409.344	360.25
409.567	299.25
409.791	292.25
410.014	299.25
410.238	290.25
410.461	295.25
410.685	291.25
410.908	314.25
411.132	332.25
411.355	339.25
411.578	326.25
411.802	294.25
412.025	300.25
412.249	309.25
412.472	313.25
412.695	315.25
412.919	314.25
413.142	285.25
413.365	270.25
413.589	283.25
413.812	284.25
414.035	289.25
414.258	275.25
414.482	290.25
414.705	281.25
414.928	284.25
415.151	271.25
415.374	272.25
415.597	282.25
415.821	268.25
416.044	277.25
416.267	290.25
416.49	289.25
416.713	270.25
416.936	271.25
417.159	287.25
417.382	279.25
417.605	261.25
417.828	281.25
418.051	286.25
418.274	284.25
418.497	271.25
418.72	298.25
418.943	284.25
419.166	273.25
419.389	289.25
419.611	292.25
419.834	283.25
420.057	313.25
420.28	297.25
420.503	272.25
420.726	274.25
420.948	309.25
421.171	327.25
421.394	348.25
421.617	292.25
421.839	265.25
422.062	285.25
422.285	308.25
422.507	340.25
422.73	345.25
422.953	348.25
423.175	307.25
423.398	296.25
423.621	300.25
423.843	311.25
424.066	309.25
424.288	299.25
424.511	315.25
424.733	351.25
424.956	384.25
425.178	385.25
425.401	388.25
425.623	398.25
425.846	321.25
426.068	321.25
426.291	310.25
426.513	308.25
426.735	305.25
426.958	354.25
427.18	417.25
427.402	485.25
427.625	490.25
427.847	422.25
428.069	372.25
428.292	344.25
428.514	319.25
428.736	317.25
428.958	285.25
429.181	301.25
429.403	289.25
429.625	301.25
429.847	323.25
430.069	350.25
430.292	339.25
430.514	300.25
430.736	299.25
430.958	283.25
431.18	261.25
431.402	264.25
431.624	289.25
431.846	266.25
432.068	276.25
432.29	277.25
432.512	283.25
432.734	270.25
432.956	274.25
433.178	297.25
433.4	309.25
433.622	285.25
433.844	282.25
434.066	279.25
434.287	274.25
434.509	288.25
434.731	272.25
434.953	292.25
435.175	291.25
435.397	308.25
435.618	327.25
435.84	358.25
436.062	385.25
436.284	420.25
436.505	373.25
436.727	324.25
436.949	314.25
437.17	287.25
437.392	312.25
437.614	311.25
437.835	327.25
438.057	371.25
438.278	420.25
438.5	414.25
438.721	444.25
438.943	459.25
439.165	340.25
439.386	307.25
439.608	315.25
439.829	334.25
440.05	334.25
440.272	342.25
440.493	326.25
440.715	322.25
440.936	325.25
441.158	306.25
441.379	302.25
441.6	308.25
441.822	297.25
442.043	344.25
442.264	405.25
442.486	409.25
442.707	340.25
442.928	330.25
443.149	336.25
443.371	341.25
443.592	338.25
443.813	404.25
444.034	423.25
444.255	380.25
444.476	341.25
444.698	320.25
444.919	313.25
445.14	406.25
445.361	369.25
445.582	355.25
445.803	377.25
446.024	417.25
446.245	445.25
446.466	373.25
446.687	334.25
446.908	321.25
447.129	297.25
447.35	307.25
447.571	278.25
447.792	286.25
448.013	303.25
448.234	300.25
448.455	338.25
448.675	394.25
448.896	455.25
449.117	384.25
449.338	389.25
449.559	426.25
449.779	476.25
450	402.25
450.221	329.25
450.442	311.25
450.662	305.25
450.883	299.25
451.104	287.25
451.324	287.25
451.545	309.25
451.766	272.25
451.986	275.25
452.207	274.25
452.428	262.25
452.648	254.25
452.869	274.25
453.089	263.25
453.31	280.25
453.53	285.25
453.751	259.25
453.971	279.25
454.192	311.25
454.412	275.25
454.633	268.25
454.853	254.25
455.073	257.25
455.294	286.25
455.514	292.25
455.734	300.25
455.955	267.25
456.175	251.25
456.395	250.25
456.616	246.25
456.836	259.25
457.056	236.25
457.276	241.25
457.497	239.25
457.717	246.25
457.937	245.25
458.157	255.25
458.377	262.25
458.598	266.25
458.818	300.25
459.038	347.25
459.258	343.25
459.478	318.25
459.698	293.25
459.918	272.25
460.138	252.25
460.358	260.25
460.578	288.25
460.798	286.25
461.018	285.25
461.238	263.25
461.458	274.25
461.678	269.25
461.898	270.25
462.118	274.25
462.338	285.25
462.558	288.25
462.777	278.25
462.997	291.25
463.217	282.25
463.437	292.25
463.657	285.25
463.876	292.25
464.096	272.25
464.316	291.25
464.536	307.25
464.755	293.25
464.975	281.25
465.195	329.25
465.414	331.25
465.634	334.25
465.854	291.25
466.073	290.25
466.293	279.25
466.512	265.25
466.732	275.25
466.951	257.25
467.171	270.25
467.391	275.25
467.61	283.25
467.829	272.25
468.049	253.25
468.268	266.25
468.488	263.25
468.707	260.25
468.927	253.25
469.146	254.25
469.365	261.25
469.585	281.25
469.804	266.25
470.023	275.25
470.243	289.25
470.462	263.25
470.681	280.25
470.901	289.25
471.12	276.25
471.339	277.25
471.558	276.25
471.777	264.25
471.997	276.25
472.216	275.25
472.435	294.25
472.654	286.25
472.873	260.25
473.092	277.25
473.311	257.25
473.53	274.25
473.749	270.25
473.968	306.25
474.187	365.25
474.406	379.25
474.625	287.25
474.844	294.25
475.063	289.25
475.282	278.25
475.501	303.25
475.72	307.25
475.939	289.25
476.158	287.25
476.377	291.25
476.596	279.25
476.814	285.25
477.033	283.25
477.252	283.25
477.471	291.25
477.69	306.25
477.908	298.25
478.127	304.25
478.346	291.25
478.564	303.25
478.783	285.25
479.002	292.25
479.22	313.25
479.439	296.25
479.658	318.25
479.876	319.25
480.095	340.25
480.313	334.25
480.532	338.25
480.751	312.25
480.969	319.25
481.188	349.25
481.406	373.25
481.624	316.25
481.843	315.25
482.061	313.25
482.28	317.25
482.498	302.25
482.717	315.25
482.935	332.25
483.153	319.25
483.372	298.25
483.59	327.25
483.808	324.25
484.027	323.25
484.245	311.25
484.463	331.25
484.681	324.25
484.9	336.25
485.118	336.25
485.336	319.25
485.554	302.25
485.772	333.25
485.99	314.25
486.209	340.25
486.427	329.25
486.645	331.25
486.863	333.25
487.081	360.25
487.299	346.25
487.517	332.25
487.735	345.25
487.953	341.25
488.171	327.25
488.389	342.25
488.607	320.25
488.825	357.25
489.043	362.25
489.261	327.25
489.479	351.25
489.696	349.25
489.914	358.25
490.132	351.25
490.35	358.25
490.568	334.25
490.786	350.25
491.003	366.25
491.221	375.25
491.439	349.25
491.657	350.25
491.874	391.25
492.092	382.25
492.31	389.25
492.527	364.25
492.745	383.25
492.963	389.25
493.18	386.25
493.398	389.25
493.615	399.25
493.833	381.25
494.05	406.25
494.268	380.25
494.485	391.25
494.703	381.25
494.92	391.25
495.138	373.25
495.355	375.25
495.573	388.25
495.79	404.25
496.008	404.25
496.225	404.25
496.442	386.25
496.66	393.25
496.877	396.25
497.094	403.25
497.312	419.25
497.529	384.25
497.746	405.25
497.963	406.25
498.181	417.25
498.398	408.25
498.615	417.25
498.832	420.25
499.049	448.25
499.267	441.25
499.484	446.25
499.701	478.25
499.918	475.25
500.135	456.25
500.352	487.25
500.569	504.25
500.786	480.25
501.003	497.25
501.22	496.25
501.437	482.25
501.654	489.25
501.871	466.25
502.088	440.25
502.305	441.25
