Data from 1982.PennyLincolnUp.Lamp.En5.5.200Scan.071819.P1_HRD10591_16-46-36-961.txt Node
Date: Thu Jul 18 16:46:36 EDT 2019
User: cochatt
Spectrometer: HR+D1059
Trigger mode: 1
Integration Time (sec): 1.000000E-1
Scans to average: 1
Electric dark correction enabled: true
Nonlinearity correction enabled: false
Boxcar width: 0
XAxis mode: Wavelengths
Number of Pixels in Spectrum: 2048
>>>>>Begin Spectral Data<<<<<
223.165	-20.62
223.4	-20.62
223.635	-20.62
223.869	-20.62
224.104	-19.62
224.338	-6.62
224.573	-23.62
224.808	-6.62
225.042	4.38
225.277	3.38
225.511	-11.62
225.746	7.38
225.98	9.38
226.215	5.38
226.449	15.38
226.683	21.38
226.918	21.38
227.152	21.38
227.387	27.38
227.621	27.38
227.856	38.38
228.09	41.38
228.324	39.38
228.559	43.38
228.793	68.38
229.027	93.38
229.262	101.38
229.496	114.38
229.73	119.38
229.964	111.38
230.199	111.38
230.433	116.38
230.667	100.38
230.901	96.38
231.136	105.38
231.37	101.38
231.604	93.38
231.838	97.38
232.072	94.38
232.306	99.38
232.541	103.38
232.775	105.38
233.009	96.38
233.243	100.38
233.477	93.38
233.711	105.38
233.945	98.38
234.179	99.38
234.413	101.38
234.647	121.38
234.881	98.38
235.115	107.38
235.349	106.38
235.583	95.38
235.817	99.38
236.051	93.38
236.285	108.38
236.519	95.38
236.753	107.38
236.987	146.38
237.221	154.38
237.455	184.38
237.689	145.38
237.922	131.38
238.156	108.38
238.39	106.38
238.624	109.38
238.858	115.38
239.091	99.38
239.325	96.38
239.559	97.38
239.793	108.38
240.027	132.38
240.26	129.38
240.494	126.38
240.728	138.38
240.961	116.38
241.195	103.38
241.429	118.38
241.662	110.38
241.896	119.38
242.13	123.38
242.363	107.38
242.597	127.38
242.83	106.38
243.064	119.38
243.298	117.38
243.531	108.38
243.765	115.38
243.998	139.38
244.232	115.38
244.465	121.38
244.699	124.38
244.932	128.38
245.166	114.38
245.399	121.38
245.633	121.38
245.866	131.38
246.099	125.38
246.333	124.38
246.566	127.38
246.8	127.38
247.033	122.38
247.266	144.38
247.5	129.38
247.733	134.38
247.966	143.38
248.2	147.38
248.433	130.38
248.666	142.38
248.899	152.38
249.133	160.38
249.366	163.38
249.599	163.38
249.832	158.38
250.066	138.38
250.299	134.38
250.532	131.38
250.765	162.38
250.998	175.38
251.231	175.38
251.465	163.38
251.698	162.38
251.931	167.38
252.164	159.38
252.397	150.38
252.63	168.38
252.863	176.38
253.096	170.38
253.329	191.38
253.562	168.38
253.795	173.38
254.028	176.38
254.261	168.38
254.494	179.38
254.727	200.38
254.96	216.38
255.193	200.38
255.426	201.38
255.659	185.38
255.892	183.38
256.124	190.38
256.357	182.38
256.59	193.38
256.823	166.38
257.056	161.38
257.289	178.38
257.521	162.38
257.754	167.38
257.987	176.38
258.22	161.38
258.452	169.38
258.685	149.38
258.918	146.38
259.151	168.38
259.383	167.38
259.616	179.38
259.849	176.38
260.081	202.38
260.314	187.38
260.547	187.38
260.779	197.38
261.012	184.38
261.244	177.38
261.477	182.38
261.71	158.38
261.942	178.38
262.175	184.38
262.407	181.38
262.64	183.38
262.872	165.38
263.105	161.38
263.337	167.38
263.57	172.38
263.802	176.38
264.035	172.38
264.267	173.38
264.499	184.38
264.732	166.38
264.964	165.38
265.197	163.38
265.429	176.38
265.661	161.38
265.894	168.38
266.126	164.38
266.358	160.38
266.591	171.38
266.823	183.38
267.055	199.38
267.287	198.38
267.52	168.38
267.752	171.38
267.984	164.38
268.216	184.38
268.448	173.38
268.681	181.38
268.913	180.38
269.145	197.38
269.377	214.38
269.609	197.38
269.841	215.38
270.073	237.38
270.306	220.38
270.538	233.38
270.77	227.38
271.002	242.38
271.234	239.38
271.466	225.38
271.698	223.38
271.93	236.38
272.162	249.38
272.394	261.38
272.626	233.38
272.858	212.38
273.09	218.38
273.322	218.38
273.553	217.38
273.785	205.38
274.017	215.38
274.249	208.38
274.481	216.38
274.713	226.38
274.945	205.38
275.176	196.38
275.408	213.38
275.64	212.38
275.872	216.38
276.104	207.38
276.335	224.38
276.567	211.38
276.799	219.38
277.031	257.38
277.262	255.38
277.494	223.38
277.726	235.38
277.957	227.38
278.189	230.38
278.421	210.38
278.652	195.38
278.884	217.38
279.115	194.38
279.347	204.38
279.579	208.38
279.81	216.38
280.042	209.38
280.273	214.38
280.505	212.38
280.736	209.38
280.968	186.38
281.199	177.38
281.431	208.38
281.662	211.38
281.894	197.38
282.125	204.38
282.356	218.38
282.588	243.38
282.819	228.38
283.051	232.38
283.282	194.38
283.513	201.38
283.745	204.38
283.976	215.38
284.207	227.38
284.439	214.38
284.67	225.38
284.901	222.38
285.132	215.38
285.364	197.38
285.595	213.38
285.826	212.38
286.057	201.38
286.288	210.38
286.52	220.38
286.751	211.38
286.982	203.38
287.213	207.38
287.444	216.38
287.675	217.38
287.906	222.38
288.138	233.38
288.369	223.38
288.6	234.38
288.831	222.38
289.062	227.38
289.293	232.38
289.524	223.38
289.755	222.38
289.986	217.38
290.217	213.38
290.448	224.38
290.679	213.38
290.91	216.38
291.141	228.38
291.371	228.38
291.602	219.38
291.833	220.38
292.064	224.38
292.295	219.38
292.526	221.38
292.757	228.38
292.987	216.38
293.218	222.38
293.449	214.38
293.68	225.38
293.91	215.38
294.141	204.38
294.372	206.38
294.603	234.38
294.833	208.38
295.064	219.38
295.295	221.38
295.525	223.38
295.756	236.38
295.987	235.38
296.217	248.38
296.448	255.38
296.679	211.38
296.909	239.38
297.14	232.38
297.37	235.38
297.601	230.38
297.831	230.38
298.062	235.38
298.292	221.38
298.523	225.38
298.753	243.38
298.984	229.38
299.214	229.38
299.445	231.38
299.675	227.38
299.905	236.38
300.136	239.38
300.366	228.38
300.597	235.38
300.827	255.38
301.057	246.38
301.288	273.38
301.518	233.38
301.748	251.38
301.979	245.38
302.209	244.38
302.439	259.38
302.669	247.38
302.9	240.38
303.13	245.38
303.36	241.38
303.59	243.38
303.82	240.38
304.051	255.38
304.281	245.38
304.511	239.38
304.741	241.38
304.971	254.38
305.201	261.38
305.431	236.38
305.661	231.38
305.891	249.38
306.121	259.38
306.352	235.38
306.582	256.38
306.812	255.38
307.042	253.38
307.272	254.38
307.502	259.38
307.731	266.38
307.961	241.38
308.191	245.38
308.421	251.38
308.651	254.38
308.881	277.38
309.111	268.38
309.341	255.38
309.571	270.38
309.8	281.38
310.03	273.38
310.26	265.38
310.49	282.38
310.72	279.38
310.949	297.38
311.179	302.38
311.409	279.38
311.639	290.38
311.868	291.38
312.098	296.38
312.328	320.38
312.557	307.38
312.787	319.38
313.017	313.38
313.246	293.38
313.476	291.38
313.706	286.38
313.935	294.38
314.165	299.38
314.394	300.38
314.624	291.38
314.853	303.38
315.083	297.38
315.312	290.38
315.542	277.38
315.771	269.38
316.001	287.38
316.23	296.38
316.46	301.38
316.689	293.38
316.919	305.38
317.148	317.38
317.377	309.38
317.607	290.38
317.836	295.38
318.065	271.38
318.295	283.38
318.524	281.38
318.753	286.38
318.983	276.38
319.212	293.38
319.441	287.38
319.67	307.38
319.9	313.38
320.129	285.38
320.358	300.38
320.587	295.38
320.816	295.38
321.046	323.38
321.275	296.38
321.504	299.38
321.733	312.38
321.962	319.38
322.191	323.38
322.42	349.38
322.649	348.38
322.878	368.38
323.108	360.38
323.337	379.38
323.566	407.38
323.795	439.38
324.024	488.38
324.253	616.38
324.482	903.38
324.71	1306.38
324.939	1721.38
325.168	1418.38
325.397	742.38
325.626	519.38
325.855	425.38
326.084	410.38
326.313	405.38
326.542	395.38
326.77	445.38
326.999	551.38
327.228	767.38
327.457	1139.38
327.686	1277.38
327.914	835.38
328.143	550.38
328.372	519.38
328.6	450.38
328.829	431.38
329.058	461.38
329.287	439.38
329.515	422.38
329.744	405.38
329.972	374.38
330.201	430.38
330.43	456.38
330.658	451.38
330.887	498.38
331.115	438.38
331.344	403.38
331.572	402.38
331.801	389.38
332.03	372.38
332.258	358.38
332.486	340.38
332.715	322.38
332.943	342.38
333.172	353.38
333.4	344.38
333.629	343.38
333.857	360.38
334.085	365.38
334.314	375.38
334.542	390.38
334.771	380.38
334.999	359.38
335.227	359.38
335.455	348.38
335.684	337.38
335.912	335.38
336.14	336.38
336.369	319.38
336.597	343.38
336.825	323.38
337.053	332.38
337.281	310.38
337.51	325.38
337.738	327.38
337.966	327.38
338.194	315.38
338.422	311.38
338.65	313.38
338.878	303.38
339.106	309.38
339.334	322.38
339.562	345.38
339.79	324.38
340.018	318.38
340.246	332.38
340.474	329.38
340.702	315.38
340.93	311.38
341.158	307.38
341.386	321.38
341.614	321.38
341.842	328.38
342.07	309.38
342.298	297.38
342.526	318.38
342.754	297.38
342.981	298.38
343.209	305.38
343.437	325.38
343.665	310.38
343.893	299.38
344.12	310.38
344.348	313.38
344.576	309.38
344.804	319.38
345.031	309.38
345.259	339.38
345.487	328.38
345.714	307.38
345.942	314.38
346.17	302.38
346.397	313.38
346.625	318.38
346.853	299.38
347.08	309.38
347.308	304.38
347.535	299.38
347.763	320.38
347.99	311.38
348.218	331.38
348.445	328.38
348.673	322.38
348.9	306.38
349.128	297.38
349.355	295.38
349.583	289.38
349.81	287.38
350.037	304.38
350.265	287.38
350.492	288.38
350.72	288.38
350.947	295.38
351.174	303.38
351.402	319.38
351.629	312.38
351.856	314.38
352.083	309.38
352.311	330.38
352.538	319.38
352.765	297.38
352.992	298.38
353.22	306.38
353.447	324.38
353.674	309.38
353.901	305.38
354.128	290.38
354.355	276.38
354.583	281.38
354.81	287.38
355.037	289.38
355.264	278.38
355.491	277.38
355.718	283.38
355.945	283.38
356.172	285.38
356.399	285.38
356.626	260.38
356.853	267.38
357.08	273.38
357.307	293.38
357.534	295.38
357.761	283.38
357.988	279.38
358.215	281.38
358.441	283.38
358.668	268.38
358.895	289.38
359.122	283.38
359.349	284.38
359.576	326.38
359.802	309.38
360.029	349.38
360.256	333.38
360.483	320.38
360.709	306.38
360.936	310.38
361.163	291.38
361.39	295.38
361.616	295.38
361.843	288.38
362.07	297.38
362.296	294.38
362.523	300.38
362.749	297.38
362.976	297.38
363.203	287.38
363.429	277.38
363.656	281.38
363.882	280.38
364.109	285.38
364.335	284.38
364.562	279.38
364.788	275.38
365.015	276.38
365.241	281.38
365.468	298.38
365.694	295.38
365.92	276.38
366.147	287.38
366.373	281.38
366.599	295.38
366.826	280.38
367.052	279.38
367.278	291.38
367.505	269.38
367.731	285.38
367.957	283.38
368.184	272.38
368.41	283.38
368.636	282.38
368.862	285.38
369.089	281.38
369.315	265.38
369.541	285.38
369.767	271.38
369.993	280.38
370.219	280.38
370.445	301.38
370.672	277.38
370.898	282.38
371.124	269.38
371.35	270.38
371.576	268.38
371.802	276.38
372.028	290.38
372.254	266.38
372.48	283.38
372.706	276.38
372.932	269.38
373.158	281.38
373.384	259.38
373.61	266.38
373.835	270.38
374.061	294.38
374.287	281.38
374.513	261.38
374.739	276.38
374.965	274.38
375.191	264.38
375.416	280.38
375.642	275.38
375.868	283.38
376.094	277.38
376.319	290.38
376.545	289.38
376.771	288.38
376.997	276.38
377.222	269.38
377.448	282.38
377.674	272.38
377.899	273.38
378.125	244.38
378.35	265.38
378.576	242.38
378.802	254.38
379.027	270.38
379.253	270.38
379.478	282.38
379.704	275.38
379.929	283.38
380.155	269.38
380.38	278.38
380.606	257.38
380.831	276.38
381.057	277.38
381.282	267.38
381.507	267.38
381.733	277.38
381.958	267.38
382.184	260.38
382.409	283.38
382.634	280.38
382.86	265.38
383.085	276.38
383.31	257.38
383.535	267.38
383.761	275.38
383.986	267.38
384.211	280.38
384.436	273.38
384.662	280.38
384.887	275.38
385.112	287.38
385.337	278.38
385.562	292.38
385.787	267.38
386.013	288.38
386.238	282.38
386.463	288.38
386.688	277.38
386.913	285.38
387.138	281.38
387.363	294.38
387.588	281.38
387.813	279.38
388.038	275.38
388.263	287.38
388.488	276.38
388.713	283.38
388.938	298.38
389.163	289.38
389.387	291.38
389.612	264.38
389.837	294.38
390.062	276.38
390.287	290.38
390.512	280.38
390.736	285.38
390.961	278.38
391.186	293.38
391.411	281.38
391.636	273.38
391.86	273.38
392.085	285.38
392.31	271.38
392.534	290.38
392.759	282.38
392.984	285.38
393.208	289.38
393.433	280.38
393.658	281.38
393.882	252.38
394.107	267.38
394.331	279.38
394.556	269.38
394.78	285.38
395.005	279.38
395.229	276.38
395.454	291.38
395.678	277.38
395.903	297.38
396.127	298.38
396.352	303.38
396.576	297.38
396.801	277.38
397.025	279.38
397.249	305.38
397.474	303.38
397.698	291.38
397.922	333.38
398.147	299.38
398.371	288.38
398.595	315.38
398.82	292.38
399.044	319.38
399.268	309.38
399.492	321.38
399.717	354.38
399.941	369.38
400.165	367.38
400.389	380.38
400.613	335.38
400.837	324.38
401.062	316.38
401.286	312.38
401.51	304.38
401.734	322.38
401.958	307.38
402.182	307.38
402.406	330.38
402.63	326.38
402.854	326.38
403.078	312.38
403.302	332.38
403.526	322.38
403.75	327.38
403.974	322.38
404.198	305.38
404.422	323.38
404.645	328.38
404.869	351.38
405.093	371.38
405.317	363.38
405.541	395.38
405.765	359.38
405.988	332.38
406.212	333.38
406.436	357.38
406.66	347.38
406.883	341.38
407.107	376.38
407.331	403.38
407.555	417.38
407.778	413.38
408.002	392.38
408.226	344.38
408.449	347.38
408.673	356.38
408.896	363.38
409.12	385.38
409.344	383.38
409.567	336.38
409.791	337.38
410.014	327.38
410.238	327.38
410.461	320.38
410.685	331.38
410.908	333.38
411.132	376.38
411.355	375.38
411.578	356.38
411.802	324.38
412.025	317.38
412.249	324.38
412.472	333.38
412.695	370.38
412.919	368.38
413.142	338.38
413.365	325.38
413.589	299.38
413.812	292.38
414.035	304.38
414.258	297.38
414.482	311.38
414.705	282.38
414.928	285.38
415.151	299.38
415.374	304.38
415.597	284.38
415.821	295.38
416.044	320.38
416.267	325.38
416.49	298.38
416.713	294.38
416.936	281.38
417.159	311.38
417.382	308.38
417.605	319.38
417.828	317.38
418.051	320.38
418.274	329.38
418.497	309.38
418.72	295.38
418.943	289.38
419.166	304.38
419.389	315.38
419.611	335.38
419.834	319.38
420.057	316.38
420.28	309.38
420.503	308.38
420.726	325.38
420.948	327.38
421.171	337.38
421.394	363.38
421.617	326.38
421.839	320.38
422.062	336.38
422.285	339.38
422.507	382.38
422.73	408.38
422.953	396.38
423.175	345.38
423.398	343.38
423.621	331.38
423.843	356.38
424.066	348.38
424.288	346.38
424.511	364.38
424.733	393.38
424.956	440.38
425.178	429.38
425.401	432.38
425.623	428.38
425.846	385.38
426.068	370.38
426.291	350.38
426.513	361.38
426.735	371.38
426.958	388.38
427.18	418.38
427.402	501.38
427.625	555.38
427.847	483.38
428.069	417.38
428.292	376.38
428.514	340.38
428.736	330.38
428.958	347.38
429.181	342.38
429.403	340.38
429.625	325.38
429.847	349.38
430.069	399.38
430.292	377.38
430.514	338.38
430.736	339.38
430.958	325.38
431.18	314.38
431.402	312.38
431.624	293.38
431.846	294.38
432.068	310.38
432.29	327.38
432.512	290.38
432.734	298.38
432.956	297.38
433.178	311.38
433.4	316.38
433.622	304.38
433.844	313.38
434.066	309.38
434.287	300.38
434.509	295.38
434.731	320.38
434.953	324.38
435.175	331.38
435.397	336.38
435.618	333.38
435.84	385.38
436.062	449.38
436.284	467.38
436.505	395.38
436.727	356.38
436.949	340.38
437.17	309.38
437.392	319.38
437.614	335.38
437.835	363.38
438.057	426.38
438.278	497.38
438.5	495.38
438.721	497.38
438.943	490.38
439.165	396.38
439.386	356.38
439.608	349.38
439.829	352.38
440.05	379.38
440.272	403.38
440.493	385.38
440.715	360.38
440.936	349.38
441.158	323.38
441.379	328.38
441.6	332.38
441.822	352.38
442.043	375.38
442.264	423.38
442.486	442.38
442.707	377.38
442.928	357.38
443.149	377.38
443.371	390.38
443.592	403.38
443.813	471.38
444.034	478.38
444.255	412.38
444.476	368.38
444.698	373.38
444.919	345.38
445.14	447.38
445.361	393.38
445.582	383.38
445.803	420.38
446.024	498.38
446.245	495.38
446.466	413.38
446.687	383.38
446.908	352.38
447.129	343.38
447.35	314.38
447.571	328.38
447.792	328.38
448.013	314.38
448.234	340.38
448.455	379.38
448.675	461.38
448.896	525.38
449.117	450.38
449.338	433.38
449.559	477.38
449.779	531.38
450	425.38
450.221	368.38
450.442	347.38
450.662	316.38
450.883	320.38
451.104	337.38
451.324	328.38
451.545	314.38
451.766	304.38
451.986	296.38
452.207	292.38
452.428	285.38
452.648	289.38
452.869	299.38
453.089	289.38
453.31	319.38
453.53	301.38
453.751	291.38
453.971	291.38
454.192	310.38
454.412	309.38
454.633	295.38
454.853	292.38
455.073	288.38
455.294	314.38
455.514	359.38
455.734	333.38
455.955	303.38
456.175	279.38
456.395	279.38
456.616	282.38
456.836	281.38
457.056	250.38
457.276	268.38
457.497	280.38
457.717	292.38
457.937	275.38
458.157	285.38
458.377	298.38
458.598	298.38
458.818	332.38
459.038	407.38
459.258	377.38
459.478	334.38
459.698	315.38
459.918	307.38
460.138	305.38
460.358	305.38
460.578	303.38
460.798	304.38
461.018	340.38
461.238	305.38
461.458	297.38
461.678	288.38
461.898	287.38
462.118	287.38
462.338	304.38
462.558	298.38
462.777	320.38
462.997	313.38
463.217	305.38
463.437	316.38
463.657	310.38
463.876	293.38
464.096	297.38
464.316	319.38
464.536	320.38
464.755	307.38
464.975	321.38
465.195	375.38
465.414	399.38
465.634	368.38
465.854	327.38
466.073	316.38
466.293	313.38
466.512	306.38
466.732	293.38
466.951	279.38
467.171	297.38
467.391	302.38
467.61	277.38
467.829	320.38
468.049	280.38
468.268	307.38
468.488	298.38
468.707	287.38
468.927	284.38
469.146	289.38
469.365	298.38
469.585	298.38
469.804	296.38
470.023	285.38
470.243	298.38
470.462	306.38
470.681	322.38
470.901	313.38
471.12	289.38
471.339	273.38
471.558	285.38
471.777	311.38
471.997	311.38
472.216	320.38
472.435	333.38
472.654	334.38
472.873	316.38
473.092	295.38
473.311	291.38
473.53	299.38
473.749	305.38
473.968	344.38
474.187	429.38
474.406	408.38
474.625	342.38
474.844	314.38
475.063	303.38
475.282	281.38
475.501	293.38
475.72	291.38
475.939	306.38
476.158	308.38
476.377	312.38
476.596	293.38
476.814	317.38
477.033	311.38
477.252	329.38
477.471	297.38
477.69	312.38
477.908	328.38
478.127	304.38
478.346	328.38
478.564	317.38
478.783	339.38
479.002	324.38
479.22	339.38
479.439	353.38
479.658	355.38
479.876	353.38
480.095	347.38
480.313	371.38
480.532	354.38
480.751	359.38
480.969	378.38
481.188	427.38
481.406	431.38
481.624	391.38
481.843	373.38
482.061	344.38
482.28	340.38
482.498	349.38
482.717	345.38
482.935	342.38
483.153	354.38
483.372	355.38
483.59	355.38
483.808	342.38
484.027	347.38
484.245	347.38
484.463	346.38
484.681	358.38
484.9	338.38
485.118	352.38
485.336	357.38
485.554	344.38
485.772	377.38
485.99	347.38
486.209	367.38
486.427	364.38
486.645	372.38
486.863	377.38
487.081	378.38
487.299	362.38
487.517	375.38
487.735	377.38
487.953	356.38
488.171	378.38
488.389	377.38
488.607	378.38
488.825	372.38
489.043	361.38
489.261	393.38
489.479	369.38
489.696	373.38
489.914	390.38
490.132	398.38
490.35	395.38
490.568	393.38
490.786	398.38
491.003	384.38
491.221	412.38
491.439	406.38
491.657	435.38
491.874	406.38
492.092	419.38
492.31	426.38
492.527	417.38
492.745	433.38
492.963	427.38
493.18	443.38
493.398	421.38
493.615	422.38
493.833	439.38
494.05	435.38
494.268	431.38
494.485	440.38
494.703	428.38
494.92	429.38
495.138	425.38
495.355	433.38
495.573	409.38
495.79	434.38
496.008	420.38
496.225	438.38
496.442	431.38
496.66	435.38
496.877	432.38
497.094	434.38
497.312	436.38
497.529	441.38
497.746	467.38
497.963	450.38
498.181	458.38
498.398	472.38
498.615	465.38
498.832	461.38
499.049	476.38
499.267	474.38
499.484	480.38
499.701	512.38
499.918	505.38
500.135	522.38
500.352	520.38
500.569	516.38
500.786	549.38
501.003	539.38
501.22	524.38
501.437	521.38
501.654	520.38
501.871	520.38
502.088	493.38
502.305	501.38
