Data from 1982.PennyLincolnUp.Lamp.En5.5.200Scan.071819.P1_HRD10591_16-47-32-962.txt Node
Date: Thu Jul 18 16:47:32 EDT 2019
User: cochatt
Spectrometer: HR+D1059
Trigger mode: 1
Integration Time (sec): 1.000000E-1
Scans to average: 1
Electric dark correction enabled: true
Nonlinearity correction enabled: false
Boxcar width: 0
XAxis mode: Wavelengths
Number of Pixels in Spectrum: 2048
>>>>>Begin Spectral Data<<<<<
223.165	-8.38
223.4	-8.38
223.635	-8.38
223.869	-33.38
224.104	-11.38
224.338	-11.38
224.573	-21.38
224.808	-7.38
225.042	-11.38
225.277	-0.38
225.511	2.62
225.746	-8.38
225.98	1.62
226.215	16.62
226.449	16.62
226.683	7.62
226.918	30.62
227.152	37.62
227.387	33.62
227.621	45.62
227.856	42.62
228.09	34.62
228.324	56.62
228.559	69.62
228.793	50.62
229.027	88.62
229.262	96.62
229.496	121.62
229.73	128.62
229.964	128.62
230.199	113.62
230.433	101.62
230.667	105.62
230.901	99.62
231.136	110.62
231.37	94.62
231.604	110.62
231.838	96.62
232.072	106.62
232.306	108.62
232.541	108.62
232.775	103.62
233.009	98.62
233.243	114.62
233.477	101.62
233.711	105.62
233.945	109.62
234.179	109.62
234.413	109.62
234.647	103.62
234.881	113.62
235.115	113.62
235.349	100.62
235.583	96.62
235.817	108.62
236.051	111.62
236.285	109.62
236.519	132.62
236.753	130.62
236.987	120.62
237.221	153.62
237.455	182.62
237.689	154.62
237.922	126.62
238.156	135.62
238.39	113.62
238.624	104.62
238.858	123.62
239.091	108.62
239.325	101.62
239.559	97.62
239.793	112.62
240.027	116.62
240.26	120.62
240.494	127.62
240.728	121.62
240.961	121.62
241.195	126.62
241.429	113.62
241.662	118.62
241.896	113.62
242.13	110.62
242.363	129.62
242.597	113.62
242.83	121.62
243.064	129.62
243.298	124.62
243.531	118.62
243.765	108.62
243.998	118.62
244.232	126.62
244.465	118.62
244.699	124.62
244.932	126.62
245.166	117.62
245.399	133.62
245.633	130.62
245.866	127.62
246.099	137.62
246.333	107.62
246.566	131.62
246.8	126.62
247.033	135.62
247.266	132.62
247.5	138.62
247.733	134.62
247.966	146.62
248.2	145.62
248.433	156.62
248.666	134.62
248.899	155.62
249.133	178.62
249.366	177.62
249.599	166.62
249.832	155.62
250.066	146.62
250.299	154.62
250.532	164.62
250.765	168.62
250.998	192.62
251.231	182.62
251.465	179.62
251.698	166.62
251.931	173.62
252.164	161.62
252.397	173.62
252.63	182.62
252.863	176.62
253.096	183.62
253.329	182.62
253.562	187.62
253.795	174.62
254.028	189.62
254.261	188.62
254.494	174.62
254.727	214.62
254.96	223.62
255.193	220.62
255.426	193.62
255.659	202.62
255.892	198.62
256.124	188.62
256.357	187.62
256.59	190.62
256.823	177.62
257.056	193.62
257.289	176.62
257.521	172.62
257.754	167.62
257.987	177.62
258.22	176.62
258.452	166.62
258.685	159.62
258.918	158.62
259.151	174.62
259.383	181.62
259.616	189.62
259.849	172.62
260.081	192.62
260.314	216.62
260.547	221.62
260.779	176.62
261.012	189.62
261.244	184.62
261.477	201.62
261.71	183.62
261.942	176.62
262.175	198.62
262.407	185.62
262.64	174.62
262.872	176.62
263.105	164.62
263.337	166.62
263.57	160.62
263.802	166.62
264.035	169.62
264.267	182.62
264.499	177.62
264.732	176.62
264.964	172.62
265.197	177.62
265.429	167.62
265.661	169.62
265.894	172.62
266.126	173.62
266.358	186.62
266.591	182.62
266.823	187.62
267.055	187.62
267.287	184.62
267.52	186.62
267.752	176.62
267.984	196.62
268.216	188.62
268.448	186.62
268.681	191.62
268.913	209.62
269.145	225.62
269.377	223.62
269.609	209.62
269.841	224.62
270.073	216.62
270.306	246.62
270.538	254.62
270.77	249.62
271.002	256.62
271.234	247.62
271.466	245.62
271.698	256.62
271.93	272.62
272.162	248.62
272.394	268.62
272.626	248.62
272.858	231.62
273.09	231.62
273.322	233.62
273.553	218.62
273.785	214.62
274.017	213.62
274.249	211.62
274.481	210.62
274.713	222.62
274.945	212.62
275.176	201.62
275.408	211.62
275.64	215.62
275.872	221.62
276.104	226.62
276.335	218.62
276.567	209.62
276.799	227.62
277.031	252.62
277.262	269.62
277.494	256.62
277.726	239.62
277.957	210.62
278.189	220.62
278.421	228.62
278.652	221.62
278.884	229.62
279.115	216.62
279.347	205.62
279.579	220.62
279.81	212.62
280.042	215.62
280.273	221.62
280.505	241.62
280.736	207.62
280.968	214.62
281.199	223.62
281.431	227.62
281.662	219.62
281.894	210.62
282.125	209.62
282.356	224.62
282.588	233.62
282.819	240.62
283.051	223.62
283.282	211.62
283.513	214.62
283.745	209.62
283.976	202.62
284.207	220.62
284.439	225.62
284.67	220.62
284.901	224.62
285.132	214.62
285.364	217.62
285.595	218.62
285.826	212.62
286.057	217.62
286.288	213.62
286.52	202.62
286.751	224.62
286.982	212.62
287.213	210.62
287.444	239.62
287.675	226.62
287.906	216.62
288.138	230.62
288.369	229.62
288.6	242.62
288.831	217.62
289.062	220.62
289.293	212.62
289.524	210.62
289.755	220.62
289.986	231.62
290.217	211.62
290.448	226.62
290.679	218.62
290.91	235.62
291.141	224.62
291.371	211.62
291.602	212.62
291.833	207.62
292.064	231.62
292.295	232.62
292.526	216.62
292.757	219.62
292.987	242.62
293.218	230.62
293.449	215.62
293.68	216.62
293.91	215.62
294.141	228.62
294.372	233.62
294.603	243.62
294.833	231.62
295.064	244.62
295.295	222.62
295.525	228.62
295.756	244.62
295.987	239.62
296.217	251.62
296.448	255.62
296.679	241.62
296.909	229.62
297.14	244.62
297.37	225.62
297.601	209.62
297.831	227.62
298.062	223.62
298.292	236.62
298.523	232.62
298.753	228.62
298.984	246.62
299.214	257.62
299.445	237.62
299.675	229.62
299.905	240.62
300.136	231.62
300.366	233.62
300.597	233.62
300.827	235.62
301.057	249.62
301.288	237.62
301.518	262.62
301.748	246.62
301.979	247.62
302.209	266.62
302.439	252.62
302.669	250.62
302.9	240.62
303.13	262.62
303.36	245.62
303.59	253.62
303.82	245.62
304.051	238.62
304.281	260.62
304.511	262.62
304.741	250.62
304.971	266.62
305.201	265.62
305.431	237.62
305.661	268.62
305.891	251.62
306.121	239.62
306.352	263.62
306.582	246.62
306.812	256.62
307.042	253.62
307.272	270.62
307.502	253.62
307.731	257.62
307.961	248.62
308.191	262.62
308.421	249.62
308.651	264.62
308.881	283.62
309.111	253.62
309.341	255.62
309.571	263.62
309.8	299.62
310.03	293.62
310.26	294.62
310.49	317.62
310.72	292.62
310.949	314.62
311.179	315.62
311.409	288.62
311.639	292.62
311.868	292.62
312.098	302.62
312.328	289.62
312.557	317.62
312.787	302.62
313.017	299.62
313.246	313.62
313.476	267.62
313.706	280.62
313.935	296.62
314.165	299.62
314.394	315.62
314.624	320.62
314.853	324.62
315.083	286.62
315.312	291.62
315.542	280.62
315.771	285.62
316.001	288.62
316.23	279.62
316.46	293.62
316.689	292.62
316.919	280.62
317.148	299.62
317.377	320.62
317.607	283.62
317.836	302.62
318.065	306.62
318.295	290.62
318.524	287.62
318.753	285.62
318.983	293.62
319.212	281.62
319.441	289.62
319.67	301.62
319.9	296.62
320.129	303.62
320.358	286.62
320.587	285.62
320.816	301.62
321.046	295.62
321.275	303.62
321.504	300.62
321.733	297.62
321.962	324.62
322.191	325.62
322.42	334.62
322.649	349.62
322.878	362.62
323.108	367.62
323.337	378.62
323.566	376.62
323.795	440.62
324.024	503.62
324.253	649.62
324.482	906.62
324.71	1391.62
324.939	1762.62
325.168	1436.62
325.397	750.62
325.626	496.62
325.855	438.62
326.084	422.62
326.313	419.62
326.542	439.62
326.77	460.62
326.999	552.62
327.228	797.62
327.457	1159.62
327.686	1256.62
327.914	871.62
328.143	585.62
328.372	488.62
328.6	487.62
328.829	477.62
329.058	470.62
329.287	466.62
329.515	438.62
329.744	413.62
329.972	402.62
330.201	432.62
330.43	446.62
330.658	465.62
330.887	502.62
331.115	458.62
331.344	422.62
331.572	380.62
331.801	379.62
332.03	382.62
332.258	348.62
332.486	353.62
332.715	334.62
332.943	346.62
333.172	344.62
333.4	353.62
333.629	351.62
333.857	361.62
334.085	365.62
334.314	376.62
334.542	415.62
334.771	409.62
334.999	370.62
335.227	341.62
335.455	349.62
335.684	337.62
335.912	334.62
336.14	334.62
336.369	338.62
336.597	333.62
336.825	352.62
337.053	349.62
337.281	334.62
337.51	324.62
337.738	345.62
337.966	331.62
338.194	340.62
338.422	343.62
338.65	326.62
338.878	303.62
339.106	329.62
339.334	317.62
339.562	319.62
339.79	311.62
340.018	321.62
340.246	330.62
340.474	332.62
340.702	324.62
340.93	321.62
341.158	344.62
341.386	310.62
341.614	324.62
341.842	315.62
342.07	296.62
342.298	312.62
342.526	317.62
342.754	302.62
342.981	301.62
343.209	309.62
343.437	324.62
343.665	309.62
343.893	303.62
344.12	308.62
344.348	303.62
344.576	314.62
344.804	344.62
345.031	334.62
345.259	330.62
345.487	332.62
345.714	336.62
345.942	335.62
346.17	321.62
346.397	314.62
346.625	299.62
346.853	313.62
347.08	318.62
347.308	324.62
347.535	311.62
347.763	322.62
347.99	323.62
348.218	323.62
348.445	310.62
348.673	337.62
348.9	310.62
349.128	298.62
349.355	294.62
349.583	287.62
349.81	305.62
350.037	279.62
350.265	312.62
350.492	290.62
350.72	297.62
350.947	310.62
351.174	313.62
351.402	332.62
351.629	316.62
351.856	316.62
352.083	332.62
352.311	322.62
352.538	322.62
352.765	310.62
352.992	297.62
353.22	313.62
353.447	318.62
353.674	304.62
353.901	300.62
354.128	290.62
354.355	278.62
354.583	276.62
354.81	274.62
355.037	282.62
355.264	273.62
355.491	289.62
355.718	273.62
355.945	268.62
356.172	282.62
356.399	284.62
356.626	280.62
356.853	287.62
357.08	274.62
357.307	280.62
357.534	293.62
357.761	284.62
357.988	282.62
358.215	301.62
358.441	269.62
358.668	289.62
358.895	282.62
359.122	293.62
359.349	305.62
359.576	335.62
359.802	328.62
360.029	340.62
360.256	353.62
360.483	338.62
360.709	289.62
360.936	303.62
361.163	306.62
361.39	292.62
361.616	292.62
361.843	305.62
362.07	300.62
362.296	313.62
362.523	291.62
362.749	305.62
362.976	276.62
363.203	316.62
363.429	300.62
363.656	300.62
363.882	284.62
364.109	287.62
364.335	277.62
364.562	289.62
364.788	298.62
365.015	303.62
365.241	299.62
365.468	292.62
365.694	288.62
365.92	291.62
366.147	273.62
366.373	281.62
366.599	301.62
366.826	277.62
367.052	268.62
367.278	282.62
367.505	289.62
367.731	282.62
367.957	293.62
368.184	273.62
368.41	287.62
368.636	284.62
368.862	303.62
369.089	292.62
369.315	280.62
369.541	276.62
369.767	285.62
369.993	288.62
370.219	266.62
370.445	273.62
370.672	250.62
370.898	282.62
371.124	288.62
371.35	268.62
371.576	249.62
371.802	270.62
372.028	287.62
372.254	272.62
372.48	255.62
372.706	273.62
372.932	277.62
373.158	286.62
373.384	271.62
373.61	274.62
373.835	285.62
374.061	285.62
374.287	294.62
374.513	272.62
374.739	278.62
374.965	275.62
375.191	277.62
375.416	292.62
375.642	258.62
375.868	301.62
376.094	273.62
376.319	270.62
376.545	265.62
376.771	273.62
376.997	258.62
377.222	271.62
377.448	269.62
377.674	269.62
377.899	249.62
378.125	262.62
378.35	262.62
378.576	242.62
378.802	282.62
379.027	275.62
379.253	247.62
379.478	270.62
379.704	254.62
379.929	275.62
380.155	279.62
380.38	267.62
380.606	273.62
380.831	265.62
381.057	257.62
381.282	267.62
381.507	269.62
381.733	262.62
381.958	266.62
382.184	258.62
382.409	257.62
382.634	279.62
382.86	287.62
383.085	274.62
383.31	258.62
383.535	276.62
383.761	262.62
383.986	273.62
384.211	288.62
384.436	274.62
384.662	274.62
384.887	269.62
385.112	276.62
385.337	265.62
385.562	282.62
385.787	282.62
386.013	305.62
386.238	270.62
386.463	296.62
386.688	271.62
386.913	284.62
387.138	280.62
387.363	291.62
387.588	288.62
387.813	283.62
388.038	281.62
388.263	274.62
388.488	284.62
388.713	291.62
388.938	288.62
389.163	282.62
389.387	285.62
389.612	256.62
389.837	285.62
390.062	284.62
390.287	286.62
390.512	268.62
390.736	272.62
390.961	272.62
391.186	272.62
391.411	286.62
391.636	284.62
391.86	289.62
392.085	301.62
392.31	285.62
392.534	273.62
392.759	292.62
392.984	299.62
393.208	288.62
393.433	302.62
393.658	281.62
393.882	273.62
394.107	289.62
394.331	299.62
394.556	267.62
394.78	286.62
395.005	285.62
395.229	278.62
395.454	292.62
395.678	288.62
395.903	292.62
396.127	321.62
396.352	310.62
396.576	293.62
396.801	289.62
397.025	292.62
397.249	312.62
397.474	316.62
397.698	297.62
397.922	312.62
398.147	316.62
398.371	327.62
398.595	319.62
398.82	303.62
399.044	314.62
399.268	318.62
399.492	328.62
399.717	330.62
399.941	356.62
400.165	366.62
400.389	377.62
400.613	350.62
400.837	336.62
401.062	312.62
401.286	320.62
401.51	318.62
401.734	312.62
401.958	323.62
402.182	312.62
402.406	327.62
402.63	312.62
402.854	306.62
403.078	313.62
403.302	324.62
403.526	325.62
403.75	319.62
403.974	326.62
404.198	326.62
404.422	309.62
404.645	320.62
404.869	337.62
405.093	341.62
405.317	375.62
405.541	386.62
405.765	360.62
405.988	348.62
406.212	353.62
406.436	370.62
406.66	354.62
406.883	346.62
407.107	368.62
407.331	381.62
407.555	434.62
407.778	405.62
408.002	382.62
408.226	352.62
408.449	340.62
408.673	347.62
408.896	364.62
409.12	390.62
409.344	368.62
409.567	339.62
409.791	320.62
410.014	333.62
410.238	322.62
410.461	328.62
410.685	324.62
410.908	343.62
411.132	369.62
411.355	379.62
411.578	352.62
411.802	349.62
412.025	320.62
412.249	316.62
412.472	333.62
412.695	363.62
412.919	348.62
413.142	333.62
413.365	333.62
413.589	329.62
413.812	312.62
414.035	302.62
414.258	326.62
414.482	312.62
414.705	297.62
414.928	326.62
415.151	299.62
415.374	281.62
415.597	293.62
415.821	290.62
416.044	293.62
416.267	298.62
416.49	301.62
416.713	305.62
416.936	312.62
417.159	305.62
417.382	304.62
417.605	296.62
417.828	326.62
418.051	323.62
418.274	316.62
418.497	321.62
418.72	312.62
418.943	325.62
419.166	324.62
419.389	328.62
419.611	305.62
419.834	329.62
420.057	324.62
420.28	312.62
420.503	332.62
420.726	328.62
420.948	340.62
421.171	352.62
421.394	353.62
421.617	335.62
421.839	322.62
422.062	320.62
422.285	328.62
422.507	378.62
422.73	408.62
422.953	388.62
423.175	354.62
423.398	352.62
423.621	341.62
423.843	363.62
424.066	356.62
424.288	322.62
424.511	372.62
424.733	407.62
424.956	436.62
425.178	424.62
425.401	404.62
425.623	417.62
425.846	382.62
426.068	345.62
426.291	325.62
426.513	351.62
426.735	363.62
426.958	383.62
427.18	442.62
427.402	521.62
427.625	564.62
427.847	499.62
428.069	439.62
428.292	397.62
428.514	371.62
428.736	337.62
428.958	326.62
429.181	322.62
429.403	317.62
429.625	327.62
429.847	350.62
430.069	409.62
430.292	372.62
430.514	352.62
430.736	316.62
430.958	330.62
431.18	312.62
431.402	296.62
431.624	296.62
431.846	286.62
432.068	308.62
432.29	290.62
432.512	296.62
432.734	323.62
432.956	284.62
433.178	328.62
433.4	312.62
433.622	308.62
433.844	307.62
434.066	278.62
434.287	305.62
434.509	299.62
434.731	305.62
434.953	326.62
435.175	310.62
435.397	327.62
435.618	351.62
435.84	405.62
436.062	444.62
436.284	463.62
436.505	417.62
436.727	362.62
436.949	341.62
437.17	320.62
437.392	334.62
437.614	342.62
437.835	364.62
438.057	425.62
438.278	499.62
438.5	475.62
438.721	533.62
438.943	495.62
439.165	401.62
439.386	365.62
439.608	364.62
439.829	358.62
440.05	397.62
440.272	408.62
440.493	382.62
440.715	354.62
440.936	365.62
441.158	330.62
441.379	344.62
441.6	345.62
441.822	346.62
442.043	398.62
442.264	433.62
442.486	452.62
442.707	390.62
442.928	384.62
443.149	376.62
443.371	378.62
443.592	434.62
443.813	466.62
444.034	498.62
444.255	417.62
444.476	353.62
444.698	343.62
444.919	328.62
445.14	436.62
445.361	427.62
445.582	382.62
445.803	428.62
446.024	470.62
446.245	504.62
446.466	445.62
446.687	366.62
446.908	348.62
447.129	342.62
447.35	335.62
447.571	325.62
447.792	326.62
448.013	340.62
448.234	309.62
448.455	370.62
448.675	445.62
448.896	508.62
449.117	431.62
449.338	424.62
449.559	474.62
449.779	548.62
450	437.62
450.221	375.62
450.442	350.62
450.662	324.62
450.883	322.62
451.104	331.62
451.324	328.62
451.545	325.62
451.766	321.62
451.986	293.62
452.207	299.62
452.428	282.62
452.648	307.62
452.869	303.62
453.089	300.62
453.31	301.62
453.53	286.62
453.751	290.62
453.971	290.62
454.192	330.62
454.412	312.62
454.633	282.62
454.853	308.62
455.073	320.62
455.294	329.62
455.514	363.62
455.734	348.62
455.955	292.62
456.175	292.62
456.395	296.62
456.616	277.62
456.836	274.62
457.056	266.62
457.276	265.62
457.497	274.62
457.717	281.62
457.937	276.62
458.157	270.62
458.377	291.62
458.598	297.62
458.818	347.62
459.038	400.62
459.258	398.62
459.478	333.62
459.698	318.62
459.918	300.62
460.138	298.62
460.358	310.62
460.578	287.62
460.798	313.62
461.018	296.62
461.238	308.62
461.458	306.62
461.678	295.62
461.898	293.62
462.118	295.62
462.338	303.62
462.558	313.62
462.777	315.62
462.997	305.62
463.217	299.62
463.437	319.62
463.657	312.62
463.876	305.62
464.096	310.62
464.316	324.62
464.536	336.62
464.755	304.62
464.975	341.62
465.195	362.62
465.414	394.62
465.634	342.62
465.854	348.62
466.073	310.62
466.293	304.62
466.512	303.62
466.732	300.62
466.951	297.62
467.171	287.62
467.391	302.62
467.61	304.62
467.829	301.62
468.049	316.62
468.268	314.62
468.488	288.62
468.707	290.62
468.927	288.62
469.146	270.62
469.365	281.62
469.585	280.62
469.804	293.62
470.023	300.62
470.243	290.62
470.462	313.62
470.681	320.62
470.901	321.62
471.12	296.62
471.339	310.62
471.558	302.62
471.777	311.62
471.997	296.62
472.216	302.62
472.435	325.62
472.654	310.62
472.873	309.62
473.092	310.62
473.311	312.62
473.53	316.62
473.749	321.62
473.968	345.62
474.187	424.62
474.406	413.62
474.625	341.62
474.844	324.62
475.063	319.62
475.282	301.62
475.501	305.62
475.72	290.62
475.939	305.62
476.158	319.62
476.377	324.62
476.596	324.62
476.814	314.62
477.033	321.62
477.252	336.62
477.471	312.62
477.69	295.62
477.908	317.62
478.127	324.62
478.346	324.62
478.564	330.62
478.783	330.62
479.002	341.62
479.22	334.62
479.439	358.62
479.658	342.62
479.876	362.62
480.095	363.62
480.313	379.62
480.532	375.62
480.751	353.62
480.969	365.62
481.188	396.62
481.406	429.62
481.624	385.62
481.843	348.62
482.061	352.62
482.28	342.62
482.498	339.62
482.717	339.62
482.935	341.62
483.153	329.62
483.372	349.62
483.59	358.62
483.808	351.62
484.027	368.62
484.245	351.62
484.463	353.62
484.681	338.62
484.9	356.62
485.118	352.62
485.336	348.62
485.554	356.62
485.772	357.62
485.99	372.62
486.209	355.62
486.427	346.62
486.645	378.62
486.863	380.62
487.081	398.62
487.299	356.62
487.517	363.62
487.735	360.62
487.953	384.62
488.171	376.62
488.389	367.62
488.607	376.62
488.825	392.62
489.043	371.62
489.261	386.62
489.479	378.62
489.696	368.62
489.914	385.62
490.132	366.62
490.35	397.62
490.568	399.62
490.786	412.62
491.003	413.62
491.221	424.62
491.439	400.62
491.657	441.62
491.874	420.62
492.092	428.62
492.31	414.62
492.527	430.62
492.745	418.62
492.963	436.62
493.18	439.62
493.398	450.62
493.615	417.62
493.833	454.62
494.05	462.62
494.268	416.62
494.485	448.62
494.703	439.62
494.92	445.62
495.138	433.62
495.355	432.62
495.573	439.62
495.79	444.62
496.008	429.62
496.225	446.62
496.442	450.62
496.66	437.62
496.877	448.62
497.094	446.62
497.312	441.62
497.529	454.62
497.746	462.62
497.963	432.62
498.181	472.62
498.398	455.62
498.615	458.62
498.832	465.62
499.049	476.62
499.267	472.62
499.484	462.62
499.701	504.62
499.918	502.62
500.135	503.62
500.352	501.62
500.569	520.62
500.786	533.62
501.003	531.62
501.22	525.62
501.437	527.62
501.654	528.62
501.871	520.62
502.088	502.62
