Data from 1982.PennyLincolnUp.Lamp.En5.5.200Scan.071819.P1_HRD10591_16-45-39-961.txt Node
Date: Thu Jul 18 16:45:39 EDT 2019
User: cochatt
Spectrometer: HR+D1059
Trigger mode: 1
Integration Time (sec): 1.000000E-1
Scans to average: 1
Electric dark correction enabled: true
Nonlinearity correction enabled: false
Boxcar width: 0
XAxis mode: Wavelengths
Number of Pixels in Spectrum: 2048
>>>>>Begin Spectral Data<<<<<
223.165	-14.69
223.4	-14.69
223.635	-14.69
223.869	-23.69
224.104	-21.69
224.338	-12.69
224.573	-11.69
224.808	-14.69
225.042	-3.69
225.277	-7.69
225.511	-15.69
225.746	2.31
225.98	10.31
226.215	14.31
226.449	14.31
226.683	32.31
226.918	21.31
227.152	31.31
227.387	24.31
227.621	37.31
227.856	42.31
228.09	36.31
228.324	44.31
228.559	45.31
228.793	55.31
229.027	78.31
229.262	94.31
229.496	100.31
229.73	90.31
229.964	119.31
230.199	116.31
230.433	89.31
230.667	83.31
230.901	108.31
231.136	104.31
231.37	95.31
231.604	106.31
231.838	106.31
232.072	90.31
232.306	114.31
232.541	102.31
232.775	89.31
233.009	105.31
233.243	106.31
233.477	97.31
233.711	107.31
233.945	95.31
234.179	102.31
234.413	95.31
234.647	85.31
234.881	110.31
235.115	85.31
235.349	100.31
235.583	95.31
235.817	93.31
236.051	105.31
236.285	107.31
236.519	101.31
236.753	100.31
236.987	116.31
237.221	125.31
237.455	170.31
237.689	151.31
237.922	116.31
238.156	112.31
238.39	119.31
238.624	102.31
238.858	110.31
239.091	100.31
239.325	106.31
239.559	112.31
239.793	93.31
240.027	124.31
240.26	113.31
240.494	121.31
240.728	111.31
240.961	113.31
241.195	90.31
241.429	106.31
241.662	117.31
241.896	102.31
242.13	123.31
242.363	117.31
242.597	105.31
242.83	118.31
243.064	124.31
243.298	116.31
243.531	110.31
243.765	117.31
243.998	108.31
244.232	114.31
244.465	124.31
244.699	115.31
244.932	118.31
245.166	110.31
245.399	122.31
245.633	109.31
245.866	130.31
246.099	113.31
246.333	112.31
246.566	115.31
246.8	129.31
247.033	125.31
247.266	127.31
247.5	117.31
247.733	130.31
247.966	124.31
248.2	135.31
248.433	131.31
248.666	133.31
248.899	140.31
249.133	147.31
249.366	155.31
249.599	142.31
249.832	142.31
250.066	146.31
250.299	132.31
250.532	157.31
250.765	154.31
250.998	176.31
251.231	170.31
251.465	155.31
251.698	163.31
251.931	137.31
252.164	163.31
252.397	156.31
252.63	152.31
252.863	157.31
253.096	168.31
253.329	176.31
253.562	170.31
253.795	184.31
254.028	162.31
254.261	168.31
254.494	168.31
254.727	182.31
254.96	219.31
255.193	191.31
255.426	179.31
255.659	191.31
255.892	191.31
256.124	171.31
256.357	158.31
256.59	164.31
256.823	154.31
257.056	160.31
257.289	165.31
257.521	169.31
257.754	162.31
257.987	161.31
258.22	135.31
258.452	157.31
258.685	160.31
258.918	158.31
259.151	169.31
259.383	153.31
259.616	179.31
259.849	167.31
260.081	184.31
260.314	191.31
260.547	205.31
260.779	173.31
261.012	178.31
261.244	180.31
261.477	180.31
261.71	162.31
261.942	164.31
262.175	179.31
262.407	162.31
262.64	160.31
262.872	150.31
263.105	178.31
263.337	156.31
263.57	168.31
263.802	165.31
264.035	161.31
264.267	161.31
264.499	168.31
264.732	166.31
264.964	160.31
265.197	164.31
265.429	166.31
265.661	161.31
265.894	167.31
266.126	170.31
266.358	168.31
266.591	155.31
266.823	156.31
267.055	172.31
267.287	191.31
267.52	175.31
267.752	164.31
267.984	170.31
268.216	172.31
268.448	182.31
268.681	181.31
268.913	193.31
269.145	186.31
269.377	205.31
269.609	201.31
269.841	219.31
270.073	192.31
270.306	223.31
270.538	219.31
270.77	220.31
271.002	216.31
271.234	216.31
271.466	201.31
271.698	227.31
271.93	220.31
272.162	223.31
272.394	223.31
272.626	224.31
272.858	211.31
273.09	197.31
273.322	201.31
273.553	197.31
273.785	198.31
274.017	208.31
274.249	181.31
274.481	197.31
274.713	198.31
274.945	205.31
275.176	198.31
275.408	199.31
275.64	200.31
275.872	181.31
276.104	216.31
276.335	221.31
276.567	193.31
276.799	210.31
277.031	216.31
277.262	233.31
277.494	225.31
277.726	212.31
277.957	199.31
278.189	220.31
278.421	203.31
278.652	208.31
278.884	206.31
279.115	192.31
279.347	185.31
279.579	203.31
279.81	191.31
280.042	198.31
280.273	199.31
280.505	216.31
280.736	196.31
280.968	200.31
281.199	192.31
281.431	189.31
281.662	206.31
281.894	204.31
282.125	214.31
282.356	216.31
282.588	221.31
282.819	225.31
283.051	195.31
283.282	184.31
283.513	191.31
283.745	206.31
283.976	207.31
284.207	201.31
284.439	196.31
284.67	190.31
284.901	211.31
285.132	201.31
285.364	197.31
285.595	194.31
285.826	200.31
286.057	205.31
286.288	215.31
286.52	220.31
286.751	218.31
286.982	211.31
287.213	212.31
287.444	207.31
287.675	205.31
287.906	209.31
288.138	213.31
288.369	237.31
288.6	203.31
288.831	225.31
289.062	214.31
289.293	212.31
289.524	198.31
289.755	219.31
289.986	211.31
290.217	198.31
290.448	215.31
290.679	217.31
290.91	212.31
291.141	199.31
291.371	214.31
291.602	211.31
291.833	216.31
292.064	213.31
292.295	236.31
292.526	227.31
292.757	204.31
292.987	203.31
293.218	207.31
293.449	197.31
293.68	228.31
293.91	213.31
294.141	217.31
294.372	206.31
294.603	206.31
294.833	197.31
295.064	195.31
295.295	208.31
295.525	220.31
295.756	225.31
295.987	204.31
296.217	226.31
296.448	264.31
296.679	210.31
296.909	205.31
297.14	211.31
297.37	209.31
297.601	204.31
297.831	220.31
298.062	217.31
298.292	214.31
298.523	209.31
298.753	217.31
298.984	210.31
299.214	224.31
299.445	215.31
299.675	219.31
299.905	234.31
300.136	232.31
300.366	205.31
300.597	223.31
300.827	230.31
301.057	229.31
301.288	243.31
301.518	233.31
301.748	223.31
301.979	239.31
302.209	231.31
302.439	245.31
302.669	239.31
302.9	225.31
303.13	233.31
303.36	241.31
303.59	246.31
303.82	234.31
304.051	253.31
304.281	236.31
304.511	235.31
304.741	229.31
304.971	217.31
305.201	227.31
305.431	237.31
305.661	241.31
305.891	258.31
306.121	251.31
306.352	250.31
306.582	252.31
306.812	246.31
307.042	244.31
307.272	243.31
307.502	244.31
307.731	233.31
307.961	247.31
308.191	228.31
308.421	241.31
308.651	249.31
308.881	240.31
309.111	246.31
309.341	241.31
309.571	247.31
309.8	243.31
310.03	276.31
310.26	253.31
310.49	279.31
310.72	273.31
310.949	291.31
311.179	279.31
311.409	274.31
311.639	264.31
311.868	269.31
312.098	292.31
312.328	294.31
312.557	304.31
312.787	281.31
313.017	292.31
313.246	293.31
313.476	276.31
313.706	283.31
313.935	287.31
314.165	295.31
314.394	273.31
314.624	292.31
314.853	272.31
315.083	273.31
315.312	278.31
315.542	265.31
315.771	252.31
316.001	240.31
316.23	260.31
316.46	266.31
316.689	258.31
316.919	266.31
317.148	273.31
317.377	290.31
317.607	285.31
317.836	263.31
318.065	283.31
318.295	283.31
318.524	262.31
318.753	281.31
318.983	275.31
319.212	275.31
319.441	277.31
319.67	278.31
319.9	279.31
320.129	255.31
320.358	282.31
320.587	263.31
320.816	277.31
321.046	281.31
321.275	307.31
321.504	287.31
321.733	305.31
321.962	287.31
322.191	309.31
322.42	318.31
322.649	336.31
322.878	344.31
323.108	352.31
323.337	349.31
323.566	371.31
323.795	385.31
324.024	436.31
324.253	552.31
324.482	795.31
324.71	1174.31
324.939	1521.31
325.168	1244.31
325.397	681.31
325.626	455.31
325.855	395.31
326.084	366.31
326.313	383.31
326.542	374.31
326.77	406.31
326.999	496.31
327.228	722.31
327.457	1020.31
327.686	1116.31
327.914	728.31
328.143	505.31
328.372	426.31
328.6	405.31
328.829	415.31
329.058	422.31
329.287	427.31
329.515	380.31
329.744	375.31
329.972	362.31
330.201	367.31
330.43	383.31
330.658	404.31
330.887	419.31
331.115	391.31
331.344	377.31
331.572	372.31
331.801	362.31
332.03	338.31
332.258	337.31
332.486	328.31
332.715	311.31
332.943	293.31
333.172	316.31
333.4	313.31
333.629	332.31
333.857	319.31
334.085	336.31
334.314	334.31
334.542	349.31
334.771	347.31
334.999	333.31
335.227	337.31
335.455	327.31
335.684	313.31
335.912	317.31
336.14	308.31
336.369	320.31
336.597	322.31
336.825	314.31
337.053	312.31
337.281	303.31
337.51	291.31
337.738	313.31
337.966	315.31
338.194	323.31
338.422	324.31
338.65	299.31
338.878	304.31
339.106	307.31
339.334	288.31
339.562	295.31
339.79	287.31
340.018	297.31
340.246	300.31
340.474	290.31
340.702	293.31
340.93	290.31
341.158	315.31
341.386	288.31
341.614	304.31
341.842	300.31
342.07	316.31
342.298	290.31
342.526	310.31
342.754	289.31
342.981	286.31
343.209	285.31
343.437	303.31
343.665	287.31
343.893	301.31
344.12	295.31
344.348	294.31
344.576	311.31
344.804	297.31
345.031	300.31
345.259	292.31
345.487	299.31
345.714	307.31
345.942	303.31
346.17	286.31
346.397	319.31
346.625	289.31
346.853	288.31
347.08	285.31
347.308	283.31
347.535	300.31
347.763	316.31
347.99	293.31
348.218	309.31
348.445	301.31
348.673	287.31
348.9	294.31
349.128	307.31
349.355	271.31
349.583	292.31
349.81	296.31
350.037	293.31
350.265	271.31
350.492	269.31
350.72	292.31
350.947	264.31
351.174	294.31
351.402	287.31
351.629	293.31
351.856	290.31
352.083	312.31
352.311	291.31
352.538	300.31
352.765	294.31
352.992	296.31
353.22	290.31
353.447	302.31
353.674	277.31
353.901	277.31
354.128	271.31
354.355	266.31
354.583	269.31
354.81	275.31
355.037	259.31
355.264	265.31
355.491	274.31
355.718	273.31
355.945	277.31
356.172	243.31
356.399	257.31
356.626	272.31
356.853	263.31
357.08	261.31
357.307	256.31
357.534	259.31
357.761	269.31
357.988	267.31
358.215	257.31
358.441	262.31
358.668	275.31
358.895	275.31
359.122	266.31
359.349	283.31
359.576	284.31
359.802	305.31
360.029	315.31
360.256	329.31
360.483	305.31
360.709	280.31
360.936	283.31
361.163	293.31
361.39	285.31
361.616	287.31
361.843	295.31
362.07	300.31
362.296	293.31
362.523	272.31
362.749	276.31
362.976	269.31
363.203	279.31
363.429	259.31
363.656	283.31
363.882	281.31
364.109	296.31
364.335	263.31
364.562	266.31
364.788	273.31
365.015	267.31
365.241	265.31
365.468	280.31
365.694	274.31
365.92	285.31
366.147	275.31
366.373	281.31
366.599	273.31
366.826	269.31
367.052	253.31
367.278	256.31
367.505	256.31
367.731	270.31
367.957	266.31
368.184	268.31
368.41	275.31
368.636	257.31
368.862	275.31
369.089	255.31
369.315	267.31
369.541	285.31
369.767	266.31
369.993	257.31
370.219	255.31
370.445	264.31
370.672	267.31
370.898	279.31
371.124	244.31
371.35	274.31
371.576	274.31
371.802	265.31
372.028	251.31
372.254	248.31
372.48	248.31
372.706	250.31
372.932	258.31
373.158	259.31
373.384	261.31
373.61	269.31
373.835	258.31
374.061	254.31
374.287	265.31
374.513	258.31
374.739	268.31
374.965	266.31
375.191	261.31
375.416	299.31
375.642	256.31
375.868	265.31
376.094	255.31
376.319	245.31
376.545	248.31
376.771	263.31
376.997	255.31
377.222	247.31
377.448	273.31
377.674	257.31
377.899	252.31
378.125	241.31
378.35	264.31
378.576	244.31
378.802	251.31
379.027	255.31
379.253	245.31
379.478	245.31
379.704	253.31
379.929	273.31
380.155	259.31
380.38	252.31
380.606	252.31
380.831	245.31
381.057	257.31
381.282	258.31
381.507	262.31
381.733	230.31
381.958	245.31
382.184	259.31
382.409	263.31
382.634	280.31
382.86	269.31
383.085	240.31
383.31	285.31
383.535	249.31
383.761	259.31
383.986	248.31
384.211	235.31
384.436	255.31
384.662	266.31
384.887	259.31
385.112	273.31
385.337	274.31
385.562	285.31
385.787	273.31
386.013	261.31
386.238	267.31
386.463	287.31
386.688	271.31
386.913	261.31
387.138	272.31
387.363	261.31
387.588	247.31
387.813	272.31
388.038	275.31
388.263	258.31
388.488	273.31
388.713	276.31
388.938	281.31
389.163	263.31
389.387	264.31
389.612	260.31
389.837	260.31
390.062	261.31
390.287	272.31
390.512	283.31
390.736	264.31
390.961	262.31
391.186	278.31
391.411	246.31
391.636	281.31
391.86	282.31
392.085	277.31
392.31	280.31
392.534	279.31
392.759	266.31
392.984	272.31
393.208	278.31
393.433	264.31
393.658	255.31
393.882	274.31
394.107	276.31
394.331	244.31
394.556	269.31
394.78	273.31
395.005	280.31
395.229	275.31
395.454	281.31
395.678	269.31
395.903	277.31
396.127	273.31
396.352	285.31
396.576	295.31
396.801	304.31
397.025	291.31
397.249	284.31
397.474	292.31
397.698	293.31
397.922	299.31
398.147	301.31
398.371	297.31
398.595	294.31
398.82	300.31
399.044	295.31
399.268	308.31
399.492	321.31
399.717	328.31
399.941	352.31
400.165	337.31
400.389	352.31
400.613	350.31
400.837	307.31
401.062	300.31
401.286	288.31
401.51	290.31
401.734	293.31
401.958	300.31
402.182	305.31
402.406	312.31
402.63	314.31
402.854	308.31
403.078	289.31
403.302	299.31
403.526	311.31
403.75	296.31
403.974	315.31
404.198	295.31
404.422	306.31
404.645	311.31
404.869	300.31
405.093	333.31
405.317	364.31
405.541	354.31
405.765	337.31
405.988	319.31
406.212	323.31
406.436	347.31
406.66	327.31
406.883	327.31
407.107	360.31
407.331	361.31
407.555	401.31
407.778	381.31
408.002	353.31
408.226	323.31
408.449	328.31
408.673	339.31
408.896	354.31
409.12	371.31
409.344	340.31
409.567	325.31
409.791	311.31
410.014	312.31
410.238	294.31
410.461	320.31
410.685	304.31
410.908	320.31
411.132	341.31
411.355	352.31
411.578	346.31
411.802	300.31
412.025	315.31
412.249	309.31
412.472	323.31
412.695	337.31
412.919	345.31
413.142	314.31
413.365	308.31
413.589	313.31
413.812	280.31
414.035	291.31
414.258	306.31
414.482	291.31
414.705	288.31
414.928	295.31
415.151	275.31
415.374	290.31
415.597	280.31
415.821	292.31
416.044	303.31
416.267	281.31
416.49	281.31
416.713	285.31
416.936	318.31
417.159	300.31
417.382	280.31
417.605	303.31
417.828	308.31
418.051	299.31
418.274	305.31
418.497	300.31
418.72	283.31
418.943	292.31
419.166	273.31
419.389	312.31
419.611	309.31
419.834	304.31
420.057	308.31
420.28	294.31
420.503	301.31
420.726	300.31
420.948	305.31
421.171	344.31
421.394	329.31
421.617	314.31
421.839	308.31
422.062	306.31
422.285	331.31
422.507	360.31
422.73	377.31
422.953	342.31
423.175	337.31
423.398	315.31
423.621	315.31
423.843	337.31
424.066	328.31
424.288	329.31
424.511	337.31
424.733	364.31
424.956	407.31
425.178	396.31
425.401	399.31
425.623	421.31
425.846	359.31
426.068	344.31
426.291	338.31
426.513	322.31
426.735	349.31
426.958	355.31
427.18	423.31
427.402	492.31
427.625	545.31
427.847	463.31
428.069	396.31
428.292	363.31
428.514	324.31
428.736	321.31
428.958	311.31
429.181	309.31
429.403	315.31
429.625	306.31
429.847	346.31
430.069	372.31
430.292	371.31
430.514	297.31
430.736	293.31
430.958	301.31
431.18	298.31
431.402	288.31
431.624	295.31
431.846	288.31
432.068	302.31
432.29	287.31
432.512	288.31
432.734	294.31
432.956	288.31
433.178	273.31
433.4	316.31
433.622	287.31
433.844	314.31
434.066	282.31
434.287	292.31
434.509	300.31
434.731	309.31
434.953	294.31
435.175	317.31
435.397	311.31
435.618	316.31
435.84	349.31
436.062	428.31
436.284	447.31
436.505	369.31
436.727	327.31
436.949	326.31
437.17	300.31
437.392	304.31
437.614	325.31
437.835	354.31
438.057	401.31
438.278	443.31
438.5	436.31
438.721	490.31
438.943	455.31
439.165	375.31
439.386	345.31
439.608	334.31
439.829	354.31
440.05	345.31
440.272	369.31
440.493	356.31
440.715	330.31
440.936	323.31
441.158	313.31
441.379	299.31
441.6	315.31
441.822	322.31
442.043	346.31
442.264	389.31
442.486	401.31
442.707	361.31
442.928	347.31
443.149	327.31
443.371	358.31
443.592	365.31
443.813	422.31
444.034	457.31
444.255	384.31
444.476	347.31
444.698	344.31
444.919	317.31
445.14	420.31
445.361	404.31
445.582	364.31
445.803	391.31
446.024	465.31
446.245	439.31
446.466	408.31
446.687	369.31
446.908	343.31
447.129	324.31
447.35	316.31
447.571	300.31
447.792	319.31
448.013	301.31
448.234	312.31
448.455	372.31
448.675	401.31
448.896	467.31
449.117	406.31
449.338	400.31
449.559	457.31
449.779	492.31
450	422.31
450.221	355.31
450.442	315.31
450.662	292.31
450.883	304.31
451.104	312.31
451.324	309.31
451.545	299.31
451.766	307.31
451.986	278.31
452.207	287.31
452.428	286.31
452.648	280.31
452.869	279.31
453.089	288.31
453.31	293.31
453.53	301.31
453.751	273.31
453.971	278.31
454.192	308.31
454.412	292.31
454.633	285.31
454.853	269.31
455.073	298.31
455.294	294.31
455.514	321.31
455.734	323.31
455.955	297.31
456.175	273.31
456.395	263.31
456.616	279.31
456.836	269.31
457.056	267.31
457.276	259.31
457.497	265.31
457.717	269.31
457.937	262.31
458.157	268.31
458.377	280.31
458.598	305.31
458.818	316.31
459.038	380.31
459.258	351.31
459.478	315.31
459.698	283.31
459.918	284.31
460.138	287.31
460.358	271.31
460.578	267.31
460.798	282.31
461.018	279.31
461.238	280.31
461.458	290.31
461.678	294.31
461.898	285.31
462.118	293.31
462.338	309.31
462.558	282.31
462.777	296.31
462.997	293.31
463.217	291.31
463.437	301.31
463.657	297.31
463.876	289.31
464.096	313.31
464.316	313.31
464.536	306.31
464.755	326.31
464.975	308.31
465.195	333.31
465.414	373.31
465.634	341.31
465.854	318.31
466.073	309.31
466.293	290.31
466.512	285.31
466.732	267.31
466.951	262.31
467.171	266.31
467.391	282.31
467.61	283.31
467.829	264.31
468.049	296.31
468.268	290.31
468.488	299.31
468.707	280.31
468.927	255.31
469.146	276.31
469.365	287.31
469.585	265.31
469.804	291.31
470.023	292.31
470.243	294.31
470.462	270.31
470.681	307.31
470.901	295.31
471.12	287.31
471.339	268.31
471.558	296.31
471.777	284.31
471.997	268.31
472.216	307.31
472.435	328.31
472.654	293.31
472.873	297.31
473.092	297.31
473.311	280.31
473.53	293.31
473.749	299.31
473.968	337.31
474.187	373.31
474.406	395.31
474.625	325.31
474.844	293.31
475.063	296.31
475.282	300.31
475.501	295.31
475.72	294.31
475.939	299.31
476.158	275.31
476.377	297.31
476.596	300.31
476.814	308.31
477.033	312.31
477.252	294.31
477.471	297.31
477.69	301.31
477.908	304.31
478.127	307.31
478.346	316.31
478.564	295.31
478.783	310.31
479.002	316.31
479.22	311.31
479.439	328.31
479.658	345.31
479.876	330.31
480.095	321.31
480.313	371.31
480.532	354.31
480.751	344.31
480.969	342.31
481.188	397.31
481.406	387.31
481.624	365.31
481.843	351.31
482.061	348.31
482.28	326.31
482.498	326.31
482.717	327.31
482.935	336.31
483.153	327.31
483.372	339.31
483.59	335.31
483.808	332.31
484.027	335.31
484.245	342.31
484.463	339.31
484.681	339.31
484.9	324.31
485.118	341.31
485.336	335.31
485.554	320.31
485.772	330.31
485.99	327.31
486.209	330.31
486.427	356.31
486.645	349.31
486.863	373.31
487.081	377.31
487.299	353.31
487.517	362.31
487.735	346.31
487.953	352.31
488.171	345.31
488.389	353.31
488.607	375.31
488.825	353.31
489.043	365.31
489.261	344.31
489.479	331.31
489.696	355.31
489.914	376.31
490.132	364.31
490.35	377.31
490.568	372.31
490.786	371.31
491.003	384.31
491.221	389.31
491.439	391.31
491.657	411.31
491.874	406.31
492.092	398.31
492.31	394.31
492.527	394.31
492.745	402.31
492.963	390.31
493.18	410.31
493.398	396.31
493.615	401.31
493.833	421.31
494.05	402.31
494.268	390.31
494.485	394.31
494.703	397.31
494.92	413.31
495.138	396.31
495.355	432.31
495.573	417.31
495.79	421.31
496.008	400.31
496.225	423.31
496.442	420.31
496.66	419.31
496.877	415.31
497.094	384.31
497.312	420.31
497.529	436.31
497.746	420.31
497.963	428.31
498.181	439.31
498.398	437.31
498.615	436.31
498.832	460.31
499.049	450.31
499.267	452.31
499.484	447.31
499.701	488.31
499.918	489.31
500.135	485.31
500.352	517.31
500.569	539.31
500.786	520.31
501.003	514.31
501.22	516.31
501.437	486.31
501.654	488.31
501.871	498.31
502.088	490.31
