Data from 1982.PennyLincolnUp.Lamp.En5.5.200Scan.071819.P1_HRD10591_16-47-54-962.txt Node
Date: Thu Jul 18 16:47:54 EDT 2019
User: cochatt
Spectrometer: HR+D1059
Trigger mode: 1
Integration Time (sec): 1.000000E-1
Scans to average: 1
Electric dark correction enabled: true
Nonlinearity correction enabled: false
Boxcar width: 0
XAxis mode: Wavelengths
Number of Pixels in Spectrum: 2048
>>>>>Begin Spectral Data<<<<<
223.165	-5.81
223.4	-5.81
223.635	-5.81
223.869	-11.81
224.104	-14.81
224.338	-6.81
224.573	-13.81
224.808	-16.81
225.042	-7.81
225.277	-12.81
225.511	0.19
225.746	-9.81
225.98	7.19
226.215	8.19
226.449	15.19
226.683	11.19
226.918	35.19
227.152	23.19
227.387	33.19
227.621	39.19
227.856	50.19
228.09	53.19
228.324	55.19
228.559	56.19
228.793	66.19
229.027	92.19
229.262	90.19
229.496	89.19
229.73	110.19
229.964	127.19
230.199	104.19
230.433	108.19
230.667	98.19
230.901	120.19
231.136	102.19
231.37	91.19
231.604	104.19
231.838	111.19
232.072	97.19
232.306	113.19
232.541	94.19
232.775	122.19
233.009	101.19
233.243	92.19
233.477	108.19
233.711	105.19
233.945	105.19
234.179	91.19
234.413	104.19
234.647	106.19
234.881	102.19
235.115	98.19
235.349	110.19
235.583	109.19
235.817	103.19
236.051	112.19
236.285	98.19
236.519	97.19
236.753	115.19
236.987	121.19
237.221	147.19
237.455	186.19
237.689	158.19
237.922	118.19
238.156	111.19
238.39	93.19
238.624	104.19
238.858	108.19
239.091	104.19
239.325	117.19
239.559	100.19
239.793	115.19
240.027	100.19
240.26	119.19
240.494	128.19
240.728	128.19
240.961	132.19
241.195	137.19
241.429	132.19
241.662	106.19
241.896	99.19
242.13	112.19
242.363	105.19
242.597	123.19
242.83	137.19
243.064	124.19
243.298	97.19
243.531	125.19
243.765	116.19
243.998	137.19
244.232	132.19
244.465	115.19
244.699	122.19
244.932	123.19
245.166	135.19
245.399	113.19
245.633	122.19
245.866	120.19
246.099	121.19
246.333	137.19
246.566	128.19
246.8	128.19
247.033	130.19
247.266	137.19
247.5	128.19
247.733	139.19
247.966	150.19
248.2	140.19
248.433	146.19
248.666	148.19
248.899	153.19
249.133	156.19
249.366	187.19
249.599	165.19
249.832	155.19
250.066	145.19
250.299	137.19
250.532	147.19
250.765	165.19
250.998	178.19
251.231	184.19
251.465	177.19
251.698	164.19
251.931	155.19
252.164	152.19
252.397	159.19
252.63	155.19
252.863	159.19
253.096	173.19
253.329	184.19
253.562	183.19
253.795	189.19
254.028	168.19
254.261	192.19
254.494	187.19
254.727	209.19
254.96	237.19
255.193	205.19
255.426	218.19
255.659	191.19
255.892	170.19
256.124	200.19
256.357	197.19
256.59	190.19
256.823	180.19
257.056	168.19
257.289	183.19
257.521	177.19
257.754	171.19
257.987	165.19
258.22	194.19
258.452	161.19
258.685	188.19
258.918	180.19
259.151	159.19
259.383	169.19
259.616	197.19
259.849	166.19
260.081	193.19
260.314	214.19
260.547	197.19
260.779	203.19
261.012	180.19
261.244	186.19
261.477	191.19
261.71	172.19
261.942	160.19
262.175	185.19
262.407	193.19
262.64	167.19
262.872	185.19
263.105	181.19
263.337	178.19
263.57	176.19
263.802	182.19
264.035	174.19
264.267	173.19
264.499	184.19
264.732	184.19
264.964	177.19
265.197	175.19
265.429	186.19
265.661	176.19
265.894	183.19
266.126	185.19
266.358	166.19
266.591	165.19
266.823	160.19
267.055	188.19
267.287	189.19
267.52	185.19
267.752	184.19
267.984	175.19
268.216	192.19
268.448	188.19
268.681	181.19
268.913	189.19
269.145	196.19
269.377	222.19
269.609	210.19
269.841	215.19
270.073	210.19
270.306	228.19
270.538	264.19
270.77	254.19
271.002	245.19
271.234	221.19
271.466	235.19
271.698	231.19
271.93	255.19
272.162	274.19
272.394	240.19
272.626	229.19
272.858	235.19
273.09	231.19
273.322	225.19
273.553	214.19
273.785	223.19
274.017	233.19
274.249	229.19
274.481	210.19
274.713	203.19
274.945	229.19
275.176	222.19
275.408	217.19
275.64	218.19
275.872	220.19
276.104	201.19
276.335	209.19
276.567	221.19
276.799	229.19
277.031	240.19
277.262	260.19
277.494	251.19
277.726	239.19
277.957	234.19
278.189	215.19
278.421	224.19
278.652	203.19
278.884	208.19
279.115	211.19
279.347	203.19
279.579	209.19
279.81	211.19
280.042	205.19
280.273	214.19
280.505	211.19
280.736	210.19
280.968	204.19
281.199	205.19
281.431	208.19
281.662	203.19
281.894	213.19
282.125	215.19
282.356	230.19
282.588	247.19
282.819	225.19
283.051	209.19
283.282	217.19
283.513	224.19
283.745	208.19
283.976	215.19
284.207	221.19
284.439	205.19
284.67	213.19
284.901	213.19
285.132	209.19
285.364	206.19
285.595	220.19
285.826	223.19
286.057	202.19
286.288	206.19
286.52	214.19
286.751	198.19
286.982	217.19
287.213	209.19
287.444	204.19
287.675	210.19
287.906	225.19
288.138	225.19
288.369	243.19
288.6	230.19
288.831	241.19
289.062	235.19
289.293	221.19
289.524	236.19
289.755	212.19
289.986	225.19
290.217	221.19
290.448	218.19
290.679	225.19
290.91	219.19
291.141	201.19
291.371	213.19
291.602	221.19
291.833	200.19
292.064	223.19
292.295	221.19
292.526	244.19
292.757	230.19
292.987	235.19
293.218	224.19
293.449	230.19
293.68	220.19
293.91	221.19
294.141	220.19
294.372	218.19
294.603	220.19
294.833	226.19
295.064	211.19
295.295	232.19
295.525	217.19
295.756	216.19
295.987	245.19
296.217	255.19
296.448	231.19
296.679	234.19
296.909	232.19
297.14	221.19
297.37	231.19
297.601	239.19
297.831	229.19
298.062	239.19
298.292	224.19
298.523	240.19
298.753	229.19
298.984	216.19
299.214	233.19
299.445	237.19
299.675	229.19
299.905	226.19
300.136	234.19
300.366	240.19
300.597	210.19
300.827	243.19
301.057	241.19
301.288	244.19
301.518	268.19
301.748	240.19
301.979	260.19
302.209	261.19
302.439	245.19
302.669	241.19
302.9	235.19
303.13	248.19
303.36	265.19
303.59	255.19
303.82	232.19
304.051	253.19
304.281	248.19
304.511	260.19
304.741	232.19
304.971	248.19
305.201	240.19
305.431	241.19
305.661	234.19
305.891	241.19
306.121	249.19
306.352	263.19
306.582	263.19
306.812	269.19
307.042	257.19
307.272	260.19
307.502	259.19
307.731	269.19
307.961	251.19
308.191	249.19
308.421	239.19
308.651	261.19
308.881	242.19
309.111	262.19
309.341	273.19
309.571	270.19
309.8	276.19
310.03	284.19
310.26	301.19
310.49	296.19
310.72	317.19
310.949	305.19
311.179	322.19
311.409	288.19
311.639	281.19
311.868	297.19
312.098	309.19
312.328	291.19
312.557	305.19
312.787	329.19
313.017	312.19
313.246	287.19
313.476	291.19
313.706	296.19
313.935	298.19
314.165	313.19
314.394	311.19
314.624	316.19
314.853	304.19
315.083	307.19
315.312	294.19
315.542	305.19
315.771	279.19
316.001	298.19
316.23	272.19
316.46	288.19
316.689	284.19
316.919	307.19
317.148	277.19
317.377	311.19
317.607	298.19
317.836	313.19
318.065	293.19
318.295	291.19
318.524	298.19
318.753	313.19
318.983	293.19
319.212	300.19
319.441	324.19
319.67	311.19
319.9	283.19
320.129	287.19
320.358	304.19
320.587	306.19
320.816	316.19
321.046	310.19
321.275	310.19
321.504	341.19
321.733	319.19
321.962	317.19
322.191	339.19
322.42	360.19
322.649	357.19
322.878	362.19
323.108	377.19
323.337	399.19
323.566	425.19
323.795	451.19
324.024	505.19
324.253	624.19
324.482	927.19
324.71	1423.19
324.939	1856.19
325.168	1528.19
325.397	816.19
325.626	527.19
325.855	439.19
326.084	431.19
326.313	417.19
326.542	437.19
326.77	484.19
326.999	593.19
327.228	844.19
327.457	1207.19
327.686	1355.19
327.914	906.19
328.143	599.19
328.372	517.19
328.6	497.19
328.829	461.19
329.058	461.19
329.287	460.19
329.515	460.19
329.744	422.19
329.972	416.19
330.201	444.19
330.43	457.19
330.658	487.19
330.887	499.19
331.115	477.19
331.344	395.19
331.572	392.19
331.801	411.19
332.03	370.19
332.258	371.19
332.486	363.19
332.715	346.19
332.943	338.19
333.172	342.19
333.4	351.19
333.629	356.19
333.857	364.19
334.085	377.19
334.314	386.19
334.542	420.19
334.771	419.19
334.999	387.19
335.227	347.19
335.455	362.19
335.684	339.19
335.912	337.19
336.14	324.19
336.369	340.19
336.597	343.19
336.825	339.19
337.053	338.19
337.281	327.19
337.51	322.19
337.738	342.19
337.966	346.19
338.194	330.19
338.422	329.19
338.65	319.19
338.878	330.19
339.106	328.19
339.334	336.19
339.562	331.19
339.79	324.19
340.018	328.19
340.246	316.19
340.474	315.19
340.702	322.19
340.93	308.19
341.158	310.19
341.386	333.19
341.614	333.19
341.842	332.19
342.07	327.19
342.298	328.19
342.526	317.19
342.754	310.19
342.981	301.19
343.209	323.19
343.437	309.19
343.665	321.19
343.893	317.19
344.12	336.19
344.348	316.19
344.576	321.19
344.804	319.19
345.031	332.19
345.259	340.19
345.487	351.19
345.714	326.19
345.942	332.19
346.17	312.19
346.397	291.19
346.625	334.19
346.853	308.19
347.08	300.19
347.308	316.19
347.535	317.19
347.763	316.19
347.99	329.19
348.218	329.19
348.445	331.19
348.673	326.19
348.9	307.19
349.128	307.19
349.355	296.19
349.583	298.19
349.81	314.19
350.037	301.19
350.265	291.19
350.492	299.19
350.72	304.19
350.947	333.19
351.174	321.19
351.402	320.19
351.629	320.19
351.856	315.19
352.083	308.19
352.311	330.19
352.538	334.19
352.765	306.19
352.992	321.19
353.22	321.19
353.447	299.19
353.674	301.19
353.901	298.19
354.128	262.19
354.355	269.19
354.583	282.19
354.81	283.19
355.037	268.19
355.264	285.19
355.491	277.19
355.718	287.19
355.945	285.19
356.172	293.19
356.399	286.19
356.626	283.19
356.853	288.19
357.08	295.19
357.307	260.19
357.534	279.19
357.761	287.19
357.988	313.19
358.215	281.19
358.441	291.19
358.668	296.19
358.895	297.19
359.122	292.19
359.349	288.19
359.576	324.19
359.802	330.19
360.029	331.19
360.256	342.19
360.483	332.19
360.709	316.19
360.936	305.19
361.163	297.19
361.39	292.19
361.616	317.19
361.843	321.19
362.07	295.19
362.296	307.19
362.523	307.19
362.749	297.19
362.976	295.19
363.203	299.19
363.429	279.19
363.656	308.19
363.882	300.19
364.109	300.19
364.335	294.19
364.562	276.19
364.788	281.19
365.015	299.19
365.241	291.19
365.468	299.19
365.694	303.19
365.92	295.19
366.147	279.19
366.373	283.19
366.599	276.19
366.826	292.19
367.052	297.19
367.278	276.19
367.505	280.19
367.731	291.19
367.957	303.19
368.184	278.19
368.41	287.19
368.636	305.19
368.862	289.19
369.089	293.19
369.315	284.19
369.541	283.19
369.767	284.19
369.993	273.19
370.219	292.19
370.445	271.19
370.672	279.19
370.898	268.19
371.124	287.19
371.35	273.19
371.576	285.19
371.802	275.19
372.028	282.19
372.254	265.19
372.48	263.19
372.706	299.19
372.932	289.19
373.158	280.19
373.384	275.19
373.61	285.19
373.835	293.19
374.061	289.19
374.287	280.19
374.513	292.19
374.739	285.19
374.965	273.19
375.191	261.19
375.416	279.19
375.642	259.19
375.868	261.19
376.094	276.19
376.319	271.19
376.545	266.19
376.771	278.19
376.997	268.19
377.222	261.19
377.448	273.19
377.674	263.19
377.899	251.19
378.125	275.19
378.35	259.19
378.576	274.19
378.802	259.19
379.027	273.19
379.253	276.19
379.478	270.19
379.704	267.19
379.929	265.19
380.155	264.19
380.38	267.19
380.606	270.19
380.831	289.19
381.057	281.19
381.282	272.19
381.507	270.19
381.733	269.19
381.958	271.19
382.184	265.19
382.409	279.19
382.634	284.19
382.86	282.19
383.085	269.19
383.31	282.19
383.535	257.19
383.761	272.19
383.986	272.19
384.211	266.19
384.436	271.19
384.662	285.19
384.887	288.19
385.112	286.19
385.337	287.19
385.562	281.19
385.787	295.19
386.013	288.19
386.238	293.19
386.463	317.19
386.688	272.19
386.913	305.19
387.138	275.19
387.363	285.19
387.588	282.19
387.813	287.19
388.038	275.19
388.263	293.19
388.488	301.19
388.713	282.19
388.938	281.19
389.163	295.19
389.387	275.19
389.612	274.19
389.837	277.19
390.062	283.19
390.287	274.19
390.512	293.19
390.736	269.19
390.961	272.19
391.186	278.19
391.411	289.19
391.636	291.19
391.86	265.19
392.085	280.19
392.31	293.19
392.534	295.19
392.759	295.19
392.984	276.19
393.208	291.19
393.433	287.19
393.658	285.19
393.882	271.19
394.107	282.19
394.331	278.19
394.556	289.19
394.78	270.19
395.005	263.19
395.229	274.19
395.454	288.19
395.678	281.19
395.903	284.19
396.127	311.19
396.352	308.19
396.576	290.19
396.801	269.19
397.025	271.19
397.249	287.19
397.474	280.19
397.698	298.19
397.922	320.19
398.147	330.19
398.371	286.19
398.595	296.19
398.82	288.19
399.044	300.19
399.268	315.19
399.492	325.19
399.717	325.19
399.941	361.19
400.165	361.19
400.389	371.19
400.613	363.19
400.837	316.19
401.062	325.19
401.286	321.19
401.51	314.19
401.734	301.19
401.958	332.19
402.182	321.19
402.406	336.19
402.63	314.19
402.854	331.19
403.078	318.19
403.302	334.19
403.526	319.19
403.75	332.19
403.974	335.19
404.198	326.19
404.422	326.19
404.645	329.19
404.869	339.19
405.093	343.19
405.317	371.19
405.541	387.19
405.765	349.19
405.988	330.19
406.212	357.19
406.436	342.19
406.66	368.19
406.883	351.19
407.107	351.19
407.331	386.19
407.555	405.19
407.778	414.19
408.002	377.19
408.226	348.19
408.449	352.19
408.673	349.19
408.896	369.19
409.12	396.19
409.344	368.19
409.567	335.19
409.791	344.19
410.014	325.19
410.238	307.19
410.461	322.19
410.685	339.19
410.908	321.19
411.132	363.19
411.355	383.19
411.578	369.19
411.802	345.19
412.025	325.19
412.249	321.19
412.472	352.19
412.695	373.19
412.919	367.19
413.142	343.19
413.365	320.19
413.589	315.19
413.812	311.19
414.035	305.19
414.258	314.19
414.482	301.19
414.705	317.19
414.928	298.19
415.151	293.19
415.374	307.19
415.597	295.19
415.821	293.19
416.044	303.19
416.267	297.19
416.49	299.19
416.713	299.19
416.936	298.19
417.159	297.19
417.382	288.19
417.605	291.19
417.828	309.19
418.051	310.19
418.274	315.19
418.497	304.19
418.72	315.19
418.943	312.19
419.166	299.19
419.389	320.19
419.611	314.19
419.834	308.19
420.057	309.19
420.28	316.19
420.503	311.19
420.726	301.19
420.948	317.19
421.171	383.19
421.394	367.19
421.617	330.19
421.839	332.19
422.062	326.19
422.285	361.19
422.507	387.19
422.73	412.19
422.953	388.19
423.175	368.19
423.398	339.19
423.621	348.19
423.843	347.19
424.066	342.19
424.288	337.19
424.511	357.19
424.733	407.19
424.956	439.19
425.178	423.19
425.401	424.19
425.623	443.19
425.846	405.19
426.068	352.19
426.291	348.19
426.513	345.19
426.735	359.19
426.958	375.19
427.18	421.19
427.402	535.19
427.625	552.19
427.847	512.19
428.069	441.19
428.292	387.19
428.514	351.19
428.736	338.19
428.958	327.19
429.181	328.19
429.403	320.19
429.625	315.19
429.847	346.19
430.069	403.19
430.292	389.19
430.514	353.19
430.736	320.19
430.958	307.19
431.18	316.19
431.402	309.19
431.624	299.19
431.846	316.19
432.068	295.19
432.29	318.19
432.512	316.19
432.734	324.19
432.956	315.19
433.178	323.19
433.4	307.19
433.622	315.19
433.844	299.19
434.066	321.19
434.287	292.19
434.509	317.19
434.731	331.19
434.953	319.19
435.175	348.19
435.397	351.19
435.618	332.19
435.84	351.19
436.062	453.19
436.284	469.19
436.505	398.19
436.727	362.19
436.949	353.19
437.17	334.19
437.392	331.19
437.614	331.19
437.835	376.19
438.057	429.19
438.278	478.19
438.5	504.19
438.721	516.19
438.943	488.19
439.165	407.19
439.386	354.19
439.608	347.19
439.829	378.19
440.05	393.19
440.272	404.19
440.493	401.19
440.715	345.19
440.936	347.19
441.158	340.19
441.379	308.19
441.6	339.19
441.822	357.19
442.043	384.19
442.264	419.19
442.486	452.19
442.707	383.19
442.928	360.19
443.149	359.19
443.371	395.19
443.592	409.19
443.813	460.19
444.034	484.19
444.255	415.19
444.476	352.19
444.698	343.19
444.919	337.19
445.14	450.19
445.361	399.19
445.582	389.19
445.803	452.19
446.024	496.19
446.245	501.19
446.466	450.19
446.687	379.19
446.908	356.19
447.129	348.19
447.35	338.19
447.571	331.19
447.792	307.19
448.013	320.19
448.234	344.19
448.455	401.19
448.675	481.19
448.896	480.19
449.117	451.19
449.338	433.19
449.559	491.19
449.779	523.19
450	423.19
450.221	354.19
450.442	348.19
450.662	326.19
450.883	326.19
451.104	352.19
451.324	332.19
451.545	328.19
451.766	312.19
451.986	304.19
452.207	295.19
452.428	298.19
452.648	298.19
452.869	277.19
453.089	301.19
453.31	312.19
453.53	308.19
453.751	306.19
453.971	322.19
454.192	309.19
454.412	305.19
454.633	300.19
454.853	290.19
455.073	297.19
455.294	331.19
455.514	360.19
455.734	347.19
455.955	305.19
456.175	297.19
456.395	283.19
456.616	280.19
456.836	266.19
457.056	286.19
457.276	270.19
457.497	279.19
457.717	274.19
457.937	285.19
458.157	290.19
458.377	303.19
458.598	308.19
458.818	355.19
459.038	406.19
459.258	414.19
459.478	320.19
459.698	307.19
459.918	300.19
460.138	309.19
460.358	310.19
460.578	313.19
460.798	311.19
461.018	300.19
461.238	296.19
461.458	293.19
461.678	289.19
461.898	306.19
462.118	295.19
462.338	311.19
462.558	327.19
462.777	305.19
462.997	314.19
463.217	299.19
463.437	322.19
463.657	307.19
463.876	310.19
464.096	312.19
464.316	315.19
464.536	316.19
464.755	323.19
464.975	328.19
465.195	370.19
465.414	405.19
465.634	367.19
465.854	320.19
466.073	320.19
466.293	324.19
466.512	307.19
466.732	281.19
466.951	295.19
467.171	291.19
467.391	300.19
467.61	312.19
467.829	324.19
468.049	314.19
468.268	308.19
468.488	286.19
468.707	280.19
468.927	287.19
469.146	278.19
469.365	307.19
469.585	287.19
469.804	307.19
470.023	313.19
470.243	307.19
470.462	325.19
470.681	332.19
470.901	311.19
471.12	300.19
471.339	310.19
471.558	294.19
471.777	301.19
471.997	319.19
472.216	305.19
472.435	328.19
472.654	328.19
472.873	307.19
473.092	294.19
473.311	293.19
473.53	303.19
473.749	312.19
473.968	370.19
474.187	414.19
474.406	414.19
474.625	352.19
474.844	327.19
475.063	323.19
475.282	314.19
475.501	316.19
475.72	328.19
475.939	322.19
476.158	318.19
476.377	316.19
476.596	299.19
476.814	282.19
477.033	306.19
477.252	312.19
477.471	321.19
477.69	320.19
477.908	325.19
478.127	332.19
478.346	327.19
478.564	331.19
478.783	320.19
479.002	332.19
479.22	343.19
479.439	359.19
479.658	348.19
479.876	375.19
480.095	346.19
480.313	377.19
480.532	375.19
480.751	368.19
480.969	377.19
481.188	426.19
481.406	437.19
481.624	389.19
481.843	369.19
482.061	355.19
482.28	340.19
482.498	370.19
482.717	330.19
482.935	341.19
483.153	344.19
483.372	319.19
483.59	353.19
483.808	355.19
484.027	353.19
484.245	356.19
484.463	357.19
484.681	354.19
484.9	354.19
485.118	350.19
485.336	355.19
485.554	363.19
485.772	340.19
485.99	353.19
486.209	367.19
486.427	341.19
486.645	363.19
486.863	375.19
487.081	372.19
487.299	383.19
487.517	347.19
487.735	358.19
487.953	381.19
488.171	367.19
488.389	376.19
488.607	373.19
488.825	372.19
489.043	379.19
489.261	383.19
489.479	373.19
489.696	375.19
489.914	364.19
490.132	393.19
490.35	382.19
490.568	378.19
490.786	392.19
491.003	394.19
491.221	397.19
491.439	418.19
491.657	436.19
491.874	427.19
492.092	426.19
492.31	444.19
492.527	415.19
492.745	431.19
492.963	421.19
493.18	424.19
493.398	432.19
493.615	454.19
493.833	461.19
494.05	447.19
494.268	437.19
494.485	430.19
494.703	429.19
494.92	443.19
495.138	453.19
495.355	431.19
495.573	449.19
495.79	437.19
496.008	430.19
496.225	441.19
496.442	435.19
496.66	469.19
496.877	431.19
497.094	431.19
497.312	454.19
497.529	445.19
497.746	462.19
497.963	462.19
498.181	473.19
498.398	455.19
498.615	479.19
498.832	482.19
499.049	472.19
499.267	483.19
499.484	496.19
499.701	495.19
499.918	517.19
500.135	521.19
500.352	552.19
500.569	554.19
500.786	551.19
501.003	547.19
501.22	523.19
501.437	535.19
501.654	521.19
501.871	537.19
502.088	523.19
