Data from 1982.PennyLincolnUp.Lamp.En5.5.200Scan.071819.P1_HRD10591_16-47-48-963.txt Node
Date: Thu Jul 18 16:47:48 EDT 2019
User: cochatt
Spectrometer: HR+D1059
Trigger mode: 1
Integration Time (sec): 1.000000E-1
Scans to average: 1
Electric dark correction enabled: true
Nonlinearity correction enabled: false
Boxcar width: 0
XAxis mode: Wavelengths
Number of Pixels in Spectrum: 2048
>>>>>Begin Spectral Data<<<<<
223.165	-13.38
223.4	-13.38
223.635	-13.38
223.869	-25.38
224.104	-15.38
224.338	-13.38
224.573	-2.38
224.808	-11.38
225.042	-11.38
225.277	-6.38
225.511	-5.38
225.746	-7.38
225.98	-1.38
226.215	32.62
226.449	17.62
226.683	6.62
226.918	26.62
227.152	29.62
227.387	39.62
227.621	53.62
227.856	49.62
228.09	34.62
228.324	43.62
228.559	63.62
228.793	76.62
229.027	84.62
229.262	109.62
229.496	107.62
229.73	107.62
229.964	108.62
230.199	120.62
230.433	97.62
230.667	98.62
230.901	107.62
231.136	95.62
231.37	109.62
231.604	98.62
231.838	119.62
232.072	104.62
232.306	110.62
232.541	105.62
232.775	109.62
233.009	115.62
233.243	107.62
233.477	115.62
233.711	117.62
233.945	97.62
234.179	110.62
234.413	96.62
234.647	90.62
234.881	101.62
235.115	116.62
235.349	110.62
235.583	113.62
235.817	112.62
236.051	111.62
236.285	125.62
236.519	108.62
236.753	128.62
236.987	130.62
237.221	171.62
237.455	194.62
237.689	156.62
237.922	132.62
238.156	129.62
238.39	118.62
238.624	105.62
238.858	124.62
239.091	106.62
239.325	110.62
239.559	112.62
239.793	127.62
240.027	139.62
240.26	132.62
240.494	123.62
240.728	130.62
240.961	131.62
241.195	132.62
241.429	110.62
241.662	123.62
241.896	132.62
242.13	110.62
242.363	128.62
242.597	107.62
242.83	110.62
243.064	130.62
243.298	119.62
243.531	131.62
243.765	137.62
243.998	125.62
244.232	113.62
244.465	127.62
244.699	118.62
244.932	125.62
245.166	127.62
245.399	120.62
245.633	129.62
245.866	130.62
246.099	145.62
246.333	144.62
246.566	135.62
246.8	114.62
247.033	135.62
247.266	135.62
247.5	130.62
247.733	156.62
247.966	156.62
248.2	129.62
248.433	160.62
248.666	146.62
248.899	166.62
249.133	181.62
249.366	180.62
249.599	153.62
249.832	132.62
250.066	146.62
250.299	146.62
250.532	156.62
250.765	164.62
250.998	196.62
251.231	195.62
251.465	168.62
251.698	170.62
251.931	152.62
252.164	175.62
252.397	156.62
252.63	167.62
252.863	167.62
253.096	172.62
253.329	178.62
253.562	182.62
253.795	181.62
254.028	177.62
254.261	191.62
254.494	202.62
254.727	202.62
254.96	225.62
255.193	210.62
255.426	204.62
255.659	203.62
255.892	192.62
256.124	189.62
256.357	197.62
256.59	203.62
256.823	187.62
257.056	190.62
257.289	182.62
257.521	168.62
257.754	180.62
257.987	189.62
258.22	169.62
258.452	180.62
258.685	160.62
258.918	165.62
259.151	176.62
259.383	189.62
259.616	177.62
259.849	196.62
260.081	198.62
260.314	202.62
260.547	221.62
260.779	217.62
261.012	182.62
261.244	201.62
261.477	183.62
261.71	175.62
261.942	188.62
262.175	184.62
262.407	198.62
262.64	166.62
262.872	184.62
263.105	171.62
263.337	182.62
263.57	184.62
263.802	162.62
264.035	168.62
264.267	176.62
264.499	184.62
264.732	175.62
264.964	179.62
265.197	177.62
265.429	158.62
265.661	158.62
265.894	167.62
266.126	173.62
266.358	172.62
266.591	187.62
266.823	166.62
267.055	187.62
267.287	188.62
267.52	193.62
267.752	169.62
267.984	184.62
268.216	184.62
268.448	198.62
268.681	198.62
268.913	210.62
269.145	209.62
269.377	220.62
269.609	217.62
269.841	193.62
270.073	208.62
270.306	233.62
270.538	249.62
270.77	256.62
271.002	249.62
271.234	230.62
271.466	230.62
271.698	246.62
271.93	238.62
272.162	243.62
272.394	252.62
272.626	235.62
272.858	219.62
273.09	222.62
273.322	228.62
273.553	209.62
273.785	206.62
274.017	217.62
274.249	216.62
274.481	213.62
274.713	223.62
274.945	207.62
275.176	218.62
275.408	226.62
275.64	216.62
275.872	188.62
276.104	205.62
276.335	215.62
276.567	222.62
276.799	223.62
277.031	241.62
277.262	246.62
277.494	250.62
277.726	248.62
277.957	248.62
278.189	226.62
278.421	220.62
278.652	213.62
278.884	230.62
279.115	210.62
279.347	214.62
279.579	218.62
279.81	210.62
280.042	206.62
280.273	212.62
280.505	216.62
280.736	199.62
280.968	213.62
281.199	212.62
281.431	216.62
281.662	216.62
281.894	221.62
282.125	204.62
282.356	238.62
282.588	249.62
282.819	254.62
283.051	215.62
283.282	209.62
283.513	224.62
283.745	208.62
283.976	220.62
284.207	216.62
284.439	220.62
284.67	220.62
284.901	214.62
285.132	205.62
285.364	211.62
285.595	218.62
285.826	222.62
286.057	223.62
286.288	195.62
286.52	222.62
286.751	225.62
286.982	225.62
287.213	228.62
287.444	225.62
287.675	222.62
287.906	228.62
288.138	234.62
288.369	227.62
288.6	232.62
288.831	236.62
289.062	244.62
289.293	237.62
289.524	230.62
289.755	235.62
289.986	228.62
290.217	212.62
290.448	230.62
290.679	225.62
290.91	236.62
291.141	229.62
291.371	221.62
291.602	239.62
291.833	198.62
292.064	228.62
292.295	219.62
292.526	226.62
292.757	224.62
292.987	231.62
293.218	222.62
293.449	220.62
293.68	223.62
293.91	235.62
294.141	238.62
294.372	224.62
294.603	207.62
294.833	222.62
295.064	226.62
295.295	212.62
295.525	242.62
295.756	231.62
295.987	241.62
296.217	251.62
296.448	274.62
296.679	238.62
296.909	235.62
297.14	215.62
297.37	222.62
297.601	228.62
297.831	224.62
298.062	233.62
298.292	250.62
298.523	260.62
298.753	224.62
298.984	228.62
299.214	239.62
299.445	233.62
299.675	245.62
299.905	248.62
300.136	252.62
300.366	228.62
300.597	242.62
300.827	226.62
301.057	252.62
301.288	233.62
301.518	252.62
301.748	244.62
301.979	252.62
302.209	244.62
302.439	263.62
302.669	272.62
302.9	258.62
303.13	268.62
303.36	251.62
303.59	266.62
303.82	263.62
304.051	234.62
304.281	260.62
304.511	247.62
304.741	221.62
304.971	234.62
305.201	249.62
305.431	245.62
305.661	251.62
305.891	244.62
306.121	266.62
306.352	274.62
306.582	247.62
306.812	266.62
307.042	274.62
307.272	261.62
307.502	267.62
307.731	242.62
307.961	249.62
308.191	267.62
308.421	262.62
308.651	266.62
308.881	253.62
309.111	266.62
309.341	271.62
309.571	264.62
309.8	285.62
310.03	270.62
310.26	286.62
310.49	271.62
310.72	310.62
310.949	305.62
311.179	321.62
311.409	304.62
311.639	294.62
311.868	289.62
312.098	290.62
312.328	305.62
312.557	309.62
312.787	336.62
313.017	324.62
313.246	290.62
313.476	302.62
313.706	290.62
313.935	309.62
314.165	312.62
314.394	298.62
314.624	309.62
314.853	288.62
315.083	297.62
315.312	277.62
315.542	287.62
315.771	277.62
316.001	275.62
316.23	272.62
316.46	272.62
316.689	310.62
316.919	289.62
317.148	303.62
317.377	299.62
317.607	281.62
317.836	293.62
318.065	290.62
318.295	298.62
318.524	290.62
318.753	288.62
318.983	300.62
319.212	288.62
319.441	291.62
319.67	308.62
319.9	293.62
320.129	293.62
320.358	294.62
320.587	318.62
320.816	294.62
321.046	290.62
321.275	320.62
321.504	310.62
321.733	312.62
321.962	345.62
322.191	343.62
322.42	351.62
322.649	368.62
322.878	388.62
323.108	380.62
323.337	397.62
323.566	426.62
323.795	438.62
324.024	491.62
324.253	612.62
324.482	967.62
324.71	1396.62
324.939	1818.62
325.168	1468.62
325.397	785.62
325.626	523.62
325.855	450.62
326.084	412.62
326.313	413.62
326.542	441.62
326.77	466.62
326.999	588.62
327.228	841.62
327.457	1209.62
327.686	1322.62
327.914	870.62
328.143	574.62
328.372	508.62
328.6	504.62
328.829	450.62
329.058	455.62
329.287	451.62
329.515	442.62
329.744	408.62
329.972	399.62
330.201	411.62
330.43	458.62
330.658	470.62
330.887	496.62
331.115	472.62
331.344	426.62
331.572	394.62
331.801	389.62
332.03	379.62
332.258	358.62
332.486	366.62
332.715	356.62
332.943	330.62
333.172	339.62
333.4	341.62
333.629	344.62
333.857	365.62
334.085	368.62
334.314	394.62
334.542	422.62
334.771	415.62
334.999	366.62
335.227	346.62
335.455	322.62
335.684	350.62
335.912	323.62
336.14	346.62
336.369	313.62
336.597	341.62
336.825	323.62
337.053	320.62
337.281	324.62
337.51	336.62
337.738	331.62
337.966	330.62
338.194	327.62
338.422	328.62
338.65	315.62
338.878	322.62
339.106	329.62
339.334	323.62
339.562	303.62
339.79	317.62
340.018	313.62
340.246	327.62
340.474	331.62
340.702	340.62
340.93	305.62
341.158	312.62
341.386	325.62
341.614	330.62
341.842	319.62
342.07	311.62
342.298	316.62
342.526	304.62
342.754	301.62
342.981	294.62
343.209	301.62
343.437	306.62
343.665	322.62
343.893	315.62
344.12	338.62
344.348	323.62
344.576	315.62
344.804	317.62
345.031	314.62
345.259	354.62
345.487	325.62
345.714	322.62
345.942	321.62
346.17	329.62
346.397	303.62
346.625	308.62
346.853	315.62
347.08	313.62
347.308	316.62
347.535	334.62
347.763	333.62
347.99	313.62
348.218	311.62
348.445	323.62
348.673	319.62
348.9	316.62
349.128	317.62
349.355	313.62
349.583	289.62
349.81	304.62
350.037	301.62
350.265	289.62
350.492	297.62
350.72	300.62
350.947	303.62
351.174	315.62
351.402	324.62
351.629	316.62
351.856	330.62
352.083	324.62
352.311	318.62
352.538	334.62
352.765	314.62
352.992	320.62
353.22	310.62
353.447	299.62
353.674	287.62
353.901	277.62
354.128	302.62
354.355	301.62
354.583	291.62
354.81	296.62
355.037	273.62
355.264	284.62
355.491	287.62
355.718	265.62
355.945	287.62
356.172	280.62
356.399	274.62
356.626	271.62
356.853	273.62
357.08	278.62
357.307	264.62
357.534	283.62
357.761	275.62
357.988	249.62
358.215	281.62
358.441	276.62
358.668	292.62
358.895	288.62
359.122	303.62
359.349	302.62
359.576	297.62
359.802	330.62
360.029	358.62
360.256	341.62
360.483	328.62
360.709	317.62
360.936	305.62
361.163	316.62
361.39	288.62
361.616	314.62
361.843	319.62
362.07	308.62
362.296	293.62
362.523	296.62
362.749	299.62
362.976	288.62
363.203	315.62
363.429	312.62
363.656	294.62
363.882	284.62
364.109	269.62
364.335	289.62
364.562	300.62
364.788	288.62
365.015	289.62
365.241	284.62
365.468	297.62
365.694	308.62
365.92	297.62
366.147	275.62
366.373	279.62
366.599	263.62
366.826	280.62
367.052	274.62
367.278	276.62
367.505	289.62
367.731	287.62
367.957	287.62
368.184	288.62
368.41	288.62
368.636	297.62
368.862	288.62
369.089	287.62
369.315	274.62
369.541	272.62
369.767	272.62
369.993	283.62
370.219	280.62
370.445	277.62
370.672	282.62
370.898	285.62
371.124	287.62
371.35	301.62
371.576	286.62
371.802	274.62
372.028	279.62
372.254	280.62
372.48	280.62
372.706	282.62
372.932	271.62
373.158	273.62
373.384	280.62
373.61	272.62
373.835	272.62
374.061	269.62
374.287	275.62
374.513	278.62
374.739	272.62
374.965	282.62
375.191	281.62
375.416	280.62
375.642	263.62
375.868	272.62
376.094	272.62
376.319	259.62
376.545	274.62
376.771	282.62
376.997	274.62
377.222	281.62
377.448	275.62
377.674	277.62
377.899	275.62
378.125	267.62
378.35	262.62
378.576	258.62
378.802	266.62
379.027	277.62
379.253	257.62
379.478	293.62
379.704	264.62
379.929	262.62
380.155	294.62
380.38	284.62
380.606	278.62
380.831	257.62
381.057	294.62
381.282	283.62
381.507	279.62
381.733	285.62
381.958	281.62
382.184	270.62
382.409	254.62
382.634	254.62
382.86	273.62
383.085	259.62
383.31	277.62
383.535	281.62
383.761	269.62
383.986	270.62
384.211	260.62
384.436	272.62
384.662	273.62
384.887	262.62
385.112	282.62
385.337	280.62
385.562	271.62
385.787	291.62
386.013	304.62
386.238	285.62
386.463	286.62
386.688	311.62
386.913	279.62
387.138	294.62
387.363	295.62
387.588	278.62
387.813	295.62
388.038	279.62
388.263	282.62
388.488	278.62
388.713	270.62
388.938	270.62
389.163	287.62
389.387	278.62
389.612	276.62
389.837	282.62
390.062	271.62
390.287	276.62
390.512	285.62
390.736	273.62
390.961	296.62
391.186	268.62
391.411	274.62
391.636	286.62
391.86	284.62
392.085	278.62
392.31	277.62
392.534	282.62
392.759	289.62
392.984	281.62
393.208	290.62
393.433	287.62
393.658	293.62
393.882	295.62
394.107	278.62
394.331	274.62
394.556	292.62
394.78	273.62
395.005	295.62
395.229	273.62
395.454	298.62
395.678	280.62
395.903	298.62
396.127	305.62
396.352	304.62
396.576	292.62
396.801	289.62
397.025	282.62
397.249	295.62
397.474	318.62
397.698	309.62
397.922	289.62
398.147	325.62
398.371	310.62
398.595	308.62
398.82	312.62
399.044	307.62
399.268	325.62
399.492	330.62
399.717	342.62
399.941	363.62
400.165	362.62
400.389	376.62
400.613	354.62
400.837	327.62
401.062	320.62
401.286	311.62
401.51	323.62
401.734	312.62
401.958	310.62
402.182	316.62
402.406	327.62
402.63	319.62
402.854	329.62
403.078	330.62
403.302	330.62
403.526	303.62
403.75	310.62
403.974	308.62
404.198	321.62
404.422	318.62
404.645	336.62
404.869	336.62
405.093	343.62
405.317	362.62
405.541	396.62
405.765	374.62
405.988	329.62
406.212	366.62
406.436	361.62
406.66	381.62
406.883	356.62
407.107	362.62
407.331	382.62
407.555	436.62
407.778	403.62
408.002	369.62
408.226	350.62
408.449	348.62
408.673	352.62
408.896	371.62
409.12	390.62
409.344	360.62
409.567	347.62
409.791	325.62
410.014	316.62
410.238	324.62
410.461	324.62
410.685	322.62
410.908	336.62
411.132	352.62
411.355	382.62
411.578	353.62
411.802	300.62
412.025	318.62
412.249	332.62
412.472	348.62
412.695	370.62
412.919	361.62
413.142	354.62
413.365	324.62
413.589	319.62
413.812	280.62
414.035	288.62
414.258	289.62
414.482	299.62
414.705	309.62
414.928	293.62
415.151	304.62
415.374	315.62
415.597	280.62
415.821	284.62
416.044	303.62
416.267	309.62
416.49	310.62
416.713	301.62
416.936	313.62
417.159	302.62
417.382	308.62
417.605	316.62
417.828	312.62
418.051	338.62
418.274	320.62
418.497	308.62
418.72	315.62
418.943	294.62
419.166	310.62
419.389	322.62
419.611	317.62
419.834	305.62
420.057	336.62
420.28	320.62
420.503	319.62
420.726	343.62
420.948	348.62
421.171	364.62
421.394	377.62
421.617	340.62
421.839	325.62
422.062	316.62
422.285	333.62
422.507	375.62
422.73	399.62
422.953	383.62
423.175	366.62
423.398	344.62
423.621	330.62
423.843	348.62
424.066	358.62
424.288	361.62
424.511	364.62
424.733	402.62
424.956	457.62
425.178	426.62
425.401	413.62
425.623	417.62
425.846	372.62
426.068	357.62
426.291	334.62
426.513	353.62
426.735	370.62
426.958	380.62
427.18	442.62
427.402	541.62
427.625	576.62
427.847	506.62
428.069	425.62
428.292	398.62
428.514	353.62
428.736	348.62
428.958	342.62
429.181	326.62
429.403	325.62
429.625	342.62
429.847	362.62
430.069	404.62
430.292	379.62
430.514	340.62
430.736	331.62
430.958	312.62
431.18	311.62
431.402	305.62
431.624	308.62
431.846	294.62
432.068	296.62
432.29	302.62
432.512	312.62
432.734	306.62
432.956	304.62
433.178	317.62
433.4	316.62
433.622	303.62
433.844	317.62
434.066	297.62
434.287	305.62
434.509	312.62
434.731	308.62
434.953	321.62
435.175	345.62
435.397	350.62
435.618	359.62
435.84	392.62
436.062	449.62
436.284	481.62
436.505	417.62
436.727	373.62
436.949	341.62
437.17	334.62
437.392	326.62
437.614	352.62
437.835	374.62
438.057	436.62
438.278	492.62
438.5	492.62
438.721	505.62
438.943	492.62
439.165	422.62
439.386	382.62
439.608	362.62
439.829	358.62
440.05	389.62
440.272	426.62
440.493	416.62
440.715	361.62
440.936	350.62
441.158	333.62
441.379	323.62
441.6	347.62
441.822	346.62
442.043	374.62
442.264	418.62
442.486	431.62
442.707	385.62
442.928	364.62
443.149	348.62
443.371	397.62
443.592	416.62
443.813	446.62
444.034	486.62
444.255	423.62
444.476	367.62
444.698	362.62
444.919	359.62
445.14	460.62
445.361	424.62
445.582	396.62
445.803	433.62
446.024	524.62
446.245	497.62
446.466	460.62
446.687	393.62
446.908	346.62
447.129	353.62
447.35	339.62
447.571	335.62
447.792	316.62
448.013	343.62
448.234	324.62
448.455	373.62
448.675	467.62
448.896	512.62
449.117	439.62
449.338	431.62
449.559	482.62
449.779	560.62
450	425.62
450.221	367.62
450.442	353.62
450.662	332.62
450.883	329.62
451.104	330.62
451.324	337.62
451.545	329.62
451.766	324.62
451.986	304.62
452.207	292.62
452.428	313.62
452.648	301.62
452.869	306.62
453.089	317.62
453.31	308.62
453.53	297.62
453.751	310.62
453.971	304.62
454.192	340.62
454.412	307.62
454.633	287.62
454.853	301.62
455.073	299.62
455.294	316.62
455.514	370.62
455.734	347.62
455.955	310.62
456.175	288.62
456.395	266.62
456.616	288.62
456.836	291.62
457.056	283.62
457.276	279.62
457.497	290.62
457.717	297.62
457.937	280.62
458.157	278.62
458.377	299.62
458.598	317.62
458.818	359.62
459.038	395.62
459.258	398.62
459.478	345.62
459.698	338.62
459.918	313.62
460.138	312.62
460.358	296.62
460.578	311.62
460.798	305.62
461.018	312.62
461.238	312.62
461.458	283.62
461.678	322.62
461.898	302.62
462.118	298.62
462.338	314.62
462.558	294.62
462.777	314.62
462.997	297.62
463.217	322.62
463.437	306.62
463.657	325.62
463.876	321.62
464.096	312.62
464.316	326.62
464.536	312.62
464.755	329.62
464.975	334.62
465.195	372.62
465.414	409.62
465.634	365.62
465.854	332.62
466.073	328.62
466.293	287.62
466.512	294.62
466.732	303.62
466.951	299.62
467.171	299.62
467.391	305.62
467.61	316.62
467.829	322.62
468.049	313.62
468.268	297.62
468.488	306.62
468.707	280.62
468.927	277.62
469.146	279.62
469.365	308.62
469.585	283.62
469.804	292.62
470.023	296.62
470.243	290.62
470.462	330.62
470.681	320.62
470.901	313.62
471.12	307.62
471.339	302.62
471.558	309.62
471.777	303.62
471.997	312.62
472.216	315.62
472.435	342.62
472.654	328.62
472.873	293.62
473.092	305.62
473.311	305.62
473.53	285.62
473.749	312.62
473.968	356.62
474.187	426.62
474.406	419.62
474.625	348.62
474.844	335.62
475.063	312.62
475.282	304.62
475.501	323.62
475.72	296.62
475.939	309.62
476.158	312.62
476.377	313.62
476.596	325.62
476.814	294.62
477.033	321.62
477.252	331.62
477.471	312.62
477.69	302.62
477.908	323.62
478.127	326.62
478.346	326.62
478.564	352.62
478.783	326.62
479.002	338.62
479.22	338.62
479.439	341.62
479.658	356.62
479.876	333.62
480.095	361.62
480.313	350.62
480.532	382.62
480.751	356.62
480.969	364.62
481.188	401.62
481.406	458.62
481.624	409.62
481.843	369.62
482.061	362.62
482.28	364.62
482.498	344.62
482.717	389.62
482.935	346.62
483.153	354.62
483.372	349.62
483.59	323.62
483.808	336.62
484.027	355.62
484.245	366.62
484.463	346.62
484.681	376.62
484.9	381.62
485.118	356.62
485.336	353.62
485.554	361.62
485.772	365.62
485.99	354.62
486.209	358.62
486.427	376.62
486.645	361.62
486.863	380.62
487.081	369.62
487.299	376.62
487.517	377.62
487.735	384.62
487.953	361.62
488.171	374.62
488.389	376.62
488.607	375.62
488.825	367.62
489.043	385.62
489.261	386.62
489.479	385.62
489.696	382.62
489.914	394.62
490.132	375.62
490.35	376.62
490.568	386.62
490.786	393.62
491.003	428.62
491.221	417.62
491.439	398.62
491.657	399.62
491.874	425.62
492.092	434.62
492.31	434.62
492.527	427.62
492.745	439.62
492.963	413.62
493.18	406.62
493.398	445.62
493.615	450.62
493.833	456.62
494.05	454.62
494.268	445.62
494.485	428.62
494.703	442.62
494.92	437.62
495.138	459.62
495.355	441.62
495.573	452.62
495.79	438.62
496.008	460.62
496.225	457.62
496.442	440.62
496.66	448.62
496.877	446.62
497.094	463.62
497.312	425.62
497.529	470.62
497.746	442.62
497.963	467.62
498.181	492.62
498.398	474.62
498.615	469.62
498.832	460.62
499.049	475.62
499.267	475.62
499.484	471.62
499.701	514.62
499.918	508.62
500.135	536.62
500.352	509.62
500.569	554.62
500.786	532.62
501.003	544.62
501.22	526.62
501.437	520.62
501.654	543.62
501.871	547.62
502.088	534.62
