Data from 1982.PennyLincolnUp.Lamp.En5.5.200Scan.071819.P1_HRD10591_16-45-40-961.txt Node
Date: Thu Jul 18 16:45:40 EDT 2019
User: cochatt
Spectrometer: HR+D1059
Trigger mode: 1
Integration Time (sec): 1.000000E-1
Scans to average: 1
Electric dark correction enabled: true
Nonlinearity correction enabled: false
Boxcar width: 0
XAxis mode: Wavelengths
Number of Pixels in Spectrum: 2048
>>>>>Begin Spectral Data<<<<<
223.165	-13.94
223.4	-13.94
223.635	-13.94
223.869	-12.94
224.104	-7.94
224.338	-0.94
224.573	-25.94
224.808	-11.94
225.042	-10.94
225.277	-10.94
225.511	3.06
225.746	2.06
225.98	11.06
226.215	6.06
226.449	10.06
226.683	15.06
226.918	11.06
227.152	37.06
227.387	26.06
227.621	27.06
227.856	49.06
228.09	51.06
228.324	48.06
228.559	54.06
228.793	79.06
229.027	73.06
229.262	67.06
229.496	94.06
229.73	105.06
229.964	127.06
230.199	98.06
230.433	107.06
230.667	94.06
230.901	87.06
231.136	97.06
231.37	87.06
231.604	101.06
231.838	82.06
232.072	92.06
232.306	92.06
232.541	98.06
232.775	99.06
233.009	112.06
233.243	99.06
233.477	100.06
233.711	95.06
233.945	95.06
234.179	104.06
234.413	102.06
234.647	113.06
234.881	105.06
235.115	92.06
235.349	99.06
235.583	101.06
235.817	102.06
236.051	109.06
236.285	92.06
236.519	106.06
236.753	102.06
236.987	92.06
237.221	151.06
237.455	183.06
237.689	137.06
237.922	120.06
238.156	103.06
238.39	105.06
238.624	103.06
238.858	113.06
239.091	108.06
239.325	102.06
239.559	118.06
239.793	121.06
240.027	106.06
240.26	129.06
240.494	122.06
240.728	105.06
240.961	124.06
241.195	109.06
241.429	109.06
241.662	115.06
241.896	108.06
242.13	104.06
242.363	113.06
242.597	103.06
242.83	117.06
243.064	124.06
243.298	108.06
243.531	103.06
243.765	110.06
243.998	125.06
244.232	127.06
244.465	117.06
244.699	123.06
244.932	111.06
245.166	110.06
245.399	115.06
245.633	131.06
245.866	112.06
246.099	115.06
246.333	112.06
246.566	119.06
246.8	129.06
247.033	125.06
247.266	118.06
247.5	125.06
247.733	133.06
247.966	135.06
248.2	135.06
248.433	132.06
248.666	141.06
248.899	144.06
249.133	153.06
249.366	160.06
249.599	163.06
249.832	149.06
250.066	149.06
250.299	149.06
250.532	139.06
250.765	165.06
250.998	167.06
251.231	181.06
251.465	175.06
251.698	175.06
251.931	159.06
252.164	150.06
252.397	162.06
252.63	159.06
252.863	154.06
253.096	171.06
253.329	169.06
253.562	198.06
253.795	162.06
254.028	163.06
254.261	168.06
254.494	164.06
254.727	189.06
254.96	205.06
255.193	201.06
255.426	205.06
255.659	183.06
255.892	177.06
256.124	178.06
256.357	178.06
256.59	172.06
256.823	175.06
257.056	177.06
257.289	175.06
257.521	169.06
257.754	155.06
257.987	147.06
258.22	164.06
258.452	164.06
258.685	155.06
258.918	164.06
259.151	147.06
259.383	181.06
259.616	177.06
259.849	176.06
260.081	173.06
260.314	195.06
260.547	197.06
260.779	206.06
261.012	168.06
261.244	169.06
261.477	192.06
261.71	185.06
261.942	177.06
262.175	173.06
262.407	176.06
262.64	168.06
262.872	169.06
263.105	175.06
263.337	155.06
263.57	154.06
263.802	165.06
264.035	165.06
264.267	170.06
264.499	148.06
264.732	152.06
264.964	160.06
265.197	164.06
265.429	175.06
265.661	165.06
265.894	177.06
266.126	164.06
266.358	166.06
266.591	177.06
266.823	179.06
267.055	179.06
267.287	162.06
267.52	179.06
267.752	169.06
267.984	169.06
268.216	162.06
268.448	190.06
268.681	192.06
268.913	193.06
269.145	198.06
269.377	196.06
269.609	196.06
269.841	192.06
270.073	227.06
270.306	241.06
270.538	241.06
270.77	219.06
271.002	211.06
271.234	215.06
271.466	208.06
271.698	223.06
271.93	234.06
272.162	239.06
272.394	247.06
272.626	235.06
272.858	218.06
273.09	209.06
273.322	193.06
273.553	215.06
273.785	216.06
274.017	205.06
274.249	209.06
274.481	179.06
274.713	198.06
274.945	211.06
275.176	224.06
275.408	196.06
275.64	199.06
275.872	215.06
276.104	221.06
276.335	196.06
276.567	217.06
276.799	201.06
277.031	230.06
277.262	231.06
277.494	239.06
277.726	233.06
277.957	230.06
278.189	209.06
278.421	229.06
278.652	187.06
278.884	205.06
279.115	186.06
279.347	198.06
279.579	211.06
279.81	203.06
280.042	213.06
280.273	219.06
280.505	204.06
280.736	198.06
280.968	216.06
281.199	193.06
281.431	196.06
281.662	218.06
281.894	210.06
282.125	206.06
282.356	223.06
282.588	205.06
282.819	216.06
283.051	207.06
283.282	204.06
283.513	215.06
283.745	214.06
283.976	232.06
284.207	205.06
284.439	221.06
284.67	200.06
284.901	199.06
285.132	198.06
285.364	216.06
285.595	211.06
285.826	193.06
286.057	215.06
286.288	197.06
286.52	187.06
286.751	208.06
286.982	223.06
287.213	200.06
287.444	217.06
287.675	207.06
287.906	210.06
288.138	227.06
288.369	216.06
288.6	211.06
288.831	228.06
289.062	207.06
289.293	230.06
289.524	215.06
289.755	224.06
289.986	207.06
290.217	213.06
290.448	204.06
290.679	195.06
290.91	208.06
291.141	210.06
291.371	211.06
291.602	209.06
291.833	218.06
292.064	213.06
292.295	220.06
292.526	199.06
292.757	228.06
292.987	218.06
293.218	205.06
293.449	208.06
293.68	224.06
293.91	209.06
294.141	202.06
294.372	218.06
294.603	230.06
294.833	214.06
295.064	218.06
295.295	228.06
295.525	217.06
295.756	217.06
295.987	216.06
296.217	235.06
296.448	244.06
296.679	212.06
296.909	217.06
297.14	199.06
297.37	232.06
297.601	226.06
297.831	226.06
298.062	221.06
298.292	227.06
298.523	219.06
298.753	239.06
298.984	213.06
299.214	231.06
299.445	235.06
299.675	221.06
299.905	237.06
300.136	226.06
300.366	220.06
300.597	223.06
300.827	219.06
301.057	242.06
301.288	243.06
301.518	236.06
301.748	222.06
301.979	221.06
302.209	251.06
302.439	247.06
302.669	234.06
302.9	241.06
303.13	241.06
303.36	250.06
303.59	257.06
303.82	233.06
304.051	261.06
304.281	253.06
304.511	239.06
304.741	241.06
304.971	234.06
305.201	239.06
305.431	239.06
305.661	242.06
305.891	252.06
306.121	235.06
306.352	256.06
306.582	262.06
306.812	230.06
307.042	235.06
307.272	228.06
307.502	251.06
307.731	230.06
307.961	253.06
308.191	253.06
308.421	240.06
308.651	240.06
308.881	255.06
309.111	259.06
309.341	251.06
309.571	261.06
309.8	259.06
310.03	281.06
310.26	272.06
310.49	275.06
310.72	287.06
310.949	283.06
311.179	279.06
311.409	278.06
311.639	289.06
311.868	263.06
312.098	266.06
312.328	298.06
312.557	293.06
312.787	295.06
313.017	300.06
313.246	292.06
313.476	311.06
313.706	284.06
313.935	296.06
314.165	309.06
314.394	299.06
314.624	289.06
314.853	281.06
315.083	278.06
315.312	291.06
315.542	271.06
315.771	287.06
316.001	280.06
316.23	279.06
316.46	265.06
316.689	279.06
316.919	276.06
317.148	279.06
317.377	281.06
317.607	295.06
317.836	285.06
318.065	273.06
318.295	265.06
318.524	299.06
318.753	296.06
318.983	293.06
319.212	278.06
319.441	290.06
319.67	287.06
319.9	289.06
320.129	292.06
320.358	275.06
320.587	275.06
320.816	293.06
321.046	300.06
321.275	303.06
321.504	287.06
321.733	301.06
321.962	318.06
322.191	303.06
322.42	330.06
322.649	340.06
322.878	353.06
323.108	372.06
323.337	374.06
323.566	373.06
323.795	412.06
324.024	470.06
324.253	577.06
324.482	832.06
324.71	1253.06
324.939	1608.06
325.168	1308.06
325.397	679.06
325.626	477.06
325.855	416.06
326.084	378.06
326.313	370.06
326.542	375.06
326.77	434.06
326.999	551.06
327.228	750.06
327.457	1063.06
327.686	1150.06
327.914	772.06
328.143	533.06
328.372	473.06
328.6	449.06
328.829	432.06
329.058	453.06
329.287	435.06
329.515	408.06
329.744	378.06
329.972	369.06
330.201	379.06
330.43	446.06
330.658	419.06
330.887	435.06
331.115	448.06
331.344	377.06
331.572	371.06
331.801	355.06
332.03	367.06
332.258	340.06
332.486	316.06
332.715	307.06
332.943	326.06
333.172	309.06
333.4	330.06
333.629	332.06
333.857	330.06
334.085	336.06
334.314	334.06
334.542	376.06
334.771	385.06
334.999	344.06
335.227	331.06
335.455	313.06
335.684	335.06
335.912	337.06
336.14	325.06
336.369	299.06
336.597	315.06
336.825	325.06
337.053	308.06
337.281	321.06
337.51	303.06
337.738	315.06
337.966	315.06
338.194	317.06
338.422	306.06
338.65	318.06
338.878	329.06
339.106	305.06
339.334	312.06
339.562	284.06
339.79	312.06
340.018	313.06
340.246	297.06
340.474	321.06
340.702	309.06
340.93	305.06
341.158	311.06
341.386	290.06
341.614	311.06
341.842	299.06
342.07	296.06
342.298	286.06
342.526	288.06
342.754	295.06
342.981	276.06
343.209	293.06
343.437	294.06
343.665	311.06
343.893	306.06
344.12	293.06
344.348	319.06
344.576	305.06
344.804	309.06
345.031	311.06
345.259	323.06
345.487	316.06
345.714	307.06
345.942	292.06
346.17	305.06
346.397	295.06
346.625	290.06
346.853	294.06
347.08	282.06
347.308	288.06
347.535	300.06
347.763	297.06
347.99	314.06
348.218	320.06
348.445	303.06
348.673	297.06
348.9	292.06
349.128	297.06
349.355	319.06
349.583	299.06
349.81	272.06
350.037	286.06
350.265	297.06
350.492	291.06
350.72	299.06
350.947	287.06
351.174	302.06
351.402	300.06
351.629	303.06
351.856	294.06
352.083	296.06
352.311	307.06
352.538	313.06
352.765	317.06
352.992	310.06
353.22	303.06
353.447	293.06
353.674	296.06
353.901	298.06
354.128	283.06
354.355	283.06
354.583	256.06
354.81	279.06
355.037	265.06
355.264	287.06
355.491	268.06
355.718	291.06
355.945	264.06
356.172	284.06
356.399	268.06
356.626	267.06
356.853	260.06
357.08	282.06
357.307	265.06
357.534	263.06
357.761	264.06
357.988	260.06
358.215	295.06
358.441	283.06
358.668	268.06
358.895	274.06
359.122	267.06
359.349	298.06
359.576	287.06
359.802	313.06
360.029	338.06
360.256	333.06
360.483	317.06
360.709	310.06
360.936	290.06
361.163	306.06
361.39	285.06
361.616	274.06
361.843	303.06
362.07	299.06
362.296	305.06
362.523	303.06
362.749	294.06
362.976	300.06
363.203	293.06
363.429	281.06
363.656	295.06
363.882	273.06
364.109	271.06
364.335	292.06
364.562	271.06
364.788	281.06
365.015	280.06
365.241	273.06
365.468	266.06
365.694	284.06
365.92	291.06
366.147	267.06
366.373	263.06
366.599	266.06
366.826	281.06
367.052	268.06
367.278	274.06
367.505	280.06
367.731	268.06
367.957	272.06
368.184	286.06
368.41	268.06
368.636	264.06
368.862	287.06
369.089	260.06
369.315	287.06
369.541	259.06
369.767	280.06
369.993	275.06
370.219	272.06
370.445	264.06
370.672	292.06
370.898	259.06
371.124	287.06
371.35	257.06
371.576	267.06
371.802	264.06
372.028	266.06
372.254	278.06
372.48	269.06
372.706	268.06
372.932	272.06
373.158	261.06
373.384	283.06
373.61	282.06
373.835	276.06
374.061	276.06
374.287	261.06
374.513	274.06
374.739	285.06
374.965	260.06
375.191	285.06
375.416	286.06
375.642	275.06
375.868	260.06
376.094	273.06
376.319	269.06
376.545	271.06
376.771	255.06
376.997	249.06
377.222	278.06
377.448	277.06
377.674	260.06
377.899	263.06
378.125	262.06
378.35	275.06
378.576	264.06
378.802	252.06
379.027	262.06
379.253	259.06
379.478	254.06
379.704	253.06
379.929	268.06
380.155	272.06
380.38	287.06
380.606	268.06
380.831	257.06
381.057	268.06
381.282	261.06
381.507	269.06
381.733	267.06
381.958	265.06
382.184	265.06
382.409	270.06
382.634	258.06
382.86	280.06
383.085	272.06
383.31	256.06
383.535	259.06
383.761	277.06
383.986	287.06
384.211	270.06
384.436	290.06
384.662	273.06
384.887	277.06
385.112	271.06
385.337	277.06
385.562	276.06
385.787	278.06
386.013	278.06
386.238	280.06
386.463	297.06
386.688	276.06
386.913	265.06
387.138	297.06
387.363	275.06
387.588	267.06
387.813	272.06
388.038	294.06
388.263	260.06
388.488	274.06
388.713	267.06
388.938	267.06
389.163	284.06
389.387	279.06
389.612	287.06
389.837	271.06
390.062	276.06
390.287	279.06
390.512	271.06
390.736	280.06
390.961	262.06
391.186	250.06
391.411	269.06
391.636	268.06
391.86	292.06
392.085	272.06
392.31	301.06
392.534	268.06
392.759	278.06
392.984	269.06
393.208	276.06
393.433	263.06
393.658	257.06
393.882	264.06
394.107	279.06
394.331	268.06
394.556	262.06
394.78	263.06
395.005	277.06
395.229	280.06
395.454	279.06
395.678	264.06
395.903	289.06
396.127	293.06
396.352	308.06
396.576	295.06
396.801	287.06
397.025	271.06
397.249	290.06
397.474	285.06
397.698	260.06
397.922	293.06
398.147	309.06
398.371	326.06
398.595	311.06
398.82	299.06
399.044	303.06
399.268	308.06
399.492	330.06
399.717	341.06
399.941	377.06
400.165	363.06
400.389	363.06
400.613	353.06
400.837	323.06
401.062	321.06
401.286	303.06
401.51	277.06
401.734	299.06
401.958	299.06
402.182	310.06
402.406	308.06
402.63	322.06
402.854	329.06
403.078	304.06
403.302	323.06
403.526	322.06
403.75	319.06
403.974	321.06
404.198	313.06
404.422	318.06
404.645	306.06
404.869	329.06
405.093	340.06
405.317	355.06
405.541	382.06
405.765	368.06
405.988	334.06
406.212	346.06
406.436	375.06
406.66	372.06
406.883	348.06
407.107	352.06
407.331	381.06
407.555	385.06
407.778	411.06
408.002	377.06
408.226	346.06
408.449	343.06
408.673	343.06
408.896	357.06
409.12	389.06
409.344	352.06
409.567	333.06
409.791	315.06
410.014	318.06
410.238	303.06
410.461	308.06
410.685	306.06
410.908	339.06
411.132	353.06
411.355	359.06
411.578	346.06
411.802	335.06
412.025	333.06
412.249	304.06
412.472	340.06
412.695	339.06
412.919	340.06
413.142	320.06
413.365	310.06
413.589	293.06
413.812	289.06
414.035	286.06
414.258	303.06
414.482	305.06
414.705	312.06
414.928	289.06
415.151	301.06
415.374	281.06
415.597	297.06
415.821	292.06
416.044	296.06
416.267	306.06
416.49	288.06
416.713	295.06
416.936	308.06
417.159	304.06
417.382	303.06
417.605	310.06
417.828	297.06
418.051	315.06
418.274	305.06
418.497	290.06
418.72	302.06
418.943	274.06
419.166	310.06
419.389	294.06
419.611	303.06
419.834	322.06
420.057	314.06
420.28	310.06
420.503	315.06
420.726	309.06
420.948	314.06
421.171	330.06
421.394	352.06
421.617	323.06
421.839	300.06
422.062	307.06
422.285	339.06
422.507	347.06
422.73	403.06
422.953	375.06
423.175	335.06
423.398	340.06
423.621	322.06
423.843	338.06
424.066	324.06
424.288	348.06
424.511	331.06
424.733	383.06
424.956	415.06
425.178	425.06
425.401	421.06
425.623	415.06
425.846	367.06
426.068	355.06
426.291	333.06
426.513	346.06
426.735	345.06
426.958	365.06
427.18	412.06
427.402	483.06
427.625	555.06
427.847	473.06
428.069	395.06
428.292	366.06
428.514	320.06
428.736	324.06
428.958	328.06
429.181	308.06
429.403	328.06
429.625	341.06
429.847	352.06
430.069	388.06
430.292	383.06
430.514	309.06
430.736	317.06
430.958	298.06
431.18	307.06
431.402	284.06
431.624	295.06
431.846	275.06
432.068	301.06
432.29	291.06
432.512	301.06
432.734	310.06
432.956	289.06
433.178	307.06
433.4	301.06
433.622	292.06
433.844	297.06
434.066	305.06
434.287	311.06
434.509	312.06
434.731	310.06
434.953	315.06
435.175	321.06
435.397	328.06
435.618	355.06
435.84	369.06
436.062	418.06
436.284	448.06
436.505	394.06
436.727	340.06
436.949	344.06
437.17	315.06
437.392	310.06
437.614	310.06
437.835	351.06
438.057	410.06
438.278	461.06
438.5	467.06
438.721	498.06
438.943	472.06
439.165	394.06
439.386	369.06
439.608	349.06
439.829	358.06
440.05	379.06
440.272	387.06
440.493	379.06
440.715	354.06
440.936	319.06
441.158	325.06
441.379	293.06
441.6	331.06
441.822	340.06
442.043	360.06
442.264	412.06
442.486	425.06
442.707	377.06
442.928	361.06
443.149	361.06
443.371	361.06
443.592	415.06
443.813	438.06
444.034	484.06
444.255	401.06
444.476	363.06
444.698	348.06
444.919	333.06
445.14	405.06
445.361	388.06
445.582	365.06
445.803	407.06
446.024	447.06
446.245	471.06
446.466	443.06
446.687	364.06
446.908	359.06
447.129	331.06
447.35	310.06
447.571	309.06
447.792	319.06
448.013	322.06
448.234	333.06
448.455	392.06
448.675	408.06
448.896	460.06
449.117	420.06
449.338	401.06
449.559	469.06
449.779	510.06
450	412.06
450.221	357.06
450.442	323.06
450.662	324.06
450.883	327.06
451.104	330.06
451.324	299.06
451.545	303.06
451.766	309.06
451.986	298.06
452.207	280.06
452.428	283.06
452.648	280.06
452.869	271.06
453.089	291.06
453.31	313.06
453.53	298.06
453.751	298.06
453.971	279.06
454.192	307.06
454.412	299.06
454.633	288.06
454.853	261.06
455.073	274.06
455.294	322.06
455.514	350.06
455.734	329.06
455.955	286.06
456.175	265.06
456.395	270.06
456.616	277.06
456.836	271.06
457.056	278.06
457.276	268.06
457.497	287.06
457.717	275.06
457.937	269.06
458.157	278.06
458.377	276.06
458.598	301.06
458.818	334.06
459.038	370.06
459.258	381.06
459.478	328.06
459.698	292.06
459.918	312.06
460.138	296.06
460.358	309.06
460.578	289.06
460.798	289.06
461.018	282.06
461.238	280.06
461.458	284.06
461.678	296.06
461.898	281.06
462.118	289.06
462.338	283.06
462.558	287.06
462.777	301.06
462.997	306.06
463.217	319.06
463.437	311.06
463.657	321.06
463.876	307.06
464.096	300.06
464.316	296.06
464.536	297.06
464.755	314.06
464.975	309.06
465.195	348.06
465.414	386.06
465.634	347.06
465.854	315.06
466.073	305.06
466.293	307.06
466.512	287.06
466.732	267.06
466.951	278.06
467.171	286.06
467.391	298.06
467.61	291.06
467.829	298.06
468.049	284.06
468.268	289.06
468.488	290.06
468.707	291.06
468.927	267.06
469.146	269.06
469.365	270.06
469.585	287.06
469.804	282.06
470.023	305.06
470.243	287.06
470.462	326.06
470.681	316.06
470.901	308.06
471.12	311.06
471.339	307.06
471.558	303.06
471.777	291.06
471.997	283.06
472.216	281.06
472.435	289.06
472.654	306.06
472.873	283.06
473.092	302.06
473.311	287.06
473.53	286.06
473.749	309.06
473.968	323.06
474.187	407.06
474.406	395.06
474.625	325.06
474.844	307.06
475.063	291.06
475.282	308.06
475.501	305.06
475.72	303.06
475.939	295.06
476.158	308.06
476.377	289.06
476.596	281.06
476.814	287.06
477.033	291.06
477.252	300.06
477.471	304.06
477.69	312.06
477.908	320.06
478.127	309.06
478.346	333.06
478.564	302.06
478.783	327.06
479.002	319.06
479.22	336.06
479.439	340.06
479.658	333.06
479.876	321.06
480.095	369.06
480.313	345.06
480.532	341.06
480.751	373.06
480.969	372.06
481.188	389.06
481.406	403.06
481.624	368.06
481.843	331.06
482.061	354.06
482.28	337.06
482.498	343.06
482.717	324.06
482.935	337.06
483.153	361.06
483.372	345.06
483.59	355.06
483.808	340.06
484.027	339.06
484.245	337.06
484.463	331.06
484.681	344.06
484.9	355.06
485.118	348.06
485.336	347.06
485.554	325.06
485.772	334.06
485.99	345.06
486.209	341.06
486.427	356.06
486.645	348.06
486.863	380.06
487.081	380.06
487.299	378.06
487.517	361.06
487.735	354.06
487.953	353.06
488.171	345.06
488.389	349.06
488.607	353.06
488.825	338.06
489.043	350.06
489.261	357.06
489.479	371.06
489.696	364.06
489.914	375.06
490.132	382.06
490.35	376.06
490.568	371.06
490.786	385.06
491.003	410.06
491.221	397.06
491.439	401.06
491.657	421.06
491.874	409.06
492.092	420.06
492.31	414.06
492.527	423.06
492.745	429.06
492.963	412.06
493.18	428.06
493.398	448.06
493.615	417.06
493.833	416.06
494.05	418.06
494.268	411.06
494.485	412.06
494.703	420.06
494.92	411.06
495.138	419.06
495.355	407.06
495.573	419.06
495.79	424.06
496.008	413.06
496.225	416.06
496.442	408.06
496.66	430.06
496.877	435.06
497.094	435.06
497.312	411.06
497.529	441.06
497.746	430.06
497.963	422.06
498.181	449.06
498.398	431.06
498.615	474.06
498.832	449.06
499.049	465.06
499.267	460.06
499.484	503.06
499.701	515.06
499.918	497.06
500.135	515.06
500.352	510.06
500.569	510.06
500.786	528.06
501.003	522.06
501.22	513.06
501.437	509.06
501.654	499.06
501.871	490.06
502.088	502.06
502.305	487.06
