Data from 1982.PennyLincolnUp.Lamp.En5.5.200Scan.071819.P1_HRD10591_16-46-07-961.txt Node
Date: Thu Jul 18 16:46:07 EDT 2019
User: cochatt
Spectrometer: HR+D1059
Trigger mode: 1
Integration Time (sec): 1.000000E-1
Scans to average: 1
Electric dark correction enabled: true
Nonlinearity correction enabled: false
Boxcar width: 0
XAxis mode: Wavelengths
Number of Pixels in Spectrum: 2048
>>>>>Begin Spectral Data<<<<<
223.165	-18.62
223.4	-18.62
223.635	-18.62
223.869	-22.62
224.104	-15.62
224.338	-10.62
224.573	-9.62
224.808	-10.62
225.042	-15.62
225.277	-11.62
225.511	-9.62
225.746	1.38
225.98	1.38
226.215	12.38
226.449	30.38
226.683	21.38
226.918	23.38
227.152	34.38
227.387	32.38
227.621	35.38
227.856	43.38
228.09	59.38
228.324	46.38
228.559	61.38
228.793	68.38
229.027	82.38
229.262	86.38
229.496	92.38
229.73	101.38
229.964	136.38
230.199	109.38
230.433	84.38
230.667	97.38
230.901	100.38
231.136	100.38
231.37	103.38
231.604	97.38
231.838	86.38
232.072	100.38
232.306	106.38
232.541	94.38
232.775	105.38
233.009	106.38
233.243	94.38
233.477	96.38
233.711	100.38
233.945	105.38
234.179	108.38
234.413	101.38
234.647	112.38
234.881	112.38
235.115	106.38
235.349	114.38
235.583	95.38
235.817	107.38
236.051	86.38
236.285	99.38
236.519	108.38
236.753	115.38
236.987	127.38
237.221	157.38
237.455	199.38
237.689	138.38
237.922	117.38
238.156	128.38
238.39	124.38
238.624	114.38
238.858	110.38
239.091	106.38
239.325	119.38
239.559	121.38
239.793	115.38
240.027	130.38
240.26	127.38
240.494	135.38
240.728	120.38
240.961	121.38
241.195	122.38
241.429	134.38
241.662	137.38
241.896	120.38
242.13	106.38
242.363	120.38
242.597	122.38
242.83	106.38
243.064	116.38
243.298	121.38
243.531	106.38
243.765	128.38
243.998	116.38
244.232	108.38
244.465	126.38
244.699	120.38
244.932	122.38
245.166	118.38
245.399	133.38
245.633	118.38
245.866	131.38
246.099	126.38
246.333	113.38
246.566	128.38
246.8	133.38
247.033	136.38
247.266	125.38
247.5	120.38
247.733	139.38
247.966	153.38
248.2	141.38
248.433	142.38
248.666	141.38
248.899	150.38
249.133	165.38
249.366	157.38
249.599	152.38
249.832	159.38
250.066	136.38
250.299	148.38
250.532	158.38
250.765	160.38
250.998	179.38
251.231	170.38
251.465	156.38
251.698	163.38
251.931	178.38
252.164	142.38
252.397	139.38
252.63	165.38
252.863	168.38
253.096	178.38
253.329	178.38
253.562	178.38
253.795	173.38
254.028	170.38
254.261	185.38
254.494	180.38
254.727	221.38
254.96	222.38
255.193	212.38
255.426	208.38
255.659	186.38
255.892	182.38
256.124	170.38
256.357	206.38
256.59	177.38
256.823	166.38
257.056	178.38
257.289	164.38
257.521	164.38
257.754	168.38
257.987	160.38
258.22	176.38
258.452	163.38
258.685	170.38
258.918	164.38
259.151	167.38
259.383	178.38
259.616	195.38
259.849	180.38
260.081	177.38
260.314	198.38
260.547	188.38
260.779	196.38
261.012	189.38
261.244	186.38
261.477	167.38
261.71	175.38
261.942	169.38
262.175	189.38
262.407	170.38
262.64	164.38
262.872	164.38
263.105	185.38
263.337	166.38
263.57	163.38
263.802	184.38
264.035	171.38
264.267	158.38
264.499	168.38
264.732	170.38
264.964	186.38
265.197	179.38
265.429	180.38
265.661	164.38
265.894	155.38
266.126	184.38
266.358	169.38
266.591	178.38
266.823	174.38
267.055	171.38
267.287	180.38
267.52	155.38
267.752	181.38
267.984	174.38
268.216	180.38
268.448	178.38
268.681	192.38
268.913	193.38
269.145	201.38
269.377	214.38
269.609	214.38
269.841	210.38
270.073	210.38
270.306	220.38
270.538	257.38
270.77	245.38
271.002	237.38
271.234	236.38
271.466	217.38
271.698	233.38
271.93	243.38
272.162	244.38
272.394	260.38
272.626	224.38
272.858	216.38
273.09	230.38
273.322	224.38
273.553	219.38
273.785	210.38
274.017	212.38
274.249	213.38
274.481	196.38
274.713	200.38
274.945	215.38
275.176	196.38
275.408	207.38
275.64	205.38
275.872	201.38
276.104	215.38
276.335	232.38
276.567	234.38
276.799	219.38
277.031	231.38
277.262	247.38
277.494	252.38
277.726	236.38
277.957	205.38
278.189	197.38
278.421	206.38
278.652	204.38
278.884	210.38
279.115	209.38
279.347	212.38
279.579	216.38
279.81	210.38
280.042	201.38
280.273	213.38
280.505	199.38
280.736	203.38
280.968	203.38
281.199	202.38
281.431	203.38
281.662	192.38
281.894	207.38
282.125	210.38
282.356	218.38
282.588	256.38
282.819	233.38
283.051	208.38
283.282	220.38
283.513	209.38
283.745	212.38
283.976	230.38
284.207	209.38
284.439	216.38
284.67	217.38
284.901	217.38
285.132	211.38
285.364	206.38
285.595	212.38
285.826	211.38
286.057	212.38
286.288	219.38
286.52	216.38
286.751	209.38
286.982	219.38
287.213	208.38
287.444	205.38
287.675	210.38
287.906	234.38
288.138	226.38
288.369	223.38
288.6	225.38
288.831	227.38
289.062	235.38
289.293	218.38
289.524	228.38
289.755	234.38
289.986	214.38
290.217	227.38
290.448	218.38
290.679	242.38
290.91	214.38
291.141	200.38
291.371	209.38
291.602	227.38
291.833	211.38
292.064	210.38
292.295	217.38
292.526	230.38
292.757	212.38
292.987	228.38
293.218	217.38
293.449	210.38
293.68	208.38
293.91	217.38
294.141	206.38
294.372	207.38
294.603	219.38
294.833	240.38
295.064	212.38
295.295	195.38
295.525	211.38
295.756	223.38
295.987	238.38
296.217	253.38
296.448	237.38
296.679	230.38
296.909	231.38
297.14	225.38
297.37	240.38
297.601	229.38
297.831	212.38
298.062	209.38
298.292	227.38
298.523	235.38
298.753	232.38
298.984	226.38
299.214	220.38
299.445	235.38
299.675	224.38
299.905	235.38
300.136	242.38
300.366	223.38
300.597	258.38
300.827	240.38
301.057	235.38
301.288	252.38
301.518	242.38
301.748	235.38
301.979	227.38
302.209	233.38
302.439	237.38
302.669	252.38
302.9	233.38
303.13	242.38
303.36	232.38
303.59	244.38
303.82	272.38
304.051	249.38
304.281	251.38
304.511	248.38
304.741	240.38
304.971	235.38
305.201	242.38
305.431	244.38
305.661	261.38
305.891	256.38
306.121	243.38
306.352	250.38
306.582	258.38
306.812	250.38
307.042	241.38
307.272	241.38
307.502	248.38
307.731	246.38
307.961	246.38
308.191	255.38
308.421	245.38
308.651	260.38
308.881	263.38
309.111	293.38
309.341	246.38
309.571	264.38
309.8	276.38
310.03	279.38
310.26	276.38
310.49	285.38
310.72	296.38
310.949	309.38
311.179	306.38
311.409	272.38
311.639	268.38
311.868	298.38
312.098	279.38
312.328	296.38
312.557	305.38
312.787	327.38
313.017	327.38
313.246	301.38
313.476	290.38
313.706	272.38
313.935	296.38
314.165	303.38
314.394	304.38
314.624	304.38
314.853	292.38
315.083	292.38
315.312	298.38
315.542	270.38
315.771	270.38
316.001	286.38
316.23	273.38
316.46	283.38
316.689	268.38
316.919	285.38
317.148	313.38
317.377	300.38
317.607	292.38
317.836	290.38
318.065	291.38
318.295	289.38
318.524	270.38
318.753	251.38
318.983	263.38
319.212	293.38
319.441	284.38
319.67	286.38
319.9	282.38
320.129	298.38
320.358	297.38
320.587	310.38
320.816	316.38
321.046	294.38
321.275	313.38
321.504	298.38
321.733	315.38
321.962	305.38
322.191	329.38
322.42	321.38
322.649	344.38
322.878	340.38
323.108	360.38
323.337	377.38
323.566	395.38
323.795	420.38
324.024	471.38
324.253	600.38
324.482	868.38
324.71	1245.38
324.939	1648.38
325.168	1361.38
325.397	731.38
325.626	512.38
325.855	445.38
326.084	401.38
326.313	403.38
326.542	404.38
326.77	450.38
326.999	523.38
327.228	730.38
327.457	1088.38
327.686	1193.38
327.914	807.38
328.143	560.38
328.372	479.38
328.6	446.38
328.829	444.38
329.058	424.38
329.287	437.38
329.515	410.38
329.744	398.38
329.972	385.38
330.201	411.38
330.43	416.38
330.658	444.38
330.887	457.38
331.115	446.38
331.344	388.38
331.572	357.38
331.801	388.38
332.03	354.38
332.258	352.38
332.486	327.38
332.715	338.38
332.943	326.38
333.172	323.38
333.4	317.38
333.629	332.38
333.857	353.38
334.085	366.38
334.314	363.38
334.542	378.38
334.771	380.38
334.999	363.38
335.227	336.38
335.455	327.38
335.684	346.38
335.912	328.38
336.14	313.38
336.369	341.38
336.597	335.38
336.825	328.38
337.053	326.38
337.281	326.38
337.51	312.38
337.738	314.38
337.966	308.38
338.194	324.38
338.422	305.38
338.65	288.38
338.878	284.38
339.106	314.38
339.334	305.38
339.562	325.38
339.79	299.38
340.018	329.38
340.246	324.38
340.474	306.38
340.702	295.38
340.93	316.38
341.158	319.38
341.386	313.38
341.614	319.38
341.842	313.38
342.07	308.38
342.298	316.38
342.526	309.38
342.754	296.38
342.981	304.38
343.209	298.38
343.437	308.38
343.665	306.38
343.893	313.38
344.12	317.38
344.348	314.38
344.576	296.38
344.804	321.38
345.031	325.38
345.259	334.38
345.487	327.38
345.714	315.38
345.942	300.38
346.17	292.38
346.397	311.38
346.625	306.38
346.853	317.38
347.08	305.38
347.308	310.38
347.535	314.38
347.763	305.38
347.99	326.38
348.218	318.38
348.445	327.38
348.673	312.38
348.9	325.38
349.128	290.38
349.355	286.38
349.583	284.38
349.81	289.38
350.037	297.38
350.265	298.38
350.492	293.38
350.72	295.38
350.947	294.38
351.174	316.38
351.402	315.38
351.629	295.38
351.856	307.38
352.083	317.38
352.311	330.38
352.538	323.38
352.765	317.38
352.992	299.38
353.22	317.38
353.447	293.38
353.674	296.38
353.901	275.38
354.128	295.38
354.355	273.38
354.583	285.38
354.81	270.38
355.037	278.38
355.264	288.38
355.491	294.38
355.718	279.38
355.945	279.38
356.172	278.38
356.399	276.38
356.626	270.38
356.853	283.38
357.08	259.38
357.307	280.38
357.534	270.38
357.761	281.38
357.988	279.38
358.215	284.38
358.441	271.38
358.668	284.38
358.895	282.38
359.122	277.38
359.349	295.38
359.576	294.38
359.802	315.38
360.029	341.38
360.256	330.38
360.483	324.38
360.709	286.38
360.936	269.38
361.163	290.38
361.39	306.38
361.616	284.38
361.843	312.38
362.07	320.38
362.296	308.38
362.523	297.38
362.749	301.38
362.976	310.38
363.203	304.38
363.429	272.38
363.656	284.38
363.882	276.38
364.109	286.38
364.335	289.38
364.562	282.38
364.788	279.38
365.015	279.38
365.241	292.38
365.468	294.38
365.694	281.38
365.92	276.38
366.147	290.38
366.373	275.38
366.599	270.38
366.826	277.38
367.052	283.38
367.278	274.38
367.505	309.38
367.731	283.38
367.957	271.38
368.184	287.38
368.41	277.38
368.636	296.38
368.862	302.38
369.089	289.38
369.315	272.38
369.541	279.38
369.767	292.38
369.993	267.38
370.219	277.38
370.445	276.38
370.672	267.38
370.898	273.38
371.124	266.38
371.35	274.38
371.576	272.38
371.802	281.38
372.028	278.38
372.254	279.38
372.48	276.38
372.706	264.38
372.932	248.38
373.158	274.38
373.384	265.38
373.61	273.38
373.835	271.38
374.061	261.38
374.287	280.38
374.513	265.38
374.739	276.38
374.965	261.38
375.191	267.38
375.416	276.38
375.642	285.38
375.868	267.38
376.094	289.38
376.319	289.38
376.545	263.38
376.771	263.38
376.997	265.38
377.222	257.38
377.448	273.38
377.674	253.38
377.899	268.38
378.125	266.38
378.35	272.38
378.576	273.38
378.802	284.38
379.027	274.38
379.253	260.38
379.478	283.38
379.704	274.38
379.929	259.38
380.155	258.38
380.38	265.38
380.606	273.38
380.831	267.38
381.057	280.38
381.282	260.38
381.507	267.38
381.733	252.38
381.958	263.38
382.184	274.38
382.409	272.38
382.634	272.38
382.86	294.38
383.085	275.38
383.31	297.38
383.535	281.38
383.761	282.38
383.986	287.38
384.211	269.38
384.436	278.38
384.662	304.38
384.887	268.38
385.112	281.38
385.337	272.38
385.562	272.38
385.787	289.38
386.013	316.38
386.238	290.38
386.463	282.38
386.688	285.38
386.913	265.38
387.138	264.38
387.363	269.38
387.588	278.38
387.813	287.38
388.038	272.38
388.263	268.38
388.488	286.38
388.713	263.38
388.938	280.38
389.163	293.38
389.387	282.38
389.612	296.38
389.837	279.38
390.062	276.38
390.287	269.38
390.512	276.38
390.736	272.38
390.961	283.38
391.186	273.38
391.411	281.38
391.636	297.38
391.86	289.38
392.085	292.38
392.31	293.38
392.534	277.38
392.759	282.38
392.984	293.38
393.208	263.38
393.433	275.38
393.658	278.38
393.882	273.38
394.107	268.38
394.331	276.38
394.556	286.38
394.78	276.38
395.005	268.38
395.229	275.38
395.454	297.38
395.678	292.38
395.903	278.38
396.127	309.38
396.352	336.38
396.576	288.38
396.801	298.38
397.025	294.38
397.249	286.38
397.474	282.38
397.698	293.38
397.922	294.38
398.147	292.38
398.371	314.38
398.595	314.38
398.82	292.38
399.044	297.38
399.268	326.38
399.492	329.38
399.717	346.38
399.941	370.38
400.165	359.38
400.389	378.38
400.613	336.38
400.837	341.38
401.062	334.38
401.286	294.38
401.51	316.38
401.734	289.38
401.958	324.38
402.182	320.38
402.406	325.38
402.63	326.38
402.854	295.38
403.078	323.38
403.302	310.38
403.526	321.38
403.75	320.38
403.974	298.38
404.198	323.38
404.422	323.38
404.645	326.38
404.869	314.38
405.093	336.38
405.317	372.38
405.541	363.38
405.765	351.38
405.988	334.38
406.212	334.38
406.436	374.38
406.66	349.38
406.883	348.38
407.107	378.38
407.331	374.38
407.555	406.38
407.778	404.38
408.002	377.38
408.226	343.38
408.449	363.38
408.673	348.38
408.896	376.38
409.12	389.38
409.344	369.38
409.567	326.38
409.791	337.38
410.014	320.38
410.238	309.38
410.461	324.38
410.685	328.38
410.908	312.38
411.132	349.38
411.355	376.38
411.578	356.38
411.802	337.38
412.025	317.38
412.249	336.38
412.472	330.38
412.695	361.38
412.919	339.38
413.142	317.38
413.365	304.38
413.589	325.38
413.812	299.38
414.035	312.38
414.258	289.38
414.482	292.38
414.705	315.38
414.928	289.38
415.151	282.38
415.374	291.38
415.597	308.38
415.821	292.38
416.044	327.38
416.267	305.38
416.49	296.38
416.713	281.38
416.936	291.38
417.159	302.38
417.382	308.38
417.605	299.38
417.828	320.38
418.051	338.38
418.274	331.38
418.497	282.38
418.72	295.38
418.943	287.38
419.166	299.38
419.389	329.38
419.611	302.38
419.834	316.38
420.057	315.38
420.28	333.38
420.503	328.38
420.726	329.38
420.948	326.38
421.171	347.38
421.394	377.38
421.617	310.38
421.839	320.38
422.062	335.38
422.285	338.38
422.507	365.38
422.73	384.38
422.953	392.38
423.175	359.38
423.398	338.38
423.621	339.38
423.843	350.38
424.066	351.38
424.288	353.38
424.511	373.38
424.733	377.38
424.956	446.38
425.178	424.38
425.401	407.38
425.623	423.38
425.846	386.38
426.068	342.38
426.291	340.38
426.513	352.38
426.735	337.38
426.958	380.38
427.18	444.38
427.402	516.38
427.625	552.38
427.847	489.38
428.069	420.38
428.292	382.38
428.514	350.38
428.736	340.38
428.958	344.38
429.181	322.38
429.403	307.38
429.625	309.38
429.847	344.38
430.069	384.38
430.292	364.38
430.514	342.38
430.736	337.38
430.958	313.38
431.18	313.38
431.402	324.38
431.624	292.38
431.846	288.38
432.068	304.38
432.29	295.38
432.512	310.38
432.734	334.38
432.956	306.38
433.178	309.38
433.4	311.38
433.622	313.38
433.844	310.38
434.066	290.38
434.287	297.38
434.509	299.38
434.731	316.38
434.953	310.38
435.175	330.38
435.397	333.38
435.618	332.38
435.84	379.38
436.062	434.38
436.284	458.38
436.505	402.38
436.727	351.38
436.949	328.38
437.17	331.38
437.392	332.38
437.614	330.38
437.835	369.38
438.057	406.38
438.278	458.38
438.5	492.38
438.721	518.38
438.943	481.38
439.165	385.38
439.386	358.38
439.608	359.38
439.829	352.38
440.05	387.38
440.272	420.38
440.493	386.38
440.715	340.38
440.936	304.38
441.158	319.38
441.379	330.38
441.6	344.38
441.822	358.38
442.043	373.38
442.264	428.38
442.486	441.38
442.707	375.38
442.928	347.38
443.149	345.38
443.371	391.38
443.592	415.38
443.813	456.38
444.034	464.38
444.255	389.38
444.476	353.38
444.698	342.38
444.919	347.38
445.14	418.38
445.361	400.38
445.582	380.38
445.803	388.38
446.024	485.38
446.245	474.38
446.466	446.38
446.687	386.38
446.908	328.38
447.129	336.38
447.35	313.38
447.571	318.38
447.792	326.38
448.013	345.38
448.234	349.38
448.455	374.38
448.675	446.38
448.896	491.38
449.117	433.38
449.338	405.38
449.559	474.38
449.779	530.38
450	434.38
450.221	372.38
450.442	329.38
450.662	322.38
450.883	314.38
451.104	328.38
451.324	334.38
451.545	317.38
451.766	312.38
451.986	304.38
452.207	282.38
452.428	271.38
452.648	276.38
452.869	301.38
453.089	306.38
453.31	291.38
453.53	295.38
453.751	281.38
453.971	298.38
454.192	301.38
454.412	294.38
454.633	267.38
454.853	296.38
455.073	297.38
455.294	298.38
455.514	360.38
455.734	339.38
455.955	282.38
456.175	272.38
456.395	267.38
456.616	264.38
456.836	254.38
457.056	270.38
457.276	257.38
457.497	288.38
457.717	286.38
457.937	281.38
458.157	276.38
458.377	263.38
458.598	310.38
458.818	350.38
459.038	410.38
459.258	401.38
459.478	337.38
459.698	295.38
459.918	318.38
460.138	316.38
460.358	293.38
460.578	298.38
460.798	301.38
461.018	295.38
461.238	287.38
461.458	292.38
461.678	316.38
461.898	289.38
462.118	286.38
462.338	297.38
462.558	316.38
462.777	293.38
462.997	306.38
463.217	306.38
463.437	309.38
463.657	300.38
463.876	338.38
464.096	323.38
464.316	321.38
464.536	326.38
464.755	302.38
464.975	324.38
465.195	359.38
465.414	387.38
465.634	365.38
465.854	315.38
466.073	311.38
466.293	316.38
466.512	299.38
466.732	283.38
466.951	287.38
467.171	285.38
467.391	262.38
467.61	314.38
467.829	310.38
468.049	325.38
468.268	299.38
468.488	300.38
468.707	296.38
468.927	300.38
469.146	273.38
469.365	292.38
469.585	285.38
469.804	285.38
470.023	290.38
470.243	302.38
470.462	295.38
470.681	324.38
470.901	288.38
471.12	301.38
471.339	314.38
471.558	325.38
471.777	289.38
471.997	305.38
472.216	305.38
472.435	314.38
472.654	296.38
472.873	286.38
473.092	310.38
473.311	302.38
473.53	298.38
473.749	309.38
473.968	332.38
474.187	399.38
474.406	410.38
474.625	344.38
474.844	309.38
475.063	304.38
475.282	295.38
475.501	295.38
475.72	288.38
475.939	319.38
476.158	312.38
476.377	318.38
476.596	305.38
476.814	291.38
477.033	318.38
477.252	313.38
477.471	309.38
477.69	328.38
477.908	323.38
478.127	324.38
478.346	311.38
478.564	322.38
478.783	330.38
479.002	348.38
479.22	327.38
479.439	356.38
479.658	355.38
479.876	356.38
480.095	352.38
480.313	361.38
480.532	359.38
480.751	349.38
480.969	363.38
481.188	393.38
481.406	406.38
481.624	388.38
481.843	373.38
482.061	343.38
482.28	352.38
482.498	332.38
482.717	336.38
482.935	338.38
483.153	362.38
483.372	334.38
483.59	350.38
483.808	344.38
484.027	331.38
484.245	360.38
484.463	353.38
484.681	352.38
484.9	350.38
485.118	360.38
485.336	348.38
485.554	346.38
485.772	359.38
485.99	358.38
486.209	353.38
486.427	365.38
486.645	354.38
486.863	368.38
487.081	388.38
487.299	363.38
487.517	350.38
487.735	360.38
487.953	365.38
488.171	373.38
488.389	388.38
488.607	377.38
488.825	376.38
489.043	376.38
489.261	382.38
489.479	395.38
489.696	352.38
489.914	379.38
490.132	378.38
490.35	373.38
490.568	377.38
490.786	371.38
491.003	395.38
491.221	399.38
491.439	395.38
491.657	408.38
491.874	424.38
492.092	418.38
492.31	422.38
492.527	402.38
492.745	428.38
492.963	416.38
493.18	412.38
493.398	428.38
493.615	440.38
493.833	426.38
494.05	427.38
494.268	440.38
494.485	436.38
494.703	432.38
494.92	438.38
495.138	444.38
495.355	423.38
495.573	429.38
495.79	449.38
496.008	433.38
496.225	436.38
496.442	428.38
496.66	426.38
496.877	424.38
497.094	429.38
497.312	429.38
497.529	432.38
497.746	445.38
497.963	430.38
498.181	476.38
498.398	445.38
498.615	469.38
498.832	456.38
499.049	469.38
499.267	476.38
499.484	495.38
499.701	489.38
499.918	509.38
500.135	534.38
500.352	522.38
500.569	512.38
500.786	531.38
501.003	531.38
501.22	545.38
501.437	498.38
501.654	496.38
501.871	518.38
502.088	476.38
