Data from 1982.PennyLincolnUp.Lamp.En5.5.200Scan.071819.P1_HRD10591_16-45-00-962.txt Node
Date: Thu Jul 18 16:45:00 EDT 2019
User: cochatt
Spectrometer: HR+D1059
Trigger mode: 1
Integration Time (sec): 1.000000E-1
Scans to average: 1
Electric dark correction enabled: true
Nonlinearity correction enabled: false
Boxcar width: 0
XAxis mode: Wavelengths
Number of Pixels in Spectrum: 2048
>>>>>Begin Spectral Data<<<<<
223.165	-19.88
223.4	-19.88
223.635	-19.88
223.869	-11.88
224.104	-19.88
224.338	3.12
224.573	-12.88
224.808	-6.88
225.042	2.12
225.277	-7.88
225.511	-6.88
225.746	16.12
225.98	-9.88
226.215	3.12
226.449	0.12
226.683	27.12
226.918	16.12
227.152	28.12
227.387	48.12
227.621	51.12
227.856	54.12
228.09	32.12
228.324	30.12
228.559	55.12
228.793	65.12
229.027	78.12
229.262	80.12
229.496	97.12
229.73	106.12
229.964	108.12
230.199	98.12
230.433	100.12
230.667	92.12
230.901	85.12
231.136	101.12
231.37	91.12
231.604	87.12
231.838	106.12
232.072	87.12
232.306	93.12
232.541	91.12
232.775	94.12
233.009	86.12
233.243	97.12
233.477	107.12
233.711	92.12
233.945	92.12
234.179	98.12
234.413	98.12
234.647	89.12
234.881	102.12
235.115	91.12
235.349	100.12
235.583	97.12
235.817	106.12
236.051	108.12
236.285	88.12
236.519	107.12
236.753	92.12
236.987	114.12
237.221	147.12
237.455	142.12
237.689	127.12
237.922	112.12
238.156	113.12
238.39	100.12
238.624	98.12
238.858	108.12
239.091	114.12
239.325	104.12
239.559	92.12
239.793	104.12
240.027	101.12
240.26	118.12
240.494	128.12
240.728	123.12
240.961	117.12
241.195	125.12
241.429	104.12
241.662	105.12
241.896	95.12
242.13	106.12
242.363	104.12
242.597	99.12
242.83	98.12
243.064	101.12
243.298	114.12
243.531	112.12
243.765	102.12
243.998	121.12
244.232	109.12
244.465	111.12
244.699	112.12
244.932	116.12
245.166	109.12
245.399	109.12
245.633	116.12
245.866	115.12
246.099	109.12
246.333	108.12
246.566	128.12
246.8	118.12
247.033	121.12
247.266	136.12
247.5	128.12
247.733	125.12
247.966	134.12
248.2	124.12
248.433	121.12
248.666	131.12
248.899	124.12
249.133	137.12
249.366	135.12
249.599	146.12
249.832	138.12
250.066	140.12
250.299	147.12
250.532	146.12
250.765	148.12
250.998	159.12
251.231	152.12
251.465	153.12
251.698	138.12
251.931	143.12
252.164	148.12
252.397	148.12
252.63	149.12
252.863	150.12
253.096	170.12
253.329	174.12
253.562	165.12
253.795	156.12
254.028	160.12
254.261	165.12
254.494	148.12
254.727	186.12
254.96	186.12
255.193	185.12
255.426	181.12
255.659	169.12
255.892	171.12
256.124	154.12
256.357	155.12
256.59	155.12
256.823	153.12
257.056	161.12
257.289	158.12
257.521	149.12
257.754	143.12
257.987	147.12
258.22	145.12
258.452	154.12
258.685	158.12
258.918	151.12
259.151	157.12
259.383	158.12
259.616	152.12
259.849	165.12
260.081	160.12
260.314	180.12
260.547	179.12
260.779	165.12
261.012	156.12
261.244	168.12
261.477	160.12
261.71	156.12
261.942	167.12
262.175	176.12
262.407	161.12
262.64	166.12
262.872	139.12
263.105	179.12
263.337	151.12
263.57	154.12
263.802	140.12
264.035	150.12
264.267	148.12
264.499	156.12
264.732	170.12
264.964	131.12
265.197	172.12
265.429	148.12
265.661	152.12
265.894	149.12
266.126	158.12
266.358	152.12
266.591	146.12
266.823	157.12
267.055	152.12
267.287	165.12
267.52	162.12
267.752	153.12
267.984	166.12
268.216	174.12
268.448	162.12
268.681	178.12
268.913	180.12
269.145	172.12
269.377	187.12
269.609	200.12
269.841	186.12
270.073	210.12
270.306	205.12
270.538	200.12
270.77	207.12
271.002	188.12
271.234	215.12
271.466	207.12
271.698	202.12
271.93	219.12
272.162	220.12
272.394	213.12
272.626	190.12
272.858	199.12
273.09	179.12
273.322	192.12
273.553	193.12
273.785	196.12
274.017	203.12
274.249	165.12
274.481	193.12
274.713	167.12
274.945	171.12
275.176	180.12
275.408	180.12
275.64	184.12
275.872	177.12
276.104	196.12
276.335	181.12
276.567	186.12
276.799	190.12
277.031	185.12
277.262	208.12
277.494	200.12
277.726	201.12
277.957	187.12
278.189	182.12
278.421	193.12
278.652	185.12
278.884	193.12
279.115	195.12
279.347	172.12
279.579	183.12
279.81	180.12
280.042	179.12
280.273	183.12
280.505	181.12
280.736	191.12
280.968	184.12
281.199	183.12
281.431	174.12
281.662	207.12
281.894	190.12
282.125	186.12
282.356	196.12
282.588	214.12
282.819	201.12
283.051	187.12
283.282	193.12
283.513	188.12
283.745	188.12
283.976	185.12
284.207	176.12
284.439	203.12
284.67	195.12
284.901	170.12
285.132	190.12
285.364	186.12
285.595	183.12
285.826	189.12
286.057	187.12
286.288	180.12
286.52	193.12
286.751	204.12
286.982	193.12
287.213	197.12
287.444	192.12
287.675	209.12
287.906	217.12
288.138	206.12
288.369	210.12
288.6	202.12
288.831	192.12
289.062	203.12
289.293	203.12
289.524	188.12
289.755	189.12
289.986	195.12
290.217	195.12
290.448	197.12
290.679	187.12
290.91	188.12
291.141	186.12
291.371	196.12
291.602	204.12
291.833	198.12
292.064	184.12
292.295	200.12
292.526	203.12
292.757	202.12
292.987	199.12
293.218	188.12
293.449	195.12
293.68	209.12
293.91	189.12
294.141	199.12
294.372	201.12
294.603	215.12
294.833	210.12
295.064	196.12
295.295	222.12
295.525	200.12
295.756	202.12
295.987	198.12
296.217	225.12
296.448	221.12
296.679	224.12
296.909	190.12
297.14	198.12
297.37	206.12
297.601	202.12
297.831	219.12
298.062	211.12
298.292	190.12
298.523	217.12
298.753	210.12
298.984	212.12
299.214	222.12
299.445	220.12
299.675	206.12
299.905	213.12
300.136	204.12
300.366	210.12
300.597	217.12
300.827	217.12
301.057	214.12
301.288	224.12
301.518	231.12
301.748	206.12
301.979	226.12
302.209	219.12
302.439	224.12
302.669	229.12
302.9	240.12
303.13	228.12
303.36	212.12
303.59	228.12
303.82	237.12
304.051	244.12
304.281	215.12
304.511	225.12
304.741	212.12
304.971	226.12
305.201	212.12
305.431	218.12
305.661	243.12
305.891	225.12
306.121	218.12
306.352	229.12
306.582	216.12
306.812	222.12
307.042	221.12
307.272	204.12
307.502	219.12
307.731	224.12
307.961	240.12
308.191	232.12
308.421	227.12
308.651	218.12
308.881	214.12
309.111	232.12
309.341	230.12
309.571	249.12
309.8	236.12
310.03	230.12
310.26	244.12
310.49	233.12
310.72	248.12
310.949	255.12
311.179	260.12
311.409	221.12
311.639	255.12
311.868	243.12
312.098	254.12
312.328	265.12
312.557	266.12
312.787	257.12
313.017	270.12
313.246	260.12
313.476	236.12
313.706	260.12
313.935	248.12
314.165	254.12
314.394	273.12
314.624	247.12
314.853	252.12
315.083	260.12
315.312	253.12
315.542	247.12
315.771	232.12
316.001	256.12
316.23	269.12
316.46	244.12
316.689	265.12
316.919	256.12
317.148	269.12
317.377	262.12
317.607	265.12
317.836	254.12
318.065	239.12
318.295	241.12
318.524	260.12
318.753	266.12
318.983	258.12
319.212	236.12
319.441	245.12
319.67	267.12
319.9	273.12
320.129	237.12
320.358	246.12
320.587	244.12
320.816	265.12
321.046	257.12
321.275	273.12
321.504	262.12
321.733	285.12
321.962	274.12
322.191	269.12
322.42	297.12
322.649	306.12
322.878	286.12
323.108	299.12
323.337	323.12
323.566	326.12
323.795	349.12
324.024	382.12
324.253	464.12
324.482	650.12
324.71	979.12
324.939	1234.12
325.168	1039.12
325.397	534.12
325.626	377.12
325.855	336.12
326.084	346.12
326.313	304.12
326.542	326.12
326.77	384.12
326.999	443.12
327.228	571.12
327.457	818.12
327.686	917.12
327.914	605.12
328.143	423.12
328.372	376.12
328.6	360.12
328.829	353.12
329.058	350.12
329.287	375.12
329.515	342.12
329.744	317.12
329.972	326.12
330.201	344.12
330.43	354.12
330.658	358.12
330.887	380.12
331.115	350.12
331.344	331.12
331.572	291.12
331.801	325.12
332.03	316.12
332.258	313.12
332.486	283.12
332.715	285.12
332.943	292.12
333.172	282.12
333.4	301.12
333.629	312.12
333.857	298.12
334.085	288.12
334.314	284.12
334.542	307.12
334.771	326.12
334.999	309.12
335.227	299.12
335.455	293.12
335.684	286.12
335.912	288.12
336.14	287.12
336.369	276.12
336.597	299.12
336.825	310.12
337.053	295.12
337.281	288.12
337.51	275.12
337.738	274.12
337.966	291.12
338.194	290.12
338.422	274.12
338.65	276.12
338.878	291.12
339.106	272.12
339.334	280.12
339.562	257.12
339.79	284.12
340.018	278.12
340.246	273.12
340.474	294.12
340.702	269.12
340.93	271.12
341.158	281.12
341.386	257.12
341.614	278.12
341.842	292.12
342.07	265.12
342.298	269.12
342.526	257.12
342.754	264.12
342.981	266.12
343.209	285.12
343.437	254.12
343.665	268.12
343.893	281.12
344.12	279.12
344.348	255.12
344.576	267.12
344.804	294.12
345.031	277.12
345.259	281.12
345.487	281.12
345.714	292.12
345.942	271.12
346.17	268.12
346.397	271.12
346.625	282.12
346.853	271.12
347.08	271.12
347.308	270.12
347.535	277.12
347.763	260.12
347.99	275.12
348.218	275.12
348.445	281.12
348.673	264.12
348.9	256.12
349.128	258.12
349.355	233.12
349.583	245.12
349.81	249.12
350.037	243.12
350.265	266.12
350.492	260.12
350.72	245.12
350.947	270.12
351.174	267.12
351.402	268.12
351.629	273.12
351.856	280.12
352.083	243.12
352.311	270.12
352.538	263.12
352.765	280.12
352.992	258.12
353.22	261.12
353.447	265.12
353.674	261.12
353.901	238.12
354.128	246.12
354.355	268.12
354.583	259.12
354.81	234.12
355.037	252.12
355.264	248.12
355.491	255.12
355.718	251.12
355.945	252.12
356.172	251.12
356.399	254.12
356.626	240.12
356.853	238.12
357.08	244.12
357.307	244.12
357.534	247.12
357.761	257.12
357.988	241.12
358.215	246.12
358.441	250.12
358.668	252.12
358.895	270.12
359.122	236.12
359.349	255.12
359.576	267.12
359.802	282.12
360.029	283.12
360.256	307.12
360.483	282.12
360.709	280.12
360.936	265.12
361.163	266.12
361.39	260.12
361.616	256.12
361.843	265.12
362.07	262.12
362.296	266.12
362.523	253.12
362.749	245.12
362.976	252.12
363.203	240.12
363.429	242.12
363.656	254.12
363.882	259.12
364.109	252.12
364.335	240.12
364.562	248.12
364.788	247.12
365.015	249.12
365.241	249.12
365.468	251.12
365.694	248.12
365.92	247.12
366.147	251.12
366.373	269.12
366.599	235.12
366.826	256.12
367.052	264.12
367.278	257.12
367.505	264.12
367.731	248.12
367.957	252.12
368.184	249.12
368.41	259.12
368.636	258.12
368.862	253.12
369.089	243.12
369.315	245.12
369.541	254.12
369.767	244.12
369.993	243.12
370.219	241.12
370.445	246.12
370.672	257.12
370.898	240.12
371.124	240.12
371.35	269.12
371.576	254.12
371.802	237.12
372.028	242.12
372.254	247.12
372.48	263.12
372.706	251.12
372.932	248.12
373.158	253.12
373.384	266.12
373.61	264.12
373.835	247.12
374.061	264.12
374.287	237.12
374.513	256.12
374.739	248.12
374.965	250.12
375.191	260.12
375.416	240.12
375.642	249.12
375.868	240.12
376.094	267.12
376.319	235.12
376.545	243.12
376.771	234.12
376.997	245.12
377.222	235.12
377.448	243.12
377.674	231.12
377.899	254.12
378.125	237.12
378.35	246.12
378.576	242.12
378.802	260.12
379.027	237.12
379.253	221.12
379.478	237.12
379.704	250.12
379.929	240.12
380.155	224.12
380.38	263.12
380.606	237.12
380.831	249.12
381.057	252.12
381.282	244.12
381.507	222.12
381.733	270.12
381.958	257.12
382.184	250.12
382.409	256.12
382.634	237.12
382.86	242.12
383.085	267.12
383.31	267.12
383.535	262.12
383.761	242.12
383.986	228.12
384.211	268.12
384.436	249.12
384.662	268.12
384.887	253.12
385.112	251.12
385.337	263.12
385.562	254.12
385.787	252.12
386.013	282.12
386.238	264.12
386.463	254.12
386.688	249.12
386.913	267.12
387.138	246.12
387.363	230.12
387.588	256.12
387.813	276.12
388.038	263.12
388.263	256.12
388.488	245.12
388.713	265.12
388.938	261.12
389.163	249.12
389.387	253.12
389.612	270.12
389.837	269.12
390.062	257.12
390.287	261.12
390.512	257.12
390.736	252.12
390.961	245.12
391.186	260.12
391.411	271.12
391.636	261.12
391.86	256.12
392.085	256.12
392.31	267.12
392.534	258.12
392.759	265.12
392.984	265.12
393.208	263.12
393.433	252.12
393.658	261.12
393.882	257.12
394.107	265.12
394.331	245.12
394.556	255.12
394.78	260.12
395.005	270.12
395.229	256.12
395.454	253.12
395.678	266.12
395.903	279.12
396.127	278.12
396.352	283.12
396.576	272.12
396.801	272.12
397.025	264.12
397.249	267.12
397.474	281.12
397.698	267.12
397.922	301.12
398.147	296.12
398.371	289.12
398.595	282.12
398.82	270.12
399.044	278.12
399.268	278.12
399.492	304.12
399.717	308.12
399.941	342.12
400.165	351.12
400.389	334.12
400.613	310.12
400.837	304.12
401.062	294.12
401.286	282.12
401.51	280.12
401.734	286.12
401.958	287.12
402.182	282.12
402.406	292.12
402.63	290.12
402.854	294.12
403.078	289.12
403.302	278.12
403.526	279.12
403.75	292.12
403.974	291.12
404.198	278.12
404.422	299.12
404.645	293.12
404.869	315.12
405.093	312.12
405.317	315.12
405.541	344.12
405.765	313.12
405.988	308.12
406.212	320.12
406.436	337.12
406.66	313.12
406.883	319.12
407.107	330.12
407.331	358.12
407.555	356.12
407.778	360.12
408.002	364.12
408.226	306.12
408.449	323.12
408.673	331.12
408.896	338.12
409.12	356.12
409.344	327.12
409.567	325.12
409.791	311.12
410.014	274.12
410.238	288.12
410.461	325.12
410.685	296.12
410.908	306.12
411.132	308.12
411.355	315.12
411.578	317.12
411.802	306.12
412.025	290.12
412.249	291.12
412.472	300.12
412.695	309.12
412.919	300.12
413.142	293.12
413.365	269.12
413.589	269.12
413.812	298.12
414.035	288.12
414.258	263.12
414.482	271.12
414.705	273.12
414.928	279.12
415.151	256.12
415.374	268.12
415.597	274.12
415.821	259.12
416.044	298.12
416.267	297.12
416.49	260.12
416.713	275.12
416.936	276.12
417.159	280.12
417.382	274.12
417.605	277.12
417.828	274.12
418.051	299.12
418.274	284.12
418.497	259.12
418.72	270.12
418.943	276.12
419.166	270.12
419.389	284.12
419.611	296.12
419.834	273.12
420.057	285.12
420.28	274.12
420.503	287.12
420.726	307.12
420.948	304.12
421.171	324.12
421.394	330.12
421.617	284.12
421.839	274.12
422.062	301.12
422.285	270.12
422.507	346.12
422.73	373.12
422.953	343.12
423.175	324.12
423.398	309.12
423.621	300.12
423.843	288.12
424.066	311.12
424.288	315.12
424.511	321.12
424.733	341.12
424.956	382.12
425.178	377.12
425.401	378.12
425.623	365.12
425.846	328.12
426.068	320.12
426.291	314.12
426.513	321.12
426.735	315.12
426.958	327.12
427.18	380.12
427.402	451.12
427.625	485.12
427.847	402.12
428.069	347.12
428.292	314.12
428.514	299.12
428.736	303.12
428.958	286.12
429.181	277.12
429.403	274.12
429.625	290.12
429.847	318.12
430.069	342.12
430.292	346.12
430.514	291.12
430.736	292.12
430.958	288.12
431.18	274.12
431.402	280.12
431.624	286.12
431.846	270.12
432.068	261.12
432.29	282.12
432.512	276.12
432.734	282.12
432.956	278.12
433.178	295.12
433.4	283.12
433.622	273.12
433.844	275.12
434.066	269.12
434.287	275.12
434.509	272.12
434.731	277.12
434.953	280.12
435.175	283.12
435.397	316.12
435.618	311.12
435.84	333.12
436.062	374.12
436.284	404.12
436.505	357.12
436.727	323.12
436.949	301.12
437.17	313.12
437.392	296.12
437.614	307.12
437.835	304.12
438.057	356.12
438.278	405.12
438.5	392.12
438.721	427.12
438.943	424.12
439.165	338.12
439.386	310.12
439.608	318.12
439.829	332.12
440.05	329.12
440.272	356.12
440.493	336.12
440.715	284.12
440.936	295.12
441.158	293.12
441.379	292.12
441.6	304.12
441.822	315.12
442.043	346.12
442.264	355.12
442.486	389.12
442.707	342.12
442.928	308.12
443.149	302.12
443.371	310.12
443.592	344.12
443.813	385.12
444.034	424.12
444.255	358.12
444.476	326.12
444.698	302.12
444.919	301.12
445.14	401.12
445.361	365.12
445.582	318.12
445.803	358.12
446.024	420.12
446.245	421.12
446.466	382.12
446.687	324.12
446.908	296.12
447.129	282.12
447.35	285.12
447.571	298.12
447.792	295.12
448.013	302.12
448.234	318.12
448.455	316.12
448.675	398.12
448.896	427.12
449.117	386.12
449.338	380.12
449.559	427.12
449.779	435.12
450	370.12
450.221	309.12
450.442	294.12
450.662	282.12
450.883	288.12
451.104	308.12
451.324	284.12
451.545	276.12
451.766	262.12
451.986	255.12
452.207	267.12
452.428	246.12
452.648	256.12
452.869	257.12
453.089	289.12
453.31	262.12
453.53	265.12
453.751	273.12
453.971	259.12
454.192	260.12
454.412	272.12
454.633	265.12
454.853	268.12
455.073	276.12
455.294	295.12
455.514	307.12
455.734	301.12
455.955	275.12
456.175	262.12
456.395	259.12
456.616	224.12
456.836	253.12
457.056	244.12
457.276	250.12
457.497	252.12
457.717	260.12
457.937	252.12
458.157	256.12
458.377	250.12
458.598	273.12
458.818	283.12
459.038	312.12
459.258	333.12
459.478	285.12
459.698	268.12
459.918	258.12
460.138	276.12
460.358	264.12
460.578	266.12
460.798	278.12
461.018	281.12
461.238	267.12
461.458	263.12
461.678	268.12
461.898	276.12
462.118	260.12
462.338	266.12
462.558	281.12
462.777	275.12
462.997	278.12
463.217	298.12
463.437	301.12
463.657	289.12
463.876	281.12
464.096	297.12
464.316	297.12
464.536	288.12
464.755	295.12
464.975	291.12
465.195	324.12
465.414	359.12
465.634	305.12
465.854	289.12
466.073	270.12
466.293	286.12
466.512	268.12
466.732	251.12
466.951	259.12
467.171	268.12
467.391	251.12
467.61	268.12
467.829	262.12
468.049	281.12
468.268	248.12
468.488	258.12
468.707	255.12
468.927	263.12
469.146	257.12
469.365	244.12
469.585	279.12
469.804	261.12
470.023	257.12
470.243	261.12
470.462	274.12
470.681	268.12
470.901	286.12
471.12	268.12
471.339	277.12
471.558	281.12
471.777	273.12
471.997	256.12
472.216	275.12
472.435	287.12
472.654	287.12
472.873	263.12
473.092	281.12
473.311	279.12
473.53	277.12
473.749	283.12
473.968	315.12
474.187	368.12
474.406	349.12
474.625	308.12
474.844	283.12
475.063	274.12
475.282	282.12
475.501	282.12
475.72	270.12
475.939	290.12
476.158	278.12
476.377	277.12
476.596	276.12
476.814	264.12
477.033	283.12
477.252	275.12
477.471	291.12
477.69	309.12
477.908	299.12
478.127	293.12
478.346	298.12
478.564	308.12
478.783	315.12
479.002	311.12
479.22	299.12
479.439	305.12
479.658	312.12
479.876	313.12
480.095	296.12
480.313	334.12
480.532	322.12
480.751	305.12
480.969	322.12
481.188	347.12
481.406	345.12
481.624	316.12
481.843	325.12
482.061	326.12
482.28	312.12
482.498	308.12
482.717	303.12
482.935	309.12
483.153	306.12
483.372	311.12
483.59	299.12
483.808	292.12
484.027	304.12
484.245	309.12
484.463	320.12
484.681	326.12
484.9	300.12
485.118	314.12
485.336	314.12
485.554	318.12
485.772	316.12
485.99	331.12
486.209	314.12
486.427	328.12
486.645	346.12
486.863	329.12
487.081	338.12
487.299	327.12
487.517	305.12
487.735	309.12
487.953	333.12
488.171	331.12
488.389	326.12
488.607	331.12
488.825	317.12
489.043	318.12
489.261	337.12
489.479	344.12
489.696	353.12
489.914	342.12
490.132	333.12
490.35	340.12
490.568	352.12
490.786	344.12
491.003	364.12
491.221	355.12
491.439	350.12
491.657	360.12
491.874	366.12
492.092	361.12
492.31	361.12
492.527	371.12
492.745	363.12
492.963	372.12
493.18	371.12
493.398	382.12
493.615	373.12
493.833	402.12
494.05	372.12
494.268	366.12
494.485	370.12
494.703	369.12
494.92	370.12
495.138	381.12
495.355	371.12
495.573	392.12
495.79	380.12
496.008	379.12
496.225	385.12
496.442	394.12
496.66	382.12
496.877	394.12
497.094	379.12
497.312	386.12
497.529	384.12
497.746	393.12
497.963	394.12
498.181	422.12
498.398	408.12
498.615	411.12
498.832	448.12
499.049	429.12
499.267	428.12
499.484	439.12
499.701	467.12
499.918	472.12
500.135	474.12
500.352	481.12
500.569	484.12
500.786	501.12
501.003	477.12
501.22	461.12
501.437	479.12
501.654	479.12
501.871	468.12
502.088	451.12
502.305	421.12
