Data from 1982.PennyLincolnUp.Lamp.En5.5.200Scan.071819.P1_HRD10591_16-44-53-961.txt Node
Date: Thu Jul 18 16:44:53 EDT 2019
User: cochatt
Spectrometer: HR+D1059
Trigger mode: 1
Integration Time (sec): 1.000000E-1
Scans to average: 1
Electric dark correction enabled: true
Nonlinearity correction enabled: false
Boxcar width: 0
XAxis mode: Wavelengths
Number of Pixels in Spectrum: 2048
>>>>>Begin Spectral Data<<<<<
223.165	-23.06
223.4	-23.06
223.635	-23.06
223.869	-17.06
224.104	-25.06
224.338	-10.06
224.573	-23.06
224.808	-10.06
225.042	2.94
225.277	-12.06
225.511	-10.06
225.746	0.94
225.98	16.94
226.215	9.94
226.449	14.94
226.683	21.94
226.918	30.94
227.152	31.94
227.387	17.94
227.621	24.94
227.856	46.94
228.09	40.94
228.324	35.94
228.559	49.94
228.793	50.94
229.027	64.94
229.262	71.94
229.496	81.94
229.73	83.94
229.964	109.94
230.199	89.94
230.433	90.94
230.667	85.94
230.901	87.94
231.136	80.94
231.37	98.94
231.604	72.94
231.838	79.94
232.072	91.94
232.306	105.94
232.541	84.94
232.775	76.94
233.009	95.94
233.243	99.94
233.477	102.94
233.711	78.94
233.945	108.94
234.179	97.94
234.413	88.94
234.647	86.94
234.881	91.94
235.115	93.94
235.349	97.94
235.583	84.94
235.817	90.94
236.051	91.94
236.285	89.94
236.519	94.94
236.753	107.94
236.987	115.94
237.221	126.94
237.455	153.94
237.689	125.94
237.922	99.94
238.156	109.94
238.39	99.94
238.624	87.94
238.858	110.94
239.091	102.94
239.325	99.94
239.559	94.94
239.793	103.94
240.027	97.94
240.26	109.94
240.494	113.94
240.728	114.94
240.961	101.94
241.195	114.94
241.429	102.94
241.662	95.94
241.896	103.94
242.13	103.94
242.363	105.94
242.597	112.94
242.83	91.94
243.064	112.94
243.298	107.94
243.531	107.94
243.765	100.94
243.998	111.94
244.232	104.94
244.465	115.94
244.699	105.94
244.932	109.94
245.166	105.94
245.399	117.94
245.633	121.94
245.866	115.94
246.099	97.94
246.333	96.94
246.566	114.94
246.8	98.94
247.033	111.94
247.266	109.94
247.5	118.94
247.733	123.94
247.966	128.94
248.2	120.94
248.433	124.94
248.666	135.94
248.899	136.94
249.133	134.94
249.366	147.94
249.599	145.94
249.832	128.94
250.066	128.94
250.299	136.94
250.532	119.94
250.765	133.94
250.998	135.94
251.231	158.94
251.465	145.94
251.698	128.94
251.931	138.94
252.164	135.94
252.397	141.94
252.63	150.94
252.863	131.94
253.096	143.94
253.329	161.94
253.562	140.94
253.795	139.94
254.028	142.94
254.261	144.94
254.494	148.94
254.727	180.94
254.96	162.94
255.193	167.94
255.426	175.94
255.659	159.94
255.892	158.94
256.124	157.94
256.357	162.94
256.59	152.94
256.823	153.94
257.056	147.94
257.289	147.94
257.521	156.94
257.754	155.94
257.987	156.94
258.22	159.94
258.452	146.94
258.685	151.94
258.918	152.94
259.151	156.94
259.383	165.94
259.616	135.94
259.849	164.94
260.081	150.94
260.314	165.94
260.547	160.94
260.779	173.94
261.012	164.94
261.244	155.94
261.477	172.94
261.71	154.94
261.942	144.94
262.175	144.94
262.407	143.94
262.64	148.94
262.872	159.94
263.105	142.94
263.337	148.94
263.57	155.94
263.802	156.94
264.035	153.94
264.267	144.94
264.499	147.94
264.732	150.94
264.964	146.94
265.197	140.94
265.429	172.94
265.661	148.94
265.894	147.94
266.126	144.94
266.358	145.94
266.591	148.94
266.823	161.94
267.055	147.94
267.287	142.94
267.52	163.94
267.752	156.94
267.984	157.94
268.216	166.94
268.448	155.94
268.681	161.94
268.913	162.94
269.145	165.94
269.377	193.94
269.609	178.94
269.841	181.94
270.073	171.94
270.306	178.94
270.538	189.94
270.77	203.94
271.002	189.94
271.234	195.94
271.466	192.94
271.698	188.94
271.93	192.94
272.162	201.94
272.394	202.94
272.626	187.94
272.858	169.94
273.09	180.94
273.322	175.94
273.553	183.94
273.785	161.94
274.017	155.94
274.249	173.94
274.481	179.94
274.713	174.94
274.945	177.94
275.176	187.94
275.408	182.94
275.64	167.94
275.872	175.94
276.104	173.94
276.335	181.94
276.567	173.94
276.799	181.94
277.031	187.94
277.262	204.94
277.494	195.94
277.726	193.94
277.957	167.94
278.189	187.94
278.421	200.94
278.652	178.94
278.884	168.94
279.115	184.94
279.347	180.94
279.579	195.94
279.81	185.94
280.042	185.94
280.273	177.94
280.505	180.94
280.736	166.94
280.968	182.94
281.199	180.94
281.431	162.94
281.662	182.94
281.894	184.94
282.125	172.94
282.356	200.94
282.588	194.94
282.819	211.94
283.051	183.94
283.282	174.94
283.513	189.94
283.745	189.94
283.976	179.94
284.207	180.94
284.439	191.94
284.67	168.94
284.901	167.94
285.132	177.94
285.364	188.94
285.595	180.94
285.826	162.94
286.057	182.94
286.288	183.94
286.52	209.94
286.751	188.94
286.982	182.94
287.213	174.94
287.444	184.94
287.675	193.94
287.906	193.94
288.138	192.94
288.369	207.94
288.6	181.94
288.831	182.94
289.062	196.94
289.293	195.94
289.524	201.94
289.755	200.94
289.986	182.94
290.217	183.94
290.448	187.94
290.679	180.94
290.91	175.94
291.141	202.94
291.371	193.94
291.602	192.94
291.833	167.94
292.064	193.94
292.295	189.94
292.526	199.94
292.757	183.94
292.987	184.94
293.218	173.94
293.449	200.94
293.68	191.94
293.91	187.94
294.141	185.94
294.372	177.94
294.603	191.94
294.833	195.94
295.064	191.94
295.295	213.94
295.525	184.94
295.756	194.94
295.987	185.94
296.217	206.94
296.448	217.94
296.679	190.94
296.909	184.94
297.14	191.94
297.37	191.94
297.601	206.94
297.831	203.94
298.062	203.94
298.292	198.94
298.523	184.94
298.753	195.94
298.984	208.94
299.214	203.94
299.445	187.94
299.675	188.94
299.905	220.94
300.136	192.94
300.366	200.94
300.597	198.94
300.827	206.94
301.057	215.94
301.288	212.94
301.518	212.94
301.748	196.94
301.979	209.94
302.209	206.94
302.439	202.94
302.669	203.94
302.9	197.94
303.13	221.94
303.36	204.94
303.59	208.94
303.82	213.94
304.051	216.94
304.281	229.94
304.511	220.94
304.741	203.94
304.971	199.94
305.201	218.94
305.431	198.94
305.661	218.94
305.891	212.94
306.121	233.94
306.352	212.94
306.582	209.94
306.812	206.94
307.042	216.94
307.272	219.94
307.502	211.94
307.731	202.94
307.961	218.94
308.191	213.94
308.421	220.94
308.651	235.94
308.881	236.94
309.111	219.94
309.341	229.94
309.571	219.94
309.8	238.94
310.03	217.94
310.26	219.94
310.49	223.94
310.72	214.94
310.949	240.94
311.179	230.94
311.409	235.94
311.639	235.94
311.868	233.94
312.098	245.94
312.328	229.94
312.557	246.94
312.787	255.94
313.017	265.94
313.246	245.94
313.476	221.94
313.706	223.94
313.935	230.94
314.165	240.94
314.394	232.94
314.624	240.94
314.853	239.94
315.083	240.94
315.312	237.94
315.542	225.94
315.771	243.94
316.001	207.94
316.23	237.94
316.46	227.94
316.689	250.94
316.919	240.94
317.148	229.94
317.377	235.94
317.607	248.94
317.836	256.94
318.065	230.94
318.295	243.94
318.524	236.94
318.753	236.94
318.983	250.94
319.212	240.94
319.441	247.94
319.67	236.94
319.9	232.94
320.129	251.94
320.358	225.94
320.587	266.94
320.816	251.94
321.046	245.94
321.275	256.94
321.504	251.94
321.733	270.94
321.962	259.94
322.191	247.94
322.42	266.94
322.649	265.94
322.878	279.94
323.108	272.94
323.337	290.94
323.566	301.94
323.795	319.94
324.024	358.94
324.253	424.94
324.482	611.94
324.71	888.94
324.939	1171.94
325.168	969.94
325.397	531.94
325.626	381.94
325.855	330.94
326.084	309.94
326.313	318.94
326.542	323.94
326.77	342.94
326.999	408.94
327.228	583.94
327.457	769.94
327.686	844.94
327.914	569.94
328.143	405.94
328.372	360.94
328.6	351.94
328.829	329.94
329.058	327.94
329.287	349.94
329.515	293.94
329.744	304.94
329.972	303.94
330.201	335.94
330.43	331.94
330.658	348.94
330.887	356.94
331.115	348.94
331.344	308.94
331.572	293.94
331.801	298.94
332.03	302.94
332.258	272.94
332.486	283.94
332.715	283.94
332.943	277.94
333.172	275.94
333.4	280.94
333.629	280.94
333.857	290.94
334.085	288.94
334.314	287.94
334.542	303.94
334.771	319.94
334.999	287.94
335.227	292.94
335.455	265.94
335.684	285.94
335.912	285.94
336.14	280.94
336.369	267.94
336.597	274.94
336.825	274.94
337.053	282.94
337.281	269.94
337.51	280.94
337.738	265.94
337.966	256.94
338.194	282.94
338.422	269.94
338.65	255.94
338.878	268.94
339.106	262.94
339.334	267.94
339.562	275.94
339.79	254.94
340.018	283.94
340.246	262.94
340.474	291.94
340.702	245.94
340.93	259.94
341.158	269.94
341.386	268.94
341.614	257.94
341.842	265.94
342.07	263.94
342.298	251.94
342.526	261.94
342.754	264.94
342.981	232.94
343.209	248.94
343.437	277.94
343.665	263.94
343.893	255.94
344.12	270.94
344.348	269.94
344.576	269.94
344.804	259.94
345.031	264.94
345.259	283.94
345.487	249.94
345.714	281.94
345.942	256.94
346.17	255.94
346.397	249.94
346.625	261.94
346.853	249.94
347.08	253.94
347.308	249.94
347.535	250.94
347.763	268.94
347.99	268.94
348.218	267.94
348.445	273.94
348.673	252.94
348.9	263.94
349.128	248.94
349.355	244.94
349.583	227.94
349.81	246.94
350.037	246.94
350.265	253.94
350.492	244.94
350.72	235.94
350.947	254.94
351.174	255.94
351.402	249.94
351.629	261.94
351.856	261.94
352.083	284.94
352.311	275.94
352.538	256.94
352.765	243.94
352.992	251.94
353.22	243.94
353.447	257.94
353.674	251.94
353.901	240.94
354.128	235.94
354.355	238.94
354.583	235.94
354.81	230.94
355.037	227.94
355.264	240.94
355.491	238.94
355.718	231.94
355.945	231.94
356.172	236.94
356.399	243.94
356.626	237.94
356.853	206.94
357.08	245.94
357.307	232.94
357.534	221.94
357.761	227.94
357.988	250.94
358.215	231.94
358.441	228.94
358.668	223.94
358.895	245.94
359.122	239.94
359.349	255.94
359.576	254.94
359.802	269.94
360.029	271.94
360.256	282.94
360.483	259.94
360.709	254.94
360.936	266.94
361.163	247.94
361.39	245.94
361.616	260.94
361.843	255.94
362.07	236.94
362.296	251.94
362.523	238.94
362.749	254.94
362.976	244.94
363.203	255.94
363.429	238.94
363.656	240.94
363.882	232.94
364.109	239.94
364.335	264.94
364.562	244.94
364.788	244.94
365.015	275.94
365.241	240.94
365.468	237.94
365.694	254.94
365.92	250.94
366.147	256.94
366.373	238.94
366.599	226.94
366.826	225.94
367.052	234.94
367.278	247.94
367.505	224.94
367.731	245.94
367.957	238.94
368.184	247.94
368.41	259.94
368.636	251.94
368.862	258.94
369.089	246.94
369.315	227.94
369.541	246.94
369.767	259.94
369.993	240.94
370.219	220.94
370.445	225.94
370.672	231.94
370.898	223.94
371.124	216.94
371.35	256.94
371.576	232.94
371.802	238.94
372.028	242.94
372.254	227.94
372.48	241.94
372.706	231.94
372.932	232.94
373.158	241.94
373.384	230.94
373.61	255.94
373.835	249.94
374.061	232.94
374.287	223.94
374.513	249.94
374.739	241.94
374.965	261.94
375.191	234.94
375.416	230.94
375.642	228.94
375.868	232.94
376.094	256.94
376.319	235.94
376.545	243.94
376.771	237.94
376.997	227.94
377.222	235.94
377.448	220.94
377.674	243.94
377.899	243.94
378.125	228.94
378.35	232.94
378.576	233.94
378.802	244.94
379.027	244.94
379.253	248.94
379.478	224.94
379.704	235.94
379.929	211.94
380.155	230.94
380.38	225.94
380.606	238.94
380.831	236.94
381.057	244.94
381.282	243.94
381.507	240.94
381.733	246.94
381.958	238.94
382.184	235.94
382.409	251.94
382.634	242.94
382.86	228.94
383.085	232.94
383.31	243.94
383.535	263.94
383.761	238.94
383.986	253.94
384.211	235.94
384.436	252.94
384.662	241.94
384.887	228.94
385.112	263.94
385.337	247.94
385.562	265.94
385.787	245.94
386.013	260.94
386.238	241.94
386.463	246.94
386.688	231.94
386.913	235.94
387.138	257.94
387.363	227.94
387.588	247.94
387.813	249.94
388.038	260.94
388.263	249.94
388.488	245.94
388.713	235.94
388.938	243.94
389.163	256.94
389.387	248.94
389.612	240.94
389.837	240.94
390.062	243.94
390.287	229.94
390.512	236.94
390.736	251.94
390.961	251.94
391.186	251.94
391.411	241.94
391.636	249.94
391.86	253.94
392.085	267.94
392.31	268.94
392.534	268.94
392.759	244.94
392.984	258.94
393.208	245.94
393.433	278.94
393.658	263.94
393.882	243.94
394.107	244.94
394.331	257.94
394.556	243.94
394.78	235.94
395.005	233.94
395.229	255.94
395.454	248.94
395.678	251.94
395.903	257.94
396.127	260.94
396.352	270.94
396.576	263.94
396.801	260.94
397.025	256.94
397.249	255.94
397.474	247.94
397.698	262.94
397.922	269.94
398.147	262.94
398.371	280.94
398.595	280.94
398.82	254.94
399.044	269.94
399.268	280.94
399.492	299.94
399.717	299.94
399.941	311.94
400.165	315.94
400.389	320.94
400.613	303.94
400.837	268.94
401.062	261.94
401.286	257.94
401.51	269.94
401.734	278.94
401.958	251.94
402.182	259.94
402.406	279.94
402.63	290.94
402.854	275.94
403.078	281.94
403.302	273.94
403.526	279.94
403.75	288.94
403.974	279.94
404.198	289.94
404.422	278.94
404.645	293.94
404.869	287.94
405.093	302.94
405.317	319.94
405.541	328.94
405.765	289.94
405.988	285.94
406.212	281.94
406.436	319.94
406.66	325.94
406.883	295.94
407.107	334.94
407.331	342.94
407.555	345.94
407.778	366.94
408.002	323.94
408.226	311.94
408.449	297.94
408.673	307.94
408.896	347.94
409.12	327.94
409.344	318.94
409.567	285.94
409.791	291.94
410.014	288.94
410.238	280.94
410.461	272.94
410.685	279.94
410.908	289.94
411.132	336.94
411.355	325.94
411.578	307.94
411.802	286.94
412.025	280.94
412.249	283.94
412.472	304.94
412.695	313.94
412.919	297.94
413.142	286.94
413.365	273.94
413.589	278.94
413.812	252.94
414.035	280.94
414.258	263.94
414.482	277.94
414.705	287.94
414.928	258.94
415.151	263.94
415.374	262.94
415.597	280.94
415.821	260.94
416.044	276.94
416.267	261.94
416.49	258.94
416.713	278.94
416.936	266.94
417.159	261.94
417.382	262.94
417.605	269.94
417.828	280.94
418.051	282.94
418.274	277.94
418.497	269.94
418.72	249.94
418.943	257.94
419.166	280.94
419.389	272.94
419.611	283.94
419.834	281.94
420.057	276.94
420.28	290.94
420.503	272.94
420.726	277.94
420.948	281.94
421.171	302.94
421.394	318.94
421.617	275.94
421.839	275.94
422.062	279.94
422.285	284.94
422.507	330.94
422.73	363.94
422.953	341.94
423.175	275.94
423.398	276.94
423.621	278.94
423.843	296.94
424.066	283.94
424.288	288.94
424.511	295.94
424.733	322.94
424.956	368.94
425.178	360.94
425.401	351.94
425.623	352.94
425.846	303.94
426.068	289.94
426.291	297.94
426.513	302.94
426.735	291.94
426.958	329.94
427.18	384.94
427.402	436.94
427.625	470.94
427.847	408.94
428.069	338.94
428.292	315.94
428.514	297.94
428.736	286.94
428.958	271.94
429.181	274.94
429.403	277.94
429.625	302.94
429.847	300.94
430.069	312.94
430.292	332.94
430.514	291.94
430.736	273.94
430.958	291.94
431.18	269.94
431.402	269.94
431.624	249.94
431.846	272.94
432.068	258.94
432.29	272.94
432.512	260.94
432.734	283.94
432.956	255.94
433.178	272.94
433.4	260.94
433.622	264.94
433.844	258.94
434.066	252.94
434.287	269.94
434.509	268.94
434.731	263.94
434.953	273.94
435.175	285.94
435.397	303.94
435.618	293.94
435.84	310.94
436.062	357.94
436.284	400.94
436.505	326.94
436.727	297.94
436.949	281.94
437.17	283.94
437.392	276.94
437.614	273.94
437.835	300.94
438.057	345.94
438.278	397.94
438.5	401.94
438.721	425.94
438.943	404.94
439.165	335.94
439.386	307.94
439.608	307.94
439.829	311.94
440.05	311.94
440.272	337.94
440.493	319.94
440.715	299.94
440.936	285.94
441.158	264.94
441.379	288.94
441.6	279.94
441.822	270.94
442.043	317.94
442.264	357.94
442.486	368.94
442.707	311.94
442.928	290.94
443.149	299.94
443.371	316.94
443.592	333.94
443.813	371.94
444.034	400.94
444.255	328.94
444.476	315.94
444.698	296.94
444.919	292.94
445.14	366.94
445.361	345.94
445.582	330.94
445.803	340.94
446.024	406.94
446.245	411.94
446.466	387.94
446.687	316.94
446.908	299.94
447.129	292.94
447.35	275.94
447.571	275.94
447.792	270.94
448.013	282.94
448.234	286.94
448.455	336.94
448.675	373.94
448.896	401.94
449.117	357.94
449.338	347.94
449.559	398.94
449.779	442.94
450	364.94
450.221	305.94
450.442	279.94
450.662	278.94
450.883	259.94
451.104	283.94
451.324	268.94
451.545	266.94
451.766	255.94
451.986	257.94
452.207	253.94
452.428	244.94
452.648	241.94
452.869	237.94
453.089	243.94
453.31	251.94
453.53	241.94
453.751	241.94
453.971	235.94
454.192	273.94
454.412	246.94
454.633	232.94
454.853	267.94
455.073	255.94
455.294	279.94
455.514	296.94
455.734	285.94
455.955	252.94
456.175	235.94
456.395	222.94
456.616	237.94
456.836	256.94
457.056	244.94
457.276	239.94
457.497	243.94
457.717	237.94
457.937	252.94
458.157	236.94
458.377	232.94
458.598	261.94
458.818	279.94
459.038	320.94
459.258	311.94
459.478	269.94
459.698	269.94
459.918	263.94
460.138	265.94
460.358	264.94
460.578	248.94
460.798	268.94
461.018	269.94
461.238	272.94
461.458	264.94
461.678	258.94
461.898	281.94
462.118	271.94
462.338	283.94
462.558	268.94
462.777	245.94
462.997	283.94
463.217	257.94
463.437	286.94
463.657	283.94
463.876	283.94
464.096	263.94
464.316	271.94
464.536	259.94
464.755	280.94
464.975	285.94
465.195	301.94
465.414	322.94
465.634	294.94
465.854	279.94
466.073	264.94
466.293	264.94
466.512	261.94
466.732	243.94
466.951	264.94
467.171	257.94
467.391	263.94
467.61	272.94
467.829	264.94
468.049	255.94
468.268	248.94
468.488	229.94
468.707	258.94
468.927	240.94
469.146	251.94
469.365	260.94
469.585	240.94
469.804	238.94
470.023	265.94
470.243	273.94
470.462	262.94
470.681	267.94
470.901	263.94
471.12	238.94
471.339	261.94
471.558	276.94
471.777	251.94
471.997	258.94
472.216	257.94
472.435	269.94
472.654	256.94
472.873	269.94
473.092	267.94
473.311	269.94
473.53	274.94
473.749	290.94
473.968	272.94
474.187	349.94
474.406	340.94
474.625	280.94
474.844	282.94
475.063	260.94
475.282	274.94
475.501	266.94
475.72	276.94
475.939	269.94
476.158	251.94
476.377	276.94
476.596	265.94
476.814	280.94
477.033	273.94
477.252	262.94
477.471	281.94
477.69	286.94
477.908	283.94
478.127	280.94
478.346	301.94
478.564	296.94
478.783	289.94
479.002	297.94
479.22	309.94
479.439	296.94
479.658	297.94
479.876	306.94
480.095	325.94
480.313	323.94
480.532	323.94
480.751	300.94
480.969	292.94
481.188	333.94
481.406	338.94
481.624	309.94
481.843	317.94
482.061	284.94
482.28	308.94
482.498	304.94
482.717	293.94
482.935	295.94
483.153	300.94
483.372	303.94
483.59	285.94
483.808	306.94
484.027	295.94
484.245	304.94
484.463	309.94
484.681	318.94
484.9	301.94
485.118	309.94
485.336	285.94
485.554	316.94
485.772	307.94
485.99	302.94
486.209	301.94
486.427	307.94
486.645	330.94
486.863	317.94
487.081	316.94
487.299	303.94
487.517	315.94
487.735	319.94
487.953	319.94
488.171	347.94
488.389	324.94
488.607	315.94
488.825	319.94
489.043	303.94
489.261	316.94
489.479	321.94
489.696	328.94
489.914	321.94
490.132	320.94
490.35	334.94
490.568	333.94
490.786	340.94
491.003	352.94
491.221	347.94
491.439	370.94
491.657	333.94
491.874	359.94
492.092	349.94
492.31	377.94
492.527	335.94
492.745	359.94
492.963	360.94
493.18	376.94
493.398	362.94
493.615	366.94
493.833	360.94
494.05	368.94
494.268	353.94
494.485	367.94
494.703	343.94
494.92	359.94
495.138	376.94
495.355	364.94
495.573	378.94
495.79	379.94
496.008	365.94
496.225	339.94
496.442	365.94
496.66	375.94
496.877	365.94
497.094	390.94
497.312	384.94
497.529	389.94
497.746	395.94
497.963	384.94
498.181	395.94
498.398	411.94
498.615	420.94
498.832	409.94
499.049	418.94
499.267	409.94
499.484	434.94
499.701	418.94
499.918	448.94
500.135	475.94
500.352	459.94
500.569	471.94
500.786	454.94
501.003	462.94
501.22	484.94
501.437	477.94
501.654	466.94
501.871	423.94
502.088	439.94
502.305	421.94
502.522	419.94
