Data from 1982.PennyLincolnUp.Lamp.En5.5.200Scan.071819.P1_HRD10591_16-45-33-961.txt Node
Date: Thu Jul 18 16:45:33 EDT 2019
User: cochatt
Spectrometer: HR+D1059
Trigger mode: 1
Integration Time (sec): 1.000000E-1
Scans to average: 1
Electric dark correction enabled: true
Nonlinearity correction enabled: false
Boxcar width: 0
XAxis mode: Wavelengths
Number of Pixels in Spectrum: 2048
>>>>>Begin Spectral Data<<<<<
223.165	1.25
223.4	1.25
223.635	1.25
223.869	-31.75
224.104	-13.75
224.338	-15.75
224.573	-5.75
224.808	-19.75
225.042	-19.75
225.277	-10.75
225.511	5.25
225.746	-2.75
225.98	10.25
226.215	19.25
226.449	18.25
226.683	10.25
226.918	17.25
227.152	38.25
227.387	42.25
227.621	28.25
227.856	38.25
228.09	37.25
228.324	44.25
228.559	59.25
228.793	74.25
229.027	63.25
229.262	84.25
229.496	92.25
229.73	95.25
229.964	117.25
230.199	102.25
230.433	92.25
230.667	101.25
230.901	90.25
231.136	106.25
231.37	90.25
231.604	86.25
231.838	88.25
232.072	99.25
232.306	97.25
232.541	114.25
232.775	97.25
233.009	91.25
233.243	97.25
233.477	100.25
233.711	113.25
233.945	89.25
234.179	99.25
234.413	107.25
234.647	97.25
234.881	108.25
235.115	111.25
235.349	103.25
235.583	119.25
235.817	92.25
236.051	114.25
236.285	91.25
236.519	116.25
236.753	114.25
236.987	113.25
237.221	136.25
237.455	162.25
237.689	159.25
237.922	123.25
238.156	113.25
238.39	118.25
238.624	106.25
238.858	93.25
239.091	96.25
239.325	112.25
239.559	102.25
239.793	118.25
240.027	103.25
240.26	122.25
240.494	118.25
240.728	122.25
240.961	115.25
241.195	108.25
241.429	101.25
241.662	112.25
241.896	97.25
242.13	117.25
242.363	108.25
242.597	103.25
242.83	112.25
243.064	103.25
243.298	116.25
243.531	120.25
243.765	104.25
243.998	127.25
244.232	120.25
244.465	126.25
244.699	130.25
244.932	131.25
245.166	117.25
245.399	113.25
245.633	111.25
245.866	114.25
246.099	136.25
246.333	127.25
246.566	135.25
246.8	129.25
247.033	136.25
247.266	123.25
247.5	129.25
247.733	134.25
247.966	120.25
248.2	130.25
248.433	145.25
248.666	152.25
248.899	152.25
249.133	171.25
249.366	156.25
249.599	158.25
249.832	143.25
250.066	139.25
250.299	142.25
250.532	164.25
250.765	161.25
250.998	150.25
251.231	157.25
251.465	158.25
251.698	146.25
251.931	144.25
252.164	157.25
252.397	144.25
252.63	144.25
252.863	156.25
253.096	182.25
253.329	169.25
253.562	183.25
253.795	183.25
254.028	165.25
254.261	184.25
254.494	183.25
254.727	191.25
254.96	198.25
255.193	198.25
255.426	172.25
255.659	167.25
255.892	169.25
256.124	174.25
256.357	165.25
256.59	177.25
256.823	167.25
257.056	169.25
257.289	143.25
257.521	164.25
257.754	153.25
257.987	154.25
258.22	165.25
258.452	164.25
258.685	152.25
258.918	159.25
259.151	168.25
259.383	175.25
259.616	173.25
259.849	178.25
260.081	179.25
260.314	201.25
260.547	194.25
260.779	179.25
261.012	177.25
261.244	178.25
261.477	168.25
261.71	171.25
261.942	159.25
262.175	193.25
262.407	183.25
262.64	169.25
262.872	170.25
263.105	174.25
263.337	169.25
263.57	166.25
263.802	148.25
264.035	153.25
264.267	155.25
264.499	148.25
264.732	163.25
264.964	164.25
265.197	157.25
265.429	173.25
265.661	169.25
265.894	159.25
266.126	170.25
266.358	148.25
266.591	158.25
266.823	163.25
267.055	165.25
267.287	170.25
267.52	172.25
267.752	175.25
267.984	171.25
268.216	178.25
268.448	188.25
268.681	184.25
268.913	180.25
269.145	198.25
269.377	216.25
269.609	194.25
269.841	213.25
270.073	201.25
270.306	216.25
270.538	217.25
270.77	228.25
271.002	210.25
271.234	203.25
271.466	209.25
271.698	223.25
271.93	233.25
272.162	233.25
272.394	241.25
272.626	216.25
272.858	217.25
273.09	209.25
273.322	187.25
273.553	193.25
273.785	203.25
274.017	200.25
274.249	216.25
274.481	201.25
274.713	196.25
274.945	215.25
275.176	200.25
275.408	188.25
275.64	214.25
275.872	186.25
276.104	191.25
276.335	199.25
276.567	193.25
276.799	228.25
277.031	220.25
277.262	239.25
277.494	232.25
277.726	211.25
277.957	227.25
278.189	214.25
278.421	185.25
278.652	212.25
278.884	217.25
279.115	207.25
279.347	205.25
279.579	202.25
279.81	185.25
280.042	167.25
280.273	192.25
280.505	187.25
280.736	200.25
280.968	201.25
281.199	200.25
281.431	201.25
281.662	201.25
281.894	194.25
282.125	192.25
282.356	219.25
282.588	207.25
282.819	218.25
283.051	210.25
283.282	213.25
283.513	208.25
283.745	200.25
283.976	203.25
284.207	205.25
284.439	184.25
284.67	191.25
284.901	208.25
285.132	195.25
285.364	175.25
285.595	199.25
285.826	216.25
286.057	210.25
286.288	201.25
286.52	195.25
286.751	208.25
286.982	203.25
287.213	203.25
287.444	198.25
287.675	185.25
287.906	215.25
288.138	216.25
288.369	221.25
288.6	211.25
288.831	222.25
289.062	209.25
289.293	205.25
289.524	196.25
289.755	207.25
289.986	205.25
290.217	226.25
290.448	227.25
290.679	228.25
290.91	205.25
291.141	210.25
291.371	207.25
291.602	211.25
291.833	199.25
292.064	203.25
292.295	213.25
292.526	218.25
292.757	212.25
292.987	216.25
293.218	201.25
293.449	213.25
293.68	207.25
293.91	193.25
294.141	218.25
294.372	205.25
294.603	194.25
294.833	203.25
295.064	218.25
295.295	213.25
295.525	219.25
295.756	228.25
295.987	220.25
296.217	236.25
296.448	231.25
296.679	212.25
296.909	226.25
297.14	207.25
297.37	215.25
297.601	232.25
297.831	214.25
298.062	216.25
298.292	204.25
298.523	217.25
298.753	208.25
298.984	203.25
299.214	209.25
299.445	219.25
299.675	220.25
299.905	224.25
300.136	230.25
300.366	216.25
300.597	212.25
300.827	230.25
301.057	229.25
301.288	242.25
301.518	223.25
301.748	225.25
301.979	220.25
302.209	237.25
302.439	228.25
302.669	235.25
302.9	236.25
303.13	237.25
303.36	252.25
303.59	257.25
303.82	239.25
304.051	245.25
304.281	272.25
304.511	232.25
304.741	243.25
304.971	213.25
305.201	223.25
305.431	236.25
305.661	247.25
305.891	241.25
306.121	247.25
306.352	223.25
306.582	236.25
306.812	230.25
307.042	229.25
307.272	247.25
307.502	228.25
307.731	226.25
307.961	226.25
308.191	255.25
308.421	229.25
308.651	253.25
308.881	244.25
309.111	245.25
309.341	252.25
309.571	244.25
309.8	258.25
310.03	281.25
310.26	257.25
310.49	258.25
310.72	286.25
310.949	306.25
311.179	277.25
311.409	275.25
311.639	257.25
311.868	276.25
312.098	267.25
312.328	260.25
312.557	294.25
312.787	316.25
313.017	279.25
313.246	273.25
313.476	271.25
313.706	275.25
313.935	290.25
314.165	273.25
314.394	278.25
314.624	284.25
314.853	279.25
315.083	271.25
315.312	257.25
315.542	282.25
315.771	268.25
316.001	285.25
316.23	260.25
316.46	272.25
316.689	269.25
316.919	264.25
317.148	270.25
317.377	266.25
317.607	269.25
317.836	272.25
318.065	272.25
318.295	247.25
318.524	278.25
318.753	275.25
318.983	277.25
319.212	259.25
319.441	262.25
319.67	290.25
319.9	275.25
320.129	276.25
320.358	257.25
320.587	285.25
320.816	289.25
321.046	291.25
321.275	294.25
321.504	290.25
321.733	291.25
321.962	292.25
322.191	307.25
322.42	288.25
322.649	324.25
322.878	336.25
323.108	335.25
323.337	356.25
323.566	358.25
323.795	396.25
324.024	435.25
324.253	535.25
324.482	791.25
324.71	1157.25
324.939	1519.25
325.168	1227.25
325.397	643.25
325.626	480.25
325.855	409.25
326.084	370.25
326.313	375.25
326.542	380.25
326.77	418.25
326.999	497.25
327.228	690.25
327.457	971.25
327.686	1099.25
327.914	729.25
328.143	511.25
328.372	468.25
328.6	422.25
328.829	381.25
329.058	410.25
329.287	405.25
329.515	381.25
329.744	359.25
329.972	372.25
330.201	360.25
330.43	403.25
330.658	422.25
330.887	439.25
331.115	412.25
331.344	339.25
331.572	341.25
331.801	355.25
332.03	321.25
332.258	327.25
332.486	316.25
332.715	304.25
332.943	302.25
333.172	317.25
333.4	328.25
333.629	323.25
333.857	343.25
334.085	351.25
334.314	351.25
334.542	340.25
334.771	360.25
334.999	331.25
335.227	309.25
335.455	321.25
335.684	305.25
335.912	313.25
336.14	320.25
336.369	315.25
336.597	307.25
336.825	306.25
337.053	308.25
337.281	309.25
337.51	289.25
337.738	304.25
337.966	313.25
338.194	306.25
338.422	320.25
338.65	295.25
338.878	299.25
339.106	296.25
339.334	304.25
339.562	287.25
339.79	278.25
340.018	299.25
340.246	298.25
340.474	292.25
340.702	281.25
340.93	285.25
341.158	293.25
341.386	304.25
341.614	307.25
341.842	285.25
342.07	281.25
342.298	292.25
342.526	295.25
342.754	292.25
342.981	280.25
343.209	290.25
343.437	297.25
343.665	294.25
343.893	282.25
344.12	283.25
344.348	300.25
344.576	300.25
344.804	292.25
345.031	281.25
345.259	315.25
345.487	293.25
345.714	289.25
345.942	292.25
346.17	292.25
346.397	293.25
346.625	301.25
346.853	294.25
347.08	310.25
347.308	281.25
347.535	298.25
347.763	305.25
347.99	304.25
348.218	290.25
348.445	315.25
348.673	288.25
348.9	278.25
349.128	289.25
349.355	278.25
349.583	273.25
349.81	285.25
350.037	269.25
350.265	283.25
350.492	267.25
350.72	271.25
350.947	272.25
351.174	285.25
351.402	274.25
351.629	269.25
351.856	289.25
352.083	301.25
352.311	295.25
352.538	282.25
352.765	295.25
352.992	282.25
353.22	282.25
353.447	295.25
353.674	276.25
353.901	294.25
354.128	275.25
354.355	279.25
354.583	275.25
354.81	278.25
355.037	253.25
355.264	279.25
355.491	260.25
355.718	260.25
355.945	275.25
356.172	245.25
356.399	260.25
356.626	269.25
356.853	257.25
357.08	267.25
357.307	268.25
357.534	263.25
357.761	270.25
357.988	280.25
358.215	270.25
358.441	272.25
358.668	282.25
358.895	279.25
359.122	278.25
359.349	278.25
359.576	287.25
359.802	290.25
360.029	315.25
360.256	322.25
360.483	308.25
360.709	284.25
360.936	307.25
361.163	292.25
361.39	283.25
361.616	273.25
361.843	276.25
362.07	273.25
362.296	281.25
362.523	300.25
362.749	268.25
362.976	277.25
363.203	280.25
363.429	235.25
363.656	264.25
363.882	283.25
364.109	281.25
364.335	272.25
364.562	269.25
364.788	265.25
365.015	259.25
365.241	257.25
365.468	268.25
365.694	269.25
365.92	273.25
366.147	280.25
366.373	270.25
366.599	268.25
366.826	255.25
367.052	265.25
367.278	258.25
367.505	274.25
367.731	258.25
367.957	270.25
368.184	265.25
368.41	293.25
368.636	264.25
368.862	272.25
369.089	290.25
369.315	247.25
369.541	252.25
369.767	265.25
369.993	274.25
370.219	252.25
370.445	276.25
370.672	268.25
370.898	249.25
371.124	260.25
371.35	281.25
371.576	261.25
371.802	267.25
372.028	234.25
372.254	267.25
372.48	278.25
372.706	258.25
372.932	255.25
373.158	270.25
373.384	258.25
373.61	257.25
373.835	271.25
374.061	257.25
374.287	263.25
374.513	257.25
374.739	265.25
374.965	260.25
375.191	267.25
375.416	268.25
375.642	271.25
375.868	265.25
376.094	267.25
376.319	268.25
376.545	247.25
376.771	261.25
376.997	259.25
377.222	257.25
377.448	243.25
377.674	259.25
377.899	263.25
378.125	257.25
378.35	252.25
378.576	256.25
378.802	247.25
379.027	266.25
379.253	261.25
379.478	248.25
379.704	245.25
379.929	251.25
380.155	246.25
380.38	257.25
380.606	267.25
380.831	251.25
381.057	259.25
381.282	257.25
381.507	257.25
381.733	247.25
381.958	265.25
382.184	260.25
382.409	260.25
382.634	260.25
382.86	278.25
383.085	271.25
383.31	268.25
383.535	259.25
383.761	283.25
383.986	271.25
384.211	265.25
384.436	273.25
384.662	275.25
384.887	255.25
385.112	247.25
385.337	269.25
385.562	259.25
385.787	282.25
386.013	274.25
386.238	273.25
386.463	276.25
386.688	268.25
386.913	266.25
387.138	261.25
387.363	254.25
387.588	269.25
387.813	273.25
388.038	274.25
388.263	275.25
388.488	264.25
388.713	259.25
388.938	273.25
389.163	277.25
389.387	268.25
389.612	266.25
389.837	270.25
390.062	262.25
390.287	272.25
390.512	293.25
390.736	237.25
390.961	279.25
391.186	267.25
391.411	282.25
391.636	275.25
391.86	264.25
392.085	271.25
392.31	277.25
392.534	251.25
392.759	275.25
392.984	258.25
393.208	259.25
393.433	281.25
393.658	282.25
393.882	267.25
394.107	263.25
394.331	288.25
394.556	277.25
394.78	276.25
395.005	268.25
395.229	272.25
395.454	281.25
395.678	263.25
395.903	284.25
396.127	302.25
396.352	293.25
396.576	263.25
396.801	280.25
397.025	273.25
397.249	275.25
397.474	280.25
397.698	275.25
397.922	275.25
398.147	304.25
398.371	303.25
398.595	290.25
398.82	279.25
399.044	282.25
399.268	305.25
399.492	323.25
399.717	336.25
399.941	354.25
400.165	332.25
400.389	373.25
400.613	332.25
400.837	321.25
401.062	313.25
401.286	305.25
401.51	299.25
401.734	287.25
401.958	284.25
402.182	286.25
402.406	309.25
402.63	304.25
402.854	309.25
403.078	299.25
403.302	322.25
403.526	296.25
403.75	312.25
403.974	303.25
404.198	310.25
404.422	309.25
404.645	305.25
404.869	309.25
405.093	330.25
405.317	358.25
405.541	349.25
405.765	337.25
405.988	322.25
406.212	334.25
406.436	355.25
406.66	349.25
406.883	335.25
407.107	359.25
407.331	373.25
407.555	423.25
407.778	375.25
408.002	353.25
408.226	354.25
408.449	347.25
408.673	342.25
408.896	364.25
409.12	376.25
409.344	360.25
409.567	330.25
409.791	320.25
410.014	310.25
410.238	308.25
410.461	304.25
410.685	297.25
410.908	298.25
411.132	343.25
411.355	342.25
411.578	340.25
411.802	320.25
412.025	298.25
412.249	301.25
412.472	328.25
412.695	338.25
412.919	341.25
413.142	304.25
413.365	317.25
413.589	304.25
413.812	290.25
414.035	298.25
414.258	289.25
414.482	289.25
414.705	292.25
414.928	314.25
415.151	298.25
415.374	293.25
415.597	276.25
415.821	277.25
416.044	286.25
416.267	306.25
416.49	289.25
416.713	301.25
416.936	278.25
417.159	290.25
417.382	287.25
417.605	275.25
417.828	299.25
418.051	303.25
418.274	295.25
418.497	275.25
418.72	309.25
418.943	309.25
419.166	300.25
419.389	309.25
419.611	287.25
419.834	298.25
420.057	311.25
420.28	324.25
420.503	315.25
420.726	308.25
420.948	312.25
421.171	333.25
421.394	358.25
421.617	340.25
421.839	301.25
422.062	301.25
422.285	322.25
422.507	354.25
422.73	392.25
422.953	375.25
423.175	317.25
423.398	307.25
423.621	300.25
423.843	319.25
424.066	318.25
424.288	337.25
424.511	331.25
424.733	370.25
424.956	397.25
425.178	396.25
425.401	392.25
425.623	412.25
425.846	368.25
426.068	339.25
426.291	323.25
426.513	330.25
426.735	330.25
426.958	371.25
427.18	412.25
427.402	488.25
427.625	530.25
427.847	458.25
428.069	408.25
428.292	351.25
428.514	330.25
428.736	313.25
428.958	319.25
429.181	329.25
429.403	321.25
429.625	311.25
429.847	333.25
430.069	371.25
430.292	371.25
430.514	331.25
430.736	303.25
430.958	307.25
431.18	291.25
431.402	287.25
431.624	292.25
431.846	286.25
432.068	269.25
432.29	286.25
432.512	288.25
432.734	284.25
432.956	296.25
433.178	291.25
433.4	314.25
433.622	293.25
433.844	274.25
434.066	292.25
434.287	301.25
434.509	281.25
434.731	319.25
434.953	299.25
435.175	312.25
435.397	326.25
435.618	308.25
435.84	360.25
436.062	396.25
436.284	423.25
436.505	362.25
436.727	332.25
436.949	328.25
437.17	304.25
437.392	293.25
437.614	321.25
437.835	340.25
438.057	383.25
438.278	447.25
438.5	465.25
438.721	483.25
438.943	469.25
439.165	375.25
439.386	342.25
439.608	332.25
439.829	325.25
440.05	351.25
440.272	379.25
440.493	354.25
440.715	333.25
440.936	319.25
441.158	298.25
441.379	316.25
441.6	318.25
441.822	348.25
442.043	355.25
442.264	409.25
442.486	424.25
442.707	365.25
442.928	337.25
443.149	352.25
443.371	372.25
443.592	379.25
443.813	431.25
444.034	446.25
444.255	380.25
444.476	347.25
444.698	335.25
444.919	331.25
445.14	420.25
445.361	369.25
445.582	365.25
445.803	407.25
446.024	467.25
446.245	446.25
446.466	412.25
446.687	365.25
446.908	338.25
447.129	330.25
447.35	300.25
447.571	309.25
447.792	311.25
448.013	324.25
448.234	319.25
448.455	367.25
448.675	423.25
448.896	469.25
449.117	405.25
449.338	404.25
449.559	445.25
449.779	486.25
450	407.25
450.221	340.25
450.442	321.25
450.662	283.25
450.883	323.25
451.104	309.25
451.324	307.25
451.545	305.25
451.766	292.25
451.986	289.25
452.207	294.25
452.428	280.25
452.648	276.25
452.869	278.25
453.089	291.25
453.31	281.25
453.53	295.25
453.751	272.25
453.971	264.25
454.192	274.25
454.412	290.25
454.633	282.25
454.853	273.25
455.073	277.25
455.294	288.25
455.514	335.25
455.734	322.25
455.955	276.25
456.175	255.25
456.395	266.25
456.616	262.25
456.836	268.25
457.056	245.25
457.276	259.25
457.497	257.25
457.717	264.25
457.937	270.25
458.157	266.25
458.377	267.25
458.598	279.25
458.818	317.25
459.038	360.25
459.258	357.25
459.478	315.25
459.698	292.25
459.918	281.25
460.138	287.25
460.358	265.25
460.578	312.25
460.798	288.25
461.018	291.25
461.238	298.25
461.458	287.25
461.678	283.25
461.898	282.25
462.118	281.25
462.338	294.25
462.558	311.25
462.777	285.25
462.997	290.25
463.217	291.25
463.437	296.25
463.657	311.25
463.876	321.25
464.096	306.25
464.316	288.25
464.536	307.25
464.755	299.25
464.975	299.25
465.195	336.25
465.414	376.25
465.634	339.25
465.854	305.25
466.073	304.25
466.293	287.25
466.512	289.25
466.732	288.25
466.951	280.25
467.171	278.25
467.391	280.25
467.61	287.25
467.829	291.25
468.049	284.25
468.268	283.25
468.488	284.25
468.707	264.25
468.927	265.25
469.146	262.25
469.365	280.25
469.585	270.25
469.804	306.25
470.023	291.25
470.243	293.25
470.462	297.25
470.681	294.25
470.901	286.25
471.12	288.25
471.339	263.25
471.558	279.25
471.777	281.25
471.997	276.25
472.216	307.25
472.435	312.25
472.654	303.25
472.873	283.25
473.092	303.25
473.311	286.25
473.53	283.25
473.749	300.25
473.968	315.25
474.187	385.25
474.406	394.25
474.625	331.25
474.844	307.25
475.063	287.25
475.282	283.25
475.501	279.25
475.72	296.25
475.939	299.25
476.158	276.25
476.377	303.25
476.596	284.25
476.814	289.25
477.033	284.25
477.252	299.25
477.471	298.25
477.69	314.25
477.908	308.25
478.127	314.25
478.346	315.25
478.564	292.25
478.783	308.25
479.002	327.25
479.22	326.25
479.439	332.25
479.658	340.25
479.876	329.25
480.095	341.25
480.313	349.25
480.532	348.25
480.751	335.25
480.969	352.25
481.188	359.25
481.406	373.25
481.624	355.25
481.843	339.25
482.061	342.25
482.28	346.25
482.498	321.25
482.717	315.25
482.935	309.25
483.153	319.25
483.372	321.25
483.59	330.25
483.808	317.25
484.027	318.25
484.245	315.25
484.463	314.25
484.681	333.25
484.9	326.25
485.118	321.25
485.336	329.25
485.554	335.25
485.772	342.25
485.99	324.25
486.209	332.25
486.427	346.25
486.645	347.25
486.863	374.25
487.081	355.25
487.299	373.25
487.517	342.25
487.735	344.25
487.953	345.25
488.171	355.25
488.389	353.25
488.607	352.25
488.825	347.25
489.043	361.25
489.261	353.25
489.479	357.25
489.696	348.25
489.914	365.25
490.132	358.25
490.35	362.25
490.568	360.25
490.786	380.25
491.003	371.25
491.221	386.25
491.439	355.25
491.657	375.25
491.874	373.25
492.092	382.25
492.31	418.25
492.527	390.25
492.745	423.25
492.963	415.25
493.18	376.25
493.398	412.25
493.615	417.25
493.833	416.25
494.05	408.25
494.268	420.25
494.485	418.25
494.703	408.25
494.92	406.25
495.138	413.25
495.355	415.25
495.573	404.25
495.79	416.25
496.008	404.25
496.225	388.25
496.442	412.25
496.66	415.25
496.877	413.25
497.094	431.25
497.312	406.25
497.529	421.25
497.746	429.25
497.963	441.25
498.181	437.25
498.398	428.25
498.615	445.25
498.832	441.25
499.049	450.25
499.267	479.25
499.484	490.25
499.701	471.25
499.918	482.25
500.135	513.25
500.352	492.25
500.569	524.25
500.786	540.25
501.003	518.25
501.22	507.25
501.437	498.25
501.654	504.25
501.871	480.25
502.088	462.25
502.305	482.25
