Data from 1982.PennyLincolnUp.Lamp.En5.5.200Scan.071819.P1_HRD10591_16-45-05-961.txt Node
Date: Thu Jul 18 16:45:05 EDT 2019
User: cochatt
Spectrometer: HR+D1059
Trigger mode: 1
Integration Time (sec): 1.000000E-1
Scans to average: 1
Electric dark correction enabled: true
Nonlinearity correction enabled: false
Boxcar width: 0
XAxis mode: Wavelengths
Number of Pixels in Spectrum: 2048
>>>>>Begin Spectral Data<<<<<
223.165	-12.44
223.4	-12.44
223.635	-12.44
223.869	-18.44
224.104	-6.44
224.338	-13.44
224.573	-28.44
224.808	-12.44
225.042	-7.44
225.277	-1.44
225.511	-2.44
225.746	10.56
225.98	0.56
226.215	5.56
226.449	13.56
226.683	27.56
226.918	20.56
227.152	24.56
227.387	26.56
227.621	25.56
227.856	30.56
228.09	35.56
228.324	64.56
228.559	46.56
228.793	49.56
229.027	84.56
229.262	63.56
229.496	73.56
229.73	79.56
229.964	102.56
230.199	92.56
230.433	84.56
230.667	89.56
230.901	78.56
231.136	93.56
231.37	79.56
231.604	96.56
231.838	81.56
232.072	102.56
232.306	95.56
232.541	92.56
232.775	99.56
233.009	77.56
233.243	94.56
233.477	98.56
233.711	96.56
233.945	100.56
234.179	100.56
234.413	94.56
234.647	97.56
234.881	98.56
235.115	93.56
235.349	94.56
235.583	89.56
235.817	96.56
236.051	100.56
236.285	101.56
236.519	93.56
236.753	109.56
236.987	117.56
237.221	138.56
237.455	147.56
237.689	130.56
237.922	101.56
238.156	104.56
238.39	113.56
238.624	103.56
238.858	93.56
239.091	92.56
239.325	96.56
239.559	108.56
239.793	100.56
240.027	103.56
240.26	114.56
240.494	107.56
240.728	103.56
240.961	103.56
241.195	109.56
241.429	105.56
241.662	104.56
241.896	109.56
242.13	104.56
242.363	104.56
242.597	110.56
242.83	125.56
243.064	115.56
243.298	103.56
243.531	104.56
243.765	109.56
243.998	113.56
244.232	114.56
244.465	119.56
244.699	104.56
244.932	105.56
245.166	110.56
245.399	119.56
245.633	106.56
245.866	106.56
246.099	96.56
246.333	102.56
246.566	124.56
246.8	124.56
247.033	112.56
247.266	116.56
247.5	116.56
247.733	129.56
247.966	136.56
248.2	137.56
248.433	110.56
248.666	126.56
248.899	139.56
249.133	148.56
249.366	147.56
249.599	137.56
249.832	126.56
250.066	144.56
250.299	136.56
250.532	134.56
250.765	141.56
250.998	134.56
251.231	157.56
251.465	150.56
251.698	147.56
251.931	150.56
252.164	145.56
252.397	136.56
252.63	162.56
252.863	141.56
253.096	144.56
253.329	151.56
253.562	169.56
253.795	160.56
254.028	174.56
254.261	159.56
254.494	165.56
254.727	191.56
254.96	172.56
255.193	173.56
255.426	162.56
255.659	161.56
255.892	161.56
256.124	170.56
256.357	152.56
256.59	153.56
256.823	146.56
257.056	154.56
257.289	142.56
257.521	143.56
257.754	151.56
257.987	135.56
258.22	164.56
258.452	156.56
258.685	166.56
258.918	136.56
259.151	151.56
259.383	164.56
259.616	161.56
259.849	160.56
260.081	156.56
260.314	161.56
260.547	176.56
260.779	176.56
261.012	163.56
261.244	159.56
261.477	167.56
261.71	172.56
261.942	156.56
262.175	180.56
262.407	167.56
262.64	159.56
262.872	147.56
263.105	148.56
263.337	145.56
263.57	152.56
263.802	158.56
264.035	160.56
264.267	159.56
264.499	159.56
264.732	165.56
264.964	160.56
265.197	146.56
265.429	153.56
265.661	152.56
265.894	150.56
266.126	151.56
266.358	150.56
266.591	164.56
266.823	152.56
267.055	166.56
267.287	153.56
267.52	148.56
267.752	176.56
267.984	159.56
268.216	161.56
268.448	166.56
268.681	170.56
268.913	159.56
269.145	177.56
269.377	186.56
269.609	188.56
269.841	186.56
270.073	184.56
270.306	191.56
270.538	207.56
270.77	211.56
271.002	217.56
271.234	203.56
271.466	213.56
271.698	209.56
271.93	216.56
272.162	229.56
272.394	210.56
272.626	208.56
272.858	200.56
273.09	188.56
273.322	186.56
273.553	161.56
273.785	177.56
274.017	179.56
274.249	190.56
274.481	192.56
274.713	195.56
274.945	168.56
275.176	187.56
275.408	186.56
275.64	182.56
275.872	181.56
276.104	183.56
276.335	186.56
276.567	166.56
276.799	189.56
277.031	193.56
277.262	220.56
277.494	202.56
277.726	212.56
277.957	176.56
278.189	172.56
278.421	200.56
278.652	202.56
278.884	172.56
279.115	200.56
279.347	190.56
279.579	192.56
279.81	177.56
280.042	183.56
280.273	194.56
280.505	179.56
280.736	169.56
280.968	176.56
281.199	185.56
281.431	193.56
281.662	202.56
281.894	186.56
282.125	195.56
282.356	196.56
282.588	208.56
282.819	199.56
283.051	211.56
283.282	193.56
283.513	192.56
283.745	178.56
283.976	177.56
284.207	203.56
284.439	203.56
284.67	194.56
284.901	178.56
285.132	182.56
285.364	175.56
285.595	193.56
285.826	193.56
286.057	188.56
286.288	165.56
286.52	209.56
286.751	211.56
286.982	201.56
287.213	189.56
287.444	197.56
287.675	188.56
287.906	194.56
288.138	208.56
288.369	201.56
288.6	212.56
288.831	198.56
289.062	205.56
289.293	188.56
289.524	189.56
289.755	202.56
289.986	185.56
290.217	193.56
290.448	205.56
290.679	189.56
290.91	186.56
291.141	192.56
291.371	208.56
291.602	182.56
291.833	195.56
292.064	194.56
292.295	190.56
292.526	184.56
292.757	204.56
292.987	209.56
293.218	210.56
293.449	186.56
293.68	212.56
293.91	197.56
294.141	208.56
294.372	200.56
294.603	201.56
294.833	194.56
295.064	203.56
295.295	202.56
295.525	186.56
295.756	207.56
295.987	203.56
296.217	226.56
296.448	212.56
296.679	195.56
296.909	199.56
297.14	197.56
297.37	192.56
297.601	211.56
297.831	205.56
298.062	204.56
298.292	215.56
298.523	213.56
298.753	183.56
298.984	195.56
299.214	196.56
299.445	199.56
299.675	214.56
299.905	198.56
300.136	202.56
300.366	205.56
300.597	199.56
300.827	208.56
301.057	209.56
301.288	214.56
301.518	199.56
301.748	204.56
301.979	215.56
302.209	220.56
302.439	228.56
302.669	218.56
302.9	211.56
303.13	218.56
303.36	221.56
303.59	226.56
303.82	233.56
304.051	227.56
304.281	223.56
304.511	222.56
304.741	213.56
304.971	223.56
305.201	211.56
305.431	224.56
305.661	226.56
305.891	217.56
306.121	194.56
306.352	222.56
306.582	207.56
306.812	221.56
307.042	230.56
307.272	224.56
307.502	227.56
307.731	215.56
307.961	223.56
308.191	218.56
308.421	228.56
308.651	227.56
308.881	241.56
309.111	229.56
309.341	238.56
309.571	217.56
309.8	246.56
310.03	248.56
310.26	258.56
310.49	259.56
310.72	258.56
310.949	233.56
311.179	253.56
311.409	257.56
311.639	241.56
311.868	231.56
312.098	256.56
312.328	251.56
312.557	282.56
312.787	270.56
313.017	259.56
313.246	269.56
313.476	255.56
313.706	249.56
313.935	243.56
314.165	254.56
314.394	268.56
314.624	263.56
314.853	277.56
315.083	254.56
315.312	245.56
315.542	245.56
315.771	247.56
316.001	255.56
316.23	256.56
316.46	253.56
316.689	252.56
316.919	249.56
317.148	235.56
317.377	259.56
317.607	263.56
317.836	251.56
318.065	232.56
318.295	244.56
318.524	246.56
318.753	252.56
318.983	264.56
319.212	242.56
319.441	280.56
319.67	247.56
319.9	258.56
320.129	248.56
320.358	265.56
320.587	249.56
320.816	258.56
321.046	256.56
321.275	269.56
321.504	272.56
321.733	254.56
321.962	289.56
322.191	278.56
322.42	281.56
322.649	300.56
322.878	299.56
323.108	284.56
323.337	312.56
323.566	347.56
323.795	335.56
324.024	359.56
324.253	470.56
324.482	700.56
324.71	1010.56
324.939	1302.56
325.168	1046.56
325.397	590.56
325.626	393.56
325.855	359.56
326.084	326.56
326.313	328.56
326.542	323.56
326.77	372.56
326.999	434.56
327.228	578.56
327.457	836.56
327.686	957.56
327.914	639.56
328.143	437.56
328.372	401.56
328.6	369.56
328.829	362.56
329.058	377.56
329.287	372.56
329.515	359.56
329.744	342.56
329.972	324.56
330.201	341.56
330.43	355.56
330.658	362.56
330.887	382.56
331.115	365.56
331.344	336.56
331.572	328.56
331.801	308.56
332.03	328.56
332.258	296.56
332.486	302.56
332.715	295.56
332.943	285.56
333.172	312.56
333.4	293.56
333.629	304.56
333.857	282.56
334.085	301.56
334.314	309.56
334.542	328.56
334.771	312.56
334.999	296.56
335.227	288.56
335.455	289.56
335.684	297.56
335.912	287.56
336.14	282.56
336.369	283.56
336.597	297.56
336.825	298.56
337.053	290.56
337.281	296.56
337.51	269.56
337.738	279.56
337.966	273.56
338.194	285.56
338.422	295.56
338.65	282.56
338.878	278.56
339.106	282.56
339.334	279.56
339.562	276.56
339.79	286.56
340.018	274.56
340.246	276.56
340.474	290.56
340.702	280.56
340.93	288.56
341.158	282.56
341.386	266.56
341.614	288.56
341.842	265.56
342.07	273.56
342.298	282.56
342.526	270.56
342.754	264.56
342.981	269.56
343.209	279.56
343.437	265.56
343.665	265.56
343.893	277.56
344.12	276.56
344.348	280.56
344.576	286.56
344.804	290.56
345.031	297.56
345.259	285.56
345.487	292.56
345.714	272.56
345.942	270.56
346.17	273.56
346.397	283.56
346.625	270.56
346.853	272.56
347.08	298.56
347.308	293.56
347.535	272.56
347.763	279.56
347.99	281.56
348.218	285.56
348.445	280.56
348.673	276.56
348.9	271.56
349.128	269.56
349.355	269.56
349.583	253.56
349.81	278.56
350.037	256.56
350.265	257.56
350.492	256.56
350.72	264.56
350.947	265.56
351.174	271.56
351.402	260.56
351.629	268.56
351.856	260.56
352.083	282.56
352.311	286.56
352.538	265.56
352.765	265.56
352.992	275.56
353.22	273.56
353.447	269.56
353.674	250.56
353.901	257.56
354.128	261.56
354.355	255.56
354.583	256.56
354.81	247.56
355.037	239.56
355.264	244.56
355.491	251.56
355.718	224.56
355.945	249.56
356.172	229.56
356.399	254.56
356.626	240.56
356.853	262.56
357.08	250.56
357.307	267.56
357.534	256.56
357.761	235.56
357.988	246.56
358.215	238.56
358.441	245.56
358.668	255.56
358.895	248.56
359.122	252.56
359.349	256.56
359.576	272.56
359.802	279.56
360.029	286.56
360.256	289.56
360.483	257.56
360.709	260.56
360.936	253.56
361.163	272.56
361.39	274.56
361.616	287.56
361.843	271.56
362.07	266.56
362.296	244.56
362.523	272.56
362.749	264.56
362.976	254.56
363.203	249.56
363.429	259.56
363.656	264.56
363.882	248.56
364.109	258.56
364.335	256.56
364.562	244.56
364.788	251.56
365.015	238.56
365.241	254.56
365.468	260.56
365.694	240.56
365.92	242.56
366.147	246.56
366.373	234.56
366.599	266.56
366.826	242.56
367.052	242.56
367.278	270.56
367.505	252.56
367.731	249.56
367.957	255.56
368.184	256.56
368.41	239.56
368.636	258.56
368.862	263.56
369.089	278.56
369.315	252.56
369.541	254.56
369.767	255.56
369.993	249.56
370.219	252.56
370.445	273.56
370.672	241.56
370.898	236.56
371.124	251.56
371.35	255.56
371.576	237.56
371.802	227.56
372.028	253.56
372.254	240.56
372.48	261.56
372.706	258.56
372.932	247.56
373.158	263.56
373.384	241.56
373.61	250.56
373.835	253.56
374.061	259.56
374.287	254.56
374.513	252.56
374.739	245.56
374.965	266.56
375.191	279.56
375.416	236.56
375.642	246.56
375.868	246.56
376.094	255.56
376.319	246.56
376.545	234.56
376.771	256.56
376.997	260.56
377.222	242.56
377.448	258.56
377.674	246.56
377.899	226.56
378.125	221.56
378.35	235.56
378.576	241.56
378.802	259.56
379.027	249.56
379.253	251.56
379.478	252.56
379.704	248.56
379.929	248.56
380.155	256.56
380.38	231.56
380.606	243.56
380.831	240.56
381.057	226.56
381.282	241.56
381.507	240.56
381.733	237.56
381.958	252.56
382.184	241.56
382.409	239.56
382.634	256.56
382.86	249.56
383.085	245.56
383.31	253.56
383.535	259.56
383.761	266.56
383.986	238.56
384.211	237.56
384.436	254.56
384.662	257.56
384.887	266.56
385.112	253.56
385.337	242.56
385.562	239.56
385.787	261.56
386.013	260.56
386.238	248.56
386.463	258.56
386.688	247.56
386.913	262.56
387.138	263.56
387.363	273.56
387.588	271.56
387.813	261.56
388.038	264.56
388.263	267.56
388.488	254.56
388.713	242.56
388.938	245.56
389.163	258.56
389.387	262.56
389.612	271.56
389.837	266.56
390.062	285.56
390.287	246.56
390.512	252.56
390.736	260.56
390.961	243.56
391.186	265.56
391.411	247.56
391.636	247.56
391.86	279.56
392.085	256.56
392.31	270.56
392.534	263.56
392.759	257.56
392.984	259.56
393.208	259.56
393.433	249.56
393.658	268.56
393.882	265.56
394.107	270.56
394.331	238.56
394.556	260.56
394.78	252.56
395.005	263.56
395.229	251.56
395.454	246.56
395.678	281.56
395.903	276.56
396.127	291.56
396.352	273.56
396.576	277.56
396.801	265.56
397.025	270.56
397.249	272.56
397.474	287.56
397.698	288.56
397.922	247.56
398.147	278.56
398.371	292.56
398.595	277.56
398.82	289.56
399.044	290.56
399.268	295.56
399.492	308.56
399.717	310.56
399.941	323.56
400.165	305.56
400.389	338.56
400.613	322.56
400.837	304.56
401.062	313.56
401.286	288.56
401.51	283.56
401.734	287.56
401.958	288.56
402.182	282.56
402.406	282.56
402.63	288.56
402.854	298.56
403.078	301.56
403.302	298.56
403.526	297.56
403.75	305.56
403.974	287.56
404.198	296.56
404.422	301.56
404.645	286.56
404.869	298.56
405.093	312.56
405.317	320.56
405.541	353.56
405.765	304.56
405.988	309.56
406.212	321.56
406.436	329.56
406.66	321.56
406.883	283.56
407.107	321.56
407.331	346.56
407.555	380.56
407.778	375.56
408.002	332.56
408.226	325.56
408.449	334.56
408.673	321.56
408.896	320.56
409.12	343.56
409.344	313.56
409.567	293.56
409.791	287.56
410.014	309.56
410.238	282.56
410.461	306.56
410.685	297.56
410.908	312.56
411.132	307.56
411.355	329.56
411.578	330.56
411.802	303.56
412.025	285.56
412.249	284.56
412.472	296.56
412.695	337.56
412.919	306.56
413.142	282.56
413.365	293.56
413.589	296.56
413.812	293.56
414.035	266.56
414.258	280.56
414.482	278.56
414.705	278.56
414.928	297.56
415.151	280.56
415.374	279.56
415.597	292.56
415.821	261.56
416.044	274.56
416.267	262.56
416.49	274.56
416.713	278.56
416.936	279.56
417.159	283.56
417.382	260.56
417.605	268.56
417.828	279.56
418.051	308.56
418.274	290.56
418.497	288.56
418.72	252.56
418.943	292.56
419.166	293.56
419.389	294.56
419.611	288.56
419.834	279.56
420.057	293.56
420.28	294.56
420.503	292.56
420.726	285.56
420.948	284.56
421.171	325.56
421.394	337.56
421.617	311.56
421.839	284.56
422.062	296.56
422.285	278.56
422.507	338.56
422.73	361.56
422.953	365.56
423.175	315.56
423.398	311.56
423.621	300.56
423.843	304.56
424.066	304.56
424.288	312.56
424.511	326.56
424.733	352.56
424.956	384.56
425.178	374.56
425.401	365.56
425.623	377.56
425.846	341.56
426.068	315.56
426.291	308.56
426.513	300.56
426.735	322.56
426.958	341.56
427.18	380.56
427.402	451.56
427.625	498.56
427.847	417.56
428.069	389.56
428.292	341.56
428.514	309.56
428.736	311.56
428.958	317.56
429.181	294.56
429.403	297.56
429.625	276.56
429.847	314.56
430.069	343.56
430.292	338.56
430.514	292.56
430.736	294.56
430.958	291.56
431.18	265.56
431.402	273.56
431.624	260.56
431.846	261.56
432.068	289.56
432.29	259.56
432.512	272.56
432.734	267.56
432.956	276.56
433.178	281.56
433.4	292.56
433.622	297.56
433.844	249.56
434.066	262.56
434.287	274.56
434.509	278.56
434.731	293.56
434.953	273.56
435.175	280.56
435.397	296.56
435.618	302.56
435.84	334.56
436.062	375.56
436.284	405.56
436.505	349.56
436.727	304.56
436.949	289.56
437.17	293.56
437.392	295.56
437.614	288.56
437.835	322.56
438.057	373.56
438.278	418.56
438.5	424.56
438.721	441.56
438.943	424.56
439.165	355.56
439.386	320.56
439.608	317.56
439.829	312.56
440.05	320.56
440.272	374.56
440.493	325.56
440.715	315.56
440.936	312.56
441.158	301.56
441.379	293.56
441.6	318.56
441.822	305.56
442.043	333.56
442.264	367.56
442.486	378.56
442.707	329.56
442.928	340.56
443.149	327.56
443.371	350.56
443.592	356.56
443.813	402.56
444.034	428.56
444.255	354.56
444.476	308.56
444.698	304.56
444.919	310.56
445.14	382.56
445.361	336.56
445.582	336.56
445.803	367.56
446.024	414.56
446.245	420.56
446.466	389.56
446.687	338.56
446.908	326.56
447.129	296.56
447.35	298.56
447.571	308.56
447.792	281.56
448.013	292.56
448.234	321.56
448.455	356.56
448.675	401.56
448.896	455.56
449.117	372.56
449.338	368.56
449.559	431.56
449.779	456.56
450	376.56
450.221	316.56
450.442	304.56
450.662	292.56
450.883	271.56
451.104	288.56
451.324	278.56
451.545	285.56
451.766	274.56
451.986	257.56
452.207	263.56
452.428	273.56
452.648	266.56
452.869	246.56
453.089	263.56
453.31	269.56
453.53	257.56
453.751	255.56
453.971	261.56
454.192	283.56
454.412	249.56
454.633	239.56
454.853	263.56
455.073	260.56
455.294	276.56
455.514	330.56
455.734	307.56
455.955	281.56
456.175	261.56
456.395	261.56
456.616	260.56
456.836	250.56
457.056	260.56
457.276	254.56
457.497	240.56
457.717	242.56
457.937	245.56
458.157	264.56
458.377	287.56
458.598	269.56
458.818	287.56
459.038	324.56
459.258	339.56
459.478	302.56
459.698	263.56
459.918	282.56
460.138	263.56
460.358	272.56
460.578	266.56
460.798	285.56
461.018	266.56
461.238	269.56
461.458	258.56
461.678	271.56
461.898	268.56
462.118	262.56
462.338	278.56
462.558	277.56
462.777	278.56
462.997	295.56
463.217	293.56
463.437	287.56
463.657	278.56
463.876	296.56
464.096	282.56
464.316	282.56
464.536	305.56
464.755	294.56
464.975	304.56
465.195	313.56
465.414	352.56
465.634	321.56
465.854	300.56
466.073	284.56
466.293	268.56
466.512	268.56
466.732	263.56
466.951	276.56
467.171	234.56
467.391	291.56
467.61	262.56
467.829	266.56
468.049	265.56
468.268	273.56
468.488	274.56
468.707	264.56
468.927	256.56
469.146	244.56
469.365	268.56
469.585	269.56
469.804	268.56
470.023	266.56
470.243	279.56
470.462	265.56
470.681	276.56
470.901	299.56
471.12	273.56
471.339	280.56
471.558	280.56
471.777	261.56
471.997	276.56
472.216	275.56
472.435	257.56
472.654	289.56
472.873	266.56
473.092	273.56
473.311	282.56
473.53	274.56
473.749	279.56
473.968	310.56
474.187	346.56
474.406	357.56
474.625	303.56
474.844	292.56
475.063	280.56
475.282	278.56
475.501	267.56
475.72	278.56
475.939	266.56
476.158	274.56
476.377	273.56
476.596	266.56
476.814	291.56
477.033	286.56
477.252	285.56
477.471	293.56
477.69	296.56
477.908	273.56
478.127	278.56
478.346	288.56
478.564	295.56
478.783	285.56
479.002	293.56
479.22	300.56
479.439	316.56
479.658	337.56
479.876	326.56
480.095	320.56
480.313	326.56
480.532	310.56
480.751	319.56
480.969	325.56
481.188	348.56
481.406	359.56
481.624	321.56
481.843	326.56
482.061	342.56
482.28	304.56
482.498	320.56
482.717	318.56
482.935	304.56
483.153	304.56
483.372	306.56
483.59	314.56
483.808	322.56
484.027	318.56
484.245	312.56
484.463	320.56
484.681	325.56
484.9	307.56
485.118	321.56
485.336	318.56
485.554	310.56
485.772	329.56
485.99	318.56
486.209	324.56
486.427	305.56
486.645	318.56
486.863	323.56
487.081	327.56
487.299	324.56
487.517	323.56
487.735	338.56
487.953	320.56
488.171	345.56
488.389	321.56
488.607	320.56
488.825	330.56
489.043	333.56
489.261	322.56
489.479	329.56
489.696	339.56
489.914	330.56
490.132	326.56
490.35	349.56
490.568	349.56
490.786	359.56
491.003	359.56
491.221	383.56
491.439	369.56
491.657	364.56
491.874	364.56
492.092	370.56
492.31	368.56
492.527	375.56
492.745	374.56
492.963	373.56
493.18	375.56
493.398	392.56
493.615	376.56
493.833	409.56
494.05	375.56
494.268	372.56
494.485	385.56
494.703	370.56
494.92	404.56
495.138	393.56
495.355	386.56
495.573	374.56
495.79	388.56
496.008	404.56
496.225	375.56
496.442	374.56
496.66	387.56
496.877	399.56
497.094	392.56
497.312	384.56
497.529	407.56
497.746	406.56
497.963	400.56
498.181	429.56
498.398	424.56
498.615	419.56
498.832	430.56
499.049	436.56
499.267	418.56
499.484	457.56
499.701	481.56
499.918	448.56
500.135	474.56
500.352	487.56
500.569	478.56
500.786	480.56
501.003	517.56
501.22	473.56
501.437	497.56
501.654	463.56
501.871	469.56
502.088	458.56
502.305	443.56
