Data from 1982.PennyLincolnUp.Lamp.En5.5.200Scan.071819.P1_HRD10591_16-47-56-962.txt Node
Date: Thu Jul 18 16:47:56 EDT 2019
User: cochatt
Spectrometer: HR+D1059
Trigger mode: 1
Integration Time (sec): 1.000000E-1
Scans to average: 1
Electric dark correction enabled: true
Nonlinearity correction enabled: false
Boxcar width: 0
XAxis mode: Wavelengths
Number of Pixels in Spectrum: 2048
>>>>>Begin Spectral Data<<<<<
223.165	-13.75
223.4	-13.75
223.635	-13.75
223.869	-19.75
224.104	-12.75
224.338	-12.75
224.573	-8.75
224.808	-9.75
225.042	-5.75
225.277	-18.75
225.511	9.25
225.746	2.25
225.98	-2.75
226.215	6.25
226.449	10.25
226.683	12.25
226.918	39.25
227.152	25.25
227.387	42.25
227.621	31.25
227.856	50.25
228.09	53.25
228.324	55.25
228.559	52.25
228.793	47.25
229.027	86.25
229.262	104.25
229.496	91.25
229.73	130.25
229.964	125.25
230.199	107.25
230.433	102.25
230.667	99.25
230.901	82.25
231.136	89.25
231.37	94.25
231.604	91.25
231.838	106.25
232.072	97.25
232.306	94.25
232.541	111.25
232.775	100.25
233.009	102.25
233.243	126.25
233.477	94.25
233.711	103.25
233.945	107.25
234.179	106.25
234.413	97.25
234.647	91.25
234.881	108.25
235.115	109.25
235.349	111.25
235.583	118.25
235.817	108.25
236.051	124.25
236.285	114.25
236.519	109.25
236.753	123.25
236.987	134.25
237.221	155.25
237.455	185.25
237.689	153.25
237.922	120.25
238.156	111.25
238.39	105.25
238.624	119.25
238.858	111.25
239.091	109.25
239.325	113.25
239.559	117.25
239.793	124.25
240.027	123.25
240.26	111.25
240.494	143.25
240.728	118.25
240.961	137.25
241.195	129.25
241.429	130.25
241.662	124.25
241.896	109.25
242.13	106.25
242.363	113.25
242.597	109.25
242.83	125.25
243.064	129.25
243.298	127.25
243.531	107.25
243.765	120.25
243.998	143.25
244.232	125.25
244.465	127.25
244.699	123.25
244.932	126.25
245.166	125.25
245.399	128.25
245.633	129.25
245.866	133.25
246.099	137.25
246.333	125.25
246.566	137.25
246.8	143.25
247.033	119.25
247.266	130.25
247.5	133.25
247.733	155.25
247.966	153.25
248.2	156.25
248.433	147.25
248.666	128.25
248.899	158.25
249.133	170.25
249.366	182.25
249.599	150.25
249.832	149.25
250.066	170.25
250.299	147.25
250.532	169.25
250.765	173.25
250.998	188.25
251.231	179.25
251.465	172.25
251.698	164.25
251.931	157.25
252.164	171.25
252.397	169.25
252.63	167.25
252.863	182.25
253.096	181.25
253.329	188.25
253.562	181.25
253.795	166.25
254.028	174.25
254.261	173.25
254.494	184.25
254.727	212.25
254.96	222.25
255.193	215.25
255.426	198.25
255.659	190.25
255.892	197.25
256.124	194.25
256.357	195.25
256.59	175.25
256.823	194.25
257.056	191.25
257.289	173.25
257.521	161.25
257.754	190.25
257.987	182.25
258.22	152.25
258.452	183.25
258.685	179.25
258.918	185.25
259.151	168.25
259.383	166.25
259.616	171.25
259.849	191.25
260.081	197.25
260.314	199.25
260.547	202.25
260.779	197.25
261.012	203.25
261.244	194.25
261.477	204.25
261.71	189.25
261.942	191.25
262.175	187.25
262.407	187.25
262.64	179.25
262.872	181.25
263.105	185.25
263.337	178.25
263.57	157.25
263.802	172.25
264.035	187.25
264.267	185.25
264.499	177.25
264.732	178.25
264.964	178.25
265.197	187.25
265.429	179.25
265.661	167.25
265.894	161.25
266.126	164.25
266.358	183.25
266.591	185.25
266.823	182.25
267.055	190.25
267.287	187.25
267.52	194.25
267.752	181.25
267.984	197.25
268.216	179.25
268.448	189.25
268.681	189.25
268.913	189.25
269.145	226.25
269.377	200.25
269.609	214.25
269.841	231.25
270.073	217.25
270.306	238.25
270.538	275.25
270.77	247.25
271.002	245.25
271.234	238.25
271.466	249.25
271.698	253.25
271.93	256.25
272.162	265.25
272.394	269.25
272.626	262.25
272.858	218.25
273.09	205.25
273.322	195.25
273.553	223.25
273.785	242.25
274.017	200.25
274.249	229.25
274.481	217.25
274.713	217.25
274.945	225.25
275.176	231.25
275.408	217.25
275.64	226.25
275.872	216.25
276.104	212.25
276.335	225.25
276.567	225.25
276.799	230.25
277.031	232.25
277.262	258.25
277.494	254.25
277.726	246.25
277.957	247.25
278.189	209.25
278.421	222.25
278.652	233.25
278.884	220.25
279.115	227.25
279.347	207.25
279.579	196.25
279.81	206.25
280.042	203.25
280.273	200.25
280.505	206.25
280.736	213.25
280.968	209.25
281.199	219.25
281.431	217.25
281.662	205.25
281.894	221.25
282.125	225.25
282.356	235.25
282.588	244.25
282.819	249.25
283.051	236.25
283.282	222.25
283.513	205.25
283.745	222.25
283.976	214.25
284.207	225.25
284.439	230.25
284.67	211.25
284.901	220.25
285.132	215.25
285.364	224.25
285.595	222.25
285.826	207.25
286.057	197.25
286.288	220.25
286.52	215.25
286.751	229.25
286.982	223.25
287.213	220.25
287.444	236.25
287.675	235.25
287.906	235.25
288.138	226.25
288.369	234.25
288.6	245.25
288.831	227.25
289.062	227.25
289.293	219.25
289.524	222.25
289.755	223.25
289.986	210.25
290.217	224.25
290.448	239.25
290.679	225.25
290.91	226.25
291.141	226.25
291.371	235.25
291.602	229.25
291.833	232.25
292.064	215.25
292.295	227.25
292.526	229.25
292.757	233.25
292.987	222.25
293.218	227.25
293.449	220.25
293.68	219.25
293.91	244.25
294.141	225.25
294.372	239.25
294.603	220.25
294.833	224.25
295.064	233.25
295.295	230.25
295.525	229.25
295.756	245.25
295.987	252.25
296.217	266.25
296.448	257.25
296.679	241.25
296.909	231.25
297.14	233.25
297.37	236.25
297.601	236.25
297.831	218.25
298.062	236.25
298.292	234.25
298.523	233.25
298.753	239.25
298.984	245.25
299.214	229.25
299.445	248.25
299.675	254.25
299.905	242.25
300.136	243.25
300.366	233.25
300.597	238.25
300.827	245.25
301.057	267.25
301.288	266.25
301.518	268.25
301.748	273.25
301.979	249.25
302.209	259.25
302.439	267.25
302.669	258.25
302.9	248.25
303.13	258.25
303.36	260.25
303.59	257.25
303.82	250.25
304.051	259.25
304.281	273.25
304.511	268.25
304.741	234.25
304.971	263.25
305.201	280.25
305.431	257.25
305.661	272.25
305.891	276.25
306.121	259.25
306.352	252.25
306.582	265.25
306.812	273.25
307.042	281.25
307.272	265.25
307.502	269.25
307.731	260.25
307.961	258.25
308.191	255.25
308.421	274.25
308.651	271.25
308.881	274.25
309.111	278.25
309.341	284.25
309.571	264.25
309.8	290.25
310.03	298.25
310.26	298.25
310.49	289.25
310.72	323.25
310.949	331.25
311.179	317.25
311.409	315.25
311.639	306.25
311.868	306.25
312.098	306.25
312.328	313.25
312.557	329.25
312.787	327.25
313.017	330.25
313.246	317.25
313.476	294.25
313.706	287.25
313.935	309.25
314.165	312.25
314.394	315.25
314.624	311.25
314.853	309.25
315.083	299.25
315.312	297.25
315.542	300.25
315.771	321.25
316.001	270.25
316.23	297.25
316.46	292.25
316.689	296.25
316.919	302.25
317.148	309.25
317.377	312.25
317.607	307.25
317.836	285.25
318.065	309.25
318.295	303.25
318.524	296.25
318.753	305.25
318.983	293.25
319.212	293.25
319.441	303.25
319.67	306.25
319.9	292.25
320.129	305.25
320.358	299.25
320.587	298.25
320.816	298.25
321.046	326.25
321.275	323.25
321.504	316.25
321.733	324.25
321.962	313.25
322.191	347.25
322.42	347.25
322.649	345.25
322.878	393.25
323.108	404.25
323.337	381.25
323.566	407.25
323.795	462.25
324.024	508.25
324.253	634.25
324.482	919.25
324.71	1403.25
324.939	1857.25
325.168	1478.25
325.397	794.25
325.626	550.25
325.855	457.25
326.084	436.25
326.313	430.25
326.542	446.25
326.77	468.25
326.999	593.25
327.228	822.25
327.457	1210.25
327.686	1349.25
327.914	866.25
328.143	582.25
328.372	518.25
328.6	470.25
328.829	478.25
329.058	491.25
329.287	489.25
329.515	455.25
329.744	423.25
329.972	422.25
330.201	446.25
330.43	461.25
330.658	491.25
330.887	488.25
331.115	483.25
331.344	415.25
331.572	408.25
331.801	392.25
332.03	390.25
332.258	365.25
332.486	361.25
332.715	345.25
332.943	356.25
333.172	354.25
333.4	373.25
333.629	355.25
333.857	377.25
334.085	391.25
334.314	391.25
334.542	407.25
334.771	425.25
334.999	375.25
335.227	384.25
335.455	341.25
335.684	340.25
335.912	335.25
336.14	312.25
336.369	321.25
336.597	341.25
336.825	335.25
337.053	346.25
337.281	334.25
337.51	330.25
337.738	333.25
337.966	344.25
338.194	336.25
338.422	334.25
338.65	335.25
338.878	323.25
339.106	319.25
339.334	321.25
339.562	314.25
339.79	318.25
340.018	333.25
340.246	327.25
340.474	343.25
340.702	336.25
340.93	342.25
341.158	329.25
341.386	321.25
341.614	348.25
341.842	319.25
342.07	316.25
342.298	329.25
342.526	322.25
342.754	293.25
342.981	293.25
343.209	312.25
343.437	302.25
343.665	321.25
343.893	331.25
344.12	343.25
344.348	328.25
344.576	315.25
344.804	327.25
345.031	360.25
345.259	342.25
345.487	334.25
345.714	339.25
345.942	317.25
346.17	337.25
346.397	327.25
346.625	315.25
346.853	318.25
347.08	322.25
347.308	342.25
347.535	313.25
347.763	331.25
347.99	321.25
348.218	332.25
348.445	331.25
348.673	317.25
348.9	330.25
349.128	314.25
349.355	297.25
349.583	325.25
349.81	323.25
350.037	306.25
350.265	320.25
350.492	301.25
350.72	315.25
350.947	333.25
351.174	324.25
351.402	323.25
351.629	324.25
351.856	317.25
352.083	323.25
352.311	345.25
352.538	333.25
352.765	330.25
352.992	317.25
353.22	327.25
353.447	317.25
353.674	299.25
353.901	299.25
354.128	299.25
354.355	302.25
354.583	283.25
354.81	267.25
355.037	285.25
355.264	277.25
355.491	278.25
355.718	271.25
355.945	279.25
356.172	272.25
356.399	277.25
356.626	298.25
356.853	285.25
357.08	282.25
357.307	307.25
357.534	281.25
357.761	273.25
357.988	283.25
358.215	283.25
358.441	290.25
358.668	285.25
358.895	290.25
359.122	300.25
359.349	318.25
359.576	311.25
359.802	310.25
360.029	344.25
360.256	362.25
360.483	331.25
360.709	314.25
360.936	312.25
361.163	302.25
361.39	318.25
361.616	303.25
361.843	313.25
362.07	321.25
362.296	307.25
362.523	311.25
362.749	289.25
362.976	306.25
363.203	296.25
363.429	302.25
363.656	276.25
363.882	292.25
364.109	278.25
364.335	290.25
364.562	298.25
364.788	294.25
365.015	300.25
365.241	299.25
365.468	288.25
365.694	291.25
365.92	310.25
366.147	291.25
366.373	295.25
366.599	287.25
366.826	291.25
367.052	290.25
367.278	290.25
367.505	282.25
367.731	298.25
367.957	284.25
368.184	294.25
368.41	294.25
368.636	313.25
368.862	294.25
369.089	285.25
369.315	294.25
369.541	294.25
369.767	282.25
369.993	276.25
370.219	275.25
370.445	279.25
370.672	270.25
370.898	283.25
371.124	275.25
371.35	293.25
371.576	283.25
371.802	269.25
372.028	288.25
372.254	279.25
372.48	281.25
372.706	267.25
372.932	278.25
373.158	291.25
373.384	280.25
373.61	297.25
373.835	284.25
374.061	282.25
374.287	276.25
374.513	282.25
374.739	278.25
374.965	273.25
375.191	299.25
375.416	295.25
375.642	279.25
375.868	294.25
376.094	281.25
376.319	293.25
376.545	294.25
376.771	291.25
376.997	274.25
377.222	282.25
377.448	269.25
377.674	285.25
377.899	275.25
378.125	273.25
378.35	278.25
378.576	265.25
378.802	289.25
379.027	280.25
379.253	266.25
379.478	260.25
379.704	282.25
379.929	269.25
380.155	260.25
380.38	281.25
380.606	273.25
380.831	284.25
381.057	296.25
381.282	271.25
381.507	276.25
381.733	278.25
381.958	285.25
382.184	275.25
382.409	297.25
382.634	290.25
382.86	279.25
383.085	269.25
383.31	270.25
383.535	284.25
383.761	278.25
383.986	308.25
384.211	277.25
384.436	283.25
384.662	274.25
384.887	291.25
385.112	287.25
385.337	293.25
385.562	294.25
385.787	294.25
386.013	288.25
386.238	281.25
386.463	285.25
386.688	283.25
386.913	277.25
387.138	288.25
387.363	287.25
387.588	286.25
387.813	291.25
388.038	289.25
388.263	275.25
388.488	301.25
388.713	289.25
388.938	307.25
389.163	298.25
389.387	290.25
389.612	292.25
389.837	299.25
390.062	287.25
390.287	290.25
390.512	273.25
390.736	290.25
390.961	289.25
391.186	306.25
391.411	290.25
391.636	278.25
391.86	297.25
392.085	291.25
392.31	294.25
392.534	290.25
392.759	287.25
392.984	296.25
393.208	282.25
393.433	290.25
393.658	265.25
393.882	287.25
394.107	303.25
394.331	299.25
394.556	290.25
394.78	285.25
395.005	281.25
395.229	284.25
395.454	315.25
395.678	307.25
395.903	301.25
396.127	311.25
396.352	318.25
396.576	303.25
396.801	302.25
397.025	314.25
397.249	288.25
397.474	297.25
397.698	300.25
397.922	330.25
398.147	332.25
398.371	327.25
398.595	338.25
398.82	346.25
399.044	350.25
399.268	334.25
399.492	343.25
399.717	362.25
399.941	376.25
400.165	401.25
400.389	385.25
400.613	347.25
400.837	328.25
401.062	312.25
401.286	322.25
401.51	325.25
401.734	322.25
401.958	322.25
402.182	324.25
402.406	323.25
402.63	323.25
402.854	343.25
403.078	313.25
403.302	317.25
403.526	350.25
403.75	322.25
403.974	345.25
404.198	347.25
404.422	354.25
404.645	338.25
404.869	345.25
405.093	353.25
405.317	376.25
405.541	385.25
405.765	385.25
405.988	350.25
406.212	358.25
406.436	378.25
406.66	359.25
406.883	363.25
407.107	377.25
407.331	396.25
407.555	442.25
407.778	456.25
408.002	394.25
408.226	379.25
408.449	382.25
408.673	374.25
408.896	371.25
409.12	378.25
409.344	378.25
409.567	353.25
409.791	340.25
410.014	336.25
410.238	312.25
410.461	330.25
410.685	340.25
410.908	359.25
411.132	382.25
411.355	370.25
411.578	361.25
411.802	339.25
412.025	334.25
412.249	335.25
412.472	360.25
412.695	369.25
412.919	381.25
413.142	347.25
413.365	323.25
413.589	341.25
413.812	321.25
414.035	330.25
414.258	301.25
414.482	322.25
414.705	300.25
414.928	314.25
415.151	294.25
415.374	307.25
415.597	326.25
415.821	308.25
416.044	303.25
416.267	332.25
416.49	313.25
416.713	296.25
416.936	321.25
417.159	324.25
417.382	327.25
417.605	318.25
417.828	318.25
418.051	324.25
418.274	318.25
418.497	314.25
418.72	323.25
418.943	318.25
419.166	311.25
419.389	323.25
419.611	333.25
419.834	335.25
420.057	318.25
420.28	318.25
420.503	313.25
420.726	347.25
420.948	356.25
421.171	371.25
421.394	398.25
421.617	326.25
421.839	309.25
422.062	326.25
422.285	357.25
422.507	383.25
422.73	427.25
422.953	404.25
423.175	363.25
423.398	356.25
423.621	343.25
423.843	344.25
424.066	362.25
424.288	356.25
424.511	363.25
424.733	426.25
424.956	445.25
425.178	458.25
425.401	457.25
425.623	450.25
425.846	387.25
426.068	358.25
426.291	331.25
426.513	377.25
426.735	373.25
426.958	405.25
427.18	471.25
427.402	549.25
427.625	584.25
427.847	517.25
428.069	446.25
428.292	417.25
428.514	355.25
428.736	354.25
428.958	331.25
429.181	331.25
429.403	333.25
429.625	342.25
429.847	357.25
430.069	417.25
430.292	397.25
430.514	351.25
430.736	327.25
430.958	316.25
431.18	295.25
431.402	319.25
431.624	326.25
431.846	316.25
432.068	302.25
432.29	334.25
432.512	320.25
432.734	328.25
432.956	306.25
433.178	318.25
433.4	321.25
433.622	327.25
433.844	309.25
434.066	315.25
434.287	310.25
434.509	318.25
434.731	323.25
434.953	326.25
435.175	333.25
435.397	359.25
435.618	377.25
435.84	405.25
436.062	456.25
436.284	484.25
436.505	418.25
436.727	387.25
436.949	338.25
437.17	341.25
437.392	348.25
437.614	354.25
437.835	384.25
438.057	443.25
438.278	511.25
438.5	508.25
438.721	533.25
438.943	509.25
439.165	414.25
439.386	393.25
439.608	383.25
439.829	398.25
440.05	413.25
440.272	449.25
440.493	415.25
440.715	354.25
440.936	354.25
441.158	353.25
441.379	333.25
441.6	353.25
441.822	346.25
442.043	380.25
442.264	461.25
442.486	470.25
442.707	407.25
442.928	378.25
443.149	389.25
443.371	401.25
443.592	429.25
443.813	479.25
444.034	518.25
444.255	424.25
444.476	377.25
444.698	365.25
444.919	369.25
445.14	447.25
445.361	433.25
445.582	383.25
445.803	444.25
446.024	531.25
446.245	499.25
446.466	473.25
446.687	415.25
446.908	375.25
447.129	347.25
447.35	357.25
447.571	338.25
447.792	331.25
448.013	340.25
448.234	362.25
448.455	393.25
448.675	461.25
448.896	522.25
449.117	452.25
449.338	457.25
449.559	505.25
449.779	548.25
450	440.25
450.221	385.25
450.442	346.25
450.662	340.25
450.883	355.25
451.104	330.25
451.324	349.25
451.545	330.25
451.766	300.25
451.986	326.25
452.207	282.25
452.428	298.25
452.648	297.25
452.869	299.25
453.089	303.25
453.31	301.25
453.53	301.25
453.751	303.25
453.971	307.25
454.192	340.25
454.412	327.25
454.633	294.25
454.853	292.25
455.073	292.25
455.294	324.25
455.514	370.25
455.734	362.25
455.955	305.25
456.175	318.25
456.395	283.25
456.616	250.25
456.836	280.25
457.056	270.25
457.276	277.25
457.497	278.25
457.717	301.25
457.937	296.25
458.157	279.25
458.377	297.25
458.598	295.25
458.818	374.25
459.038	415.25
459.258	441.25
459.478	347.25
459.698	317.25
459.918	325.25
460.138	293.25
460.358	315.25
460.578	293.25
460.798	322.25
461.018	315.25
461.238	330.25
461.458	318.25
461.678	303.25
461.898	324.25
462.118	313.25
462.338	322.25
462.558	305.25
462.777	301.25
462.997	313.25
463.217	309.25
463.437	326.25
463.657	325.25
463.876	325.25
464.096	322.25
464.316	332.25
464.536	330.25
464.755	308.25
464.975	339.25
465.195	381.25
465.414	409.25
465.634	378.25
465.854	335.25
466.073	335.25
466.293	301.25
466.512	324.25
466.732	302.25
466.951	321.25
467.171	306.25
467.391	288.25
467.61	306.25
467.829	302.25
468.049	300.25
468.268	311.25
468.488	306.25
468.707	318.25
468.927	309.25
469.146	299.25
469.365	292.25
469.585	295.25
469.804	308.25
470.023	325.25
470.243	303.25
470.462	321.25
470.681	322.25
470.901	301.25
471.12	326.25
471.339	301.25
471.558	311.25
471.777	309.25
471.997	322.25
472.216	313.25
472.435	345.25
472.654	314.25
472.873	314.25
473.092	310.25
473.311	318.25
473.53	299.25
473.749	329.25
473.968	327.25
474.187	430.25
474.406	447.25
474.625	365.25
474.844	323.25
475.063	331.25
475.282	304.25
475.501	301.25
475.72	327.25
475.939	337.25
476.158	307.25
476.377	315.25
476.596	315.25
476.814	316.25
477.033	341.25
477.252	331.25
477.471	329.25
477.69	337.25
477.908	341.25
478.127	327.25
478.346	330.25
478.564	325.25
478.783	323.25
479.002	360.25
479.22	354.25
479.439	345.25
479.658	380.25
479.876	363.25
480.095	387.25
480.313	382.25
480.532	387.25
480.751	376.25
480.969	395.25
481.188	431.25
481.406	434.25
481.624	387.25
481.843	373.25
482.061	390.25
482.28	372.25
482.498	377.25
482.717	365.25
482.935	346.25
483.153	359.25
483.372	366.25
483.59	344.25
483.808	358.25
484.027	364.25
484.245	356.25
484.463	374.25
484.681	366.25
484.9	360.25
485.118	366.25
485.336	371.25
485.554	369.25
485.772	357.25
485.99	373.25
486.209	357.25
486.427	381.25
486.645	379.25
486.863	366.25
487.081	396.25
487.299	397.25
487.517	385.25
487.735	366.25
487.953	401.25
488.171	391.25
488.389	377.25
488.607	387.25
488.825	393.25
489.043	373.25
489.261	383.25
489.479	391.25
489.696	395.25
489.914	374.25
490.132	387.25
490.35	402.25
490.568	390.25
490.786	410.25
491.003	417.25
491.221	413.25
491.439	426.25
491.657	426.25
491.874	446.25
492.092	440.25
492.31	435.25
492.527	444.25
492.745	430.25
492.963	422.25
493.18	441.25
493.398	425.25
493.615	455.25
493.833	467.25
494.05	457.25
494.268	453.25
494.485	440.25
494.703	456.25
494.92	452.25
495.138	451.25
495.355	449.25
495.573	444.25
495.79	455.25
496.008	440.25
496.225	464.25
496.442	444.25
496.66	447.25
496.877	427.25
497.094	446.25
497.312	472.25
497.529	459.25
497.746	445.25
497.963	458.25
498.181	481.25
498.398	478.25
498.615	487.25
498.832	484.25
499.049	487.25
499.267	498.25
499.484	492.25
499.701	523.25
499.918	537.25
500.135	522.25
500.352	542.25
500.569	554.25
500.786	562.25
501.003	545.25
501.22	563.25
501.437	529.25
501.654	542.25
501.871	532.25
502.088	534.25
