Data from 1982.PennyLincolnUp.Lamp.En5.5.200Scan.071819.P1_HRD10591_16-46-18-962.txt Node
Date: Thu Jul 18 16:46:18 EDT 2019
User: cochatt
Spectrometer: HR+D1059
Trigger mode: 1
Integration Time (sec): 1.000000E-1
Scans to average: 1
Electric dark correction enabled: true
Nonlinearity correction enabled: false
Boxcar width: 0
XAxis mode: Wavelengths
Number of Pixels in Spectrum: 2048
>>>>>Begin Spectral Data<<<<<
223.165	-4.38
223.4	-4.38
223.635	-4.38
223.869	-19.38
224.104	-14.38
224.338	-13.38
224.573	-7.38
224.808	-20.38
225.042	-7.38
225.277	-14.38
225.511	-10.38
225.746	0.62
225.98	-0.38
226.215	23.62
226.449	20.62
226.683	17.62
226.918	23.62
227.152	25.62
227.387	30.62
227.621	34.62
227.856	44.62
228.09	39.62
228.324	51.62
228.559	53.62
228.793	57.62
229.027	85.62
229.262	95.62
229.496	104.62
229.73	109.62
229.964	118.62
230.199	105.62
230.433	112.62
230.667	112.62
230.901	102.62
231.136	89.62
231.37	84.62
231.604	90.62
231.838	98.62
232.072	105.62
232.306	102.62
232.541	101.62
232.775	91.62
233.009	105.62
233.243	106.62
233.477	104.62
233.711	96.62
233.945	88.62
234.179	97.62
234.413	113.62
234.647	110.62
234.881	101.62
235.115	87.62
235.349	89.62
235.583	109.62
235.817	92.62
236.051	105.62
236.285	105.62
236.519	101.62
236.753	124.62
236.987	134.62
237.221	147.62
237.455	164.62
237.689	141.62
237.922	116.62
238.156	113.62
238.39	115.62
238.624	107.62
238.858	118.62
239.091	105.62
239.325	116.62
239.559	113.62
239.793	117.62
240.027	139.62
240.26	128.62
240.494	125.62
240.728	131.62
240.961	129.62
241.195	107.62
241.429	114.62
241.662	112.62
241.896	121.62
242.13	116.62
242.363	106.62
242.597	114.62
242.83	124.62
243.064	116.62
243.298	125.62
243.531	114.62
243.765	120.62
243.998	120.62
244.232	124.62
244.465	145.62
244.699	120.62
244.932	134.62
245.166	140.62
245.399	112.62
245.633	133.62
245.866	120.62
246.099	121.62
246.333	118.62
246.566	122.62
246.8	138.62
247.033	130.62
247.266	140.62
247.5	139.62
247.733	137.62
247.966	142.62
248.2	131.62
248.433	126.62
248.666	136.62
248.899	148.62
249.133	162.62
249.366	170.62
249.599	167.62
249.832	158.62
250.066	158.62
250.299	139.62
250.532	160.62
250.765	158.62
250.998	170.62
251.231	170.62
251.465	184.62
251.698	164.62
251.931	167.62
252.164	148.62
252.397	160.62
252.63	148.62
252.863	176.62
253.096	160.62
253.329	178.62
253.562	188.62
253.795	158.62
254.028	167.62
254.261	167.62
254.494	179.62
254.727	190.62
254.96	215.62
255.193	202.62
255.426	204.62
255.659	165.62
255.892	175.62
256.124	192.62
256.357	187.62
256.59	159.62
256.823	165.62
257.056	166.62
257.289	174.62
257.521	158.62
257.754	166.62
257.987	166.62
258.22	176.62
258.452	177.62
258.685	166.62
258.918	162.62
259.151	168.62
259.383	180.62
259.616	169.62
259.849	180.62
260.081	195.62
260.314	192.62
260.547	200.62
260.779	197.62
261.012	191.62
261.244	178.62
261.477	167.62
261.71	156.62
261.942	172.62
262.175	179.62
262.407	175.62
262.64	178.62
262.872	184.62
263.105	170.62
263.337	168.62
263.57	173.62
263.802	172.62
264.035	163.62
264.267	162.62
264.499	156.62
264.732	184.62
264.964	180.62
265.197	172.62
265.429	177.62
265.661	177.62
265.894	177.62
266.126	164.62
266.358	174.62
266.591	172.62
266.823	176.62
267.055	176.62
267.287	165.62
267.52	186.62
267.752	171.62
267.984	194.62
268.216	173.62
268.448	178.62
268.681	169.62
268.913	202.62
269.145	219.62
269.377	220.62
269.609	221.62
269.841	214.62
270.073	217.62
270.306	225.62
270.538	233.62
270.77	246.62
271.002	221.62
271.234	225.62
271.466	225.62
271.698	255.62
271.93	240.62
272.162	243.62
272.394	232.62
272.626	226.62
272.858	220.62
273.09	234.62
273.322	203.62
273.553	222.62
273.785	218.62
274.017	204.62
274.249	215.62
274.481	190.62
274.713	207.62
274.945	205.62
275.176	216.62
275.408	201.62
275.64	198.62
275.872	203.62
276.104	213.62
276.335	222.62
276.567	210.62
276.799	212.62
277.031	221.62
277.262	226.62
277.494	236.62
277.726	229.62
277.957	210.62
278.189	206.62
278.421	223.62
278.652	207.62
278.884	206.62
279.115	209.62
279.347	202.62
279.579	221.62
279.81	205.62
280.042	200.62
280.273	213.62
280.505	197.62
280.736	197.62
280.968	219.62
281.199	225.62
281.431	223.62
281.662	204.62
281.894	204.62
282.125	205.62
282.356	210.62
282.588	217.62
282.819	218.62
283.051	213.62
283.282	213.62
283.513	211.62
283.745	199.62
283.976	234.62
284.207	229.62
284.439	224.62
284.67	193.62
284.901	203.62
285.132	201.62
285.364	214.62
285.595	211.62
285.826	213.62
286.057	200.62
286.288	218.62
286.52	204.62
286.751	218.62
286.982	219.62
287.213	213.62
287.444	217.62
287.675	225.62
287.906	231.62
288.138	229.62
288.369	231.62
288.6	217.62
288.831	230.62
289.062	237.62
289.293	230.62
289.524	216.62
289.755	219.62
289.986	233.62
290.217	219.62
290.448	219.62
290.679	218.62
290.91	219.62
291.141	229.62
291.371	213.62
291.602	214.62
291.833	214.62
292.064	205.62
292.295	241.62
292.526	218.62
292.757	227.62
292.987	224.62
293.218	215.62
293.449	208.62
293.68	221.62
293.91	204.62
294.141	224.62
294.372	198.62
294.603	200.62
294.833	212.62
295.064	229.62
295.295	231.62
295.525	228.62
295.756	237.62
295.987	236.62
296.217	256.62
296.448	259.62
296.679	226.62
296.909	209.62
297.14	219.62
297.37	225.62
297.601	215.62
297.831	216.62
298.062	219.62
298.292	226.62
298.523	226.62
298.753	220.62
298.984	234.62
299.214	226.62
299.445	235.62
299.675	228.62
299.905	238.62
300.136	245.62
300.366	240.62
300.597	229.62
300.827	242.62
301.057	233.62
301.288	242.62
301.518	253.62
301.748	241.62
301.979	238.62
302.209	252.62
302.439	228.62
302.669	245.62
302.9	263.62
303.13	235.62
303.36	236.62
303.59	254.62
303.82	259.62
304.051	249.62
304.281	259.62
304.511	233.62
304.741	246.62
304.971	245.62
305.201	262.62
305.431	264.62
305.661	234.62
305.891	255.62
306.121	258.62
306.352	256.62
306.582	272.62
306.812	257.62
307.042	224.62
307.272	248.62
307.502	248.62
307.731	235.62
307.961	242.62
308.191	249.62
308.421	251.62
308.651	250.62
308.881	263.62
309.111	261.62
309.341	277.62
309.571	259.62
309.8	266.62
310.03	276.62
310.26	283.62
310.49	287.62
310.72	291.62
310.949	306.62
311.179	302.62
311.409	290.62
311.639	285.62
311.868	295.62
312.098	286.62
312.328	297.62
312.557	316.62
312.787	322.62
313.017	292.62
313.246	292.62
313.476	292.62
313.706	267.62
313.935	298.62
314.165	292.62
314.394	305.62
314.624	306.62
314.853	303.62
315.083	292.62
315.312	299.62
315.542	286.62
315.771	275.62
316.001	290.62
316.23	275.62
316.46	275.62
316.689	285.62
316.919	277.62
317.148	309.62
317.377	297.62
317.607	274.62
317.836	282.62
318.065	293.62
318.295	273.62
318.524	274.62
318.753	284.62
318.983	284.62
319.212	292.62
319.441	281.62
319.67	306.62
319.9	307.62
320.129	301.62
320.358	294.62
320.587	289.62
320.816	300.62
321.046	292.62
321.275	320.62
321.504	297.62
321.733	306.62
321.962	304.62
322.191	317.62
322.42	343.62
322.649	349.62
322.878	332.62
323.108	368.62
323.337	382.62
323.566	383.62
323.795	423.62
324.024	476.62
324.253	604.62
324.482	912.62
324.71	1296.62
324.939	1678.62
325.168	1402.62
325.397	760.62
325.626	500.62
325.855	435.62
326.084	399.62
326.313	387.62
326.542	393.62
326.77	447.62
326.999	534.62
327.228	794.62
327.457	1102.62
327.686	1218.62
327.914	831.62
328.143	554.62
328.372	509.62
328.6	453.62
328.829	449.62
329.058	436.62
329.287	443.62
329.515	412.62
329.744	396.62
329.972	414.62
330.201	406.62
330.43	436.62
330.658	461.62
330.887	459.62
331.115	446.62
331.344	404.62
331.572	371.62
331.801	369.62
332.03	357.62
332.258	350.62
332.486	344.62
332.715	325.62
332.943	340.62
333.172	316.62
333.4	344.62
333.629	337.62
333.857	360.62
334.085	359.62
334.314	369.62
334.542	406.62
334.771	396.62
334.999	371.62
335.227	355.62
335.455	334.62
335.684	334.62
335.912	317.62
336.14	327.62
336.369	329.62
336.597	342.62
336.825	331.62
337.053	306.62
337.281	324.62
337.51	306.62
337.738	345.62
337.966	327.62
338.194	340.62
338.422	310.62
338.65	310.62
338.878	306.62
339.106	317.62
339.334	325.62
339.562	303.62
339.79	298.62
340.018	323.62
340.246	319.62
340.474	304.62
340.702	314.62
340.93	310.62
341.158	310.62
341.386	317.62
341.614	317.62
341.842	302.62
342.07	310.62
342.298	305.62
342.526	309.62
342.754	307.62
342.981	298.62
343.209	278.62
343.437	305.62
343.665	308.62
343.893	313.62
344.12	309.62
344.348	315.62
344.576	307.62
344.804	328.62
345.031	311.62
345.259	314.62
345.487	329.62
345.714	308.62
345.942	313.62
346.17	311.62
346.397	285.62
346.625	279.62
346.853	300.62
347.08	317.62
347.308	317.62
347.535	319.62
347.763	305.62
347.99	328.62
348.218	296.62
348.445	312.62
348.673	317.62
348.9	314.62
349.128	306.62
349.355	294.62
349.583	299.62
349.81	287.62
350.037	285.62
350.265	298.62
350.492	291.62
350.72	284.62
350.947	301.62
351.174	324.62
351.402	310.62
351.629	308.62
351.856	294.62
352.083	318.62
352.311	318.62
352.538	311.62
352.765	315.62
352.992	304.62
353.22	305.62
353.447	281.62
353.674	292.62
353.901	291.62
354.128	286.62
354.355	288.62
354.583	270.62
354.81	293.62
355.037	277.62
355.264	279.62
355.491	278.62
355.718	270.62
355.945	270.62
356.172	279.62
356.399	274.62
356.626	280.62
356.853	270.62
357.08	268.62
357.307	273.62
357.534	270.62
357.761	285.62
357.988	274.62
358.215	295.62
358.441	266.62
358.668	274.62
358.895	284.62
359.122	288.62
359.349	298.62
359.576	302.62
359.802	318.62
360.029	346.62
360.256	349.62
360.483	310.62
360.709	300.62
360.936	292.62
361.163	299.62
361.39	296.62
361.616	302.62
361.843	300.62
362.07	304.62
362.296	298.62
362.523	284.62
362.749	279.62
362.976	290.62
363.203	292.62
363.429	265.62
363.656	291.62
363.882	274.62
364.109	276.62
364.335	287.62
364.562	293.62
364.788	285.62
365.015	293.62
365.241	276.62
365.468	290.62
365.694	302.62
365.92	283.62
366.147	282.62
366.373	263.62
366.599	272.62
366.826	275.62
367.052	276.62
367.278	285.62
367.505	267.62
367.731	286.62
367.957	267.62
368.184	295.62
368.41	279.62
368.636	285.62
368.862	279.62
369.089	292.62
369.315	276.62
369.541	283.62
369.767	277.62
369.993	267.62
370.219	269.62
370.445	288.62
370.672	283.62
370.898	268.62
371.124	286.62
371.35	299.62
371.576	279.62
371.802	267.62
372.028	293.62
372.254	258.62
372.48	256.62
372.706	260.62
372.932	273.62
373.158	256.62
373.384	280.62
373.61	268.62
373.835	273.62
374.061	270.62
374.287	280.62
374.513	285.62
374.739	288.62
374.965	278.62
375.191	248.62
375.416	278.62
375.642	283.62
375.868	274.62
376.094	290.62
376.319	264.62
376.545	261.62
376.771	263.62
376.997	265.62
377.222	240.62
377.448	254.62
377.674	268.62
377.899	262.62
378.125	270.62
378.35	281.62
378.576	281.62
378.802	276.62
379.027	249.62
379.253	280.62
379.478	267.62
379.704	267.62
379.929	262.62
380.155	272.62
380.38	268.62
380.606	279.62
380.831	265.62
381.057	270.62
381.282	274.62
381.507	270.62
381.733	290.62
381.958	264.62
382.184	243.62
382.409	256.62
382.634	271.62
382.86	275.62
383.085	259.62
383.31	269.62
383.535	280.62
383.761	278.62
383.986	276.62
384.211	261.62
384.436	264.62
384.662	259.62
384.887	279.62
385.112	274.62
385.337	276.62
385.562	286.62
385.787	274.62
386.013	290.62
386.238	280.62
386.463	286.62
386.688	291.62
386.913	280.62
387.138	277.62
387.363	300.62
387.588	271.62
387.813	277.62
388.038	271.62
388.263	277.62
388.488	293.62
388.713	279.62
388.938	285.62
389.163	279.62
389.387	279.62
389.612	279.62
389.837	268.62
390.062	274.62
390.287	288.62
390.512	282.62
390.736	271.62
390.961	284.62
391.186	263.62
391.411	284.62
391.636	282.62
391.86	277.62
392.085	261.62
392.31	288.62
392.534	266.62
392.759	297.62
392.984	291.62
393.208	267.62
393.433	265.62
393.658	285.62
393.882	268.62
394.107	294.62
394.331	268.62
394.556	259.62
394.78	267.62
395.005	290.62
395.229	293.62
395.454	280.62
395.678	279.62
395.903	300.62
396.127	317.62
396.352	302.62
396.576	296.62
396.801	290.62
397.025	281.62
397.249	284.62
397.474	304.62
397.698	288.62
397.922	309.62
398.147	328.62
398.371	320.62
398.595	314.62
398.82	305.62
399.044	304.62
399.268	316.62
399.492	341.62
399.717	336.62
399.941	370.62
400.165	373.62
400.389	377.62
400.613	365.62
400.837	320.62
401.062	293.62
401.286	309.62
401.51	291.62
401.734	312.62
401.958	312.62
402.182	323.62
402.406	316.62
402.63	309.62
402.854	328.62
403.078	311.62
403.302	317.62
403.526	314.62
403.75	319.62
403.974	318.62
404.198	312.62
404.422	316.62
404.645	345.62
404.869	309.62
405.093	349.62
405.317	379.62
405.541	379.62
405.765	365.62
405.988	334.62
406.212	336.62
406.436	362.62
406.66	374.62
406.883	368.62
407.107	357.62
407.331	372.62
407.555	411.62
407.778	389.62
408.002	381.62
408.226	349.62
408.449	328.62
408.673	343.62
408.896	377.62
409.12	382.62
409.344	371.62
409.567	339.62
409.791	343.62
410.014	334.62
410.238	329.62
410.461	328.62
410.685	325.62
410.908	352.62
411.132	370.62
411.355	382.62
411.578	362.62
411.802	328.62
412.025	317.62
412.249	331.62
412.472	337.62
412.695	354.62
412.919	356.62
413.142	322.62
413.365	324.62
413.589	309.62
413.812	315.62
414.035	296.62
414.258	280.62
414.482	304.62
414.705	289.62
414.928	295.62
415.151	302.62
415.374	284.62
415.597	300.62
415.821	289.62
416.044	290.62
416.267	289.62
416.49	305.62
416.713	292.62
416.936	289.62
417.159	304.62
417.382	306.62
417.605	295.62
417.828	312.62
418.051	311.62
418.274	292.62
418.497	317.62
418.72	299.62
418.943	305.62
419.166	316.62
419.389	316.62
419.611	314.62
419.834	314.62
420.057	315.62
420.28	320.62
420.503	338.62
420.726	315.62
420.948	335.62
421.171	362.62
421.394	361.62
421.617	332.62
421.839	298.62
422.062	312.62
422.285	327.62
422.507	381.62
422.73	395.62
422.953	383.62
423.175	336.62
423.398	338.62
423.621	339.62
423.843	341.62
424.066	342.62
424.288	348.62
424.511	356.62
424.733	390.62
424.956	432.62
425.178	415.62
425.401	423.62
425.623	419.62
425.846	380.62
426.068	370.62
426.291	357.62
426.513	338.62
426.735	356.62
426.958	362.62
427.18	433.62
427.402	489.62
427.625	555.62
427.847	495.62
428.069	427.62
428.292	398.62
428.514	360.62
428.736	333.62
428.958	317.62
429.181	327.62
429.403	324.62
429.625	329.62
429.847	334.62
430.069	388.62
430.292	382.62
430.514	330.62
430.736	320.62
430.958	315.62
431.18	319.62
431.402	309.62
431.624	291.62
431.846	299.62
432.068	296.62
432.29	299.62
432.512	290.62
432.734	306.62
432.956	286.62
433.178	292.62
433.4	300.62
433.622	305.62
433.844	286.62
434.066	280.62
434.287	305.62
434.509	302.62
434.731	286.62
434.953	317.62
435.175	328.62
435.397	334.62
435.618	372.62
435.84	388.62
436.062	441.62
436.284	460.62
436.505	396.62
436.727	356.62
436.949	328.62
437.17	317.62
437.392	328.62
437.614	345.62
437.835	374.62
438.057	422.62
438.278	483.62
438.5	478.62
438.721	515.62
438.943	490.62
439.165	379.62
439.386	350.62
439.608	344.62
439.829	356.62
440.05	363.62
440.272	406.62
440.493	394.62
440.715	345.62
440.936	343.62
441.158	340.62
441.379	327.62
441.6	334.62
441.822	349.62
442.043	374.62
442.264	415.62
442.486	444.62
442.707	380.62
442.928	371.62
443.149	353.62
443.371	390.62
443.592	399.62
443.813	442.62
444.034	473.62
444.255	402.62
444.476	370.62
444.698	357.62
444.919	346.62
445.14	427.62
445.361	397.62
445.582	382.62
445.803	417.62
446.024	505.62
446.245	474.62
446.466	443.62
446.687	399.62
446.908	339.62
447.129	343.62
447.35	333.62
447.571	321.62
447.792	307.62
448.013	330.62
448.234	319.62
448.455	344.62
448.675	421.62
448.896	508.62
449.117	442.62
449.338	398.62
449.559	465.62
449.779	521.62
450	442.62
450.221	352.62
450.442	316.62
450.662	331.62
450.883	319.62
451.104	338.62
451.324	320.62
451.545	325.62
451.766	301.62
451.986	300.62
452.207	294.62
452.428	282.62
452.648	285.62
452.869	309.62
453.089	309.62
453.31	295.62
453.53	288.62
453.751	290.62
453.971	295.62
454.192	301.62
454.412	287.62
454.633	299.62
454.853	290.62
455.073	297.62
455.294	325.62
455.514	364.62
455.734	337.62
455.955	285.62
456.175	281.62
456.395	268.62
456.616	266.62
456.836	272.62
457.056	274.62
457.276	262.62
457.497	286.62
457.717	285.62
457.937	274.62
458.157	270.62
458.377	271.62
458.598	288.62
458.818	335.62
459.038	401.62
459.258	406.62
459.478	336.62
459.698	304.62
459.918	294.62
460.138	308.62
460.358	305.62
460.578	306.62
460.798	318.62
461.018	301.62
461.238	288.62
461.458	307.62
461.678	285.62
461.898	308.62
462.118	288.62
462.338	308.62
462.558	308.62
462.777	283.62
462.997	302.62
463.217	324.62
463.437	307.62
463.657	329.62
463.876	304.62
464.096	299.62
464.316	301.62
464.536	322.62
464.755	325.62
464.975	302.62
465.195	357.62
465.414	394.62
465.634	340.62
465.854	316.62
466.073	341.62
466.293	312.62
466.512	314.62
466.732	291.62
466.951	282.62
467.171	299.62
467.391	292.62
467.61	295.62
467.829	294.62
468.049	307.62
468.268	286.62
468.488	298.62
468.707	297.62
468.927	301.62
469.146	280.62
469.365	293.62
469.585	302.62
469.804	283.62
470.023	301.62
470.243	285.62
470.462	288.62
470.681	331.62
470.901	319.62
471.12	300.62
471.339	288.62
471.558	326.62
471.777	288.62
471.997	292.62
472.216	299.62
472.435	306.62
472.654	312.62
472.873	297.62
473.092	314.62
473.311	294.62
473.53	289.62
473.749	291.62
473.968	323.62
474.187	390.62
474.406	405.62
474.625	337.62
474.844	331.62
475.063	298.62
475.282	287.62
475.501	307.62
475.72	300.62
475.939	318.62
476.158	312.62
476.377	298.62
476.596	308.62
476.814	313.62
477.033	318.62
477.252	324.62
477.471	312.62
477.69	319.62
477.908	313.62
478.127	333.62
478.346	308.62
478.564	329.62
478.783	312.62
479.002	334.62
479.22	345.62
479.439	337.62
479.658	349.62
479.876	349.62
480.095	348.62
480.313	364.62
480.532	366.62
480.751	366.62
480.969	371.62
481.188	408.62
481.406	429.62
481.624	402.62
481.843	346.62
482.061	343.62
482.28	346.62
482.498	357.62
482.717	340.62
482.935	364.62
483.153	348.62
483.372	350.62
483.59	342.62
483.808	347.62
484.027	324.62
484.245	354.62
484.463	345.62
484.681	364.62
484.9	355.62
485.118	331.62
485.336	340.62
485.554	379.62
485.772	359.62
485.99	356.62
486.209	341.62
486.427	362.62
486.645	365.62
486.863	377.62
487.081	364.62
487.299	370.62
487.517	382.62
487.735	362.62
487.953	359.62
488.171	359.62
488.389	371.62
488.607	386.62
488.825	371.62
489.043	368.62
489.261	358.62
489.479	380.62
489.696	386.62
489.914	380.62
490.132	379.62
490.35	378.62
490.568	361.62
490.786	390.62
491.003	381.62
491.221	406.62
491.439	393.62
491.657	407.62
491.874	427.62
492.092	419.62
492.31	438.62
492.527	429.62
492.745	438.62
492.963	415.62
493.18	427.62
493.398	449.62
493.615	432.62
493.833	450.62
494.05	445.62
494.268	425.62
494.485	424.62
494.703	410.62
494.92	426.62
495.138	436.62
495.355	448.62
495.573	436.62
495.79	418.62
496.008	421.62
496.225	439.62
496.442	427.62
496.66	445.62
496.877	444.62
497.094	432.62
497.312	443.62
497.529	436.62
497.746	439.62
497.963	457.62
498.181	461.62
498.398	432.62
498.615	481.62
498.832	442.62
499.049	481.62
499.267	474.62
499.484	491.62
499.701	507.62
499.918	506.62
500.135	527.62
500.352	536.62
500.569	523.62
500.786	555.62
501.003	525.62
501.22	519.62
501.437	539.62
501.654	539.62
501.871	526.62
502.088	506.62
