Data from 1982.PennyLincolnUp.Lamp.En5.5.200Scan.071819.P1_HRD10591_16-45-34-961.txt Node
Date: Thu Jul 18 16:45:34 EDT 2019
User: cochatt
Spectrometer: HR+D1059
Trigger mode: 1
Integration Time (sec): 1.000000E-1
Scans to average: 1
Electric dark correction enabled: true
Nonlinearity correction enabled: false
Boxcar width: 0
XAxis mode: Wavelengths
Number of Pixels in Spectrum: 2048
>>>>>Begin Spectral Data<<<<<
223.165	-17.75
223.4	-17.75
223.635	-17.75
223.869	-12.75
224.104	-14.75
224.338	-8.75
224.573	-14.75
224.808	-20.75
225.042	-8.75
225.277	4.25
225.511	-12.75
225.746	-5.75
225.98	13.25
226.215	8.25
226.449	11.25
226.683	14.25
226.918	31.25
227.152	34.25
227.387	30.25
227.621	45.25
227.856	42.25
228.09	38.25
228.324	42.25
228.559	60.25
228.793	55.25
229.027	80.25
229.262	89.25
229.496	93.25
229.73	94.25
229.964	123.25
230.199	108.25
230.433	99.25
230.667	99.25
230.901	105.25
231.136	98.25
231.37	84.25
231.604	102.25
231.838	105.25
232.072	105.25
232.306	100.25
232.541	92.25
232.775	96.25
233.009	82.25
233.243	91.25
233.477	99.25
233.711	96.25
233.945	109.25
234.179	110.25
234.413	104.25
234.647	94.25
234.881	90.25
235.115	102.25
235.349	104.25
235.583	95.25
235.817	103.25
236.051	109.25
236.285	110.25
236.519	100.25
236.753	121.25
236.987	102.25
237.221	145.25
237.455	163.25
237.689	144.25
237.922	111.25
238.156	118.25
238.39	108.25
238.624	119.25
238.858	102.25
239.091	110.25
239.325	105.25
239.559	101.25
239.793	113.25
240.027	115.25
240.26	131.25
240.494	133.25
240.728	132.25
240.961	118.25
241.195	115.25
241.429	119.25
241.662	103.25
241.896	110.25
242.13	111.25
242.363	106.25
242.597	107.25
242.83	117.25
243.064	118.25
243.298	118.25
243.531	115.25
243.765	117.25
243.998	118.25
244.232	117.25
244.465	119.25
244.699	124.25
244.932	109.25
245.166	106.25
245.399	117.25
245.633	110.25
245.866	120.25
246.099	133.25
246.333	131.25
246.566	135.25
246.8	126.25
247.033	129.25
247.266	126.25
247.5	141.25
247.733	129.25
247.966	131.25
248.2	134.25
248.433	140.25
248.666	148.25
248.899	150.25
249.133	164.25
249.366	152.25
249.599	145.25
249.832	146.25
250.066	150.25
250.299	150.25
250.532	162.25
250.765	158.25
250.998	162.25
251.231	155.25
251.465	163.25
251.698	153.25
251.931	163.25
252.164	169.25
252.397	154.25
252.63	159.25
252.863	147.25
253.096	137.25
253.329	171.25
253.562	155.25
253.795	179.25
254.028	166.25
254.261	169.25
254.494	172.25
254.727	198.25
254.96	193.25
255.193	190.25
255.426	177.25
255.659	171.25
255.892	177.25
256.124	177.25
256.357	164.25
256.59	167.25
256.823	175.25
257.056	177.25
257.289	146.25
257.521	178.25
257.754	175.25
257.987	185.25
258.22	167.25
258.452	142.25
258.685	172.25
258.918	152.25
259.151	161.25
259.383	179.25
259.616	158.25
259.849	172.25
260.081	172.25
260.314	186.25
260.547	200.25
260.779	188.25
261.012	170.25
261.244	175.25
261.477	175.25
261.71	174.25
261.942	167.25
262.175	169.25
262.407	164.25
262.64	169.25
262.872	157.25
263.105	173.25
263.337	143.25
263.57	164.25
263.802	165.25
264.035	175.25
264.267	173.25
264.499	149.25
264.732	156.25
264.964	167.25
265.197	163.25
265.429	158.25
265.661	157.25
265.894	159.25
266.126	168.25
266.358	167.25
266.591	163.25
266.823	181.25
267.055	173.25
267.287	169.25
267.52	175.25
267.752	174.25
267.984	174.25
268.216	175.25
268.448	178.25
268.681	183.25
268.913	174.25
269.145	201.25
269.377	207.25
269.609	194.25
269.841	221.25
270.073	206.25
270.306	207.25
270.538	217.25
270.77	231.25
271.002	229.25
271.234	227.25
271.466	213.25
271.698	212.25
271.93	241.25
272.162	225.25
272.394	243.25
272.626	221.25
272.858	214.25
273.09	213.25
273.322	214.25
273.553	217.25
273.785	201.25
274.017	183.25
274.249	184.25
274.481	191.25
274.713	193.25
274.945	208.25
275.176	206.25
275.408	206.25
275.64	180.25
275.872	187.25
276.104	192.25
276.335	204.25
276.567	202.25
276.799	231.25
277.031	230.25
277.262	232.25
277.494	227.25
277.726	213.25
277.957	223.25
278.189	218.25
278.421	210.25
278.652	210.25
278.884	196.25
279.115	206.25
279.347	194.25
279.579	200.25
279.81	209.25
280.042	201.25
280.273	187.25
280.505	210.25
280.736	192.25
280.968	189.25
281.199	200.25
281.431	203.25
281.662	212.25
281.894	214.25
282.125	215.25
282.356	215.25
282.588	230.25
282.819	225.25
283.051	205.25
283.282	221.25
283.513	220.25
283.745	186.25
283.976	194.25
284.207	205.25
284.439	206.25
284.67	205.25
284.901	213.25
285.132	205.25
285.364	208.25
285.595	211.25
285.826	210.25
286.057	203.25
286.288	202.25
286.52	204.25
286.751	206.25
286.982	197.25
287.213	202.25
287.444	206.25
287.675	203.25
287.906	225.25
288.138	216.25
288.369	222.25
288.6	221.25
288.831	205.25
289.062	199.25
289.293	218.25
289.524	199.25
289.755	218.25
289.986	203.25
290.217	213.25
290.448	214.25
290.679	210.25
290.91	215.25
291.141	214.25
291.371	222.25
291.602	206.25
291.833	219.25
292.064	204.25
292.295	202.25
292.526	235.25
292.757	222.25
292.987	230.25
293.218	199.25
293.449	223.25
293.68	221.25
293.91	207.25
294.141	204.25
294.372	190.25
294.603	198.25
294.833	214.25
295.064	205.25
295.295	218.25
295.525	213.25
295.756	212.25
295.987	225.25
296.217	250.25
296.448	241.25
296.679	222.25
296.909	232.25
297.14	218.25
297.37	219.25
297.601	214.25
297.831	217.25
298.062	203.25
298.292	231.25
298.523	214.25
298.753	220.25
298.984	221.25
299.214	217.25
299.445	211.25
299.675	223.25
299.905	224.25
300.136	221.25
300.366	231.25
300.597	222.25
300.827	214.25
301.057	212.25
301.288	250.25
301.518	220.25
301.748	237.25
301.979	232.25
302.209	241.25
302.439	228.25
302.669	228.25
302.9	249.25
303.13	246.25
303.36	237.25
303.59	245.25
303.82	244.25
304.051	258.25
304.281	238.25
304.511	235.25
304.741	232.25
304.971	227.25
305.201	245.25
305.431	243.25
305.661	234.25
305.891	234.25
306.121	233.25
306.352	229.25
306.582	250.25
306.812	234.25
307.042	227.25
307.272	239.25
307.502	246.25
307.731	237.25
307.961	232.25
308.191	240.25
308.421	236.25
308.651	243.25
308.881	250.25
309.111	236.25
309.341	257.25
309.571	250.25
309.8	266.25
310.03	281.25
310.26	238.25
310.49	275.25
310.72	264.25
310.949	280.25
311.179	274.25
311.409	275.25
311.639	269.25
311.868	289.25
312.098	282.25
312.328	261.25
312.557	278.25
312.787	290.25
313.017	280.25
313.246	284.25
313.476	272.25
313.706	288.25
313.935	268.25
314.165	268.25
314.394	292.25
314.624	299.25
314.853	290.25
315.083	282.25
315.312	281.25
315.542	287.25
315.771	279.25
316.001	273.25
316.23	268.25
316.46	272.25
316.689	293.25
316.919	272.25
317.148	275.25
317.377	276.25
317.607	284.25
317.836	291.25
318.065	259.25
318.295	282.25
318.524	246.25
318.753	254.25
318.983	283.25
319.212	277.25
319.441	276.25
319.67	277.25
319.9	275.25
320.129	267.25
320.358	277.25
320.587	268.25
320.816	284.25
321.046	296.25
321.275	306.25
321.504	278.25
321.733	268.25
321.962	289.25
322.191	302.25
322.42	317.25
322.649	313.25
322.878	318.25
323.108	322.25
323.337	344.25
323.566	358.25
323.795	383.25
324.024	438.25
324.253	555.25
324.482	802.25
324.71	1166.25
324.939	1518.25
325.168	1253.25
325.397	676.25
325.626	469.25
325.855	397.25
326.084	382.25
326.313	371.25
326.542	387.25
326.77	410.25
326.999	519.25
327.228	676.25
327.457	971.25
327.686	1098.25
327.914	724.25
328.143	517.25
328.372	446.25
328.6	421.25
328.829	417.25
329.058	411.25
329.287	407.25
329.515	387.25
329.744	362.25
329.972	343.25
330.201	370.25
330.43	407.25
330.658	414.25
330.887	435.25
331.115	405.25
331.344	397.25
331.572	357.25
331.801	346.25
332.03	343.25
332.258	359.25
332.486	313.25
332.715	332.25
332.943	325.25
333.172	319.25
333.4	312.25
333.629	327.25
333.857	327.25
334.085	340.25
334.314	340.25
334.542	358.25
334.771	373.25
334.999	342.25
335.227	321.25
335.455	317.25
335.684	327.25
335.912	322.25
336.14	308.25
336.369	317.25
336.597	318.25
336.825	293.25
337.053	306.25
337.281	318.25
337.51	306.25
337.738	310.25
337.966	301.25
338.194	298.25
338.422	287.25
338.65	298.25
338.878	289.25
339.106	309.25
339.334	304.25
339.562	294.25
339.79	283.25
340.018	303.25
340.246	289.25
340.474	294.25
340.702	307.25
340.93	319.25
341.158	285.25
341.386	307.25
341.614	297.25
341.842	309.25
342.07	312.25
342.298	279.25
342.526	296.25
342.754	302.25
342.981	276.25
343.209	296.25
343.437	300.25
343.665	310.25
343.893	290.25
344.12	293.25
344.348	278.25
344.576	313.25
344.804	308.25
345.031	305.25
345.259	297.25
345.487	309.25
345.714	302.25
345.942	300.25
346.17	292.25
346.397	285.25
346.625	285.25
346.853	306.25
347.08	278.25
347.308	295.25
347.535	289.25
347.763	297.25
347.99	308.25
348.218	288.25
348.445	304.25
348.673	277.25
348.9	292.25
349.128	302.25
349.355	280.25
349.583	257.25
349.81	282.25
350.037	291.25
350.265	284.25
350.492	277.25
350.72	285.25
350.947	294.25
351.174	294.25
351.402	293.25
351.629	291.25
351.856	295.25
352.083	293.25
352.311	307.25
352.538	320.25
352.765	305.25
352.992	285.25
353.22	295.25
353.447	293.25
353.674	294.25
353.901	283.25
354.128	273.25
354.355	253.25
354.583	259.25
354.81	270.25
355.037	277.25
355.264	275.25
355.491	260.25
355.718	277.25
355.945	284.25
356.172	253.25
356.399	270.25
356.626	277.25
356.853	261.25
357.08	279.25
357.307	273.25
357.534	263.25
357.761	250.25
357.988	289.25
358.215	273.25
358.441	250.25
358.668	273.25
358.895	282.25
359.122	282.25
359.349	279.25
359.576	295.25
359.802	289.25
360.029	286.25
360.256	319.25
360.483	316.25
360.709	288.25
360.936	300.25
361.163	285.25
361.39	293.25
361.616	297.25
361.843	282.25
362.07	275.25
362.296	270.25
362.523	293.25
362.749	266.25
362.976	266.25
363.203	270.25
363.429	269.25
363.656	290.25
363.882	261.25
364.109	259.25
364.335	270.25
364.562	261.25
364.788	261.25
365.015	273.25
365.241	264.25
365.468	281.25
365.694	257.25
365.92	271.25
366.147	275.25
366.373	273.25
366.599	263.25
366.826	265.25
367.052	259.25
367.278	264.25
367.505	259.25
367.731	273.25
367.957	264.25
368.184	266.25
368.41	286.25
368.636	266.25
368.862	266.25
369.089	281.25
369.315	271.25
369.541	271.25
369.767	279.25
369.993	266.25
370.219	254.25
370.445	281.25
370.672	260.25
370.898	275.25
371.124	266.25
371.35	258.25
371.576	257.25
371.802	261.25
372.028	275.25
372.254	272.25
372.48	260.25
372.706	264.25
372.932	272.25
373.158	259.25
373.384	265.25
373.61	249.25
373.835	258.25
374.061	267.25
374.287	275.25
374.513	260.25
374.739	277.25
374.965	255.25
375.191	241.25
375.416	252.25
375.642	257.25
375.868	258.25
376.094	265.25
376.319	242.25
376.545	265.25
376.771	259.25
376.997	265.25
377.222	278.25
377.448	257.25
377.674	252.25
377.899	257.25
378.125	268.25
378.35	267.25
378.576	249.25
378.802	241.25
379.027	264.25
379.253	266.25
379.478	257.25
379.704	253.25
379.929	260.25
380.155	244.25
380.38	277.25
380.606	258.25
380.831	263.25
381.057	269.25
381.282	260.25
381.507	257.25
381.733	252.25
381.958	265.25
382.184	254.25
382.409	252.25
382.634	258.25
382.86	253.25
383.085	261.25
383.31	266.25
383.535	247.25
383.761	259.25
383.986	261.25
384.211	277.25
384.436	273.25
384.662	259.25
384.887	263.25
385.112	261.25
385.337	279.25
385.562	274.25
385.787	261.25
386.013	277.25
386.238	269.25
386.463	283.25
386.688	277.25
386.913	248.25
387.138	278.25
387.363	264.25
387.588	261.25
387.813	259.25
388.038	283.25
388.263	260.25
388.488	243.25
388.713	267.25
388.938	255.25
389.163	277.25
389.387	283.25
389.612	270.25
389.837	269.25
390.062	270.25
390.287	276.25
390.512	281.25
390.736	283.25
390.961	253.25
391.186	290.25
391.411	281.25
391.636	279.25
391.86	251.25
392.085	273.25
392.31	279.25
392.534	270.25
392.759	267.25
392.984	260.25
393.208	264.25
393.433	267.25
393.658	281.25
393.882	273.25
394.107	272.25
394.331	290.25
394.556	271.25
394.78	267.25
395.005	245.25
395.229	263.25
395.454	290.25
395.678	253.25
395.903	274.25
396.127	284.25
396.352	312.25
396.576	297.25
396.801	268.25
397.025	285.25
397.249	278.25
397.474	288.25
397.698	282.25
397.922	294.25
398.147	308.25
398.371	292.25
398.595	302.25
398.82	308.25
399.044	289.25
399.268	299.25
399.492	329.25
399.717	335.25
399.941	351.25
400.165	339.25
400.389	364.25
400.613	342.25
400.837	334.25
401.062	313.25
401.286	310.25
401.51	282.25
401.734	309.25
401.958	291.25
402.182	298.25
402.406	302.25
402.63	301.25
402.854	297.25
403.078	290.25
403.302	293.25
403.526	311.25
403.75	315.25
403.974	297.25
404.198	301.25
404.422	292.25
404.645	313.25
404.869	295.25
405.093	345.25
405.317	343.25
405.541	361.25
405.765	345.25
405.988	333.25
406.212	327.25
406.436	332.25
406.66	317.25
406.883	339.25
407.107	342.25
407.331	353.25
407.555	387.25
407.778	387.25
408.002	371.25
408.226	354.25
408.449	329.25
408.673	328.25
408.896	341.25
409.12	375.25
409.344	337.25
409.567	313.25
409.791	315.25
410.014	309.25
410.238	306.25
410.461	299.25
410.685	316.25
410.908	316.25
411.132	329.25
411.355	334.25
411.578	334.25
411.802	314.25
412.025	311.25
412.249	316.25
412.472	312.25
412.695	356.25
412.919	338.25
413.142	287.25
413.365	295.25
413.589	300.25
413.812	291.25
414.035	310.25
414.258	294.25
414.482	283.25
414.705	287.25
414.928	298.25
415.151	287.25
415.374	287.25
415.597	268.25
415.821	300.25
416.044	302.25
416.267	289.25
416.49	298.25
416.713	282.25
416.936	297.25
417.159	302.25
417.382	285.25
417.605	302.25
417.828	299.25
418.051	291.25
418.274	288.25
418.497	295.25
418.72	285.25
418.943	297.25
419.166	290.25
419.389	300.25
419.611	300.25
419.834	300.25
420.057	324.25
420.28	302.25
420.503	283.25
420.726	302.25
420.948	324.25
421.171	340.25
421.394	339.25
421.617	318.25
421.839	320.25
422.062	309.25
422.285	319.25
422.507	347.25
422.73	382.25
422.953	373.25
423.175	357.25
423.398	323.25
423.621	322.25
423.843	322.25
424.066	313.25
424.288	326.25
424.511	355.25
424.733	372.25
424.956	399.25
425.178	406.25
425.401	377.25
425.623	394.25
425.846	357.25
426.068	321.25
426.291	342.25
426.513	334.25
426.735	330.25
426.958	356.25
427.18	412.25
427.402	492.25
427.625	512.25
427.847	470.25
428.069	405.25
428.292	345.25
428.514	325.25
428.736	306.25
428.958	308.25
429.181	310.25
429.403	298.25
429.625	296.25
429.847	326.25
430.069	355.25
430.292	375.25
430.514	340.25
430.736	316.25
430.958	289.25
431.18	295.25
431.402	275.25
431.624	303.25
431.846	283.25
432.068	275.25
432.29	283.25
432.512	302.25
432.734	286.25
432.956	277.25
433.178	294.25
433.4	297.25
433.622	295.25
433.844	291.25
434.066	299.25
434.287	283.25
434.509	295.25
434.731	311.25
434.953	314.25
435.175	301.25
435.397	317.25
435.618	332.25
435.84	344.25
436.062	398.25
436.284	441.25
436.505	381.25
436.727	332.25
436.949	327.25
437.17	317.25
437.392	319.25
437.614	312.25
437.835	341.25
438.057	413.25
438.278	453.25
438.5	444.25
438.721	495.25
438.943	471.25
439.165	377.25
439.386	350.25
439.608	346.25
439.829	353.25
440.05	349.25
440.272	405.25
440.493	359.25
440.715	321.25
440.936	323.25
441.158	311.25
441.379	307.25
441.6	319.25
441.822	328.25
442.043	359.25
442.264	395.25
442.486	440.25
442.707	366.25
442.928	335.25
443.149	345.25
443.371	350.25
443.592	379.25
443.813	428.25
444.034	433.25
444.255	390.25
444.476	353.25
444.698	343.25
444.919	316.25
445.14	415.25
445.361	394.25
445.582	359.25
445.803	403.25
446.024	444.25
446.245	458.25
446.466	421.25
446.687	353.25
446.908	332.25
447.129	323.25
447.35	309.25
447.571	318.25
447.792	311.25
448.013	321.25
448.234	322.25
448.455	351.25
448.675	381.25
448.896	469.25
449.117	419.25
449.338	418.25
449.559	453.25
449.779	474.25
450	405.25
450.221	356.25
450.442	320.25
450.662	300.25
450.883	331.25
451.104	328.25
451.324	309.25
451.545	287.25
451.766	282.25
451.986	262.25
452.207	294.25
452.428	281.25
452.648	271.25
452.869	259.25
453.089	278.25
453.31	269.25
453.53	281.25
453.751	268.25
453.971	281.25
454.192	284.25
454.412	277.25
454.633	283.25
454.853	266.25
455.073	285.25
455.294	306.25
455.514	334.25
455.734	326.25
455.955	279.25
456.175	262.25
456.395	265.25
456.616	268.25
456.836	260.25
457.056	263.25
457.276	253.25
457.497	273.25
457.717	262.25
457.937	259.25
458.157	251.25
458.377	288.25
458.598	297.25
458.818	316.25
459.038	364.25
459.258	351.25
459.478	314.25
459.698	295.25
459.918	309.25
460.138	281.25
460.358	271.25
460.578	305.25
460.798	296.25
461.018	274.25
461.238	278.25
461.458	277.25
461.678	265.25
461.898	279.25
462.118	289.25
462.338	269.25
462.558	282.25
462.777	302.25
462.997	304.25
463.217	297.25
463.437	296.25
463.657	289.25
463.876	277.25
464.096	317.25
464.316	311.25
464.536	302.25
464.755	297.25
464.975	317.25
465.195	338.25
465.414	373.25
465.634	330.25
465.854	323.25
466.073	310.25
466.293	299.25
466.512	292.25
466.732	287.25
466.951	285.25
467.171	302.25
467.391	276.25
467.61	278.25
467.829	280.25
468.049	276.25
468.268	284.25
468.488	273.25
468.707	284.25
468.927	285.25
469.146	295.25
469.365	278.25
469.585	274.25
469.804	274.25
470.023	294.25
470.243	278.25
470.462	290.25
470.681	297.25
470.901	286.25
471.12	302.25
471.339	280.25
471.558	283.25
471.777	288.25
471.997	271.25
472.216	297.25
472.435	292.25
472.654	289.25
472.873	291.25
473.092	283.25
473.311	288.25
473.53	274.25
473.749	307.25
473.968	321.25
474.187	397.25
474.406	395.25
474.625	309.25
474.844	291.25
475.063	299.25
475.282	295.25
475.501	284.25
475.72	295.25
475.939	286.25
476.158	280.25
476.377	301.25
476.596	294.25
476.814	298.25
477.033	301.25
477.252	314.25
477.471	298.25
477.69	287.25
477.908	320.25
478.127	301.25
478.346	315.25
478.564	313.25
478.783	310.25
479.002	311.25
479.22	306.25
479.439	341.25
479.658	312.25
479.876	329.25
480.095	338.25
480.313	350.25
480.532	349.25
480.751	347.25
480.969	338.25
481.188	362.25
481.406	412.25
481.624	363.25
481.843	342.25
482.061	346.25
482.28	323.25
482.498	324.25
482.717	326.25
482.935	327.25
483.153	332.25
483.372	329.25
483.59	318.25
483.808	331.25
484.027	315.25
484.245	349.25
484.463	325.25
484.681	335.25
484.9	346.25
485.118	341.25
485.336	333.25
485.554	339.25
485.772	341.25
485.99	349.25
486.209	340.25
486.427	343.25
486.645	335.25
486.863	350.25
487.081	378.25
487.299	339.25
487.517	349.25
487.735	347.25
487.953	349.25
488.171	372.25
488.389	364.25
488.607	354.25
488.825	359.25
489.043	341.25
489.261	349.25
489.479	340.25
489.696	349.25
489.914	353.25
490.132	366.25
490.35	365.25
490.568	361.25
490.786	376.25
491.003	393.25
491.221	398.25
491.439	397.25
491.657	406.25
491.874	396.25
492.092	395.25
492.31	396.25
492.527	417.25
492.745	396.25
492.963	393.25
493.18	417.25
493.398	418.25
493.615	385.25
493.833	410.25
494.05	417.25
494.268	404.25
494.485	413.25
494.703	424.25
494.92	421.25
495.138	391.25
495.355	415.25
495.573	420.25
495.79	423.25
496.008	413.25
496.225	398.25
496.442	437.25
496.66	427.25
496.877	400.25
497.094	410.25
497.312	420.25
497.529	440.25
497.746	404.25
497.963	423.25
498.181	425.25
498.398	431.25
498.615	434.25
498.832	429.25
499.049	450.25
499.267	462.25
499.484	477.25
499.701	461.25
499.918	491.25
500.135	507.25
500.352	499.25
500.569	528.25
500.786	504.25
501.003	493.25
501.22	499.25
501.437	513.25
501.654	479.25
501.871	489.25
502.088	468.25
