Data from 1982.PennyLincolnUp.Lamp.En5.5.200Scan.071819.P1_HRD10591_16-45-16-961.txt Node
Date: Thu Jul 18 16:45:16 EDT 2019
User: cochatt
Spectrometer: HR+D1059
Trigger mode: 1
Integration Time (sec): 1.000000E-1
Scans to average: 1
Electric dark correction enabled: true
Nonlinearity correction enabled: false
Boxcar width: 0
XAxis mode: Wavelengths
Number of Pixels in Spectrum: 2048
>>>>>Begin Spectral Data<<<<<
223.165	-14.94
223.4	-14.94
223.635	-14.94
223.869	-8.94
224.104	-10.94
224.338	-10.94
224.573	-29.94
224.808	-22.94
225.042	-1.94
225.277	-5.94
225.511	-4.94
225.746	16.06
225.98	8.06
226.215	-5.94
226.449	18.06
226.683	25.06
226.918	29.06
227.152	21.06
227.387	37.06
227.621	45.06
227.856	47.06
228.09	35.06
228.324	43.06
228.559	62.06
228.793	66.06
229.027	67.06
229.262	94.06
229.496	92.06
229.73	110.06
229.964	110.06
230.199	109.06
230.433	96.06
230.667	92.06
230.901	107.06
231.136	94.06
231.37	106.06
231.604	90.06
231.838	89.06
232.072	106.06
232.306	104.06
232.541	100.06
232.775	107.06
233.009	103.06
233.243	94.06
233.477	100.06
233.711	98.06
233.945	98.06
234.179	107.06
234.413	111.06
234.647	101.06
234.881	105.06
235.115	107.06
235.349	118.06
235.583	103.06
235.817	103.06
236.051	106.06
236.285	103.06
236.519	113.06
236.753	117.06
236.987	123.06
237.221	138.06
237.455	175.06
237.689	156.06
237.922	117.06
238.156	117.06
238.39	119.06
238.624	98.06
238.858	112.06
239.091	119.06
239.325	109.06
239.559	109.06
239.793	110.06
240.027	129.06
240.26	114.06
240.494	124.06
240.728	132.06
240.961	134.06
241.195	119.06
241.429	118.06
241.662	120.06
241.896	98.06
242.13	110.06
242.363	119.06
242.597	116.06
242.83	109.06
243.064	119.06
243.298	123.06
243.531	110.06
243.765	108.06
243.998	114.06
244.232	109.06
244.465	123.06
244.699	127.06
244.932	128.06
245.166	110.06
245.399	122.06
245.633	121.06
245.866	127.06
246.099	121.06
246.333	120.06
246.566	120.06
246.8	128.06
247.033	126.06
247.266	133.06
247.5	129.06
247.733	127.06
247.966	140.06
248.2	135.06
248.433	131.06
248.666	145.06
248.899	154.06
249.133	155.06
249.366	156.06
249.599	157.06
249.832	153.06
250.066	146.06
250.299	145.06
250.532	151.06
250.765	162.06
250.998	168.06
251.231	159.06
251.465	160.06
251.698	168.06
251.931	164.06
252.164	153.06
252.397	155.06
252.63	152.06
252.863	157.06
253.096	158.06
253.329	189.06
253.562	168.06
253.795	170.06
254.028	161.06
254.261	171.06
254.494	166.06
254.727	187.06
254.96	209.06
255.193	180.06
255.426	185.06
255.659	165.06
255.892	156.06
256.124	176.06
256.357	154.06
256.59	185.06
256.823	183.06
257.056	169.06
257.289	162.06
257.521	180.06
257.754	160.06
257.987	175.06
258.22	158.06
258.452	166.06
258.685	165.06
258.918	160.06
259.151	162.06
259.383	162.06
259.616	179.06
259.849	175.06
260.081	186.06
260.314	191.06
260.547	181.06
260.779	189.06
261.012	176.06
261.244	183.06
261.477	174.06
261.71	178.06
261.942	176.06
262.175	171.06
262.407	174.06
262.64	146.06
262.872	165.06
263.105	169.06
263.337	160.06
263.57	184.06
263.802	183.06
264.035	161.06
264.267	155.06
264.499	150.06
264.732	161.06
264.964	157.06
265.197	163.06
265.429	164.06
265.661	174.06
265.894	174.06
266.126	166.06
266.358	180.06
266.591	151.06
266.823	174.06
267.055	183.06
267.287	171.06
267.52	160.06
267.752	175.06
267.984	160.06
268.216	165.06
268.448	183.06
268.681	185.06
268.913	200.06
269.145	199.06
269.377	197.06
269.609	201.06
269.841	194.06
270.073	198.06
270.306	198.06
270.538	225.06
270.77	211.06
271.002	198.06
271.234	221.06
271.466	231.06
271.698	233.06
271.93	225.06
272.162	226.06
272.394	214.06
272.626	218.06
272.858	210.06
273.09	217.06
273.322	202.06
273.553	186.06
273.785	200.06
274.017	199.06
274.249	193.06
274.481	183.06
274.713	190.06
274.945	199.06
275.176	191.06
275.408	206.06
275.64	205.06
275.872	191.06
276.104	198.06
276.335	191.06
276.567	203.06
276.799	206.06
277.031	219.06
277.262	221.06
277.494	237.06
277.726	212.06
277.957	215.06
278.189	205.06
278.421	196.06
278.652	195.06
278.884	194.06
279.115	183.06
279.347	203.06
279.579	200.06
279.81	192.06
280.042	204.06
280.273	210.06
280.505	202.06
280.736	204.06
280.968	193.06
281.199	201.06
281.431	194.06
281.662	197.06
281.894	182.06
282.125	194.06
282.356	209.06
282.588	227.06
282.819	221.06
283.051	211.06
283.282	194.06
283.513	205.06
283.745	215.06
283.976	213.06
284.207	205.06
284.439	219.06
284.67	211.06
284.901	208.06
285.132	217.06
285.364	190.06
285.595	224.06
285.826	209.06
286.057	200.06
286.288	199.06
286.52	192.06
286.751	204.06
286.982	192.06
287.213	202.06
287.444	210.06
287.675	200.06
287.906	197.06
288.138	224.06
288.369	237.06
288.6	222.06
288.831	201.06
289.062	207.06
289.293	200.06
289.524	218.06
289.755	211.06
289.986	213.06
290.217	222.06
290.448	212.06
290.679	216.06
290.91	202.06
291.141	205.06
291.371	212.06
291.602	215.06
291.833	222.06
292.064	202.06
292.295	220.06
292.526	209.06
292.757	217.06
292.987	209.06
293.218	199.06
293.449	215.06
293.68	226.06
293.91	215.06
294.141	214.06
294.372	202.06
294.603	212.06
294.833	222.06
295.064	203.06
295.295	218.06
295.525	222.06
295.756	215.06
295.987	218.06
296.217	224.06
296.448	231.06
296.679	214.06
296.909	218.06
297.14	201.06
297.37	232.06
297.601	224.06
297.831	200.06
298.062	213.06
298.292	235.06
298.523	226.06
298.753	211.06
298.984	216.06
299.214	230.06
299.445	235.06
299.675	223.06
299.905	231.06
300.136	235.06
300.366	239.06
300.597	218.06
300.827	228.06
301.057	223.06
301.288	237.06
301.518	232.06
301.748	239.06
301.979	241.06
302.209	223.06
302.439	238.06
302.669	219.06
302.9	232.06
303.13	225.06
303.36	233.06
303.59	253.06
303.82	230.06
304.051	246.06
304.281	225.06
304.511	229.06
304.741	235.06
304.971	232.06
305.201	216.06
305.431	236.06
305.661	215.06
305.891	229.06
306.121	229.06
306.352	225.06
306.582	250.06
306.812	251.06
307.042	267.06
307.272	224.06
307.502	242.06
307.731	232.06
307.961	257.06
308.191	249.06
308.421	256.06
308.651	259.06
308.881	224.06
309.111	233.06
309.341	261.06
309.571	252.06
309.8	270.06
310.03	266.06
310.26	257.06
310.49	239.06
310.72	281.06
310.949	265.06
311.179	275.06
311.409	286.06
311.639	267.06
311.868	261.06
312.098	283.06
312.328	261.06
312.557	272.06
312.787	264.06
313.017	296.06
313.246	270.06
313.476	275.06
313.706	276.06
313.935	289.06
314.165	295.06
314.394	287.06
314.624	287.06
314.853	273.06
315.083	265.06
315.312	266.06
315.542	269.06
315.771	271.06
316.001	268.06
316.23	264.06
316.46	261.06
316.689	262.06
316.919	280.06
317.148	271.06
317.377	275.06
317.607	279.06
317.836	255.06
318.065	254.06
318.295	268.06
318.524	279.06
318.753	265.06
318.983	267.06
319.212	272.06
319.441	269.06
319.67	274.06
319.9	272.06
320.129	254.06
320.358	265.06
320.587	281.06
320.816	287.06
321.046	298.06
321.275	271.06
321.504	282.06
321.733	309.06
321.962	310.06
322.191	307.06
322.42	304.06
322.649	320.06
322.878	332.06
323.108	318.06
323.337	336.06
323.566	368.06
323.795	385.06
324.024	414.06
324.253	526.06
324.482	723.06
324.71	1111.06
324.939	1419.06
325.168	1191.06
325.397	616.06
325.626	447.06
325.855	377.06
326.084	374.06
326.313	361.06
326.542	375.06
326.77	399.06
326.999	481.06
327.228	663.06
327.457	931.06
327.686	1035.06
327.914	676.06
328.143	498.06
328.372	435.06
328.6	399.06
328.829	390.06
329.058	384.06
329.287	395.06
329.515	397.06
329.744	375.06
329.972	354.06
330.201	359.06
330.43	379.06
330.658	396.06
330.887	411.06
331.115	400.06
331.344	342.06
331.572	354.06
331.801	329.06
332.03	329.06
332.258	321.06
332.486	315.06
332.715	313.06
332.943	304.06
333.172	320.06
333.4	308.06
333.629	294.06
333.857	319.06
334.085	340.06
334.314	333.06
334.542	353.06
334.771	339.06
334.999	343.06
335.227	324.06
335.455	304.06
335.684	313.06
335.912	288.06
336.14	306.06
336.369	304.06
336.597	323.06
336.825	302.06
337.053	309.06
337.281	306.06
337.51	281.06
337.738	302.06
337.966	295.06
338.194	299.06
338.422	287.06
338.65	307.06
338.878	298.06
339.106	303.06
339.334	301.06
339.562	310.06
339.79	285.06
340.018	293.06
340.246	280.06
340.474	293.06
340.702	298.06
340.93	296.06
341.158	295.06
341.386	285.06
341.614	281.06
341.842	313.06
342.07	301.06
342.298	281.06
342.526	292.06
342.754	285.06
342.981	290.06
343.209	278.06
343.437	288.06
343.665	310.06
343.893	319.06
344.12	314.06
344.348	305.06
344.576	297.06
344.804	305.06
345.031	292.06
345.259	325.06
345.487	307.06
345.714	301.06
345.942	289.06
346.17	282.06
346.397	294.06
346.625	283.06
346.853	278.06
347.08	266.06
347.308	291.06
347.535	298.06
347.763	307.06
347.99	275.06
348.218	285.06
348.445	294.06
348.673	315.06
348.9	293.06
349.128	277.06
349.355	282.06
349.583	290.06
349.81	264.06
350.037	276.06
350.265	281.06
350.492	275.06
350.72	280.06
350.947	286.06
351.174	278.06
351.402	285.06
351.629	270.06
351.856	291.06
352.083	299.06
352.311	291.06
352.538	287.06
352.765	293.06
352.992	289.06
353.22	277.06
353.447	292.06
353.674	268.06
353.901	283.06
354.128	273.06
354.355	252.06
354.583	278.06
354.81	284.06
355.037	275.06
355.264	283.06
355.491	253.06
355.718	270.06
355.945	265.06
356.172	254.06
356.399	259.06
356.626	253.06
356.853	255.06
357.08	276.06
357.307	267.06
357.534	268.06
357.761	263.06
357.988	261.06
358.215	269.06
358.441	261.06
358.668	258.06
358.895	265.06
359.122	277.06
359.349	282.06
359.576	292.06
359.802	298.06
360.029	303.06
360.256	320.06
360.483	304.06
360.709	274.06
360.936	295.06
361.163	294.06
361.39	280.06
361.616	297.06
361.843	288.06
362.07	284.06
362.296	288.06
362.523	284.06
362.749	278.06
362.976	264.06
363.203	278.06
363.429	268.06
363.656	275.06
363.882	261.06
364.109	263.06
364.335	250.06
364.562	265.06
364.788	277.06
365.015	257.06
365.241	242.06
365.468	261.06
365.694	281.06
365.92	267.06
366.147	274.06
366.373	275.06
366.599	275.06
366.826	278.06
367.052	258.06
367.278	265.06
367.505	273.06
367.731	280.06
367.957	266.06
368.184	265.06
368.41	271.06
368.636	285.06
368.862	288.06
369.089	272.06
369.315	264.06
369.541	269.06
369.767	261.06
369.993	259.06
370.219	250.06
370.445	263.06
370.672	261.06
370.898	275.06
371.124	282.06
371.35	265.06
371.576	264.06
371.802	251.06
372.028	271.06
372.254	285.06
372.48	249.06
372.706	257.06
372.932	264.06
373.158	251.06
373.384	266.06
373.61	270.06
373.835	267.06
374.061	263.06
374.287	288.06
374.513	267.06
374.739	293.06
374.965	265.06
375.191	263.06
375.416	271.06
375.642	263.06
375.868	246.06
376.094	257.06
376.319	253.06
376.545	269.06
376.771	270.06
376.997	245.06
377.222	276.06
377.448	258.06
377.674	274.06
377.899	273.06
378.125	245.06
378.35	261.06
378.576	247.06
378.802	236.06
379.027	271.06
379.253	254.06
379.478	240.06
379.704	256.06
379.929	256.06
380.155	258.06
380.38	269.06
380.606	253.06
380.831	246.06
381.057	278.06
381.282	269.06
381.507	261.06
381.733	268.06
381.958	261.06
382.184	252.06
382.409	261.06
382.634	264.06
382.86	273.06
383.085	279.06
383.31	273.06
383.535	264.06
383.761	256.06
383.986	265.06
384.211	268.06
384.436	270.06
384.662	268.06
384.887	266.06
385.112	267.06
385.337	271.06
385.562	263.06
385.787	261.06
386.013	266.06
386.238	289.06
386.463	277.06
386.688	281.06
386.913	271.06
387.138	275.06
387.363	277.06
387.588	280.06
387.813	275.06
388.038	273.06
388.263	280.06
388.488	272.06
388.713	295.06
388.938	259.06
389.163	265.06
389.387	274.06
389.612	254.06
389.837	281.06
390.062	275.06
390.287	277.06
390.512	281.06
390.736	283.06
390.961	278.06
391.186	256.06
391.411	271.06
391.636	283.06
391.86	281.06
392.085	285.06
392.31	270.06
392.534	267.06
392.759	281.06
392.984	279.06
393.208	272.06
393.433	273.06
393.658	272.06
393.882	266.06
394.107	262.06
394.331	280.06
394.556	267.06
394.78	292.06
395.005	281.06
395.229	277.06
395.454	284.06
395.678	284.06
395.903	284.06
396.127	290.06
396.352	297.06
396.576	285.06
396.801	274.06
397.025	283.06
397.249	273.06
397.474	285.06
397.698	304.06
397.922	305.06
398.147	309.06
398.371	299.06
398.595	286.06
398.82	298.06
399.044	306.06
399.268	306.06
399.492	320.06
399.717	327.06
399.941	346.06
400.165	358.06
400.389	362.06
400.613	331.06
400.837	314.06
401.062	321.06
401.286	303.06
401.51	321.06
401.734	304.06
401.958	292.06
402.182	302.06
402.406	299.06
402.63	310.06
402.854	307.06
403.078	318.06
403.302	319.06
403.526	300.06
403.75	323.06
403.974	317.06
404.198	297.06
404.422	331.06
404.645	321.06
404.869	324.06
405.093	326.06
405.317	330.06
405.541	360.06
405.765	325.06
405.988	337.06
406.212	331.06
406.436	355.06
406.66	357.06
406.883	330.06
407.107	362.06
407.331	377.06
407.555	400.06
407.778	390.06
408.002	363.06
408.226	333.06
408.449	316.06
408.673	335.06
408.896	352.06
409.12	369.06
409.344	337.06
409.567	335.06
409.791	314.06
410.014	326.06
410.238	309.06
410.461	309.06
410.685	302.06
410.908	321.06
411.132	333.06
411.355	344.06
411.578	330.06
411.802	309.06
412.025	321.06
412.249	317.06
412.472	326.06
412.695	357.06
412.919	337.06
413.142	313.06
413.365	308.06
413.589	297.06
413.812	273.06
414.035	290.06
414.258	289.06
414.482	281.06
414.705	285.06
414.928	299.06
415.151	277.06
415.374	275.06
415.597	284.06
415.821	269.06
416.044	279.06
416.267	284.06
416.49	287.06
416.713	289.06
416.936	278.06
417.159	293.06
417.382	298.06
417.605	277.06
417.828	299.06
418.051	301.06
418.274	283.06
418.497	291.06
418.72	282.06
418.943	282.06
419.166	286.06
419.389	301.06
419.611	290.06
419.834	296.06
420.057	313.06
420.28	320.06
420.503	317.06
420.726	304.06
420.948	310.06
421.171	329.06
421.394	341.06
421.617	309.06
421.839	315.06
422.062	311.06
422.285	315.06
422.507	359.06
422.73	372.06
422.953	356.06
423.175	311.06
423.398	315.06
423.621	326.06
423.843	318.06
424.066	320.06
424.288	338.06
424.511	350.06
424.733	382.06
424.956	387.06
425.178	409.06
425.401	413.06
425.623	419.06
425.846	367.06
426.068	341.06
426.291	329.06
426.513	325.06
426.735	339.06
426.958	360.06
427.18	399.06
427.402	466.06
427.625	505.06
427.847	448.06
428.069	405.06
428.292	362.06
428.514	309.06
428.736	317.06
428.958	306.06
429.181	306.06
429.403	311.06
429.625	302.06
429.847	335.06
430.069	362.06
430.292	354.06
430.514	316.06
430.736	325.06
430.958	311.06
431.18	290.06
431.402	269.06
431.624	277.06
431.846	275.06
432.068	283.06
432.29	298.06
432.512	287.06
432.734	290.06
432.956	305.06
433.178	304.06
433.4	313.06
433.622	297.06
433.844	299.06
434.066	283.06
434.287	297.06
434.509	272.06
434.731	300.06
434.953	293.06
435.175	311.06
435.397	315.06
435.618	345.06
435.84	352.06
436.062	388.06
436.284	437.06
436.505	344.06
436.727	345.06
436.949	321.06
437.17	301.06
437.392	305.06
437.614	333.06
437.835	338.06
438.057	380.06
438.278	450.06
438.5	454.06
438.721	457.06
438.943	439.06
439.165	378.06
439.386	342.06
439.608	341.06
439.829	334.06
440.05	349.06
440.272	384.06
440.493	350.06
440.715	357.06
440.936	314.06
441.158	310.06
441.379	311.06
441.6	323.06
441.822	336.06
442.043	380.06
442.264	407.06
442.486	413.06
442.707	366.06
442.928	359.06
443.149	350.06
443.371	362.06
443.592	363.06
443.813	418.06
444.034	451.06
444.255	384.06
444.476	349.06
444.698	322.06
444.919	314.06
445.14	398.06
445.361	369.06
445.582	367.06
445.803	393.06
446.024	443.06
446.245	453.06
446.466	419.06
446.687	358.06
446.908	336.06
447.129	335.06
447.35	331.06
447.571	316.06
447.792	301.06
448.013	311.06
448.234	329.06
448.455	342.06
448.675	434.06
448.896	466.06
449.117	425.06
449.338	399.06
449.559	453.06
449.779	496.06
450	401.06
450.221	333.06
450.442	326.06
450.662	311.06
450.883	299.06
451.104	321.06
451.324	307.06
451.545	281.06
451.766	290.06
451.986	282.06
452.207	311.06
452.428	271.06
452.648	271.06
452.869	298.06
453.089	303.06
453.31	281.06
453.53	293.06
453.751	273.06
453.971	280.06
454.192	275.06
454.412	276.06
454.633	270.06
454.853	273.06
455.073	280.06
455.294	307.06
455.514	343.06
455.734	301.06
455.955	298.06
456.175	265.06
456.395	271.06
456.616	275.06
456.836	262.06
457.056	268.06
457.276	268.06
457.497	274.06
457.717	263.06
457.937	272.06
458.157	265.06
458.377	286.06
458.598	283.06
458.818	324.06
459.038	381.06
459.258	377.06
459.478	325.06
459.698	289.06
459.918	285.06
460.138	288.06
460.358	288.06
460.578	275.06
460.798	293.06
461.018	280.06
461.238	279.06
461.458	281.06
461.678	285.06
461.898	275.06
462.118	289.06
462.338	288.06
462.558	278.06
462.777	300.06
462.997	294.06
463.217	293.06
463.437	311.06
463.657	317.06
463.876	317.06
464.096	317.06
464.316	296.06
464.536	310.06
464.755	301.06
464.975	295.06
465.195	349.06
465.414	377.06
465.634	335.06
465.854	301.06
466.073	287.06
466.293	288.06
466.512	278.06
466.732	274.06
466.951	275.06
467.171	282.06
467.391	301.06
467.61	309.06
467.829	286.06
468.049	282.06
468.268	283.06
468.488	286.06
468.707	281.06
468.927	269.06
469.146	280.06
469.365	290.06
469.585	268.06
469.804	277.06
470.023	293.06
470.243	283.06
470.462	291.06
470.681	304.06
470.901	294.06
471.12	285.06
471.339	295.06
471.558	296.06
471.777	288.06
471.997	289.06
472.216	306.06
472.435	305.06
472.654	287.06
472.873	270.06
473.092	292.06
473.311	296.06
473.53	288.06
473.749	302.06
473.968	313.06
474.187	398.06
474.406	386.06
474.625	334.06
474.844	290.06
475.063	279.06
475.282	282.06
475.501	288.06
475.72	310.06
475.939	295.06
476.158	306.06
476.377	294.06
476.596	292.06
476.814	291.06
477.033	305.06
477.252	294.06
477.471	293.06
477.69	280.06
477.908	311.06
478.127	324.06
478.346	307.06
478.564	317.06
478.783	333.06
479.002	314.06
479.22	332.06
479.439	330.06
479.658	345.06
479.876	346.06
480.095	342.06
480.313	373.06
480.532	329.06
480.751	343.06
480.969	343.06
481.188	370.06
481.406	385.06
481.624	351.06
481.843	347.06
482.061	329.06
482.28	341.06
482.498	335.06
482.717	324.06
482.935	320.06
483.153	324.06
483.372	326.06
483.59	341.06
483.808	318.06
484.027	343.06
484.245	338.06
484.463	329.06
484.681	345.06
484.9	332.06
485.118	317.06
485.336	326.06
485.554	329.06
485.772	329.06
485.99	329.06
486.209	329.06
486.427	343.06
486.645	337.06
486.863	357.06
487.081	375.06
487.299	376.06
487.517	354.06
487.735	363.06
487.953	352.06
488.171	347.06
488.389	340.06
488.607	361.06
488.825	333.06
489.043	356.06
489.261	365.06
489.479	341.06
489.696	347.06
489.914	376.06
490.132	361.06
490.35	383.06
490.568	373.06
490.786	380.06
491.003	384.06
491.221	393.06
491.439	388.06
491.657	391.06
491.874	392.06
492.092	387.06
492.31	393.06
492.527	421.06
492.745	403.06
492.963	402.06
493.18	420.06
493.398	411.06
493.615	400.06
493.833	401.06
494.05	413.06
494.268	421.06
494.485	412.06
494.703	392.06
494.92	404.06
495.138	398.06
495.355	414.06
495.573	418.06
495.79	419.06
496.008	409.06
496.225	402.06
496.442	389.06
496.66	398.06
496.877	407.06
497.094	429.06
497.312	414.06
497.529	416.06
497.746	416.06
497.963	423.06
498.181	445.06
498.398	441.06
498.615	438.06
498.832	438.06
499.049	467.06
499.267	448.06
499.484	459.06
499.701	487.06
499.918	482.06
500.135	503.06
500.352	505.06
500.569	503.06
500.786	513.06
501.003	514.06
501.22	502.06
501.437	467.06
501.654	517.06
501.871	494.06
502.088	475.06
