Data from 1982.PennyLincolnUp.Lamp.En5.5.200Scan.071819.P1_HRD10591_16-47-49-963.txt Node
Date: Thu Jul 18 16:47:49 EDT 2019
User: cochatt
Spectrometer: HR+D1059
Trigger mode: 1
Integration Time (sec): 1.000000E-1
Scans to average: 1
Electric dark correction enabled: true
Nonlinearity correction enabled: false
Boxcar width: 0
XAxis mode: Wavelengths
Number of Pixels in Spectrum: 2048
>>>>>Begin Spectral Data<<<<<
223.165	-9.56
223.4	-9.56
223.635	-9.56
223.869	-18.56
224.104	-10.56
224.338	-26.56
224.573	-10.56
224.808	-2.56
225.042	-14.56
225.277	-9.56
225.511	-6.56
225.746	17.44
225.98	2.44
226.215	9.44
226.449	18.44
226.683	15.44
226.918	13.44
227.152	32.44
227.387	16.44
227.621	42.44
227.856	49.44
228.09	47.44
228.324	59.44
228.559	56.44
228.793	66.44
229.027	81.44
229.262	94.44
229.496	100.44
229.73	127.44
229.964	124.44
230.199	131.44
230.433	98.44
230.667	102.44
230.901	108.44
231.136	118.44
231.37	114.44
231.604	107.44
231.838	107.44
232.072	109.44
232.306	106.44
232.541	105.44
232.775	98.44
233.009	103.44
233.243	105.44
233.477	100.44
233.711	101.44
233.945	104.44
234.179	126.44
234.413	94.44
234.647	116.44
234.881	88.44
235.115	98.44
235.349	116.44
235.583	107.44
235.817	108.44
236.051	108.44
236.285	106.44
236.519	118.44
236.753	105.44
236.987	143.44
237.221	144.44
237.455	191.44
237.689	153.44
237.922	128.44
238.156	144.44
238.39	107.44
238.624	100.44
238.858	104.44
239.091	121.44
239.325	114.44
239.559	98.44
239.793	121.44
240.027	123.44
240.26	128.44
240.494	149.44
240.728	122.44
240.961	115.44
241.195	124.44
241.429	129.44
241.662	126.44
241.896	116.44
242.13	121.44
242.363	112.44
242.597	118.44
242.83	130.44
243.064	119.44
243.298	121.44
243.531	113.44
243.765	130.44
243.998	117.44
244.232	116.44
244.465	130.44
244.699	142.44
244.932	114.44
245.166	114.44
245.399	120.44
245.633	120.44
245.866	119.44
246.099	127.44
246.333	125.44
246.566	130.44
246.8	124.44
247.033	118.44
247.266	140.44
247.5	147.44
247.733	122.44
247.966	136.44
248.2	135.44
248.433	143.44
248.666	164.44
248.899	160.44
249.133	168.44
249.366	168.44
249.599	183.44
249.832	168.44
250.066	168.44
250.299	159.44
250.532	153.44
250.765	159.44
250.998	179.44
251.231	175.44
251.465	176.44
251.698	164.44
251.931	153.44
252.164	162.44
252.397	166.44
252.63	164.44
252.863	167.44
253.096	185.44
253.329	197.44
253.562	187.44
253.795	178.44
254.028	179.44
254.261	180.44
254.494	196.44
254.727	196.44
254.96	239.44
255.193	224.44
255.426	207.44
255.659	187.44
255.892	198.44
256.124	199.44
256.357	191.44
256.59	202.44
256.823	185.44
257.056	175.44
257.289	170.44
257.521	168.44
257.754	177.44
257.987	175.44
258.22	170.44
258.452	165.44
258.685	188.44
258.918	171.44
259.151	174.44
259.383	180.44
259.616	168.44
259.849	186.44
260.081	201.44
260.314	200.44
260.547	220.44
260.779	190.44
261.012	196.44
261.244	194.44
261.477	200.44
261.71	171.44
261.942	190.44
262.175	184.44
262.407	180.44
262.64	182.44
262.872	173.44
263.105	175.44
263.337	167.44
263.57	177.44
263.802	180.44
264.035	174.44
264.267	186.44
264.499	180.44
264.732	198.44
264.964	182.44
265.197	175.44
265.429	188.44
265.661	190.44
265.894	172.44
266.126	171.44
266.358	169.44
266.591	183.44
266.823	175.44
267.055	185.44
267.287	217.44
267.52	186.44
267.752	191.44
267.984	198.44
268.216	185.44
268.448	191.44
268.681	191.44
268.913	208.44
269.145	218.44
269.377	222.44
269.609	234.44
269.841	188.44
270.073	212.44
270.306	252.44
270.538	272.44
270.77	260.44
271.002	246.44
271.234	238.44
271.466	239.44
271.698	233.44
271.93	266.44
272.162	264.44
272.394	264.44
272.626	259.44
272.858	247.44
273.09	233.44
273.322	237.44
273.553	206.44
273.785	194.44
274.017	209.44
274.249	218.44
274.481	221.44
274.713	218.44
274.945	201.44
275.176	211.44
275.408	215.44
275.64	206.44
275.872	213.44
276.104	220.44
276.335	230.44
276.567	226.44
276.799	237.44
277.031	245.44
277.262	247.44
277.494	278.44
277.726	237.44
277.957	238.44
278.189	223.44
278.421	211.44
278.652	223.44
278.884	207.44
279.115	210.44
279.347	211.44
279.579	224.44
279.81	244.44
280.042	217.44
280.273	196.44
280.505	200.44
280.736	212.44
280.968	201.44
281.199	199.44
281.431	200.44
281.662	219.44
281.894	214.44
282.125	227.44
282.356	232.44
282.588	237.44
282.819	235.44
283.051	208.44
283.282	229.44
283.513	228.44
283.745	224.44
283.976	218.44
284.207	213.44
284.439	209.44
284.67	212.44
284.901	214.44
285.132	214.44
285.364	222.44
285.595	226.44
285.826	227.44
286.057	232.44
286.288	212.44
286.52	223.44
286.751	222.44
286.982	202.44
287.213	219.44
287.444	211.44
287.675	233.44
287.906	246.44
288.138	235.44
288.369	224.44
288.6	250.44
288.831	237.44
289.062	233.44
289.293	238.44
289.524	232.44
289.755	224.44
289.986	226.44
290.217	234.44
290.448	216.44
290.679	220.44
290.91	216.44
291.141	236.44
291.371	201.44
291.602	232.44
291.833	227.44
292.064	231.44
292.295	218.44
292.526	222.44
292.757	240.44
292.987	228.44
293.218	203.44
293.449	239.44
293.68	233.44
293.91	211.44
294.141	201.44
294.372	220.44
294.603	231.44
294.833	224.44
295.064	206.44
295.295	237.44
295.525	231.44
295.756	258.44
295.987	233.44
296.217	246.44
296.448	279.44
296.679	244.44
296.909	228.44
297.14	229.44
297.37	244.44
297.601	220.44
297.831	228.44
298.062	227.44
298.292	233.44
298.523	248.44
298.753	230.44
298.984	237.44
299.214	240.44
299.445	242.44
299.675	240.44
299.905	259.44
300.136	249.44
300.366	244.44
300.597	244.44
300.827	242.44
301.057	259.44
301.288	252.44
301.518	246.44
301.748	240.44
301.979	252.44
302.209	241.44
302.439	269.44
302.669	265.44
302.9	261.44
303.13	248.44
303.36	244.44
303.59	263.44
303.82	275.44
304.051	264.44
304.281	263.44
304.511	264.44
304.741	246.44
304.971	238.44
305.201	240.44
305.431	248.44
305.661	253.44
305.891	244.44
306.121	265.44
306.352	270.44
306.582	256.44
306.812	239.44
307.042	264.44
307.272	230.44
307.502	267.44
307.731	258.44
307.961	263.44
308.191	261.44
308.421	277.44
308.651	266.44
308.881	254.44
309.111	276.44
309.341	269.44
309.571	275.44
309.8	295.44
310.03	290.44
310.26	308.44
310.49	300.44
310.72	296.44
310.949	323.44
311.179	303.44
311.409	310.44
311.639	300.44
311.868	304.44
312.098	288.44
312.328	302.44
312.557	314.44
312.787	331.44
313.017	351.44
313.246	299.44
313.476	292.44
313.706	296.44
313.935	309.44
314.165	305.44
314.394	320.44
314.624	306.44
314.853	304.44
315.083	300.44
315.312	308.44
315.542	312.44
315.771	306.44
316.001	313.44
316.23	301.44
316.46	300.44
316.689	294.44
316.919	293.44
317.148	301.44
317.377	299.44
317.607	310.44
317.836	312.44
318.065	305.44
318.295	299.44
318.524	285.44
318.753	279.44
318.983	300.44
319.212	316.44
319.441	319.44
319.67	314.44
319.9	322.44
320.129	291.44
320.358	330.44
320.587	334.44
320.816	323.44
321.046	318.44
321.275	312.44
321.504	316.44
321.733	328.44
321.962	318.44
322.191	347.44
322.42	354.44
322.649	371.44
322.878	382.44
323.108	384.44
323.337	390.44
323.566	397.44
323.795	452.44
324.024	514.44
324.253	640.44
324.482	916.44
324.71	1398.44
324.939	1881.44
325.168	1495.44
325.397	747.44
325.626	538.44
325.855	446.44
326.084	435.44
326.313	426.44
326.542	427.44
326.77	480.44
326.999	575.44
327.228	800.44
327.457	1210.44
327.686	1334.44
327.914	856.44
328.143	609.44
328.372	508.44
328.6	479.44
328.829	480.44
329.058	461.44
329.287	452.44
329.515	440.44
329.744	407.44
329.972	423.44
330.201	446.44
330.43	465.44
330.658	480.44
330.887	490.44
331.115	481.44
331.344	421.44
331.572	385.44
331.801	393.44
332.03	382.44
332.258	374.44
332.486	371.44
332.715	350.44
332.943	338.44
333.172	342.44
333.4	342.44
333.629	348.44
333.857	354.44
334.085	381.44
334.314	394.44
334.542	413.44
334.771	413.44
334.999	374.44
335.227	360.44
335.455	342.44
335.684	357.44
335.912	324.44
336.14	337.44
336.369	335.44
336.597	359.44
336.825	344.44
337.053	331.44
337.281	335.44
337.51	336.44
337.738	349.44
337.966	339.44
338.194	350.44
338.422	344.44
338.65	346.44
338.878	336.44
339.106	318.44
339.334	325.44
339.562	313.44
339.79	329.44
340.018	338.44
340.246	330.44
340.474	325.44
340.702	334.44
340.93	332.44
341.158	322.44
341.386	314.44
341.614	334.44
341.842	336.44
342.07	324.44
342.298	311.44
342.526	315.44
342.754	302.44
342.981	314.44
343.209	322.44
343.437	305.44
343.665	293.44
343.893	323.44
344.12	330.44
344.348	337.44
344.576	340.44
344.804	324.44
345.031	337.44
345.259	357.44
345.487	334.44
345.714	329.44
345.942	324.44
346.17	297.44
346.397	309.44
346.625	318.44
346.853	323.44
347.08	331.44
347.308	324.44
347.535	324.44
347.763	340.44
347.99	327.44
348.218	333.44
348.445	327.44
348.673	329.44
348.9	292.44
349.128	308.44
349.355	294.44
349.583	310.44
349.81	301.44
350.037	306.44
350.265	290.44
350.492	300.44
350.72	310.44
350.947	314.44
351.174	322.44
351.402	320.44
351.629	315.44
351.856	321.44
352.083	333.44
352.311	337.44
352.538	334.44
352.765	330.44
352.992	314.44
353.22	315.44
353.447	305.44
353.674	311.44
353.901	297.44
354.128	276.44
354.355	296.44
354.583	298.44
354.81	280.44
355.037	298.44
355.264	272.44
355.491	280.44
355.718	308.44
355.945	286.44
356.172	290.44
356.399	302.44
356.626	284.44
356.853	286.44
357.08	283.44
357.307	283.44
357.534	281.44
357.761	273.44
357.988	283.44
358.215	288.44
358.441	303.44
358.668	300.44
358.895	310.44
359.122	282.44
359.349	283.44
359.576	308.44
359.802	302.44
360.029	360.44
360.256	358.44
360.483	323.44
360.709	307.44
360.936	306.44
361.163	305.44
361.39	317.44
361.616	309.44
361.843	307.44
362.07	308.44
362.296	318.44
362.523	303.44
362.749	303.44
362.976	310.44
363.203	288.44
363.429	298.44
363.656	301.44
363.882	291.44
364.109	286.44
364.335	286.44
364.562	299.44
364.788	282.44
365.015	297.44
365.241	283.44
365.468	301.44
365.694	305.44
365.92	310.44
366.147	294.44
366.373	269.44
366.599	301.44
366.826	282.44
367.052	288.44
367.278	285.44
367.505	296.44
367.731	278.44
367.957	301.44
368.184	292.44
368.41	278.44
368.636	300.44
368.862	301.44
369.089	284.44
369.315	285.44
369.541	288.44
369.767	282.44
369.993	276.44
370.219	273.44
370.445	272.44
370.672	273.44
370.898	287.44
371.124	282.44
371.35	268.44
371.576	285.44
371.802	277.44
372.028	281.44
372.254	285.44
372.48	266.44
372.706	272.44
372.932	266.44
373.158	297.44
373.384	276.44
373.61	270.44
373.835	280.44
374.061	279.44
374.287	274.44
374.513	274.44
374.739	287.44
374.965	274.44
375.191	286.44
375.416	264.44
375.642	298.44
375.868	279.44
376.094	272.44
376.319	283.44
376.545	257.44
376.771	273.44
376.997	278.44
377.222	261.44
377.448	245.44
377.674	270.44
377.899	265.44
378.125	275.44
378.35	298.44
378.576	276.44
378.802	267.44
379.027	265.44
379.253	262.44
379.478	269.44
379.704	272.44
379.929	272.44
380.155	276.44
380.38	283.44
380.606	295.44
380.831	284.44
381.057	290.44
381.282	267.44
381.507	294.44
381.733	271.44
381.958	299.44
382.184	277.44
382.409	272.44
382.634	290.44
382.86	277.44
383.085	272.44
383.31	276.44
383.535	290.44
383.761	273.44
383.986	276.44
384.211	296.44
384.436	297.44
384.662	293.44
384.887	289.44
385.112	291.44
385.337	289.44
385.562	292.44
385.787	286.44
386.013	298.44
386.238	303.44
386.463	307.44
386.688	313.44
386.913	280.44
387.138	285.44
387.363	288.44
387.588	291.44
387.813	274.44
388.038	297.44
388.263	305.44
388.488	283.44
388.713	297.44
388.938	295.44
389.163	270.44
389.387	286.44
389.612	287.44
389.837	295.44
390.062	282.44
390.287	271.44
390.512	299.44
390.736	274.44
390.961	288.44
391.186	286.44
391.411	286.44
391.636	287.44
391.86	299.44
392.085	287.44
392.31	296.44
392.534	306.44
392.759	285.44
392.984	313.44
393.208	291.44
393.433	303.44
393.658	297.44
393.882	276.44
394.107	296.44
394.331	287.44
394.556	282.44
394.78	292.44
395.005	276.44
395.229	294.44
395.454	286.44
395.678	281.44
395.903	297.44
396.127	330.44
396.352	316.44
396.576	302.44
396.801	301.44
397.025	279.44
397.249	304.44
397.474	295.44
397.698	296.44
397.922	314.44
398.147	312.44
398.371	301.44
398.595	326.44
398.82	314.44
399.044	336.44
399.268	317.44
399.492	325.44
399.717	357.44
399.941	357.44
400.165	385.44
400.389	381.44
400.613	362.44
400.837	340.44
401.062	344.44
401.286	328.44
401.51	331.44
401.734	318.44
401.958	328.44
402.182	319.44
402.406	334.44
402.63	337.44
402.854	329.44
403.078	324.44
403.302	325.44
403.526	325.44
403.75	349.44
403.974	338.44
404.198	329.44
404.422	325.44
404.645	324.44
404.869	341.44
405.093	335.44
405.317	404.44
405.541	416.44
405.765	361.44
405.988	358.44
406.212	342.44
406.436	350.44
406.66	378.44
406.883	384.44
407.107	376.44
407.331	397.44
407.555	437.44
407.778	425.44
408.002	400.44
408.226	378.44
408.449	354.44
408.673	372.44
408.896	375.44
409.12	402.44
409.344	386.44
409.567	346.44
409.791	341.44
410.014	340.44
410.238	335.44
410.461	322.44
410.685	336.44
410.908	340.44
411.132	371.44
411.355	376.44
411.578	379.44
411.802	372.44
412.025	331.44
412.249	342.44
412.472	354.44
412.695	360.44
412.919	368.44
413.142	324.44
413.365	312.44
413.589	332.44
413.812	322.44
414.035	304.44
414.258	319.44
414.482	316.44
414.705	306.44
414.928	313.44
415.151	302.44
415.374	304.44
415.597	309.44
415.821	310.44
416.044	319.44
416.267	310.44
416.49	311.44
416.713	306.44
416.936	303.44
417.159	306.44
417.382	323.44
417.605	312.44
417.828	325.44
418.051	330.44
418.274	329.44
418.497	334.44
418.72	307.44
418.943	308.44
419.166	344.44
419.389	316.44
419.611	320.44
419.834	300.44
420.057	327.44
420.28	335.44
420.503	332.44
420.726	327.44
420.948	339.44
421.171	360.44
421.394	388.44
421.617	354.44
421.839	336.44
422.062	328.44
422.285	324.44
422.507	377.44
422.73	424.44
422.953	407.44
423.175	362.44
423.398	344.44
423.621	327.44
423.843	363.44
424.066	359.44
424.288	352.44
424.511	376.44
424.733	407.44
424.956	450.44
425.178	418.44
425.401	434.44
425.623	428.44
425.846	390.44
426.068	364.44
426.291	336.44
426.513	354.44
426.735	354.44
426.958	381.44
427.18	444.44
427.402	543.44
427.625	574.44
427.847	532.44
428.069	456.44
428.292	394.44
428.514	365.44
428.736	350.44
428.958	347.44
429.181	342.44
429.403	328.44
429.625	346.44
429.847	363.44
430.069	395.44
430.292	401.44
430.514	337.44
430.736	330.44
430.958	342.44
431.18	326.44
431.402	306.44
431.624	308.44
431.846	320.44
432.068	309.44
432.29	311.44
432.512	299.44
432.734	328.44
432.956	318.44
433.178	308.44
433.4	327.44
433.622	336.44
433.844	318.44
434.066	325.44
434.287	293.44
434.509	299.44
434.731	301.44
434.953	343.44
435.175	328.44
435.397	374.44
435.618	371.44
435.84	385.44
436.062	447.44
436.284	484.44
436.505	406.44
436.727	361.44
436.949	348.44
437.17	341.44
437.392	329.44
437.614	349.44
437.835	393.44
438.057	442.44
438.278	504.44
438.5	504.44
438.721	539.44
438.943	503.44
439.165	421.44
439.386	364.44
439.608	370.44
439.829	366.44
440.05	388.44
440.272	422.44
440.493	388.44
440.715	373.44
440.936	354.44
441.158	332.44
441.379	322.44
441.6	325.44
441.822	372.44
442.043	392.44
442.264	460.44
442.486	487.44
442.707	394.44
442.928	380.44
443.149	390.44
443.371	392.44
443.592	438.44
443.813	467.44
444.034	498.44
444.255	404.44
444.476	350.44
444.698	359.44
444.919	359.44
445.14	447.44
445.361	435.44
445.582	399.44
445.803	447.44
446.024	522.44
446.245	504.44
446.466	453.44
446.687	382.44
446.908	367.44
447.129	356.44
447.35	360.44
447.571	340.44
447.792	338.44
448.013	337.44
448.234	367.44
448.455	400.44
448.675	502.44
448.896	522.44
449.117	448.44
449.338	436.44
449.559	500.44
449.779	544.44
450	452.44
450.221	386.44
450.442	340.44
450.662	329.44
450.883	350.44
451.104	336.44
451.324	335.44
451.545	326.44
451.766	319.44
451.986	308.44
452.207	307.44
452.428	294.44
452.648	310.44
452.869	300.44
453.089	302.44
453.31	329.44
453.53	323.44
453.751	316.44
453.971	299.44
454.192	332.44
454.412	339.44
454.633	290.44
454.853	294.44
455.073	283.44
455.294	336.44
455.514	351.44
455.734	342.44
455.955	306.44
456.175	303.44
456.395	278.44
456.616	266.44
456.836	275.44
457.056	272.44
457.276	283.44
457.497	282.44
457.717	281.44
457.937	293.44
458.157	286.44
458.377	300.44
458.598	289.44
458.818	362.44
459.038	415.44
459.258	417.44
459.478	332.44
459.698	327.44
459.918	302.44
460.138	318.44
460.358	295.44
460.578	307.44
460.798	318.44
461.018	306.44
461.238	302.44
461.458	307.44
461.678	306.44
461.898	333.44
462.118	316.44
462.338	300.44
462.558	312.44
462.777	314.44
462.997	321.44
463.217	318.44
463.437	327.44
463.657	315.44
463.876	327.44
464.096	328.44
464.316	321.44
464.536	334.44
464.755	334.44
464.975	338.44
465.195	378.44
465.414	422.44
465.634	353.44
465.854	341.44
466.073	303.44
466.293	302.44
466.512	304.44
466.732	305.44
466.951	309.44
467.171	298.44
467.391	306.44
467.61	306.44
467.829	336.44
468.049	314.44
468.268	328.44
468.488	301.44
468.707	319.44
468.927	320.44
469.146	294.44
469.365	288.44
469.585	296.44
469.804	298.44
470.023	314.44
470.243	304.44
470.462	323.44
470.681	339.44
470.901	323.44
471.12	310.44
471.339	301.44
471.558	297.44
471.777	305.44
471.997	312.44
472.216	309.44
472.435	347.44
472.654	310.44
472.873	315.44
473.092	318.44
473.311	322.44
473.53	326.44
473.749	314.44
473.968	372.44
474.187	419.44
474.406	420.44
474.625	357.44
474.844	332.44
475.063	321.44
475.282	308.44
475.501	316.44
475.72	314.44
475.939	328.44
476.158	310.44
476.377	326.44
476.596	300.44
476.814	316.44
477.033	328.44
477.252	339.44
477.471	324.44
477.69	339.44
477.908	343.44
478.127	328.44
478.346	303.44
478.564	335.44
478.783	338.44
479.002	348.44
479.22	333.44
479.439	359.44
479.658	345.44
479.876	378.44
480.095	371.44
480.313	407.44
480.532	366.44
480.751	383.44
480.969	386.44
481.188	436.44
481.406	442.44
481.624	408.44
481.843	370.44
482.061	349.44
482.28	371.44
482.498	354.44
482.717	354.44
482.935	347.44
483.153	342.44
483.372	348.44
483.59	354.44
483.808	347.44
484.027	359.44
484.245	356.44
484.463	356.44
484.681	366.44
484.9	339.44
485.118	357.44
485.336	370.44
485.554	366.44
485.772	352.44
485.99	371.44
486.209	363.44
486.427	361.44
486.645	377.44
486.863	390.44
487.081	370.44
487.299	387.44
487.517	374.44
487.735	388.44
487.953	385.44
488.171	378.44
488.389	378.44
488.607	399.44
488.825	364.44
489.043	356.44
489.261	386.44
489.479	375.44
489.696	389.44
489.914	398.44
490.132	388.44
490.35	408.44
490.568	401.44
490.786	388.44
491.003	400.44
491.221	438.44
491.439	420.44
491.657	411.44
491.874	434.44
492.092	434.44
492.31	455.44
492.527	418.44
492.745	431.44
492.963	432.44
493.18	449.44
493.398	466.44
493.615	442.44
493.833	455.44
494.05	451.44
494.268	431.44
494.485	448.44
494.703	453.44
494.92	429.44
495.138	460.44
495.355	441.44
495.573	453.44
495.79	442.44
496.008	459.44
496.225	446.44
496.442	428.44
496.66	442.44
496.877	457.44
497.094	475.44
497.312	444.44
497.529	461.44
497.746	485.44
497.963	461.44
498.181	456.44
498.398	493.44
498.615	474.44
498.832	468.44
499.049	493.44
499.267	486.44
499.484	510.44
499.701	504.44
499.918	516.44
500.135	563.44
500.352	535.44
500.569	538.44
500.786	554.44
501.003	562.44
501.22	550.44
501.437	541.44
501.654	554.44
501.871	539.44
502.088	539.44
