Data from 1983.PennyLincolnUp.Lamp.En5.5.200Scan.071819.P1_HRD10591_16-54-57-966.txt Node
Date: Thu Jul 18 16:54:57 EDT 2019
User: cochatt
Spectrometer: HR+D1059
Trigger mode: 1
Integration Time (sec): 1.000000E-1
Scans to average: 1
Electric dark correction enabled: true
Nonlinearity correction enabled: false
Boxcar width: 0
XAxis mode: Wavelengths
Number of Pixels in Spectrum: 2048
>>>>>Begin Spectral Data<<<<<
223.165	-11.56
223.4	-11.56
223.635	-11.56
223.869	-11.56
224.104	-14.56
224.338	-20.56
224.573	-9.56
224.808	-26.56
225.042	-11.56
225.277	-8.56
225.511	7.44
225.746	5.44
225.98	12.44
226.215	23.44
226.449	6.44
226.683	10.44
226.918	13.44
227.152	35.44
227.387	31.44
227.621	54.44
227.856	49.44
228.09	48.44
228.324	51.44
228.559	51.44
228.793	71.44
229.027	98.44
229.262	102.44
229.496	114.44
229.73	118.44
229.964	140.44
230.199	122.44
230.433	119.44
230.667	125.44
230.901	116.44
231.136	107.44
231.37	120.44
231.604	115.44
231.838	115.44
232.072	127.44
232.306	110.44
232.541	122.44
232.775	118.44
233.009	117.44
233.243	111.44
233.477	104.44
233.711	119.44
233.945	112.44
234.179	122.44
234.413	117.44
234.647	124.44
234.881	125.44
235.115	115.44
235.349	111.44
235.583	114.44
235.817	119.44
236.051	120.44
236.285	119.44
236.519	118.44
236.753	129.44
236.987	143.44
237.221	175.44
237.455	238.44
237.689	157.44
237.922	131.44
238.156	122.44
238.39	123.44
238.624	117.44
238.858	116.44
239.091	108.44
239.325	132.44
239.559	134.44
239.793	130.44
240.027	129.44
240.26	139.44
240.494	136.44
240.728	135.44
240.961	148.44
241.195	146.44
241.429	122.44
241.662	136.44
241.896	127.44
242.13	121.44
242.363	134.44
242.597	139.44
242.83	131.44
243.064	134.44
243.298	116.44
243.531	136.44
243.765	146.44
243.998	128.44
244.232	143.44
244.465	132.44
244.699	144.44
244.932	136.44
245.166	139.44
245.399	135.44
245.633	138.44
245.866	153.44
246.099	152.44
246.333	137.44
246.566	123.44
246.8	132.44
247.033	133.44
247.266	146.44
247.5	164.44
247.733	155.44
247.966	169.44
248.2	156.44
248.433	167.44
248.666	154.44
248.899	174.44
249.133	185.44
249.366	208.44
249.599	189.44
249.832	172.44
250.066	168.44
250.299	165.44
250.532	180.44
250.765	194.44
250.998	207.44
251.231	209.44
251.465	207.44
251.698	202.44
251.931	197.44
252.164	196.44
252.397	196.44
252.63	185.44
252.863	199.44
253.096	205.44
253.329	224.44
253.562	226.44
253.795	224.44
254.028	216.44
254.261	205.44
254.494	208.44
254.727	237.44
254.96	261.44
255.193	247.44
255.426	234.44
255.659	230.44
255.892	235.44
256.124	213.44
256.357	249.44
256.59	222.44
256.823	216.44
257.056	215.44
257.289	197.44
257.521	192.44
257.754	205.44
257.987	206.44
258.22	204.44
258.452	186.44
258.685	195.44
258.918	182.44
259.151	200.44
259.383	208.44
259.616	205.44
259.849	227.44
260.081	227.44
260.314	239.44
260.547	243.44
260.779	227.44
261.012	207.44
261.244	211.44
261.477	215.44
261.71	201.44
261.942	222.44
262.175	208.44
262.407	228.44
262.64	204.44
262.872	211.44
263.105	204.44
263.337	190.44
263.57	190.44
263.802	209.44
264.035	220.44
264.267	211.44
264.499	196.44
264.732	208.44
264.964	190.44
265.197	204.44
265.429	218.44
265.661	200.44
265.894	208.44
266.126	199.44
266.358	227.44
266.591	225.44
266.823	222.44
267.055	232.44
267.287	228.44
267.52	230.44
267.752	229.44
267.984	212.44
268.216	226.44
268.448	212.44
268.681	224.44
268.913	218.44
269.145	247.44
269.377	258.44
269.609	248.44
269.841	249.44
270.073	256.44
270.306	286.44
270.538	300.44
270.77	313.44
271.002	303.44
271.234	286.44
271.466	293.44
271.698	296.44
271.93	287.44
272.162	307.44
272.394	304.44
272.626	287.44
272.858	269.44
273.09	261.44
273.322	265.44
273.553	256.44
273.785	251.44
274.017	236.44
274.249	248.44
274.481	243.44
274.713	239.44
274.945	247.44
275.176	230.44
275.408	243.44
275.64	251.44
275.872	264.44
276.104	255.44
276.335	247.44
276.567	274.44
276.799	279.44
277.031	286.44
277.262	326.44
277.494	303.44
277.726	286.44
277.957	278.44
278.189	267.44
278.421	258.44
278.652	256.44
278.884	247.44
279.115	260.44
279.347	246.44
279.579	270.44
279.81	262.44
280.042	236.44
280.273	248.44
280.505	248.44
280.736	261.44
280.968	263.44
281.199	261.44
281.431	256.44
281.662	260.44
281.894	266.44
282.125	244.44
282.356	278.44
282.588	306.44
282.819	303.44
283.051	255.44
283.282	263.44
283.513	265.44
283.745	267.44
283.976	260.44
284.207	256.44
284.439	277.44
284.67	270.44
284.901	273.44
285.132	254.44
285.364	252.44
285.595	258.44
285.826	267.44
286.057	278.44
286.288	250.44
286.52	261.44
286.751	258.44
286.982	286.44
287.213	263.44
287.444	263.44
287.675	275.44
287.906	286.44
288.138	272.44
288.369	276.44
288.6	275.44
288.831	274.44
289.062	278.44
289.293	267.44
289.524	263.44
289.755	265.44
289.986	256.44
290.217	246.44
290.448	264.44
290.679	278.44
290.91	272.44
291.141	263.44
291.371	267.44
291.602	277.44
291.833	271.44
292.064	246.44
292.295	278.44
292.526	262.44
292.757	260.44
292.987	256.44
293.218	269.44
293.449	270.44
293.68	262.44
293.91	267.44
294.141	271.44
294.372	268.44
294.603	281.44
294.833	276.44
295.064	279.44
295.295	279.44
295.525	261.44
295.756	287.44
295.987	279.44
296.217	321.44
296.448	306.44
296.679	291.44
296.909	269.44
297.14	281.44
297.37	301.44
297.601	278.44
297.831	273.44
298.062	278.44
298.292	283.44
298.523	287.44
298.753	280.44
298.984	291.44
299.214	292.44
299.445	297.44
299.675	282.44
299.905	294.44
300.136	291.44
300.366	287.44
300.597	290.44
300.827	294.44
301.057	309.44
301.288	322.44
301.518	301.44
301.748	284.44
301.979	322.44
302.209	315.44
302.439	324.44
302.669	310.44
302.9	311.44
303.13	311.44
303.36	305.44
303.59	310.44
303.82	319.44
304.051	314.44
304.281	298.44
304.511	292.44
304.741	294.44
304.971	285.44
305.201	308.44
305.431	317.44
305.661	298.44
305.891	317.44
306.121	317.44
306.352	308.44
306.582	330.44
306.812	312.44
307.042	316.44
307.272	306.44
307.502	307.44
307.731	300.44
307.961	294.44
308.191	298.44
308.421	303.44
308.651	327.44
308.881	320.44
309.111	318.44
309.341	336.44
309.571	350.44
309.8	354.44
310.03	344.44
310.26	365.44
310.49	358.44
310.72	361.44
310.949	387.44
311.179	367.44
311.409	361.44
311.639	354.44
311.868	360.44
312.098	383.44
312.328	375.44
312.557	391.44
312.787	379.44
313.017	395.44
313.246	356.44
313.476	354.44
313.706	335.44
313.935	374.44
314.165	374.44
314.394	383.44
314.624	380.44
314.853	364.44
315.083	387.44
315.312	350.44
315.542	368.44
315.771	357.44
316.001	351.44
316.23	360.44
316.46	373.44
316.689	365.44
316.919	358.44
317.148	384.44
317.377	375.44
317.607	380.44
317.836	374.44
318.065	355.44
318.295	338.44
318.524	346.44
318.753	356.44
318.983	356.44
319.212	357.44
319.441	381.44
319.67	388.44
319.9	378.44
320.129	354.44
320.358	333.44
320.587	363.44
320.816	383.44
321.046	379.44
321.275	382.44
321.504	381.44
321.733	391.44
321.962	386.44
322.191	404.44
322.42	405.44
322.649	417.44
322.878	425.44
323.108	444.44
323.337	450.44
323.566	493.44
323.795	532.44
324.024	570.44
324.253	734.44
324.482	1035.44
324.71	1562.44
324.939	2135.44
325.168	1743.44
325.397	934.44
325.626	644.44
325.855	561.44
326.084	492.44
326.313	479.44
326.542	508.44
326.77	554.44
326.999	670.44
327.228	950.44
327.457	1346.44
327.686	1597.44
327.914	1055.44
328.143	728.44
328.372	635.44
328.6	588.44
328.829	571.44
329.058	564.44
329.287	576.44
329.515	532.44
329.744	518.44
329.972	504.44
330.201	562.44
330.43	598.44
330.658	598.44
330.887	630.44
331.115	596.44
331.344	498.44
331.572	500.44
331.801	483.44
332.03	487.44
332.258	452.44
332.486	442.44
332.715	400.44
332.943	436.44
333.172	447.44
333.4	419.44
333.629	432.44
333.857	476.44
334.085	499.44
334.314	529.44
334.542	566.44
334.771	572.44
334.999	490.44
335.227	475.44
335.455	440.44
335.684	440.44
335.912	426.44
336.14	399.44
336.369	418.44
336.597	412.44
336.825	449.44
337.053	416.44
337.281	420.44
337.51	423.44
337.738	420.44
337.966	414.44
338.194	411.44
338.422	423.44
338.65	393.44
338.878	395.44
339.106	407.44
339.334	406.44
339.562	370.44
339.79	423.44
340.018	410.44
340.246	404.44
340.474	424.44
340.702	400.44
340.93	405.44
341.158	389.44
341.386	416.44
341.614	400.44
341.842	383.44
342.07	381.44
342.298	395.44
342.526	388.44
342.754	378.44
342.981	384.44
343.209	391.44
343.437	384.44
343.665	399.44
343.893	384.44
344.12	406.44
344.348	409.44
344.576	408.44
344.804	415.44
345.031	406.44
345.259	400.44
345.487	408.44
345.714	395.44
345.942	373.44
346.17	388.44
346.397	383.44
346.625	396.44
346.853	378.44
347.08	388.44
347.308	384.44
347.535	408.44
347.763	379.44
347.99	387.44
348.218	391.44
348.445	416.44
348.673	415.44
348.9	393.44
349.128	381.44
349.355	362.44
349.583	367.44
349.81	379.44
350.037	377.44
350.265	354.44
350.492	367.44
350.72	371.44
350.947	385.44
351.174	379.44
351.402	406.44
351.629	400.44
351.856	399.44
352.083	398.44
352.311	399.44
352.538	419.44
352.765	408.44
352.992	396.44
353.22	403.44
353.447	377.44
353.674	390.44
353.901	386.44
354.128	382.44
354.355	349.44
354.583	373.44
354.81	342.44
355.037	342.44
355.264	342.44
355.491	374.44
355.718	350.44
355.945	368.44
356.172	358.44
356.399	351.44
356.626	338.44
356.853	351.44
357.08	347.44
357.307	342.44
357.534	329.44
357.761	352.44
357.988	373.44
358.215	360.44
358.441	355.44
358.668	372.44
358.895	365.44
359.122	368.44
359.349	393.44
359.576	379.44
359.802	395.44
360.029	458.44
360.256	449.44
360.483	419.44
360.709	412.44
360.936	382.44
361.163	381.44
361.39	401.44
361.616	401.44
361.843	383.44
362.07	389.44
362.296	373.44
362.523	378.44
362.749	390.44
362.976	390.44
363.203	373.44
363.429	361.44
363.656	378.44
363.882	359.44
364.109	377.44
364.335	386.44
364.562	348.44
364.788	366.44
365.015	362.44
365.241	356.44
365.468	377.44
365.694	370.44
365.92	381.44
366.147	379.44
366.373	366.44
366.599	356.44
366.826	357.44
367.052	374.44
367.278	364.44
367.505	370.44
367.731	360.44
367.957	363.44
368.184	375.44
368.41	374.44
368.636	372.44
368.862	381.44
369.089	374.44
369.315	355.44
369.541	361.44
369.767	356.44
369.993	367.44
370.219	366.44
370.445	354.44
370.672	366.44
370.898	359.44
371.124	366.44
371.35	360.44
371.576	358.44
371.802	362.44
372.028	353.44
372.254	344.44
372.48	371.44
372.706	364.44
372.932	375.44
373.158	338.44
373.384	350.44
373.61	357.44
373.835	346.44
374.061	369.44
374.287	370.44
374.513	352.44
374.739	359.44
374.965	378.44
375.191	377.44
375.416	354.44
375.642	361.44
375.868	372.44
376.094	385.44
376.319	365.44
376.545	370.44
376.771	351.44
376.997	344.44
377.222	356.44
377.448	338.44
377.674	339.44
377.899	347.44
378.125	345.44
378.35	344.44
378.576	351.44
378.802	349.44
379.027	351.44
379.253	353.44
379.478	360.44
379.704	360.44
379.929	377.44
380.155	370.44
380.38	345.44
380.606	334.44
380.831	372.44
381.057	372.44
381.282	350.44
381.507	357.44
381.733	365.44
381.958	366.44
382.184	338.44
382.409	351.44
382.634	375.44
382.86	351.44
383.085	346.44
383.31	378.44
383.535	363.44
383.761	372.44
383.986	372.44
384.211	393.44
384.436	380.44
384.662	351.44
384.887	350.44
385.112	371.44
385.337	378.44
385.562	362.44
385.787	374.44
386.013	388.44
386.238	398.44
386.463	393.44
386.688	396.44
386.913	376.44
387.138	367.44
387.363	388.44
387.588	376.44
387.813	380.44
388.038	392.44
388.263	373.44
388.488	380.44
388.713	387.44
388.938	396.44
389.163	390.44
389.387	390.44
389.612	379.44
389.837	367.44
390.062	380.44
390.287	373.44
390.512	367.44
390.736	387.44
390.961	391.44
391.186	376.44
391.411	375.44
391.636	375.44
391.86	396.44
392.085	376.44
392.31	397.44
392.534	382.44
392.759	395.44
392.984	380.44
393.208	385.44
393.433	392.44
393.658	378.44
393.882	392.44
394.107	392.44
394.331	394.44
394.556	364.44
394.78	384.44
395.005	386.44
395.229	384.44
395.454	402.44
395.678	408.44
395.903	406.44
396.127	425.44
396.352	408.44
396.576	405.44
396.801	387.44
397.025	377.44
397.249	409.44
397.474	405.44
397.698	410.44
397.922	411.44
398.147	414.44
398.371	414.44
398.595	397.44
398.82	439.44
399.044	441.44
399.268	454.44
399.492	450.44
399.717	474.44
399.941	503.44
400.165	518.44
400.389	524.44
400.613	473.44
400.837	442.44
401.062	439.44
401.286	442.44
401.51	426.44
401.734	450.44
401.958	452.44
402.182	445.44
402.406	421.44
402.63	460.44
402.854	437.44
403.078	441.44
403.302	428.44
403.526	440.44
403.75	465.44
403.974	454.44
404.198	440.44
404.422	454.44
404.645	468.44
404.869	481.44
405.093	498.44
405.317	529.44
405.541	566.44
405.765	498.44
405.988	478.44
406.212	473.44
406.436	518.44
406.66	521.44
406.883	498.44
407.107	492.44
407.331	530.44
407.555	598.44
407.778	586.44
408.002	538.44
408.226	490.44
408.449	483.44
408.673	494.44
408.896	503.44
409.12	552.44
409.344	515.44
409.567	456.44
409.791	462.44
410.014	446.44
410.238	449.44
410.461	451.44
410.685	448.44
410.908	482.44
411.132	498.44
411.355	489.44
411.578	492.44
411.802	462.44
412.025	444.44
412.249	474.44
412.472	500.44
412.695	517.44
412.919	513.44
413.142	477.44
413.365	445.44
413.589	455.44
413.812	428.44
414.035	443.44
414.258	442.44
414.482	436.44
414.705	421.44
414.928	433.44
415.151	418.44
415.374	418.44
415.597	427.44
415.821	433.44
416.044	431.44
416.267	414.44
416.49	417.44
416.713	410.44
416.936	414.44
417.159	444.44
417.382	448.44
417.605	431.44
417.828	433.44
418.051	424.44
418.274	429.44
418.497	426.44
418.72	434.44
418.943	422.44
419.166	440.44
419.389	461.44
419.611	463.44
419.834	456.44
420.057	459.44
420.28	476.44
420.503	455.44
420.726	438.44
420.948	478.44
421.171	514.44
421.394	506.44
421.617	447.44
421.839	461.44
422.062	459.44
422.285	462.44
422.507	517.44
422.73	555.44
422.953	543.44
423.175	477.44
423.398	459.44
423.621	459.44
423.843	464.44
424.066	468.44
424.288	474.44
424.511	486.44
424.733	507.44
424.956	586.44
425.178	573.44
425.401	564.44
425.623	564.44
425.846	499.44
426.068	500.44
426.291	490.44
426.513	475.44
426.735	481.44
426.958	523.44
427.18	596.44
427.402	700.44
427.625	745.44
427.847	696.44
428.069	594.44
428.292	526.44
428.514	491.44
428.736	452.44
428.958	439.44
429.181	444.44
429.403	442.44
429.625	451.44
429.847	466.44
430.069	531.44
430.292	524.44
430.514	455.44
430.736	443.44
430.958	455.44
431.18	431.44
431.402	444.44
431.624	400.44
431.846	417.44
432.068	406.44
432.29	412.44
432.512	439.44
432.734	428.44
432.956	453.44
433.178	442.44
433.4	445.44
433.622	426.44
433.844	426.44
434.066	426.44
434.287	423.44
434.509	421.44
434.731	419.44
434.953	422.44
435.175	458.44
435.397	471.44
435.618	482.44
435.84	528.44
436.062	576.44
436.284	652.44
436.505	542.44
436.727	501.44
436.949	437.44
437.17	462.44
437.392	446.44
437.614	477.44
437.835	487.44
438.057	589.44
438.278	642.44
438.5	636.44
438.721	678.44
438.943	649.44
439.165	545.44
439.386	494.44
439.608	504.44
439.829	481.44
440.05	494.44
440.272	562.44
440.493	536.44
440.715	478.44
440.936	472.44
441.158	452.44
441.379	440.44
441.6	478.44
441.822	481.44
442.043	506.44
442.264	578.44
442.486	610.44
442.707	523.44
442.928	485.44
443.149	491.44
443.371	520.44
443.592	550.44
443.813	623.44
444.034	658.44
444.255	540.44
444.476	502.44
444.698	493.44
444.919	476.44
445.14	604.44
445.361	559.44
445.582	552.44
445.803	578.44
446.024	648.44
446.245	664.44
446.466	605.44
446.687	515.44
446.908	477.44
447.129	444.44
447.35	445.44
447.571	453.44
447.792	443.44
448.013	453.44
448.234	463.44
448.455	502.44
448.675	596.44
448.896	667.44
449.117	589.44
449.338	570.44
449.559	626.44
449.779	699.44
450	596.44
450.221	491.44
450.442	469.44
450.662	438.44
450.883	465.44
451.104	469.44
451.324	467.44
451.545	435.44
451.766	424.44
451.986	411.44
452.207	386.44
452.428	416.44
452.648	411.44
452.869	407.44
453.089	430.44
453.31	411.44
453.53	425.44
453.751	409.44
453.971	410.44
454.192	425.44
454.412	428.44
454.633	405.44
454.853	396.44
455.073	423.44
455.294	428.44
455.514	468.44
455.734	457.44
455.955	399.44
456.175	380.44
456.395	369.44
456.616	377.44
456.836	378.44
457.056	380.44
457.276	383.44
457.497	353.44
457.717	366.44
457.937	394.44
458.157	390.44
458.377	396.44
458.598	440.44
458.818	475.44
459.038	554.44
459.258	563.44
459.478	472.44
459.698	422.44
459.918	413.44
460.138	426.44
460.358	415.44
460.578	418.44
460.798	414.44
461.018	408.44
461.238	422.44
461.458	418.44
461.678	404.44
461.898	395.44
462.118	412.44
462.338	435.44
462.558	423.44
462.777	442.44
462.997	440.44
463.217	451.44
463.437	447.44
463.657	440.44
463.876	440.44
464.096	431.44
464.316	446.44
464.536	452.44
464.755	459.44
464.975	471.44
465.195	509.44
465.414	587.44
465.634	504.44
465.854	450.44
466.073	436.44
466.293	422.44
466.512	410.44
466.732	399.44
466.951	404.44
467.171	396.44
467.391	430.44
467.61	430.44
467.829	435.44
468.049	427.44
468.268	430.44
468.488	414.44
468.707	410.44
468.927	427.44
469.146	394.44
469.365	389.44
469.585	413.44
469.804	402.44
470.023	397.44
470.243	415.44
470.462	422.44
470.681	440.44
470.901	418.44
471.12	407.44
471.339	413.44
471.558	420.44
471.777	416.44
471.997	417.44
472.216	434.44
472.435	493.44
472.654	460.44
472.873	415.44
473.092	423.44
473.311	407.44
473.53	439.44
473.749	434.44
473.968	480.44
474.187	544.44
474.406	551.44
474.625	472.44
474.844	447.44
475.063	440.44
475.282	408.44
475.501	408.44
475.72	427.44
475.939	424.44
476.158	403.44
476.377	426.44
476.596	430.44
476.814	446.44
477.033	444.44
477.252	440.44
477.471	423.44
477.69	431.44
477.908	450.44
478.127	440.44
478.346	456.44
478.564	460.44
478.783	470.44
479.002	461.44
479.22	472.44
479.439	485.44
479.658	487.44
479.876	501.44
480.095	501.44
480.313	526.44
480.532	512.44
480.751	506.44
480.969	525.44
481.188	638.44
481.406	688.44
481.624	589.44
481.843	522.44
482.061	505.44
482.28	491.44
482.498	502.44
482.717	481.44
482.935	466.44
483.153	494.44
483.372	495.44
483.59	480.44
483.808	485.44
484.027	484.44
484.245	481.44
484.463	503.44
484.681	510.44
484.9	491.44
485.118	516.44
485.336	486.44
485.554	498.44
485.772	495.44
485.99	484.44
486.209	511.44
486.427	508.44
486.645	504.44
486.863	552.44
487.081	531.44
487.299	527.44
487.517	517.44
487.735	540.44
487.953	526.44
488.171	534.44
488.389	523.44
488.607	525.44
488.825	511.44
489.043	523.44
489.261	541.44
489.479	532.44
489.696	570.44
489.914	559.44
490.132	547.44
490.35	567.44
490.568	559.44
490.786	574.44
491.003	573.44
491.221	575.44
491.439	599.44
491.657	603.44
491.874	608.44
492.092	615.44
492.31	596.44
492.527	613.44
492.745	607.44
492.963	621.44
493.18	618.44
493.398	617.44
493.615	638.44
493.833	623.44
494.05	630.44
494.268	638.44
494.485	593.44
494.703	646.44
494.92	630.44
495.138	634.44
495.355	632.44
495.573	626.44
495.79	641.44
496.008	635.44
496.225	626.44
496.442	619.44
496.66	647.44
496.877	632.44
497.094	626.44
497.312	614.44
497.529	642.44
497.746	647.44
497.963	641.44
498.181	656.44
498.398	670.44
498.615	700.44
498.832	664.44
499.049	695.44
499.267	716.44
499.484	715.44
499.701	727.44
499.918	764.44
500.135	768.44
500.352	798.44
500.569	821.44
500.786	835.44
501.003	799.44
501.22	797.44
501.437	757.44
501.654	779.44
501.871	770.44
