Data from 1983.PennyLincolnUp.Lamp.En5.5.200Scan.071819.P1_HRD10591_16-53-39-965.txt Node
Date: Thu Jul 18 16:53:39 EDT 2019
User: cochatt
Spectrometer: HR+D1059
Trigger mode: 1
Integration Time (sec): 1.000000E-1
Scans to average: 1
Electric dark correction enabled: true
Nonlinearity correction enabled: false
Boxcar width: 0
XAxis mode: Wavelengths
Number of Pixels in Spectrum: 2048
>>>>>Begin Spectral Data<<<<<
223.165	-12.38
223.4	-12.38
223.635	-12.38
223.869	-20.38
224.104	-22.38
224.338	-21.38
224.573	-6.38
224.808	-6.38
225.042	-3.38
225.277	-3.38
225.511	4.62
225.746	-1.38
225.98	-5.38
226.215	16.62
226.449	19.62
226.683	23.62
226.918	15.62
227.152	22.62
227.387	29.62
227.621	38.62
227.856	27.62
228.09	42.62
228.324	54.62
228.559	56.62
228.793	51.62
229.027	87.62
229.262	107.62
229.496	97.62
229.73	130.62
229.964	147.62
230.199	107.62
230.433	115.62
230.667	120.62
230.901	112.62
231.136	96.62
231.37	109.62
231.604	102.62
231.838	108.62
232.072	108.62
232.306	105.62
232.541	106.62
232.775	106.62
233.009	104.62
233.243	118.62
233.477	112.62
233.711	131.62
233.945	112.62
234.179	108.62
234.413	113.62
234.647	107.62
234.881	119.62
235.115	119.62
235.349	112.62
235.583	110.62
235.817	133.62
236.051	107.62
236.285	122.62
236.519	116.62
236.753	122.62
236.987	136.62
237.221	175.62
237.455	224.62
237.689	167.62
237.922	133.62
238.156	150.62
238.39	116.62
238.624	118.62
238.858	107.62
239.091	106.62
239.325	106.62
239.559	108.62
239.793	115.62
240.027	123.62
240.26	130.62
240.494	134.62
240.728	133.62
240.961	147.62
241.195	126.62
241.429	122.62
241.662	126.62
241.896	135.62
242.13	111.62
242.363	118.62
242.597	115.62
242.83	117.62
243.064	142.62
243.298	132.62
243.531	136.62
243.765	130.62
243.998	144.62
244.232	132.62
244.465	127.62
244.699	134.62
244.932	131.62
245.166	140.62
245.399	139.62
245.633	138.62
245.866	134.62
246.099	134.62
246.333	133.62
246.566	121.62
246.8	138.62
247.033	144.62
247.266	146.62
247.5	156.62
247.733	163.62
247.966	154.62
248.2	142.62
248.433	151.62
248.666	146.62
248.899	174.62
249.133	196.62
249.366	189.62
249.599	174.62
249.832	162.62
250.066	174.62
250.299	156.62
250.532	175.62
250.765	174.62
250.998	180.62
251.231	211.62
251.465	192.62
251.698	195.62
251.931	180.62
252.164	189.62
252.397	168.62
252.63	184.62
252.863	190.62
253.096	201.62
253.329	209.62
253.562	198.62
253.795	209.62
254.028	202.62
254.261	184.62
254.494	196.62
254.727	239.62
254.96	236.62
255.193	249.62
255.426	216.62
255.659	210.62
255.892	202.62
256.124	201.62
256.357	195.62
256.59	208.62
256.823	185.62
257.056	187.62
257.289	191.62
257.521	186.62
257.754	196.62
257.987	198.62
258.22	188.62
258.452	185.62
258.685	190.62
258.918	178.62
259.151	191.62
259.383	190.62
259.616	192.62
259.849	201.62
260.081	212.62
260.314	211.62
260.547	245.62
260.779	214.62
261.012	201.62
261.244	211.62
261.477	215.62
261.71	219.62
261.942	221.62
262.175	210.62
262.407	209.62
262.64	203.62
262.872	200.62
263.105	199.62
263.337	208.62
263.57	190.62
263.802	195.62
264.035	188.62
264.267	186.62
264.499	201.62
264.732	188.62
264.964	188.62
265.197	183.62
265.429	201.62
265.661	195.62
265.894	200.62
266.126	172.62
266.358	181.62
266.591	203.62
266.823	199.62
267.055	211.62
267.287	212.62
267.52	206.62
267.752	209.62
267.984	212.62
268.216	225.62
268.448	202.62
268.681	211.62
268.913	210.62
269.145	245.62
269.377	248.62
269.609	258.62
269.841	251.62
270.073	247.62
270.306	288.62
270.538	286.62
270.77	292.62
271.002	259.62
271.234	275.62
271.466	266.62
271.698	291.62
271.93	296.62
272.162	284.62
272.394	302.62
272.626	264.62
272.858	282.62
273.09	265.62
273.322	256.62
273.553	247.62
273.785	254.62
274.017	243.62
274.249	245.62
274.481	233.62
274.713	244.62
274.945	234.62
275.176	239.62
275.408	252.62
275.64	251.62
275.872	248.62
276.104	267.62
276.335	250.62
276.567	247.62
276.799	260.62
277.031	261.62
277.262	290.62
277.494	291.62
277.726	281.62
277.957	265.62
278.189	248.62
278.421	240.62
278.652	247.62
278.884	247.62
279.115	232.62
279.347	240.62
279.579	243.62
279.81	249.62
280.042	226.62
280.273	227.62
280.505	226.62
280.736	229.62
280.968	247.62
281.199	236.62
281.431	245.62
281.662	232.62
281.894	242.62
282.125	262.62
282.356	254.62
282.588	288.62
282.819	275.62
283.051	247.62
283.282	265.62
283.513	257.62
283.745	242.62
283.976	256.62
284.207	260.62
284.439	244.62
284.67	250.62
284.901	230.62
285.132	259.62
285.364	258.62
285.595	248.62
285.826	238.62
286.057	261.62
286.288	254.62
286.52	252.62
286.751	246.62
286.982	254.62
287.213	257.62
287.444	257.62
287.675	267.62
287.906	265.62
288.138	276.62
288.369	282.62
288.6	288.62
288.831	279.62
289.062	287.62
289.293	263.62
289.524	272.62
289.755	268.62
289.986	260.62
290.217	263.62
290.448	279.62
290.679	259.62
290.91	258.62
291.141	273.62
291.371	258.62
291.602	260.62
291.833	261.62
292.064	285.62
292.295	271.62
292.526	264.62
292.757	246.62
292.987	274.62
293.218	254.62
293.449	283.62
293.68	267.62
293.91	261.62
294.141	267.62
294.372	267.62
294.603	261.62
294.833	268.62
295.064	279.62
295.295	271.62
295.525	230.62
295.756	267.62
295.987	290.62
296.217	307.62
296.448	299.62
296.679	274.62
296.909	261.62
297.14	266.62
297.37	280.62
297.601	280.62
297.831	268.62
298.062	275.62
298.292	274.62
298.523	266.62
298.753	266.62
298.984	284.62
299.214	269.62
299.445	268.62
299.675	274.62
299.905	274.62
300.136	275.62
300.366	277.62
300.597	287.62
300.827	304.62
301.057	284.62
301.288	321.62
301.518	297.62
301.748	294.62
301.979	308.62
302.209	312.62
302.439	293.62
302.669	306.62
302.9	287.62
303.13	290.62
303.36	309.62
303.59	302.62
303.82	324.62
304.051	292.62
304.281	296.62
304.511	293.62
304.741	296.62
304.971	302.62
305.201	314.62
305.431	282.62
305.661	299.62
305.891	306.62
306.121	291.62
306.352	320.62
306.582	318.62
306.812	294.62
307.042	312.62
307.272	284.62
307.502	297.62
307.731	307.62
307.961	306.62
308.191	312.62
308.421	305.62
308.651	317.62
308.881	311.62
309.111	313.62
309.341	322.62
309.571	322.62
309.8	322.62
310.03	345.62
310.26	346.62
310.49	346.62
310.72	354.62
310.949	364.62
311.179	360.62
311.409	354.62
311.639	347.62
311.868	331.62
312.098	356.62
312.328	353.62
312.557	369.62
312.787	376.62
313.017	372.62
313.246	362.62
313.476	356.62
313.706	345.62
313.935	367.62
314.165	362.62
314.394	373.62
314.624	370.62
314.853	376.62
315.083	337.62
315.312	330.62
315.542	330.62
315.771	330.62
316.001	321.62
316.23	335.62
316.46	346.62
316.689	341.62
316.919	353.62
317.148	350.62
317.377	345.62
317.607	358.62
317.836	345.62
318.065	339.62
318.295	342.62
318.524	340.62
318.753	329.62
318.983	348.62
319.212	352.62
319.441	350.62
319.67	359.62
319.9	363.62
320.129	353.62
320.358	344.62
320.587	354.62
320.816	358.62
321.046	348.62
321.275	347.62
321.504	359.62
321.733	381.62
321.962	373.62
322.191	382.62
322.42	418.62
322.649	436.62
322.878	419.62
323.108	394.62
323.337	441.62
323.566	470.62
323.795	475.62
324.024	554.62
324.253	686.62
324.482	997.62
324.71	1497.62
324.939	2010.62
325.168	1655.62
325.397	892.62
325.626	606.62
325.855	517.62
326.084	481.62
326.313	472.62
326.542	465.62
326.77	524.62
326.999	652.62
327.228	866.62
327.457	1284.62
327.686	1459.62
327.914	988.62
328.143	676.62
328.372	582.62
328.6	547.62
328.829	539.62
329.058	542.62
329.287	532.62
329.515	487.62
329.744	484.62
329.972	426.62
330.201	474.62
330.43	498.62
330.658	499.62
330.887	568.62
331.115	547.62
331.344	485.62
331.572	464.62
331.801	460.62
332.03	460.62
332.258	422.62
332.486	437.62
332.715	408.62
332.943	426.62
333.172	402.62
333.4	418.62
333.629	417.62
333.857	422.62
334.085	455.62
334.314	441.62
334.542	446.62
334.771	437.62
334.999	413.62
335.227	403.62
335.455	394.62
335.684	415.62
335.912	419.62
336.14	409.62
336.369	410.62
336.597	415.62
336.825	401.62
337.053	393.62
337.281	389.62
337.51	397.62
337.738	389.62
337.966	386.62
338.194	415.62
338.422	408.62
338.65	393.62
338.878	397.62
339.106	393.62
339.334	400.62
339.562	388.62
339.79	380.62
340.018	386.62
340.246	397.62
340.474	396.62
340.702	373.62
340.93	415.62
341.158	388.62
341.386	378.62
341.614	386.62
341.842	391.62
342.07	391.62
342.298	395.62
342.526	382.62
342.754	365.62
342.981	379.62
343.209	377.62
343.437	385.62
343.665	389.62
343.893	377.62
344.12	388.62
344.348	384.62
344.576	400.62
344.804	400.62
345.031	427.62
345.259	396.62
345.487	404.62
345.714	397.62
345.942	382.62
346.17	366.62
346.397	358.62
346.625	382.62
346.853	368.62
347.08	375.62
347.308	392.62
347.535	401.62
347.763	394.62
347.99	405.62
348.218	388.62
348.445	379.62
348.673	382.62
348.9	378.62
349.128	379.62
349.355	380.62
349.583	354.62
349.81	348.62
350.037	368.62
350.265	353.62
350.492	358.62
350.72	367.62
350.947	360.62
351.174	378.62
351.402	385.62
351.629	383.62
351.856	394.62
352.083	404.62
352.311	385.62
352.538	400.62
352.765	406.62
352.992	407.62
353.22	376.62
353.447	376.62
353.674	359.62
353.901	366.62
354.128	376.62
354.355	353.62
354.583	351.62
354.81	360.62
355.037	356.62
355.264	345.62
355.491	341.62
355.718	348.62
355.945	349.62
356.172	373.62
356.399	352.62
356.626	352.62
356.853	342.62
357.08	340.62
357.307	336.62
357.534	353.62
357.761	361.62
357.988	369.62
358.215	372.62
358.441	376.62
358.668	360.62
358.895	372.62
359.122	374.62
359.349	372.62
359.576	386.62
359.802	407.62
360.029	429.62
360.256	439.62
360.483	423.62
360.709	409.62
360.936	374.62
361.163	389.62
361.39	366.62
361.616	381.62
361.843	389.62
362.07	377.62
362.296	374.62
362.523	381.62
362.749	377.62
362.976	366.62
363.203	369.62
363.429	371.62
363.656	372.62
363.882	355.62
364.109	353.62
364.335	363.62
364.562	354.62
364.788	347.62
365.015	376.62
365.241	355.62
365.468	374.62
365.694	389.62
365.92	390.62
366.147	369.62
366.373	341.62
366.599	356.62
366.826	386.62
367.052	364.62
367.278	374.62
367.505	357.62
367.731	352.62
367.957	357.62
368.184	364.62
368.41	363.62
368.636	369.62
368.862	360.62
369.089	358.62
369.315	361.62
369.541	335.62
369.767	352.62
369.993	359.62
370.219	319.62
370.445	346.62
370.672	348.62
370.898	338.62
371.124	353.62
371.35	351.62
371.576	363.62
371.802	339.62
372.028	354.62
372.254	342.62
372.48	354.62
372.706	371.62
372.932	372.62
373.158	356.62
373.384	359.62
373.61	349.62
373.835	339.62
374.061	340.62
374.287	358.62
374.513	372.62
374.739	347.62
374.965	370.62
375.191	352.62
375.416	357.62
375.642	349.62
375.868	366.62
376.094	345.62
376.319	333.62
376.545	343.62
376.771	346.62
376.997	356.62
377.222	346.62
377.448	347.62
377.674	349.62
377.899	352.62
378.125	375.62
378.35	343.62
378.576	348.62
378.802	351.62
379.027	359.62
379.253	346.62
379.478	347.62
379.704	345.62
379.929	348.62
380.155	353.62
380.38	347.62
380.606	361.62
380.831	363.62
381.057	366.62
381.282	345.62
381.507	358.62
381.733	346.62
381.958	357.62
382.184	354.62
382.409	333.62
382.634	354.62
382.86	355.62
383.085	358.62
383.31	343.62
383.535	351.62
383.761	354.62
383.986	336.62
384.211	344.62
384.436	363.62
384.662	373.62
384.887	363.62
385.112	347.62
385.337	360.62
385.562	366.62
385.787	370.62
386.013	387.62
386.238	371.62
386.463	375.62
386.688	363.62
386.913	370.62
387.138	389.62
387.363	376.62
387.588	363.62
387.813	362.62
388.038	373.62
388.263	378.62
388.488	371.62
388.713	375.62
388.938	368.62
389.163	387.62
389.387	378.62
389.612	376.62
389.837	382.62
390.062	375.62
390.287	372.62
390.512	377.62
390.736	365.62
390.961	373.62
391.186	387.62
391.411	354.62
391.636	378.62
391.86	397.62
392.085	396.62
392.31	404.62
392.534	390.62
392.759	390.62
392.984	370.62
393.208	395.62
393.433	382.62
393.658	396.62
393.882	378.62
394.107	383.62
394.331	379.62
394.556	379.62
394.78	386.62
395.005	380.62
395.229	370.62
395.454	380.62
395.678	393.62
395.903	405.62
396.127	423.62
396.352	431.62
396.576	413.62
396.801	396.62
397.025	388.62
397.249	406.62
397.474	410.62
397.698	408.62
397.922	402.62
398.147	419.62
398.371	416.62
398.595	414.62
398.82	402.62
399.044	441.62
399.268	440.62
399.492	468.62
399.717	465.62
399.941	481.62
400.165	527.62
400.389	525.62
400.613	488.62
400.837	442.62
401.062	456.62
401.286	426.62
401.51	441.62
401.734	391.62
401.958	421.62
402.182	429.62
402.406	446.62
402.63	446.62
402.854	446.62
403.078	437.62
403.302	433.62
403.526	457.62
403.75	435.62
403.974	406.62
404.198	427.62
404.422	464.62
404.645	443.62
404.869	441.62
405.093	473.62
405.317	467.62
405.541	516.62
405.765	480.62
405.988	458.62
406.212	459.62
406.436	474.62
406.66	519.62
406.883	486.62
407.107	502.62
407.331	532.62
407.555	571.62
407.778	576.62
408.002	517.62
408.226	482.62
408.449	504.62
408.673	478.62
408.896	478.62
409.12	527.62
409.344	510.62
409.567	474.62
409.791	442.62
410.014	432.62
410.238	428.62
410.461	430.62
410.685	443.62
410.908	448.62
411.132	495.62
411.355	498.62
411.578	479.62
411.802	427.62
412.025	435.62
412.249	436.62
412.472	452.62
412.695	460.62
412.919	449.62
413.142	445.62
413.365	436.62
413.589	425.62
413.812	424.62
414.035	431.62
414.258	416.62
414.482	431.62
414.705	416.62
414.928	413.62
415.151	415.62
415.374	415.62
415.597	408.62
415.821	408.62
416.044	427.62
416.267	424.62
416.49	417.62
416.713	418.62
416.936	406.62
417.159	422.62
417.382	396.62
417.605	404.62
417.828	405.62
418.051	468.62
418.274	443.62
418.497	426.62
418.72	403.62
418.943	418.62
419.166	432.62
419.389	440.62
419.611	434.62
419.834	418.62
420.057	444.62
420.28	452.62
420.503	421.62
420.726	452.62
420.948	454.62
421.171	468.62
421.394	516.62
421.617	473.62
421.839	452.62
422.062	443.62
422.285	460.62
422.507	520.62
422.73	517.62
422.953	519.62
423.175	474.62
423.398	470.62
423.621	465.62
423.843	484.62
424.066	471.62
424.288	475.62
424.511	479.62
424.733	544.62
424.956	587.62
425.178	571.62
425.401	565.62
425.623	582.62
425.846	514.62
426.068	470.62
426.291	474.62
426.513	461.62
426.735	460.62
426.958	529.62
427.18	580.62
427.402	640.62
427.625	747.62
427.847	654.62
428.069	572.62
428.292	526.62
428.514	466.62
428.736	447.62
428.958	455.62
429.181	428.62
429.403	432.62
429.625	422.62
429.847	450.62
430.069	518.62
430.292	524.62
430.514	474.62
430.736	450.62
430.958	430.62
431.18	415.62
431.402	406.62
431.624	397.62
431.846	408.62
432.068	399.62
432.29	409.62
432.512	416.62
432.734	413.62
432.956	411.62
433.178	425.62
433.4	423.62
433.622	433.62
433.844	405.62
434.066	395.62
434.287	406.62
434.509	422.62
434.731	419.62
434.953	416.62
435.175	450.62
435.397	491.62
435.618	481.62
435.84	511.62
436.062	568.62
436.284	633.62
436.505	531.62
436.727	452.62
436.949	465.62
437.17	444.62
437.392	436.62
437.614	439.62
437.835	481.62
438.057	554.62
438.278	624.62
438.5	614.62
438.721	648.62
438.943	639.62
439.165	548.62
439.386	488.62
439.608	487.62
439.829	483.62
440.05	500.62
440.272	546.62
440.493	507.62
440.715	466.62
440.936	457.62
441.158	437.62
441.379	447.62
441.6	456.62
441.822	468.62
442.043	528.62
442.264	597.62
442.486	596.62
442.707	528.62
442.928	477.62
443.149	486.62
443.371	536.62
443.592	543.62
443.813	606.62
444.034	657.62
444.255	551.62
444.476	482.62
444.698	476.62
444.919	452.62
445.14	552.62
445.361	538.62
445.582	498.62
445.803	555.62
446.024	632.62
446.245	644.62
446.466	577.62
446.687	524.62
446.908	477.62
447.129	457.62
447.35	448.62
447.571	442.62
447.792	423.62
448.013	433.62
448.234	453.62
448.455	497.62
448.675	574.62
448.896	672.62
449.117	584.62
449.338	556.62
449.559	632.62
449.779	702.62
450	588.62
450.221	491.62
450.442	435.62
450.662	428.62
450.883	449.62
451.104	465.62
451.324	448.62
451.545	415.62
451.766	417.62
451.986	408.62
452.207	405.62
452.428	388.62
452.648	382.62
452.869	395.62
453.089	390.62
453.31	414.62
453.53	400.62
453.751	403.62
453.971	393.62
454.192	422.62
454.412	407.62
454.633	409.62
454.853	387.62
455.073	385.62
455.294	421.62
455.514	463.62
455.734	449.62
455.955	418.62
456.175	385.62
456.395	362.62
456.616	376.62
456.836	378.62
457.056	363.62
457.276	354.62
457.497	361.62
457.717	382.62
457.937	386.62
458.157	380.62
458.377	396.62
458.598	426.62
458.818	468.62
459.038	547.62
459.258	534.62
459.478	471.62
459.698	417.62
459.918	409.62
460.138	423.62
460.358	424.62
460.578	418.62
460.798	408.62
461.018	407.62
461.238	423.62
461.458	425.62
461.678	406.62
461.898	415.62
462.118	395.62
462.338	439.62
462.558	432.62
462.777	439.62
462.997	435.62
463.217	446.62
463.437	440.62
463.657	429.62
463.876	410.62
464.096	415.62
464.316	435.62
464.536	462.62
464.755	474.62
464.975	457.62
465.195	498.62
465.414	570.62
465.634	515.62
465.854	459.62
466.073	434.62
466.293	411.62
466.512	396.62
466.732	406.62
466.951	412.62
467.171	390.62
467.391	410.62
467.61	415.62
467.829	420.62
468.049	401.62
468.268	392.62
468.488	402.62
468.707	377.62
468.927	390.62
469.146	389.62
469.365	394.62
469.585	401.62
469.804	402.62
470.023	413.62
470.243	417.62
470.462	417.62
470.681	458.62
470.901	434.62
471.12	423.62
471.339	404.62
471.558	405.62
471.777	408.62
471.997	397.62
472.216	404.62
472.435	404.62
472.654	406.62
472.873	414.62
473.092	421.62
473.311	407.62
473.53	410.62
473.749	414.62
473.968	442.62
474.187	521.62
474.406	538.62
474.625	454.62
474.844	411.62
475.063	395.62
475.282	394.62
475.501	404.62
475.72	419.62
475.939	425.62
476.158	425.62
476.377	406.62
476.596	384.62
476.814	411.62
477.033	432.62
477.252	423.62
477.471	444.62
477.69	427.62
477.908	440.62
478.127	444.62
478.346	435.62
478.564	448.62
478.783	453.62
479.002	450.62
479.22	435.62
479.439	463.62
479.658	481.62
479.876	488.62
480.095	495.62
480.313	513.62
480.532	492.62
480.751	478.62
480.969	497.62
481.188	523.62
481.406	535.62
481.624	498.62
481.843	463.62
482.061	473.62
482.28	487.62
482.498	480.62
482.717	490.62
482.935	465.62
483.153	450.62
483.372	444.62
483.59	483.62
483.808	468.62
484.027	451.62
484.245	484.62
484.463	461.62
484.681	492.62
484.9	474.62
485.118	467.62
485.336	465.62
485.554	475.62
485.772	493.62
485.99	486.62
486.209	469.62
486.427	501.62
486.645	520.62
486.863	530.62
487.081	518.62
487.299	534.62
487.517	533.62
487.735	510.62
487.953	507.62
488.171	510.62
488.389	519.62
488.607	488.62
488.825	489.62
489.043	509.62
489.261	510.62
489.479	517.62
489.696	512.62
489.914	528.62
490.132	524.62
490.35	541.62
490.568	534.62
490.786	545.62
491.003	530.62
491.221	571.62
491.439	585.62
491.657	563.62
491.874	579.62
492.092	590.62
492.31	587.62
492.527	603.62
492.745	595.62
492.963	588.62
493.18	593.62
493.398	608.62
493.615	598.62
493.833	598.62
494.05	599.62
494.268	585.62
494.485	611.62
494.703	599.62
494.92	613.62
495.138	575.62
495.355	634.62
495.573	609.62
495.79	618.62
496.008	612.62
496.225	616.62
496.442	616.62
496.66	609.62
496.877	608.62
497.094	616.62
497.312	614.62
497.529	641.62
497.746	634.62
497.963	637.62
498.181	627.62
498.398	652.62
498.615	673.62
498.832	665.62
499.049	672.62
499.267	681.62
499.484	712.62
499.701	716.62
499.918	699.62
500.135	760.62
500.352	795.62
500.569	795.62
500.786	811.62
501.003	786.62
501.22	793.62
501.437	775.62
501.654	748.62
501.871	764.62
502.088	726.62
