Data from 1983.PennyLincolnUp.Lamp.En5.5.200Scan.071819.P1_HRD10591_16-55-14-966.txt Node
Date: Thu Jul 18 16:55:14 EDT 2019
User: cochatt
Spectrometer: HR+D1059
Trigger mode: 1
Integration Time (sec): 1.000000E-1
Scans to average: 1
Electric dark correction enabled: true
Nonlinearity correction enabled: false
Boxcar width: 0
XAxis mode: Wavelengths
Number of Pixels in Spectrum: 2048
>>>>>Begin Spectral Data<<<<<
223.165	-15.56
223.4	-15.56
223.635	-15.56
223.869	-3.56
224.104	-20.56
224.338	-12.56
224.573	-8.56
224.808	-17.56
225.042	-8.56
225.277	-22.56
225.511	-2.56
225.746	-0.56
225.98	22.44
226.215	11.44
226.449	31.44
226.683	3.44
226.918	24.44
227.152	19.44
227.387	20.44
227.621	31.44
227.856	30.44
228.09	42.44
228.324	57.44
228.559	58.44
228.793	69.44
229.027	95.44
229.262	91.44
229.496	107.44
229.73	122.44
229.964	149.44
230.199	116.44
230.433	106.44
230.667	109.44
230.901	116.44
231.136	120.44
231.37	112.44
231.604	98.44
231.838	114.44
232.072	112.44
232.306	114.44
232.541	99.44
232.775	114.44
233.009	100.44
233.243	123.44
233.477	109.44
233.711	112.44
233.945	108.44
234.179	115.44
234.413	117.44
234.647	103.44
234.881	102.44
235.115	99.44
235.349	131.44
235.583	122.44
235.817	125.44
236.051	119.44
236.285	119.44
236.519	128.44
236.753	129.44
236.987	131.44
237.221	169.44
237.455	209.44
237.689	167.44
237.922	139.44
238.156	143.44
238.39	117.44
238.624	124.44
238.858	114.44
239.091	114.44
239.325	112.44
239.559	118.44
239.793	127.44
240.027	128.44
240.26	135.44
240.494	148.44
240.728	152.44
240.961	140.44
241.195	153.44
241.429	129.44
241.662	129.44
241.896	132.44
242.13	129.44
242.363	131.44
242.597	130.44
242.83	121.44
243.064	129.44
243.298	125.44
243.531	142.44
243.765	134.44
243.998	142.44
244.232	132.44
244.465	145.44
244.699	127.44
244.932	129.44
245.166	131.44
245.399	115.44
245.633	131.44
245.866	140.44
246.099	132.44
246.333	135.44
246.566	150.44
246.8	158.44
247.033	149.44
247.266	146.44
247.5	153.44
247.733	155.44
247.966	166.44
248.2	160.44
248.433	155.44
248.666	172.44
248.899	154.44
249.133	201.44
249.366	190.44
249.599	185.44
249.832	167.44
250.066	169.44
250.299	164.44
250.532	191.44
250.765	225.44
250.998	233.44
251.231	204.44
251.465	195.44
251.698	198.44
251.931	187.44
252.164	175.44
252.397	162.44
252.63	177.44
252.863	208.44
253.096	206.44
253.329	239.44
253.562	210.44
253.795	206.44
254.028	212.44
254.261	193.44
254.494	211.44
254.727	241.44
254.96	272.44
255.193	243.44
255.426	224.44
255.659	229.44
255.892	239.44
256.124	250.44
256.357	237.44
256.59	239.44
256.823	216.44
257.056	205.44
257.289	208.44
257.521	179.44
257.754	190.44
257.987	212.44
258.22	205.44
258.452	194.44
258.685	196.44
258.918	199.44
259.151	177.44
259.383	202.44
259.616	215.44
259.849	203.44
260.081	227.44
260.314	243.44
260.547	231.44
260.779	235.44
261.012	226.44
261.244	215.44
261.477	209.44
261.71	211.44
261.942	236.44
262.175	223.44
262.407	230.44
262.64	195.44
262.872	188.44
263.105	202.44
263.337	202.44
263.57	201.44
263.802	199.44
264.035	195.44
264.267	190.44
264.499	198.44
264.732	200.44
264.964	196.44
265.197	209.44
265.429	205.44
265.661	199.44
265.894	210.44
266.126	197.44
266.358	203.44
266.591	187.44
266.823	215.44
267.055	214.44
267.287	211.44
267.52	208.44
267.752	232.44
267.984	212.44
268.216	215.44
268.448	209.44
268.681	224.44
268.913	228.44
269.145	266.44
269.377	262.44
269.609	249.44
269.841	255.44
270.073	248.44
270.306	273.44
270.538	285.44
270.77	299.44
271.002	267.44
271.234	261.44
271.466	279.44
271.698	283.44
271.93	312.44
272.162	298.44
272.394	276.44
272.626	283.44
272.858	259.44
273.09	246.44
273.322	270.44
273.553	259.44
273.785	257.44
274.017	265.44
274.249	243.44
274.481	232.44
274.713	234.44
274.945	251.44
275.176	243.44
275.408	256.44
275.64	235.44
275.872	232.44
276.104	248.44
276.335	244.44
276.567	257.44
276.799	277.44
277.031	281.44
277.262	308.44
277.494	305.44
277.726	280.44
277.957	268.44
278.189	266.44
278.421	262.44
278.652	259.44
278.884	241.44
279.115	234.44
279.347	248.44
279.579	242.44
279.81	258.44
280.042	248.44
280.273	239.44
280.505	256.44
280.736	256.44
280.968	245.44
281.199	260.44
281.431	240.44
281.662	249.44
281.894	256.44
282.125	244.44
282.356	260.44
282.588	304.44
282.819	292.44
283.051	258.44
283.282	250.44
283.513	264.44
283.745	259.44
283.976	268.44
284.207	276.44
284.439	259.44
284.67	247.44
284.901	232.44
285.132	262.44
285.364	243.44
285.595	255.44
285.826	259.44
286.057	248.44
286.288	258.44
286.52	254.44
286.751	261.44
286.982	251.44
287.213	247.44
287.444	265.44
287.675	263.44
287.906	281.44
288.138	264.44
288.369	278.44
288.6	289.44
288.831	262.44
289.062	267.44
289.293	274.44
289.524	267.44
289.755	261.44
289.986	286.44
290.217	281.44
290.448	270.44
290.679	259.44
290.91	273.44
291.141	256.44
291.371	265.44
291.602	275.44
291.833	248.44
292.064	265.44
292.295	267.44
292.526	275.44
292.757	272.44
292.987	278.44
293.218	237.44
293.449	262.44
293.68	255.44
293.91	273.44
294.141	261.44
294.372	266.44
294.603	267.44
294.833	249.44
295.064	267.44
295.295	266.44
295.525	283.44
295.756	275.44
295.987	287.44
296.217	293.44
296.448	319.44
296.679	291.44
296.909	279.44
297.14	291.44
297.37	290.44
297.601	292.44
297.831	275.44
298.062	280.44
298.292	282.44
298.523	287.44
298.753	296.44
298.984	283.44
299.214	288.44
299.445	292.44
299.675	259.44
299.905	273.44
300.136	282.44
300.366	276.44
300.597	280.44
300.827	301.44
301.057	298.44
301.288	309.44
301.518	303.44
301.748	287.44
301.979	305.44
302.209	296.44
302.439	314.44
302.669	311.44
302.9	303.44
303.13	289.44
303.36	314.44
303.59	322.44
303.82	311.44
304.051	314.44
304.281	291.44
304.511	301.44
304.741	293.44
304.971	293.44
305.201	295.44
305.431	292.44
305.661	319.44
305.891	307.44
306.121	322.44
306.352	303.44
306.582	329.44
306.812	309.44
307.042	312.44
307.272	305.44
307.502	300.44
307.731	309.44
307.961	328.44
308.191	304.44
308.421	311.44
308.651	314.44
308.881	304.44
309.111	320.44
309.341	324.44
309.571	336.44
309.8	349.44
310.03	352.44
310.26	364.44
310.49	359.44
310.72	359.44
310.949	374.44
311.179	385.44
311.409	355.44
311.639	345.44
311.868	357.44
312.098	348.44
312.328	368.44
312.557	381.44
312.787	404.44
313.017	391.44
313.246	375.44
313.476	335.44
313.706	345.44
313.935	369.44
314.165	380.44
314.394	387.44
314.624	391.44
314.853	358.44
315.083	355.44
315.312	345.44
315.542	361.44
315.771	349.44
316.001	346.44
316.23	349.44
316.46	357.44
316.689	347.44
316.919	351.44
317.148	377.44
317.377	359.44
317.607	368.44
317.836	367.44
318.065	364.44
318.295	359.44
318.524	355.44
318.753	341.44
318.983	360.44
319.212	350.44
319.441	356.44
319.67	360.44
319.9	375.44
320.129	361.44
320.358	371.44
320.587	363.44
320.816	378.44
321.046	371.44
321.275	393.44
321.504	376.44
321.733	373.44
321.962	405.44
322.191	402.44
322.42	405.44
322.649	423.44
322.878	411.44
323.108	448.44
323.337	459.44
323.566	476.44
323.795	508.44
324.024	582.44
324.253	734.44
324.482	1035.44
324.71	1629.44
324.939	2129.44
325.168	1724.44
325.397	887.44
325.626	643.44
325.855	543.44
326.084	489.44
326.313	469.44
326.542	511.44
326.77	565.44
326.999	693.44
327.228	936.44
327.457	1360.44
327.686	1574.44
327.914	1070.44
328.143	741.44
328.372	663.44
328.6	589.44
328.829	572.44
329.058	576.44
329.287	589.44
329.515	539.44
329.744	512.44
329.972	513.44
330.201	574.44
330.43	624.44
330.658	646.44
330.887	639.44
331.115	616.44
331.344	535.44
331.572	475.44
331.801	455.44
332.03	476.44
332.258	439.44
332.486	435.44
332.715	451.44
332.943	439.44
333.172	440.44
333.4	434.44
333.629	461.44
333.857	486.44
334.085	520.44
334.314	541.44
334.542	576.44
334.771	601.44
334.999	529.44
335.227	488.44
335.455	447.44
335.684	424.44
335.912	423.44
336.14	400.44
336.369	415.44
336.597	422.44
336.825	433.44
337.053	395.44
337.281	411.44
337.51	410.44
337.738	428.44
337.966	425.44
338.194	413.44
338.422	415.44
338.65	409.44
338.878	412.44
339.106	392.44
339.334	398.44
339.562	408.44
339.79	383.44
340.018	387.44
340.246	395.44
340.474	420.44
340.702	403.44
340.93	395.44
341.158	393.44
341.386	398.44
341.614	395.44
341.842	406.44
342.07	428.44
342.298	395.44
342.526	382.44
342.754	384.44
342.981	384.44
343.209	380.44
343.437	373.44
343.665	391.44
343.893	403.44
344.12	406.44
344.348	388.44
344.576	377.44
344.804	409.44
345.031	415.44
345.259	414.44
345.487	400.44
345.714	391.44
345.942	403.44
346.17	391.44
346.397	397.44
346.625	392.44
346.853	394.44
347.08	389.44
347.308	392.44
347.535	410.44
347.763	398.44
347.99	423.44
348.218	391.44
348.445	415.44
348.673	415.44
348.9	384.44
349.128	354.44
349.355	377.44
349.583	383.44
349.81	374.44
350.037	377.44
350.265	354.44
350.492	376.44
350.72	367.44
350.947	392.44
351.174	385.44
351.402	374.44
351.629	379.44
351.856	389.44
352.083	411.44
352.311	416.44
352.538	413.44
352.765	402.44
352.992	389.44
353.22	397.44
353.447	395.44
353.674	398.44
353.901	371.44
354.128	349.44
354.355	355.44
354.583	378.44
354.81	355.44
355.037	359.44
355.264	357.44
355.491	347.44
355.718	366.44
355.945	357.44
356.172	360.44
356.399	347.44
356.626	355.44
356.853	363.44
357.08	343.44
357.307	347.44
357.534	375.44
357.761	355.44
357.988	339.44
358.215	372.44
358.441	360.44
358.668	363.44
358.895	348.44
359.122	377.44
359.349	377.44
359.576	394.44
359.802	420.44
360.029	442.44
360.256	465.44
360.483	413.44
360.709	397.44
360.936	384.44
361.163	380.44
361.39	385.44
361.616	382.44
361.843	375.44
362.07	381.44
362.296	400.44
362.523	391.44
362.749	373.44
362.976	378.44
363.203	378.44
363.429	370.44
363.656	371.44
363.882	372.44
364.109	375.44
364.335	371.44
364.562	387.44
364.788	370.44
365.015	362.44
365.241	377.44
365.468	371.44
365.694	362.44
365.92	349.44
366.147	347.44
366.373	353.44
366.599	379.44
366.826	347.44
367.052	368.44
367.278	371.44
367.505	353.44
367.731	377.44
367.957	356.44
368.184	363.44
368.41	362.44
368.636	386.44
368.862	391.44
369.089	379.44
369.315	337.44
369.541	349.44
369.767	368.44
369.993	381.44
370.219	378.44
370.445	380.44
370.672	339.44
370.898	365.44
371.124	361.44
371.35	371.44
371.576	367.44
371.802	352.44
372.028	341.44
372.254	344.44
372.48	351.44
372.706	355.44
372.932	356.44
373.158	362.44
373.384	347.44
373.61	361.44
373.835	355.44
374.061	373.44
374.287	360.44
374.513	360.44
374.739	379.44
374.965	360.44
375.191	342.44
375.416	360.44
375.642	355.44
375.868	370.44
376.094	345.44
376.319	353.44
376.545	353.44
376.771	363.44
376.997	349.44
377.222	365.44
377.448	351.44
377.674	340.44
377.899	339.44
378.125	354.44
378.35	344.44
378.576	344.44
378.802	336.44
379.027	364.44
379.253	343.44
379.478	350.44
379.704	356.44
379.929	351.44
380.155	370.44
380.38	347.44
380.606	359.44
380.831	365.44
381.057	345.44
381.282	347.44
381.507	356.44
381.733	361.44
381.958	374.44
382.184	360.44
382.409	359.44
382.634	359.44
382.86	374.44
383.085	360.44
383.31	372.44
383.535	359.44
383.761	371.44
383.986	354.44
384.211	362.44
384.436	376.44
384.662	383.44
384.887	373.44
385.112	375.44
385.337	370.44
385.562	386.44
385.787	390.44
386.013	376.44
386.238	373.44
386.463	391.44
386.688	411.44
386.913	372.44
387.138	387.44
387.363	360.44
387.588	381.44
387.813	395.44
388.038	369.44
388.263	377.44
388.488	370.44
388.713	370.44
388.938	390.44
389.163	392.44
389.387	386.44
389.612	401.44
389.837	370.44
390.062	379.44
390.287	387.44
390.512	367.44
390.736	394.44
390.961	385.44
391.186	382.44
391.411	374.44
391.636	380.44
391.86	387.44
392.085	369.44
392.31	379.44
392.534	383.44
392.759	384.44
392.984	407.44
393.208	381.44
393.433	360.44
393.658	373.44
393.882	387.44
394.107	378.44
394.331	375.44
394.556	370.44
394.78	391.44
395.005	393.44
395.229	364.44
395.454	393.44
395.678	405.44
395.903	404.44
396.127	412.44
396.352	409.44
396.576	389.44
396.801	379.44
397.025	387.44
397.249	391.44
397.474	412.44
397.698	424.44
397.922	422.44
398.147	428.44
398.371	443.44
398.595	423.44
398.82	435.44
399.044	415.44
399.268	441.44
399.492	450.44
399.717	470.44
399.941	517.44
400.165	517.44
400.389	533.44
400.613	498.44
400.837	449.44
401.062	439.44
401.286	419.44
401.51	447.44
401.734	412.44
401.958	451.44
402.182	449.44
402.406	459.44
402.63	452.44
402.854	455.44
403.078	443.44
403.302	439.44
403.526	443.44
403.75	451.44
403.974	431.44
404.198	430.44
404.422	447.44
404.645	463.44
404.869	484.44
405.093	497.44
405.317	509.44
405.541	556.44
405.765	523.44
405.988	496.44
406.212	480.44
406.436	490.44
406.66	520.44
406.883	504.44
407.107	512.44
407.331	542.44
407.555	584.44
407.778	583.44
408.002	548.44
408.226	492.44
408.449	482.44
408.673	487.44
408.896	499.44
409.12	547.44
409.344	541.44
409.567	471.44
409.791	444.44
410.014	450.44
410.238	456.44
410.461	451.44
410.685	455.44
410.908	460.44
411.132	490.44
411.355	517.44
411.578	513.44
411.802	465.44
412.025	455.44
412.249	441.44
412.472	509.44
412.695	519.44
412.919	521.44
413.142	475.44
413.365	451.44
413.589	450.44
413.812	416.44
414.035	434.44
414.258	434.44
414.482	416.44
414.705	449.44
414.928	420.44
415.151	426.44
415.374	408.44
415.597	415.44
415.821	413.44
416.044	439.44
416.267	428.44
416.49	430.44
416.713	423.44
416.936	425.44
417.159	406.44
417.382	423.44
417.605	422.44
417.828	443.44
418.051	471.44
418.274	442.44
418.497	441.44
418.72	434.44
418.943	413.44
419.166	395.44
419.389	463.44
419.611	442.44
419.834	463.44
420.057	463.44
420.28	450.44
420.503	480.44
420.726	444.44
420.948	475.44
421.171	499.44
421.394	509.44
421.617	460.44
421.839	442.44
422.062	451.44
422.285	485.44
422.507	498.44
422.73	580.44
422.953	548.44
423.175	492.44
423.398	470.44
423.621	472.44
423.843	480.44
424.066	459.44
424.288	456.44
424.511	487.44
424.733	550.44
424.956	592.44
425.178	571.44
425.401	582.44
425.623	573.44
425.846	513.44
426.068	475.44
426.291	468.44
426.513	464.44
426.735	487.44
426.958	527.44
427.18	596.44
427.402	685.44
427.625	747.44
427.847	698.44
428.069	631.44
428.292	543.44
428.514	496.44
428.736	464.44
428.958	458.44
429.181	452.44
429.403	436.44
429.625	451.44
429.847	484.44
430.069	551.44
430.292	531.44
430.514	452.44
430.736	446.44
430.958	439.44
431.18	422.44
431.402	442.44
431.624	419.44
431.846	397.44
432.068	409.44
432.29	417.44
432.512	417.44
432.734	442.44
432.956	422.44
433.178	419.44
433.4	412.44
433.622	387.44
433.844	428.44
434.066	444.44
434.287	449.44
434.509	425.44
434.731	443.44
434.953	419.44
435.175	459.44
435.397	473.44
435.618	470.44
435.84	545.44
436.062	598.44
436.284	660.44
436.505	555.44
436.727	492.44
436.949	472.44
437.17	446.44
437.392	440.44
437.614	450.44
437.835	483.44
438.057	568.44
438.278	665.44
438.5	649.44
438.721	662.44
438.943	654.44
439.165	553.44
439.386	484.44
439.608	500.44
439.829	500.44
440.05	528.44
440.272	548.44
440.493	530.44
440.715	481.44
440.936	469.44
441.158	467.44
441.379	439.44
441.6	466.44
441.822	483.44
442.043	525.44
442.264	560.44
442.486	616.44
442.707	524.44
442.928	477.44
443.149	517.44
443.371	543.44
443.592	547.44
443.813	650.44
444.034	671.44
444.255	567.44
444.476	516.44
444.698	455.44
444.919	476.44
445.14	585.44
445.361	539.44
445.582	527.44
445.803	584.44
446.024	668.44
446.245	639.44
446.466	607.44
446.687	505.44
446.908	485.44
447.129	458.44
447.35	447.44
447.571	459.44
447.792	452.44
448.013	463.44
448.234	469.44
448.455	516.44
448.675	604.44
448.896	672.44
449.117	595.44
449.338	557.44
449.559	652.44
449.779	699.44
450	572.44
450.221	488.44
450.442	469.44
450.662	445.44
450.883	463.44
451.104	483.44
451.324	476.44
451.545	435.44
451.766	437.44
451.986	404.44
452.207	392.44
452.428	390.44
452.648	387.44
452.869	418.44
453.089	400.44
453.31	409.44
453.53	408.44
453.751	409.44
453.971	420.44
454.192	422.44
454.412	428.44
454.633	403.44
454.853	404.44
455.073	392.44
455.294	438.44
455.514	476.44
455.734	466.44
455.955	404.44
456.175	393.44
456.395	383.44
456.616	359.44
456.836	369.44
457.056	379.44
457.276	359.44
457.497	375.44
457.717	409.44
457.937	382.44
458.157	375.44
458.377	414.44
458.598	408.44
458.818	466.44
459.038	552.44
459.258	552.44
459.478	453.44
459.698	437.44
459.918	434.44
460.138	405.44
460.358	415.44
460.578	398.44
460.798	408.44
461.018	452.44
461.238	394.44
461.458	424.44
461.678	395.44
461.898	411.44
462.118	408.44
462.338	409.44
462.558	437.44
462.777	420.44
462.997	457.44
463.217	449.44
463.437	431.44
463.657	452.44
463.876	427.44
464.096	435.44
464.316	449.44
464.536	437.44
464.755	443.44
464.975	438.44
465.195	500.44
465.414	572.44
465.634	512.44
465.854	444.44
466.073	451.44
466.293	435.44
466.512	432.44
466.732	421.44
466.951	402.44
467.171	405.44
467.391	419.44
467.61	415.44
467.829	421.44
468.049	435.44
468.268	428.44
468.488	418.44
468.707	406.44
468.927	407.44
469.146	397.44
469.365	419.44
469.585	389.44
469.804	406.44
470.023	395.44
470.243	420.44
470.462	422.44
470.681	454.44
470.901	431.44
471.12	433.44
471.339	413.44
471.558	416.44
471.777	419.44
471.997	431.44
472.216	437.44
472.435	508.44
472.654	486.44
472.873	447.44
473.092	421.44
473.311	432.44
473.53	421.44
473.749	428.44
473.968	458.44
474.187	549.44
474.406	577.44
474.625	460.44
474.844	419.44
475.063	425.44
475.282	422.44
475.501	420.44
475.72	428.44
475.939	417.44
476.158	428.44
476.377	428.44
476.596	405.44
476.814	445.44
477.033	452.44
477.252	422.44
477.471	442.44
477.69	444.44
477.908	452.44
478.127	445.44
478.346	447.44
478.564	469.44
478.783	485.44
479.002	454.44
479.22	463.44
479.439	495.44
479.658	521.44
479.876	514.44
480.095	512.44
480.313	516.44
480.532	515.44
480.751	506.44
480.969	540.44
481.188	644.44
481.406	747.44
481.624	601.44
481.843	548.44
482.061	525.44
482.28	492.44
482.498	495.44
482.717	482.44
482.935	476.44
483.153	505.44
483.372	482.44
483.59	479.44
483.808	480.44
484.027	490.44
484.245	484.44
484.463	485.44
484.681	474.44
484.9	485.44
485.118	500.44
485.336	500.44
485.554	501.44
485.772	516.44
485.99	492.44
486.209	510.44
486.427	511.44
486.645	508.44
486.863	527.44
487.081	519.44
487.299	528.44
487.517	524.44
487.735	529.44
487.953	527.44
488.171	527.44
488.389	525.44
488.607	537.44
488.825	531.44
489.043	543.44
489.261	545.44
489.479	525.44
489.696	519.44
489.914	537.44
490.132	554.44
490.35	575.44
490.568	545.44
490.786	571.44
491.003	576.44
491.221	608.44
491.439	594.44
491.657	614.44
491.874	632.44
492.092	627.44
492.31	619.44
492.527	623.44
492.745	616.44
492.963	635.44
493.18	635.44
493.398	650.44
493.615	640.44
493.833	649.44
494.05	630.44
494.268	632.44
494.485	645.44
494.703	639.44
494.92	637.44
495.138	621.44
495.355	615.44
495.573	639.44
495.79	625.44
496.008	627.44
496.225	635.44
496.442	628.44
496.66	630.44
496.877	603.44
497.094	629.44
497.312	629.44
497.529	634.44
497.746	636.44
497.963	653.44
498.181	656.44
498.398	663.44
498.615	668.44
498.832	679.44
499.049	724.44
499.267	703.44
499.484	709.44
499.701	724.44
499.918	744.44
500.135	772.44
500.352	815.44
500.569	815.44
500.786	799.44
501.003	810.44
501.22	779.44
501.437	772.44
501.654	764.44
501.871	802.44
