Data from 1983.PennyLincolnUp.Lamp.En5.5.200Scan.071819.P1_HRD10591_16-53-07-965.txt Node
Date: Thu Jul 18 16:53:07 EDT 2019
User: cochatt
Spectrometer: HR+D1059
Trigger mode: 1
Integration Time (sec): 1.000000E-1
Scans to average: 1
Electric dark correction enabled: true
Nonlinearity correction enabled: false
Boxcar width: 0
XAxis mode: Wavelengths
Number of Pixels in Spectrum: 2048
>>>>>Begin Spectral Data<<<<<
223.165	-1.5
223.4	-1.5
223.635	-1.5
223.869	-25.5
224.104	-29.5
224.338	-21.5
224.573	-9.5
224.808	-14.5
225.042	2.5
225.277	1.5
225.511	-2.5
225.746	8.5
225.98	16.5
226.215	-6.5
226.449	12.5
226.683	15.5
226.918	26.5
227.152	27.5
227.387	21.5
227.621	39.5
227.856	42.5
228.09	34.5
228.324	41.5
228.559	54.5
228.793	59.5
229.027	86.5
229.262	103.5
229.496	83.5
229.73	116.5
229.964	155.5
230.199	126.5
230.433	107.5
230.667	99.5
230.901	103.5
231.136	120.5
231.37	104.5
231.604	93.5
231.838	90.5
232.072	100.5
232.306	113.5
232.541	123.5
232.775	109.5
233.009	106.5
233.243	113.5
233.477	123.5
233.711	104.5
233.945	96.5
234.179	112.5
234.413	125.5
234.647	110.5
234.881	100.5
235.115	108.5
235.349	116.5
235.583	107.5
235.817	119.5
236.051	115.5
236.285	125.5
236.519	125.5
236.753	107.5
236.987	136.5
237.221	163.5
237.455	216.5
237.689	159.5
237.922	134.5
238.156	118.5
238.39	121.5
238.624	119.5
238.858	121.5
239.091	116.5
239.325	108.5
239.559	113.5
239.793	123.5
240.027	128.5
240.26	134.5
240.494	125.5
240.728	136.5
240.961	126.5
241.195	119.5
241.429	110.5
241.662	119.5
241.896	124.5
242.13	120.5
242.363	119.5
242.597	119.5
242.83	123.5
243.064	136.5
243.298	120.5
243.531	122.5
243.765	139.5
243.998	137.5
244.232	131.5
244.465	145.5
244.699	139.5
244.932	134.5
245.166	148.5
245.399	126.5
245.633	122.5
245.866	131.5
246.099	135.5
246.333	136.5
246.566	147.5
246.8	153.5
247.033	148.5
247.266	158.5
247.5	144.5
247.733	154.5
247.966	147.5
248.2	157.5
248.433	171.5
248.666	170.5
248.899	167.5
249.133	183.5
249.366	182.5
249.599	177.5
249.832	158.5
250.066	163.5
250.299	157.5
250.532	179.5
250.765	187.5
250.998	190.5
251.231	206.5
251.465	209.5
251.698	190.5
251.931	178.5
252.164	185.5
252.397	180.5
252.63	190.5
252.863	188.5
253.096	198.5
253.329	206.5
253.562	215.5
253.795	193.5
254.028	198.5
254.261	197.5
254.494	215.5
254.727	242.5
254.96	232.5
255.193	237.5
255.426	225.5
255.659	205.5
255.892	209.5
256.124	199.5
256.357	191.5
256.59	191.5
256.823	199.5
257.056	181.5
257.289	175.5
257.521	185.5
257.754	189.5
257.987	198.5
258.22	182.5
258.452	202.5
258.685	208.5
258.918	175.5
259.151	190.5
259.383	204.5
259.616	179.5
259.849	206.5
260.081	193.5
260.314	218.5
260.547	234.5
260.779	222.5
261.012	221.5
261.244	209.5
261.477	203.5
261.71	209.5
261.942	217.5
262.175	226.5
262.407	204.5
262.64	198.5
262.872	174.5
263.105	177.5
263.337	205.5
263.57	191.5
263.802	182.5
264.035	191.5
264.267	207.5
264.499	189.5
264.732	175.5
264.964	197.5
265.197	210.5
265.429	186.5
265.661	194.5
265.894	178.5
266.126	199.5
266.358	189.5
266.591	192.5
266.823	219.5
267.055	215.5
267.287	211.5
267.52	182.5
267.752	200.5
267.984	197.5
268.216	202.5
268.448	202.5
268.681	221.5
268.913	227.5
269.145	231.5
269.377	218.5
269.609	248.5
269.841	239.5
270.073	232.5
270.306	270.5
270.538	285.5
270.77	273.5
271.002	267.5
271.234	260.5
271.466	268.5
271.698	286.5
271.93	285.5
272.162	301.5
272.394	284.5
272.626	270.5
272.858	247.5
273.09	232.5
273.322	266.5
273.553	230.5
273.785	221.5
274.017	237.5
274.249	242.5
274.481	237.5
274.713	255.5
274.945	231.5
275.176	242.5
275.408	235.5
275.64	219.5
275.872	225.5
276.104	230.5
276.335	245.5
276.567	264.5
276.799	257.5
277.031	268.5
277.262	289.5
277.494	286.5
277.726	273.5
277.957	270.5
278.189	241.5
278.421	228.5
278.652	251.5
278.884	245.5
279.115	243.5
279.347	231.5
279.579	245.5
279.81	247.5
280.042	235.5
280.273	236.5
280.505	241.5
280.736	234.5
280.968	227.5
281.199	232.5
281.431	235.5
281.662	257.5
281.894	241.5
282.125	249.5
282.356	270.5
282.588	265.5
282.819	255.5
283.051	248.5
283.282	256.5
283.513	264.5
283.745	263.5
283.976	259.5
284.207	233.5
284.439	254.5
284.67	241.5
284.901	278.5
285.132	254.5
285.364	252.5
285.595	247.5
285.826	266.5
286.057	254.5
286.288	251.5
286.52	242.5
286.751	265.5
286.982	249.5
287.213	261.5
287.444	257.5
287.675	242.5
287.906	259.5
288.138	272.5
288.369	260.5
288.6	282.5
288.831	274.5
289.062	253.5
289.293	261.5
289.524	252.5
289.755	243.5
289.986	275.5
290.217	268.5
290.448	271.5
290.679	253.5
290.91	262.5
291.141	255.5
291.371	249.5
291.602	234.5
291.833	259.5
292.064	253.5
292.295	248.5
292.526	271.5
292.757	256.5
292.987	252.5
293.218	247.5
293.449	253.5
293.68	255.5
293.91	253.5
294.141	275.5
294.372	244.5
294.603	250.5
294.833	257.5
295.064	278.5
295.295	268.5
295.525	254.5
295.756	262.5
295.987	285.5
296.217	284.5
296.448	302.5
296.679	268.5
296.909	271.5
297.14	259.5
297.37	279.5
297.601	271.5
297.831	268.5
298.062	271.5
298.292	261.5
298.523	279.5
298.753	267.5
298.984	267.5
299.214	278.5
299.445	281.5
299.675	289.5
299.905	277.5
300.136	299.5
300.366	285.5
300.597	273.5
300.827	279.5
301.057	292.5
301.288	293.5
301.518	305.5
301.748	297.5
301.979	295.5
302.209	310.5
302.439	311.5
302.669	296.5
302.9	298.5
303.13	275.5
303.36	309.5
303.59	306.5
303.82	307.5
304.051	299.5
304.281	292.5
304.511	291.5
304.741	282.5
304.971	300.5
305.201	294.5
305.431	305.5
305.661	297.5
305.891	309.5
306.121	296.5
306.352	309.5
306.582	297.5
306.812	305.5
307.042	302.5
307.272	293.5
307.502	313.5
307.731	308.5
307.961	309.5
308.191	298.5
308.421	307.5
308.651	297.5
308.881	288.5
309.111	305.5
309.341	313.5
309.571	330.5
309.8	328.5
310.03	331.5
310.26	348.5
310.49	361.5
310.72	341.5
310.949	363.5
311.179	374.5
311.409	361.5
311.639	337.5
311.868	331.5
312.098	343.5
312.328	363.5
312.557	370.5
312.787	387.5
313.017	383.5
313.246	360.5
313.476	342.5
313.706	359.5
313.935	350.5
314.165	341.5
314.394	362.5
314.624	352.5
314.853	361.5
315.083	370.5
315.312	331.5
315.542	340.5
315.771	341.5
316.001	331.5
316.23	336.5
316.46	346.5
316.689	346.5
316.919	347.5
317.148	364.5
317.377	373.5
317.607	365.5
317.836	346.5
318.065	341.5
318.295	328.5
318.524	332.5
318.753	329.5
318.983	329.5
319.212	338.5
319.441	351.5
319.67	344.5
319.9	342.5
320.129	349.5
320.358	342.5
320.587	328.5
320.816	364.5
321.046	375.5
321.275	350.5
321.504	348.5
321.733	361.5
321.962	385.5
322.191	393.5
322.42	403.5
322.649	391.5
322.878	414.5
323.108	407.5
323.337	441.5
323.566	434.5
323.795	498.5
324.024	534.5
324.253	643.5
324.482	933.5
324.71	1443.5
324.939	1922.5
325.168	1622.5
325.397	884.5
325.626	602.5
325.855	500.5
326.084	475.5
326.313	445.5
326.542	468.5
326.77	481.5
326.999	611.5
327.228	836.5
327.457	1242.5
327.686	1409.5
327.914	957.5
328.143	638.5
328.372	577.5
328.6	538.5
328.829	509.5
329.058	515.5
329.287	505.5
329.515	504.5
329.744	454.5
329.972	437.5
330.201	410.5
330.43	460.5
330.658	481.5
330.887	539.5
331.115	509.5
331.344	473.5
331.572	441.5
331.801	441.5
332.03	443.5
332.258	424.5
332.486	393.5
332.715	397.5
332.943	398.5
333.172	399.5
333.4	374.5
333.629	406.5
333.857	419.5
334.085	417.5
334.314	403.5
334.542	411.5
334.771	410.5
334.999	410.5
335.227	410.5
335.455	405.5
335.684	410.5
335.912	399.5
336.14	385.5
336.369	397.5
336.597	412.5
336.825	415.5
337.053	380.5
337.281	395.5
337.51	370.5
337.738	393.5
337.966	394.5
338.194	393.5
338.422	405.5
338.65	395.5
338.878	400.5
339.106	357.5
339.334	383.5
339.562	369.5
339.79	379.5
340.018	395.5
340.246	400.5
340.474	382.5
340.702	374.5
340.93	383.5
341.158	385.5
341.386	385.5
341.614	387.5
341.842	367.5
342.07	381.5
342.298	369.5
342.526	376.5
342.754	360.5
342.981	353.5
343.209	371.5
343.437	387.5
343.665	366.5
343.893	386.5
344.12	385.5
344.348	383.5
344.576	354.5
344.804	377.5
345.031	379.5
345.259	408.5
345.487	397.5
345.714	390.5
345.942	386.5
346.17	359.5
346.397	364.5
346.625	367.5
346.853	362.5
347.08	363.5
347.308	374.5
347.535	387.5
347.763	384.5
347.99	384.5
348.218	373.5
348.445	378.5
348.673	383.5
348.9	377.5
349.128	374.5
349.355	371.5
349.583	355.5
349.81	351.5
350.037	362.5
350.265	370.5
350.492	356.5
350.72	362.5
350.947	359.5
351.174	383.5
351.402	363.5
351.629	377.5
351.856	377.5
352.083	394.5
352.311	404.5
352.538	404.5
352.765	379.5
352.992	376.5
353.22	393.5
353.447	362.5
353.674	362.5
353.901	369.5
354.128	341.5
354.355	341.5
354.583	342.5
354.81	342.5
355.037	356.5
355.264	334.5
355.491	338.5
355.718	334.5
355.945	350.5
356.172	350.5
356.399	343.5
356.626	332.5
356.853	351.5
357.08	338.5
357.307	331.5
357.534	359.5
357.761	353.5
357.988	358.5
358.215	358.5
358.441	350.5
358.668	346.5
358.895	343.5
359.122	359.5
359.349	371.5
359.576	366.5
359.802	403.5
360.029	414.5
360.256	415.5
360.483	400.5
360.709	381.5
360.936	385.5
361.163	377.5
361.39	372.5
361.616	378.5
361.843	348.5
362.07	377.5
362.296	377.5
362.523	359.5
362.749	369.5
362.976	371.5
363.203	359.5
363.429	334.5
363.656	356.5
363.882	366.5
364.109	347.5
364.335	346.5
364.562	361.5
364.788	341.5
365.015	346.5
365.241	369.5
365.468	375.5
365.694	365.5
365.92	369.5
366.147	359.5
366.373	337.5
366.599	361.5
366.826	336.5
367.052	354.5
367.278	349.5
367.505	355.5
367.731	349.5
367.957	331.5
368.184	345.5
368.41	343.5
368.636	353.5
368.862	357.5
369.089	378.5
369.315	353.5
369.541	341.5
369.767	358.5
369.993	368.5
370.219	341.5
370.445	372.5
370.672	368.5
370.898	332.5
371.124	342.5
371.35	341.5
371.576	351.5
371.802	332.5
372.028	323.5
372.254	364.5
372.48	334.5
372.706	351.5
372.932	330.5
373.158	348.5
373.384	351.5
373.61	362.5
373.835	340.5
374.061	351.5
374.287	343.5
374.513	366.5
374.739	360.5
374.965	370.5
375.191	341.5
375.416	358.5
375.642	339.5
375.868	364.5
376.094	347.5
376.319	365.5
376.545	358.5
376.771	357.5
376.997	356.5
377.222	349.5
377.448	350.5
377.674	322.5
377.899	341.5
378.125	345.5
378.35	338.5
378.576	334.5
378.802	344.5
379.027	343.5
379.253	350.5
379.478	337.5
379.704	368.5
379.929	321.5
380.155	368.5
380.38	360.5
380.606	339.5
380.831	355.5
381.057	350.5
381.282	341.5
381.507	333.5
381.733	362.5
381.958	366.5
382.184	356.5
382.409	351.5
382.634	351.5
382.86	360.5
383.085	352.5
383.31	364.5
383.535	344.5
383.761	355.5
383.986	357.5
384.211	357.5
384.436	360.5
384.662	360.5
384.887	353.5
385.112	356.5
385.337	373.5
385.562	370.5
385.787	356.5
386.013	387.5
386.238	364.5
386.463	363.5
386.688	371.5
386.913	363.5
387.138	362.5
387.363	364.5
387.588	372.5
387.813	349.5
388.038	369.5
388.263	369.5
388.488	375.5
388.713	384.5
388.938	371.5
389.163	370.5
389.387	360.5
389.612	375.5
389.837	361.5
390.062	369.5
390.287	363.5
390.512	360.5
390.736	348.5
390.961	366.5
391.186	366.5
391.411	367.5
391.636	382.5
391.86	387.5
392.085	384.5
392.31	384.5
392.534	371.5
392.759	381.5
392.984	390.5
393.208	371.5
393.433	381.5
393.658	355.5
393.882	387.5
394.107	367.5
394.331	379.5
394.556	366.5
394.78	385.5
395.005	389.5
395.229	366.5
395.454	364.5
395.678	382.5
395.903	371.5
396.127	396.5
396.352	400.5
396.576	401.5
396.801	388.5
397.025	377.5
397.249	401.5
397.474	390.5
397.698	394.5
397.922	410.5
398.147	409.5
398.371	423.5
398.595	412.5
398.82	425.5
399.044	429.5
399.268	432.5
399.492	473.5
399.717	471.5
399.941	482.5
400.165	497.5
400.389	505.5
400.613	478.5
400.837	435.5
401.062	444.5
401.286	433.5
401.51	413.5
401.734	421.5
401.958	422.5
402.182	431.5
402.406	419.5
402.63	446.5
402.854	448.5
403.078	429.5
403.302	432.5
403.526	439.5
403.75	439.5
403.974	438.5
404.198	433.5
404.422	431.5
404.645	421.5
404.869	425.5
405.093	462.5
405.317	472.5
405.541	476.5
405.765	464.5
405.988	472.5
406.212	458.5
406.436	490.5
406.66	506.5
406.883	457.5
407.107	491.5
407.331	531.5
407.555	567.5
407.778	569.5
408.002	517.5
408.226	498.5
408.449	468.5
408.673	475.5
408.896	506.5
409.12	543.5
409.344	504.5
409.567	455.5
409.791	450.5
410.014	428.5
410.238	449.5
410.461	445.5
410.685	462.5
410.908	451.5
411.132	473.5
411.355	499.5
411.578	489.5
411.802	457.5
412.025	407.5
412.249	424.5
412.472	441.5
412.695	455.5
412.919	436.5
413.142	442.5
413.365	421.5
413.589	405.5
413.812	403.5
414.035	414.5
414.258	407.5
414.482	404.5
414.705	413.5
414.928	414.5
415.151	423.5
415.374	424.5
415.597	411.5
415.821	426.5
416.044	429.5
416.267	402.5
416.49	402.5
416.713	410.5
416.936	418.5
417.159	398.5
417.382	428.5
417.605	429.5
417.828	423.5
418.051	443.5
418.274	427.5
418.497	403.5
418.72	393.5
418.943	410.5
419.166	428.5
419.389	435.5
419.611	453.5
419.834	428.5
420.057	401.5
420.28	417.5
420.503	420.5
420.726	415.5
420.948	433.5
421.171	450.5
421.394	506.5
421.617	442.5
421.839	423.5
422.062	429.5
422.285	451.5
422.507	489.5
422.73	538.5
422.953	523.5
423.175	458.5
423.398	457.5
423.621	431.5
423.843	467.5
424.066	465.5
424.288	454.5
424.511	462.5
424.733	536.5
424.956	577.5
425.178	558.5
425.401	568.5
425.623	558.5
425.846	485.5
426.068	477.5
426.291	463.5
426.513	441.5
426.735	445.5
426.958	499.5
427.18	566.5
427.402	667.5
427.625	711.5
427.847	656.5
428.069	553.5
428.292	484.5
428.514	449.5
428.736	447.5
428.958	445.5
429.181	420.5
429.403	435.5
429.625	424.5
429.847	434.5
430.069	500.5
430.292	532.5
430.514	421.5
430.736	435.5
430.958	414.5
431.18	423.5
431.402	412.5
431.624	387.5
431.846	413.5
432.068	383.5
432.29	406.5
432.512	425.5
432.734	411.5
432.956	418.5
433.178	415.5
433.4	425.5
433.622	420.5
433.844	415.5
434.066	402.5
434.287	397.5
434.509	419.5
434.731	416.5
434.953	423.5
435.175	411.5
435.397	445.5
435.618	453.5
435.84	501.5
436.062	549.5
436.284	590.5
436.505	511.5
436.727	457.5
436.949	441.5
437.17	427.5
437.392	419.5
437.614	421.5
437.835	482.5
438.057	533.5
438.278	613.5
438.5	624.5
438.721	651.5
438.943	643.5
439.165	495.5
439.386	475.5
439.608	486.5
439.829	463.5
440.05	499.5
440.272	527.5
440.493	505.5
440.715	449.5
440.936	459.5
441.158	450.5
441.379	419.5
441.6	446.5
441.822	469.5
442.043	506.5
442.264	574.5
442.486	599.5
442.707	506.5
442.928	471.5
443.149	492.5
443.371	509.5
443.592	555.5
443.813	609.5
444.034	629.5
444.255	539.5
444.476	495.5
444.698	491.5
444.919	466.5
445.14	588.5
445.361	524.5
445.582	519.5
445.803	543.5
446.024	598.5
446.245	617.5
446.466	541.5
446.687	475.5
446.908	479.5
447.129	442.5
447.35	434.5
447.571	419.5
447.792	433.5
448.013	423.5
448.234	456.5
448.455	501.5
448.675	575.5
448.896	644.5
449.117	569.5
449.338	554.5
449.559	629.5
449.779	659.5
450	543.5
450.221	473.5
450.442	427.5
450.662	437.5
450.883	456.5
451.104	447.5
451.324	447.5
451.545	395.5
451.766	395.5
451.986	379.5
452.207	411.5
452.428	400.5
452.648	389.5
452.869	391.5
453.089	390.5
453.31	424.5
453.53	387.5
453.751	378.5
453.971	407.5
454.192	429.5
454.412	419.5
454.633	403.5
454.853	390.5
455.073	405.5
455.294	413.5
455.514	454.5
455.734	452.5
455.955	400.5
456.175	376.5
456.395	370.5
456.616	341.5
456.836	365.5
457.056	351.5
457.276	363.5
457.497	381.5
457.717	375.5
457.937	363.5
458.157	387.5
458.377	371.5
458.598	406.5
458.818	468.5
459.038	522.5
459.258	534.5
459.478	454.5
459.698	409.5
459.918	416.5
460.138	397.5
460.358	395.5
460.578	395.5
460.798	411.5
461.018	404.5
461.238	440.5
461.458	428.5
461.678	413.5
461.898	411.5
462.118	413.5
462.338	419.5
462.558	401.5
462.777	426.5
462.997	427.5
463.217	446.5
463.437	461.5
463.657	413.5
463.876	443.5
464.096	428.5
464.316	445.5
464.536	449.5
464.755	425.5
464.975	452.5
465.195	493.5
465.414	540.5
465.634	494.5
465.854	449.5
466.073	407.5
466.293	410.5
466.512	405.5
466.732	384.5
466.951	414.5
467.171	380.5
467.391	421.5
467.61	406.5
467.829	411.5
468.049	396.5
468.268	391.5
468.488	384.5
468.707	395.5
468.927	396.5
469.146	380.5
469.365	369.5
469.585	372.5
469.804	384.5
470.023	414.5
470.243	408.5
470.462	401.5
470.681	420.5
470.901	435.5
471.12	399.5
471.339	388.5
471.558	389.5
471.777	399.5
471.997	369.5
472.216	373.5
472.435	383.5
472.654	390.5
472.873	391.5
473.092	390.5
473.311	395.5
473.53	390.5
473.749	419.5
473.968	438.5
474.187	510.5
474.406	535.5
474.625	473.5
474.844	412.5
475.063	414.5
475.282	391.5
475.501	393.5
475.72	405.5
475.939	409.5
476.158	404.5
476.377	409.5
476.596	412.5
476.814	419.5
477.033	419.5
477.252	421.5
477.471	415.5
477.69	418.5
477.908	454.5
478.127	419.5
478.346	446.5
478.564	437.5
478.783	435.5
479.002	451.5
479.22	421.5
479.439	475.5
479.658	480.5
479.876	494.5
480.095	488.5
480.313	491.5
480.532	515.5
480.751	472.5
480.969	477.5
481.188	477.5
481.406	500.5
481.624	472.5
481.843	466.5
482.061	474.5
482.28	450.5
482.498	474.5
482.717	449.5
482.935	437.5
483.153	474.5
483.372	462.5
483.59	465.5
483.808	473.5
484.027	458.5
484.245	471.5
484.463	449.5
484.681	473.5
484.9	473.5
485.118	469.5
485.336	489.5
485.554	474.5
485.772	478.5
485.99	473.5
486.209	482.5
486.427	493.5
486.645	481.5
486.863	510.5
487.081	506.5
487.299	498.5
487.517	487.5
487.735	473.5
487.953	504.5
488.171	515.5
488.389	473.5
488.607	481.5
488.825	500.5
489.043	494.5
489.261	511.5
489.479	515.5
489.696	508.5
489.914	485.5
490.132	518.5
490.35	517.5
490.568	518.5
490.786	533.5
491.003	515.5
491.221	537.5
491.439	557.5
491.657	571.5
491.874	589.5
492.092	582.5
492.31	577.5
492.527	581.5
492.745	596.5
492.963	556.5
493.18	578.5
493.398	605.5
493.615	587.5
493.833	577.5
494.05	577.5
494.268	573.5
494.485	583.5
494.703	583.5
494.92	593.5
495.138	591.5
495.355	605.5
495.573	580.5
495.79	594.5
496.008	586.5
496.225	609.5
496.442	597.5
496.66	590.5
496.877	583.5
497.094	590.5
497.312	618.5
497.529	595.5
497.746	607.5
497.963	625.5
498.181	635.5
498.398	654.5
498.615	655.5
498.832	670.5
499.049	658.5
499.267	685.5
499.484	701.5
499.701	711.5
499.918	757.5
500.135	765.5
500.352	771.5
500.569	798.5
500.786	797.5
501.003	780.5
501.22	798.5
501.437	757.5
501.654	731.5
501.871	730.5
502.088	697.5
502.305	670.5
502.522	678.5
502.739	656.5
502.956	626.5
503.172	636.5
503.389	592.5
503.606	616.5
503.823	614.5
504.04	610.5
504.256	594.5
504.473	602.5
504.69	588.5
504.907	576.5
505.123	569.5
505.34	567.5
505.557	567.5
505.773	573.5
505.99	577.5
506.207	563.5
506.423	574.5
506.64	555.5
506.856	561.5
507.073	563.5
507.289	557.5
507.506	572.5
507.722	569.5
507.939	563.5
508.155	548.5
508.372	559.5
508.588	549.5
508.805	549.5
509.021	540.5
509.238	555.5
509.454	572.5
509.67	549.5
509.887	537.5
510.103	533.5
510.319	571.5
510.536	653.5
510.752	1148.5
510.968	876.5
511.184	573.5
511.401	537.5
511.617	518.5
511.833	535.5
512.049	522.5
512.265	517.5
512.481	505.5
512.698	515.5
512.914	489.5
513.13	527.5
513.346	509.5
513.562	490.5
513.778	497.5
513.994	513.5
514.21	542.5
514.426	568.5
514.642	622.5
514.858	612.5
515.074	675.5
515.29	813.5
515.506	1263.5
515.721	1017.5
515.937	653.5
516.153	583.5
516.369	557.5
516.585	535.5
516.801	560.5
517.016	525.5
517.232	523.5
517.448	504.5
517.664	531.5
517.879	529.5
518.095	512.5
518.311	508.5
518.527	527.5
518.742	535.5
518.958	543.5
519.173	513.5
519.389	523.5
519.605	499.5
519.82	503.5
520.036	536.5
