Data from 1983.PennyLincolnUp.Lamp.En5.5.200Scan.071819.P1_HRD10591_16-55-26-966.txt Node
Date: Thu Jul 18 16:55:26 EDT 2019
User: cochatt
Spectrometer: HR+D1059
Trigger mode: 1
Integration Time (sec): 1.000000E-1
Scans to average: 1
Electric dark correction enabled: true
Nonlinearity correction enabled: false
Boxcar width: 0
XAxis mode: Wavelengths
Number of Pixels in Spectrum: 2048
>>>>>Begin Spectral Data<<<<<
223.165	-15.69
223.4	-15.69
223.635	-15.69
223.869	-22.69
224.104	-12.69
224.338	-4.69
224.573	-11.69
224.808	-16.69
225.042	-24.69
225.277	-12.69
225.511	7.31
225.746	5.31
225.98	5.31
226.215	22.31
226.449	19.31
226.683	10.31
226.918	23.31
227.152	28.31
227.387	32.31
227.621	24.31
227.856	51.31
228.09	39.31
228.324	38.31
228.559	52.31
228.793	76.31
229.027	91.31
229.262	104.31
229.496	114.31
229.73	120.31
229.964	145.31
230.199	120.31
230.433	116.31
230.667	108.31
230.901	110.31
231.136	117.31
231.37	112.31
231.604	114.31
231.838	102.31
232.072	97.31
232.306	103.31
232.541	118.31
232.775	112.31
233.009	105.31
233.243	116.31
233.477	108.31
233.711	100.31
233.945	108.31
234.179	117.31
234.413	117.31
234.647	118.31
234.881	95.31
235.115	109.31
235.349	112.31
235.583	128.31
235.817	105.31
236.051	120.31
236.285	121.31
236.519	117.31
236.753	119.31
236.987	136.31
237.221	164.31
237.455	217.31
237.689	175.31
237.922	144.31
238.156	135.31
238.39	123.31
238.624	116.31
238.858	123.31
239.091	98.31
239.325	117.31
239.559	118.31
239.793	127.31
240.027	143.31
240.26	126.31
240.494	167.31
240.728	142.31
240.961	115.31
241.195	139.31
241.429	126.31
241.662	111.31
241.896	117.31
242.13	119.31
242.363	125.31
242.597	109.31
242.83	123.31
243.064	127.31
243.298	137.31
243.531	135.31
243.765	117.31
243.998	133.31
244.232	140.31
244.465	139.31
244.699	143.31
244.932	134.31
245.166	122.31
245.399	140.31
245.633	141.31
245.866	139.31
246.099	140.31
246.333	133.31
246.566	147.31
246.8	158.31
247.033	146.31
247.266	144.31
247.5	154.31
247.733	167.31
247.966	142.31
248.2	165.31
248.433	167.31
248.666	146.31
248.899	176.31
249.133	173.31
249.366	193.31
249.599	201.31
249.832	176.31
250.066	179.31
250.299	178.31
250.532	180.31
250.765	201.31
250.998	210.31
251.231	233.31
251.465	201.31
251.698	206.31
251.931	172.31
252.164	185.31
252.397	183.31
252.63	191.31
252.863	187.31
253.096	203.31
253.329	215.31
253.562	208.31
253.795	197.31
254.028	202.31
254.261	211.31
254.494	214.31
254.727	221.31
254.96	274.31
255.193	251.31
255.426	229.31
255.659	219.31
255.892	218.31
256.124	246.31
256.357	260.31
256.59	245.31
256.823	218.31
257.056	226.31
257.289	205.31
257.521	203.31
257.754	211.31
257.987	211.31
258.22	215.31
258.452	217.31
258.685	192.31
258.918	198.31
259.151	215.31
259.383	208.31
259.616	217.31
259.849	203.31
260.081	232.31
260.314	233.31
260.547	243.31
260.779	226.31
261.012	219.31
261.244	217.31
261.477	227.31
261.71	209.31
261.942	215.31
262.175	222.31
262.407	223.31
262.64	229.31
262.872	188.31
263.105	191.31
263.337	188.31
263.57	193.31
263.802	188.31
264.035	201.31
264.267	184.31
264.499	196.31
264.732	205.31
264.964	204.31
265.197	214.31
265.429	188.31
265.661	218.31
265.894	188.31
266.126	206.31
266.358	206.31
266.591	192.31
266.823	216.31
267.055	197.31
267.287	204.31
267.52	216.31
267.752	199.31
267.984	223.31
268.216	223.31
268.448	228.31
268.681	209.31
268.913	237.31
269.145	235.31
269.377	264.31
269.609	266.31
269.841	244.31
270.073	239.31
270.306	287.31
270.538	279.31
270.77	293.31
271.002	282.31
271.234	264.31
271.466	282.31
271.698	291.31
271.93	293.31
272.162	319.31
272.394	303.31
272.626	294.31
272.858	265.31
273.09	271.31
273.322	241.31
273.553	254.31
273.785	260.31
274.017	251.31
274.249	246.31
274.481	227.31
274.713	243.31
274.945	261.31
275.176	245.31
275.408	244.31
275.64	247.31
275.872	261.31
276.104	250.31
276.335	259.31
276.567	256.31
276.799	282.31
277.031	296.31
277.262	299.31
277.494	307.31
277.726	284.31
277.957	278.31
278.189	258.31
278.421	266.31
278.652	244.31
278.884	254.31
279.115	246.31
279.347	239.31
279.579	240.31
279.81	245.31
280.042	252.31
280.273	249.31
280.505	261.31
280.736	248.31
280.968	258.31
281.199	264.31
281.431	258.31
281.662	243.31
281.894	257.31
282.125	266.31
282.356	272.31
282.588	289.31
282.819	287.31
283.051	252.31
283.282	245.31
283.513	261.31
283.745	259.31
283.976	249.31
284.207	262.31
284.439	250.31
284.67	271.31
284.901	254.31
285.132	250.31
285.364	253.31
285.595	244.31
285.826	243.31
286.057	262.31
286.288	244.31
286.52	245.31
286.751	242.31
286.982	270.31
287.213	258.31
287.444	264.31
287.675	261.31
287.906	285.31
288.138	275.31
288.369	294.31
288.6	270.31
288.831	287.31
289.062	282.31
289.293	273.31
289.524	272.31
289.755	267.31
289.986	277.31
290.217	255.31
290.448	265.31
290.679	258.31
290.91	268.31
291.141	261.31
291.371	261.31
291.602	269.31
291.833	264.31
292.064	275.31
292.295	257.31
292.526	266.31
292.757	266.31
292.987	282.31
293.218	268.31
293.449	266.31
293.68	249.31
293.91	272.31
294.141	256.31
294.372	264.31
294.603	274.31
294.833	259.31
295.064	269.31
295.295	270.31
295.525	273.31
295.756	288.31
295.987	274.31
296.217	294.31
296.448	330.31
296.679	272.31
296.909	255.31
297.14	267.31
297.37	278.31
297.601	263.31
297.831	279.31
298.062	286.31
298.292	265.31
298.523	270.31
298.753	273.31
298.984	291.31
299.214	300.31
299.445	304.31
299.675	295.31
299.905	288.31
300.136	297.31
300.366	295.31
300.597	292.31
300.827	269.31
301.057	302.31
301.288	308.31
301.518	295.31
301.748	301.31
301.979	312.31
302.209	313.31
302.439	311.31
302.669	293.31
302.9	298.31
303.13	304.31
303.36	300.31
303.59	294.31
303.82	319.31
304.051	324.31
304.281	305.31
304.511	295.31
304.741	296.31
304.971	300.31
305.201	286.31
305.431	309.31
305.661	297.31
305.891	297.31
306.121	310.31
306.352	287.31
306.582	291.31
306.812	303.31
307.042	319.31
307.272	299.31
307.502	330.31
307.731	314.31
307.961	318.31
308.191	300.31
308.421	325.31
308.651	309.31
308.881	295.31
309.111	323.31
309.341	306.31
309.571	324.31
309.8	343.31
310.03	358.31
310.26	348.31
310.49	332.31
310.72	366.31
310.949	383.31
311.179	374.31
311.409	362.31
311.639	361.31
311.868	344.31
312.098	346.31
312.328	359.31
312.557	375.31
312.787	373.31
313.017	373.31
313.246	380.31
313.476	351.31
313.706	354.31
313.935	364.31
314.165	365.31
314.394	378.31
314.624	363.31
314.853	363.31
315.083	364.31
315.312	352.31
315.542	324.31
315.771	337.31
316.001	372.31
316.23	345.31
316.46	360.31
316.689	353.31
316.919	340.31
317.148	351.31
317.377	373.31
317.607	357.31
317.836	345.31
318.065	338.31
318.295	360.31
318.524	354.31
318.753	353.31
318.983	338.31
319.212	350.31
319.441	360.31
319.67	355.31
319.9	359.31
320.129	338.31
320.358	357.31
320.587	361.31
320.816	373.31
321.046	369.31
321.275	372.31
321.504	370.31
321.733	393.31
321.962	394.31
322.191	404.31
322.42	415.31
322.649	423.31
322.878	443.31
323.108	464.31
323.337	476.31
323.566	472.31
323.795	525.31
324.024	563.31
324.253	713.31
324.482	1045.31
324.71	1551.31
324.939	2113.31
325.168	1707.31
325.397	937.31
325.626	627.31
325.855	531.31
326.084	471.31
326.313	490.31
326.542	484.31
326.77	537.31
326.999	643.31
327.228	908.31
327.457	1361.31
327.686	1556.31
327.914	1055.31
328.143	697.31
328.372	644.31
328.6	579.31
328.829	576.31
329.058	564.31
329.287	581.31
329.515	552.31
329.744	536.31
329.972	512.31
330.201	575.31
330.43	620.31
330.658	649.31
330.887	619.31
331.115	593.31
331.344	513.31
331.572	501.31
331.801	471.31
332.03	477.31
332.258	420.31
332.486	438.31
332.715	441.31
332.943	437.31
333.172	431.31
333.4	452.31
333.629	432.31
333.857	471.31
334.085	507.31
334.314	529.31
334.542	589.31
334.771	612.31
334.999	522.31
335.227	490.31
335.455	451.31
335.684	454.31
335.912	433.31
336.14	424.31
336.369	416.31
336.597	428.31
336.825	432.31
337.053	433.31
337.281	430.31
337.51	392.31
337.738	408.31
337.966	414.31
338.194	439.31
338.422	403.31
338.65	387.31
338.878	389.31
339.106	398.31
339.334	388.31
339.562	395.31
339.79	396.31
340.018	393.31
340.246	390.31
340.474	403.31
340.702	398.31
340.93	388.31
341.158	393.31
341.386	376.31
341.614	404.31
341.842	382.31
342.07	400.31
342.298	400.31
342.526	386.31
342.754	401.31
342.981	354.31
343.209	377.31
343.437	376.31
343.665	385.31
343.893	401.31
344.12	398.31
344.348	400.31
344.576	393.31
344.804	401.31
345.031	396.31
345.259	447.31
345.487	401.31
345.714	391.31
345.942	381.31
346.17	385.31
346.397	381.31
346.625	394.31
346.853	383.31
347.08	373.31
347.308	393.31
347.535	423.31
347.763	391.31
347.99	404.31
348.218	393.31
348.445	391.31
348.673	383.31
348.9	396.31
349.128	385.31
349.355	376.31
349.583	364.31
349.81	370.31
350.037	369.31
350.265	372.31
350.492	379.31
350.72	361.31
350.947	344.31
351.174	391.31
351.402	395.31
351.629	365.31
351.856	405.31
352.083	383.31
352.311	399.31
352.538	396.31
352.765	401.31
352.992	401.31
353.22	371.31
353.447	367.31
353.674	375.31
353.901	367.31
354.128	359.31
354.355	358.31
354.583	356.31
354.81	351.31
355.037	344.31
355.264	345.31
355.491	367.31
355.718	348.31
355.945	355.31
356.172	356.31
356.399	361.31
356.626	360.31
356.853	346.31
357.08	345.31
357.307	343.31
357.534	339.31
357.761	339.31
357.988	358.31
358.215	357.31
358.441	356.31
358.668	350.31
358.895	359.31
359.122	367.31
359.349	379.31
359.576	394.31
359.802	408.31
360.029	438.31
360.256	452.31
360.483	412.31
360.709	395.31
360.936	373.31
361.163	379.31
361.39	380.31
361.616	370.31
361.843	381.31
362.07	383.31
362.296	379.31
362.523	374.31
362.749	378.31
362.976	384.31
363.203	376.31
363.429	381.31
363.656	367.31
363.882	364.31
364.109	373.31
364.335	375.31
364.562	347.31
364.788	354.31
365.015	369.31
365.241	377.31
365.468	360.31
365.694	371.31
365.92	374.31
366.147	368.31
366.373	377.31
366.599	343.31
366.826	353.31
367.052	356.31
367.278	347.31
367.505	359.31
367.731	355.31
367.957	351.31
368.184	347.31
368.41	370.31
368.636	385.31
368.862	370.31
369.089	359.31
369.315	367.31
369.541	357.31
369.767	371.31
369.993	371.31
370.219	369.31
370.445	345.31
370.672	349.31
370.898	351.31
371.124	343.31
371.35	358.31
371.576	353.31
371.802	344.31
372.028	344.31
372.254	361.31
372.48	348.31
372.706	351.31
372.932	364.31
373.158	341.31
373.384	349.31
373.61	350.31
373.835	371.31
374.061	357.31
374.287	357.31
374.513	363.31
374.739	370.31
374.965	361.31
375.191	341.31
375.416	361.31
375.642	340.31
375.868	358.31
376.094	341.31
376.319	342.31
376.545	337.31
376.771	368.31
376.997	332.31
377.222	343.31
377.448	357.31
377.674	335.31
377.899	352.31
378.125	354.31
378.35	347.31
378.576	361.31
378.802	338.31
379.027	344.31
379.253	346.31
379.478	343.31
379.704	356.31
379.929	362.31
380.155	344.31
380.38	344.31
380.606	369.31
380.831	350.31
381.057	370.31
381.282	343.31
381.507	345.31
381.733	346.31
381.958	344.31
382.184	350.31
382.409	352.31
382.634	362.31
382.86	362.31
383.085	356.31
383.31	354.31
383.535	343.31
383.761	373.31
383.986	369.31
384.211	373.31
384.436	373.31
384.662	352.31
384.887	351.31
385.112	377.31
385.337	377.31
385.562	391.31
385.787	371.31
386.013	402.31
386.238	402.31
386.463	378.31
386.688	376.31
386.913	375.31
387.138	372.31
387.363	383.31
387.588	362.31
387.813	394.31
388.038	362.31
388.263	365.31
388.488	372.31
388.713	381.31
388.938	381.31
389.163	377.31
389.387	391.31
389.612	378.31
389.837	370.31
390.062	374.31
390.287	391.31
390.512	353.31
390.736	380.31
390.961	365.31
391.186	387.31
391.411	376.31
391.636	377.31
391.86	363.31
392.085	366.31
392.31	367.31
392.534	363.31
392.759	385.31
392.984	371.31
393.208	360.31
393.433	381.31
393.658	359.31
393.882	358.31
394.107	374.31
394.331	370.31
394.556	384.31
394.78	377.31
395.005	382.31
395.229	377.31
395.454	407.31
395.678	399.31
395.903	401.31
396.127	410.31
396.352	422.31
396.576	374.31
396.801	390.31
397.025	398.31
397.249	409.31
397.474	398.31
397.698	396.31
397.922	399.31
398.147	419.31
398.371	407.31
398.595	427.31
398.82	426.31
399.044	402.31
399.268	447.31
399.492	468.31
399.717	463.31
399.941	507.31
400.165	501.31
400.389	490.31
400.613	465.31
400.837	447.31
401.062	461.31
401.286	427.31
401.51	415.31
401.734	417.31
401.958	431.31
402.182	430.31
402.406	459.31
402.63	445.31
402.854	460.31
403.078	435.31
403.302	442.31
403.526	448.31
403.75	459.31
403.974	428.31
404.198	434.31
404.422	443.31
404.645	469.31
404.869	460.31
405.093	472.31
405.317	527.31
405.541	564.31
405.765	497.31
405.988	475.31
406.212	477.31
406.436	508.31
406.66	483.31
406.883	497.31
407.107	497.31
407.331	543.31
407.555	581.31
407.778	567.31
408.002	513.31
408.226	490.31
408.449	495.31
408.673	469.31
408.896	484.31
409.12	532.31
409.344	505.31
409.567	469.31
409.791	461.31
410.014	453.31
410.238	467.31
410.461	456.31
410.685	432.31
410.908	475.31
411.132	473.31
411.355	496.31
411.578	480.31
411.802	474.31
412.025	456.31
412.249	459.31
412.472	506.31
412.695	545.31
412.919	527.31
413.142	474.31
413.365	440.31
413.589	449.31
413.812	416.31
414.035	425.31
414.258	415.31
414.482	405.31
414.705	411.31
414.928	423.31
415.151	421.31
415.374	400.31
415.597	415.31
415.821	435.31
416.044	413.31
416.267	418.31
416.49	409.31
416.713	413.31
416.936	420.31
417.159	421.31
417.382	428.31
417.605	436.31
417.828	443.31
418.051	431.31
418.274	442.31
418.497	420.31
418.72	415.31
418.943	406.31
419.166	415.31
419.389	445.31
419.611	455.31
419.834	452.31
420.057	475.31
420.28	447.31
420.503	469.31
420.726	471.31
420.948	459.31
421.171	465.31
421.394	502.31
421.617	462.31
421.839	463.31
422.062	457.31
422.285	465.31
422.507	497.31
422.73	561.31
422.953	532.31
423.175	489.31
423.398	466.31
423.621	476.31
423.843	482.31
424.066	475.31
424.288	471.31
424.511	489.31
424.733	546.31
424.956	580.31
425.178	577.31
425.401	548.31
425.623	579.31
425.846	487.31
426.068	486.31
426.291	462.31
426.513	461.31
426.735	472.31
426.958	506.31
427.18	604.31
427.402	679.31
427.625	768.31
427.847	693.31
428.069	589.31
428.292	540.31
428.514	503.31
428.736	482.31
428.958	455.31
429.181	434.31
429.403	458.31
429.625	439.31
429.847	473.31
430.069	539.31
430.292	507.31
430.514	457.31
430.736	456.31
430.958	446.31
431.18	423.31
431.402	426.31
431.624	407.31
431.846	412.31
432.068	403.31
432.29	419.31
432.512	419.31
432.734	418.31
432.956	419.31
433.178	413.31
433.4	424.31
433.622	410.31
433.844	411.31
434.066	410.31
434.287	417.31
434.509	404.31
434.731	412.31
434.953	412.31
435.175	428.31
435.397	457.31
435.618	466.31
435.84	521.31
436.062	549.31
436.284	631.31
436.505	546.31
436.727	504.31
436.949	436.31
437.17	443.31
437.392	437.31
437.614	456.31
437.835	501.31
438.057	577.31
438.278	647.31
438.5	625.31
438.721	677.31
438.943	633.31
439.165	535.31
439.386	498.31
439.608	497.31
439.829	482.31
440.05	515.31
440.272	560.31
440.493	504.31
440.715	466.31
440.936	441.31
441.158	452.31
441.379	444.31
441.6	457.31
441.822	487.31
442.043	500.31
442.264	582.31
442.486	608.31
442.707	515.31
442.928	483.31
443.149	477.31
443.371	516.31
443.592	559.31
443.813	605.31
444.034	643.31
444.255	552.31
444.476	488.31
444.698	492.31
444.919	464.31
445.14	581.31
445.361	538.31
445.582	516.31
445.803	573.31
446.024	659.31
446.245	647.31
446.466	596.31
446.687	511.31
446.908	487.31
447.129	465.31
447.35	433.31
447.571	447.31
447.792	437.31
448.013	453.31
448.234	461.31
448.455	525.31
448.675	611.31
448.896	666.31
449.117	576.31
449.338	556.31
449.559	625.31
449.779	686.31
450	566.31
450.221	488.31
450.442	431.31
450.662	431.31
450.883	441.31
451.104	464.31
451.324	434.31
451.545	415.31
451.766	421.31
451.986	395.31
452.207	381.31
452.428	381.31
452.648	384.31
452.869	407.31
453.089	401.31
453.31	427.31
453.53	413.31
453.751	403.31
453.971	386.31
454.192	415.31
454.412	400.31
454.633	395.31
454.853	392.31
455.073	392.31
455.294	422.31
455.514	481.31
455.734	465.31
455.955	423.31
456.175	378.31
456.395	364.31
456.616	353.31
456.836	368.31
457.056	368.31
457.276	360.31
457.497	376.31
457.717	363.31
457.937	391.31
458.157	373.31
458.377	407.31
458.598	402.31
458.818	461.31
459.038	541.31
459.258	539.31
459.478	454.31
459.698	428.31
459.918	420.31
460.138	411.31
460.358	419.31
460.578	406.31
460.798	408.31
461.018	448.31
461.238	397.31
461.458	409.31
461.678	405.31
461.898	407.31
462.118	402.31
462.338	431.31
462.558	444.31
462.777	408.31
462.997	428.31
463.217	445.31
463.437	448.31
463.657	431.31
463.876	431.31
464.096	435.31
464.316	436.31
464.536	454.31
464.755	444.31
464.975	456.31
465.195	502.31
465.414	589.31
465.634	506.31
465.854	447.31
466.073	435.31
466.293	414.31
466.512	403.31
466.732	423.31
466.951	425.31
467.171	413.31
467.391	416.31
467.61	418.31
467.829	415.31
468.049	415.31
468.268	445.31
468.488	403.31
468.707	417.31
468.927	410.31
469.146	391.31
469.365	414.31
469.585	408.31
469.804	400.31
470.023	425.31
470.243	395.31
470.462	412.31
470.681	426.31
470.901	436.31
471.12	409.31
471.339	432.31
471.558	416.31
471.777	413.31
471.997	417.31
472.216	440.31
472.435	529.31
472.654	487.31
472.873	429.31
473.092	435.31
473.311	410.31
473.53	418.31
473.749	403.31
473.968	454.31
474.187	541.31
474.406	557.31
474.625	476.31
474.844	432.31
475.063	418.31
475.282	427.31
475.501	404.31
475.72	398.31
475.939	427.31
476.158	426.31
476.377	419.31
476.596	416.31
476.814	431.31
477.033	428.31
477.252	432.31
477.471	427.31
477.69	429.31
477.908	428.31
478.127	433.31
478.346	457.31
478.564	438.31
478.783	452.31
479.002	455.31
479.22	447.31
479.439	483.31
479.658	496.31
479.876	511.31
480.095	497.31
480.313	537.31
480.532	493.31
480.751	515.31
480.969	543.31
481.188	667.31
481.406	732.31
481.624	602.31
481.843	531.31
482.061	499.31
482.28	515.31
482.498	503.31
482.717	500.31
482.935	465.31
483.153	473.31
483.372	480.31
483.59	486.31
483.808	500.31
484.027	499.31
484.245	504.31
484.463	496.31
484.681	526.31
484.9	507.31
485.118	490.31
485.336	496.31
485.554	491.31
485.772	492.31
485.99	506.31
486.209	487.31
486.427	523.31
486.645	495.31
486.863	519.31
487.081	541.31
487.299	547.31
487.517	524.31
487.735	522.31
487.953	516.31
488.171	537.31
488.389	529.31
488.607	531.31
488.825	517.31
489.043	523.31
489.261	524.31
489.479	543.31
489.696	530.31
489.914	553.31
490.132	537.31
490.35	540.31
490.568	561.31
490.786	587.31
491.003	544.31
491.221	571.31
491.439	583.31
491.657	606.31
491.874	627.31
492.092	607.31
492.31	608.31
492.527	609.31
492.745	616.31
492.963	612.31
493.18	633.31
493.398	624.31
493.615	609.31
493.833	657.31
494.05	626.31
494.268	638.31
494.485	611.31
494.703	639.31
494.92	624.31
495.138	630.31
495.355	613.31
495.573	633.31
495.79	615.31
496.008	623.31
496.225	624.31
496.442	624.31
496.66	610.31
496.877	603.31
497.094	601.31
497.312	631.31
497.529	635.31
497.746	655.31
497.963	640.31
498.181	657.31
498.398	652.31
498.615	680.31
498.832	695.31
499.049	688.31
499.267	694.31
499.484	694.31
499.701	707.31
499.918	766.31
500.135	769.31
500.352	771.31
500.569	772.31
500.786	818.31
501.003	818.31
501.22	795.31
501.437	744.31
501.654	763.31
501.871	753.31
