Data from 1983.PennyLincolnUp.Lamp.En5.5.200Scan.071819.P1_HRD10591_16-52-10-964.txt Node
Date: Thu Jul 18 16:52:10 EDT 2019
User: cochatt
Spectrometer: HR+D1059
Trigger mode: 1
Integration Time (sec): 1.000000E-1
Scans to average: 1
Electric dark correction enabled: true
Nonlinearity correction enabled: false
Boxcar width: 0
XAxis mode: Wavelengths
Number of Pixels in Spectrum: 2048
>>>>>Begin Spectral Data<<<<<
223.165	-13.19
223.4	-13.19
223.635	-13.19
223.869	-26.19
224.104	-18.19
224.338	-12.19
224.573	-0.19
224.808	-5.19
225.042	-16.19
225.277	-10.19
225.511	-1.19
225.746	10.81
225.98	2.81
226.215	6.81
226.449	7.81
226.683	16.81
226.918	22.81
227.152	34.81
227.387	34.81
227.621	34.81
227.856	42.81
228.09	45.81
228.324	31.81
228.559	49.81
228.793	68.81
229.027	74.81
229.262	79.81
229.496	95.81
229.73	116.81
229.964	108.81
230.199	108.81
230.433	106.81
230.667	84.81
230.901	106.81
231.136	99.81
231.37	90.81
231.604	113.81
231.838	97.81
232.072	104.81
232.306	101.81
232.541	108.81
232.775	102.81
233.009	95.81
233.243	96.81
233.477	91.81
233.711	99.81
233.945	90.81
234.179	86.81
234.413	95.81
234.647	99.81
234.881	117.81
235.115	109.81
235.349	97.81
235.583	110.81
235.817	99.81
236.051	101.81
236.285	90.81
236.519	109.81
236.753	98.81
236.987	113.81
237.221	121.81
237.455	158.81
237.689	126.81
237.922	119.81
238.156	101.81
238.39	103.81
238.624	105.81
238.858	110.81
239.091	112.81
239.325	95.81
239.559	99.81
239.793	102.81
240.027	115.81
240.26	116.81
240.494	122.81
240.728	103.81
240.961	118.81
241.195	125.81
241.429	108.81
241.662	111.81
241.896	111.81
242.13	115.81
242.363	112.81
242.597	100.81
242.83	119.81
243.064	123.81
243.298	120.81
243.531	116.81
243.765	123.81
243.998	107.81
244.232	113.81
244.465	111.81
244.699	104.81
244.932	118.81
245.166	128.81
245.399	125.81
245.633	126.81
245.866	117.81
246.099	124.81
246.333	120.81
246.566	99.81
246.8	106.81
247.033	116.81
247.266	125.81
247.5	119.81
247.733	121.81
247.966	131.81
248.2	151.81
248.433	126.81
248.666	130.81
248.899	131.81
249.133	162.81
249.366	161.81
249.599	130.81
249.832	152.81
250.066	152.81
250.299	140.81
250.532	130.81
250.765	150.81
250.998	171.81
251.231	158.81
251.465	162.81
251.698	159.81
251.931	155.81
252.164	149.81
252.397	153.81
252.63	146.81
252.863	144.81
253.096	162.81
253.329	177.81
253.562	163.81
253.795	161.81
254.028	161.81
254.261	161.81
254.494	167.81
254.727	180.81
254.96	193.81
255.193	177.81
255.426	174.81
255.659	162.81
255.892	159.81
256.124	160.81
256.357	166.81
256.59	172.81
256.823	138.81
257.056	163.81
257.289	154.81
257.521	158.81
257.754	159.81
257.987	177.81
258.22	169.81
258.452	168.81
258.685	160.81
258.918	141.81
259.151	165.81
259.383	148.81
259.616	165.81
259.849	191.81
260.081	176.81
260.314	175.81
260.547	169.81
260.779	173.81
261.012	160.81
261.244	189.81
261.477	159.81
261.71	162.81
261.942	177.81
262.175	185.81
262.407	177.81
262.64	153.81
262.872	159.81
263.105	163.81
263.337	168.81
263.57	159.81
263.802	158.81
264.035	162.81
264.267	173.81
264.499	165.81
264.732	167.81
264.964	172.81
265.197	159.81
265.429	165.81
265.661	168.81
265.894	167.81
266.126	169.81
266.358	182.81
266.591	155.81
266.823	171.81
267.055	175.81
267.287	166.81
267.52	152.81
267.752	166.81
267.984	172.81
268.216	170.81
268.448	163.81
268.681	193.81
268.913	183.81
269.145	187.81
269.377	212.81
269.609	188.81
269.841	199.81
270.073	188.81
270.306	185.81
270.538	209.81
270.77	202.81
271.002	221.81
271.234	205.81
271.466	217.81
271.698	217.81
271.93	213.81
272.162	214.81
272.394	207.81
272.626	218.81
272.858	211.81
273.09	199.81
273.322	194.81
273.553	186.81
273.785	197.81
274.017	187.81
274.249	188.81
274.481	176.81
274.713	178.81
274.945	195.81
275.176	199.81
275.408	203.81
275.64	207.81
275.872	183.81
276.104	201.81
276.335	205.81
276.567	193.81
276.799	205.81
277.031	210.81
277.262	219.81
277.494	225.81
277.726	208.81
277.957	213.81
278.189	213.81
278.421	213.81
278.652	208.81
278.884	206.81
279.115	203.81
279.347	206.81
279.579	193.81
279.81	211.81
280.042	199.81
280.273	194.81
280.505	198.81
280.736	191.81
280.968	204.81
281.199	203.81
281.431	201.81
281.662	201.81
281.894	191.81
282.125	208.81
282.356	213.81
282.588	230.81
282.819	213.81
283.051	226.81
283.282	189.81
283.513	204.81
283.745	202.81
283.976	198.81
284.207	205.81
284.439	207.81
284.67	187.81
284.901	205.81
285.132	210.81
285.364	202.81
285.595	216.81
285.826	201.81
286.057	211.81
286.288	203.81
286.52	224.81
286.751	209.81
286.982	218.81
287.213	217.81
287.444	208.81
287.675	225.81
287.906	212.81
288.138	219.81
288.369	214.81
288.6	225.81
288.831	223.81
289.062	226.81
289.293	228.81
289.524	218.81
289.755	203.81
289.986	196.81
290.217	207.81
290.448	205.81
290.679	223.81
290.91	227.81
291.141	218.81
291.371	220.81
291.602	221.81
291.833	209.81
292.064	214.81
292.295	223.81
292.526	212.81
292.757	213.81
292.987	221.81
293.218	218.81
293.449	211.81
293.68	207.81
293.91	210.81
294.141	216.81
294.372	231.81
294.603	223.81
294.833	219.81
295.064	223.81
295.295	227.81
295.525	227.81
295.756	191.81
295.987	212.81
296.217	218.81
296.448	238.81
296.679	237.81
296.909	234.81
297.14	233.81
297.37	221.81
297.601	213.81
297.831	205.81
298.062	208.81
298.292	205.81
298.523	230.81
298.753	217.81
298.984	232.81
299.214	224.81
299.445	222.81
299.675	223.81
299.905	236.81
300.136	224.81
300.366	221.81
300.597	223.81
300.827	233.81
301.057	240.81
301.288	257.81
301.518	248.81
301.748	232.81
301.979	239.81
302.209	226.81
302.439	236.81
302.669	252.81
302.9	251.81
303.13	243.81
303.36	223.81
303.59	235.81
303.82	252.81
304.051	243.81
304.281	232.81
304.511	229.81
304.741	227.81
304.971	232.81
305.201	225.81
305.431	240.81
305.661	236.81
305.891	234.81
306.121	242.81
306.352	242.81
306.582	252.81
306.812	246.81
307.042	241.81
307.272	253.81
307.502	232.81
307.731	251.81
307.961	234.81
308.191	263.81
308.421	229.81
308.651	242.81
308.881	234.81
309.111	237.81
309.341	256.81
309.571	254.81
309.8	256.81
310.03	259.81
310.26	259.81
310.49	253.81
310.72	279.81
310.949	261.81
311.179	257.81
311.409	269.81
311.639	251.81
311.868	265.81
312.098	250.81
312.328	260.81
312.557	272.81
312.787	277.81
313.017	272.81
313.246	289.81
313.476	251.81
313.706	263.81
313.935	280.81
314.165	256.81
314.394	284.81
314.624	260.81
314.853	281.81
315.083	272.81
315.312	265.81
315.542	285.81
315.771	258.81
316.001	275.81
316.23	284.81
316.46	255.81
316.689	275.81
316.919	260.81
317.148	283.81
317.377	297.81
317.607	269.81
317.836	277.81
318.065	266.81
318.295	295.81
318.524	265.81
318.753	271.81
318.983	269.81
319.212	287.81
319.441	296.81
319.67	282.81
319.9	277.81
320.129	288.81
320.358	277.81
320.587	277.81
320.816	272.81
321.046	275.81
321.275	281.81
321.504	289.81
321.733	279.81
321.962	278.81
322.191	298.81
322.42	290.81
322.649	315.81
322.878	309.81
323.108	292.81
323.337	316.81
323.566	311.81
323.795	325.81
324.024	342.81
324.253	393.81
324.482	540.81
324.71	792.81
324.939	1035.81
325.168	885.81
325.397	494.81
325.626	357.81
325.855	332.81
326.084	325.81
326.313	331.81
326.542	313.81
326.77	348.81
326.999	392.81
327.228	504.81
327.457	682.81
327.686	785.81
327.914	579.81
328.143	397.81
328.372	365.81
328.6	356.81
328.829	361.81
329.058	347.81
329.287	337.81
329.515	330.81
329.744	323.81
329.972	314.81
330.201	321.81
330.43	316.81
330.658	326.81
330.887	363.81
331.115	344.81
331.344	336.81
331.572	317.81
331.801	321.81
332.03	320.81
332.258	311.81
332.486	308.81
332.715	296.81
332.943	321.81
333.172	321.81
333.4	309.81
333.629	317.81
333.857	327.81
334.085	315.81
334.314	313.81
334.542	317.81
334.771	327.81
334.999	325.81
335.227	323.81
335.455	342.81
335.684	323.81
335.912	319.81
336.14	326.81
336.369	306.81
336.597	335.81
336.825	305.81
337.053	324.81
337.281	311.81
337.51	305.81
337.738	300.81
337.966	325.81
338.194	333.81
338.422	319.81
338.65	286.81
338.878	321.81
339.106	327.81
339.334	319.81
339.562	316.81
339.79	296.81
340.018	299.81
340.246	297.81
340.474	294.81
340.702	275.81
340.93	290.81
341.158	299.81
341.386	300.81
341.614	294.81
341.842	306.81
342.07	305.81
342.298	313.81
342.526	292.81
342.754	292.81
342.981	300.81
343.209	294.81
343.437	315.81
343.665	319.81
343.893	319.81
344.12	314.81
344.348	317.81
344.576	296.81
344.804	315.81
345.031	313.81
345.259	308.81
345.487	311.81
345.714	301.81
345.942	284.81
346.17	289.81
346.397	289.81
346.625	314.81
346.853	283.81
347.08	293.81
347.308	308.81
347.535	293.81
347.763	311.81
347.99	274.81
348.218	297.81
348.445	296.81
348.673	305.81
348.9	319.81
349.128	286.81
349.355	286.81
349.583	285.81
349.81	278.81
350.037	305.81
350.265	281.81
350.492	280.81
350.72	274.81
350.947	308.81
351.174	313.81
351.402	277.81
351.629	321.81
351.856	316.81
352.083	303.81
352.311	294.81
352.538	299.81
352.765	304.81
352.992	285.81
353.22	317.81
353.447	312.81
353.674	288.81
353.901	292.81
354.128	288.81
354.355	288.81
354.583	279.81
354.81	291.81
355.037	265.81
355.264	279.81
355.491	277.81
355.718	275.81
355.945	279.81
356.172	274.81
356.399	282.81
356.626	288.81
356.853	278.81
357.08	251.81
357.307	295.81
357.534	266.81
357.761	290.81
357.988	279.81
358.215	272.81
358.441	293.81
358.668	280.81
358.895	300.81
359.122	305.81
359.349	277.81
359.576	300.81
359.802	297.81
360.029	319.81
360.256	320.81
360.483	303.81
360.709	324.81
360.936	309.81
361.163	282.81
361.39	294.81
361.616	300.81
361.843	318.81
362.07	303.81
362.296	296.81
362.523	300.81
362.749	290.81
362.976	287.81
363.203	277.81
363.429	305.81
363.656	281.81
363.882	297.81
364.109	290.81
364.335	279.81
364.562	303.81
364.788	291.81
365.015	307.81
365.241	285.81
365.468	282.81
365.694	279.81
365.92	322.81
366.147	291.81
366.373	288.81
366.599	295.81
366.826	249.81
367.052	288.81
367.278	283.81
367.505	285.81
367.731	290.81
367.957	283.81
368.184	281.81
368.41	284.81
368.636	309.81
368.862	295.81
369.089	313.81
369.315	293.81
369.541	312.81
369.767	295.81
369.993	298.81
370.219	287.81
370.445	284.81
370.672	282.81
370.898	282.81
371.124	284.81
371.35	298.81
371.576	283.81
371.802	304.81
372.028	303.81
372.254	306.81
372.48	293.81
372.706	292.81
372.932	290.81
373.158	297.81
373.384	297.81
373.61	294.81
373.835	292.81
374.061	292.81
374.287	306.81
374.513	304.81
374.739	290.81
374.965	307.81
375.191	303.81
375.416	286.81
375.642	290.81
375.868	332.81
376.094	293.81
376.319	299.81
376.545	297.81
376.771	301.81
376.997	299.81
377.222	296.81
377.448	283.81
377.674	312.81
377.899	272.81
378.125	295.81
378.35	289.81
378.576	287.81
378.802	302.81
379.027	292.81
379.253	290.81
379.478	293.81
379.704	294.81
379.929	296.81
380.155	302.81
380.38	299.81
380.606	280.81
380.831	282.81
381.057	284.81
381.282	290.81
381.507	309.81
381.733	296.81
381.958	289.81
382.184	309.81
382.409	312.81
382.634	304.81
382.86	322.81
383.085	297.81
383.31	311.81
383.535	316.81
383.761	309.81
383.986	300.81
384.211	304.81
384.436	321.81
384.662	325.81
384.887	331.81
385.112	313.81
385.337	331.81
385.562	300.81
385.787	323.81
386.013	352.81
386.238	336.81
386.463	345.81
386.688	336.81
386.913	319.81
387.138	355.81
387.363	336.81
387.588	331.81
387.813	332.81
388.038	310.81
388.263	330.81
388.488	314.81
388.713	337.81
388.938	305.81
389.163	333.81
389.387	318.81
389.612	316.81
389.837	324.81
390.062	319.81
390.287	322.81
390.512	325.81
390.736	320.81
390.961	314.81
391.186	319.81
391.411	316.81
391.636	326.81
391.86	314.81
392.085	334.81
392.31	325.81
392.534	320.81
392.759	337.81
392.984	331.81
393.208	327.81
393.433	341.81
393.658	339.81
393.882	313.81
394.107	318.81
394.331	324.81
394.556	321.81
394.78	307.81
395.005	327.81
395.229	299.81
395.454	339.81
395.678	332.81
395.903	332.81
396.127	333.81
396.352	348.81
396.576	343.81
396.801	339.81
397.025	334.81
397.249	330.81
397.474	331.81
397.698	354.81
397.922	349.81
398.147	355.81
398.371	346.81
398.595	346.81
398.82	359.81
399.044	354.81
399.268	367.81
399.492	383.81
399.717	408.81
399.941	426.81
400.165	416.81
400.389	431.81
400.613	388.81
400.837	363.81
401.062	371.81
401.286	373.81
401.51	353.81
401.734	359.81
401.958	373.81
402.182	354.81
402.406	369.81
402.63	397.81
402.854	368.81
403.078	371.81
403.302	351.81
403.526	364.81
403.75	371.81
403.974	372.81
404.198	384.81
404.422	363.81
404.645	383.81
404.869	355.81
405.093	367.81
405.317	367.81
405.541	382.81
405.765	384.81
405.988	383.81
406.212	377.81
406.436	390.81
406.66	390.81
406.883	396.81
407.107	415.81
407.331	448.81
407.555	454.81
407.778	458.81
408.002	419.81
408.226	396.81
408.449	385.81
408.673	388.81
408.896	400.81
409.12	406.81
409.344	420.81
409.567	367.81
409.791	388.81
410.014	367.81
410.238	364.81
410.461	367.81
410.685	372.81
410.908	377.81
411.132	401.81
411.355	393.81
411.578	418.81
411.802	393.81
412.025	346.81
412.249	364.81
412.472	357.81
412.695	368.81
412.919	370.81
413.142	360.81
413.365	355.81
413.589	367.81
413.812	349.81
414.035	365.81
414.258	356.81
414.482	367.81
414.705	354.81
414.928	335.81
415.151	346.81
415.374	360.81
415.597	354.81
415.821	330.81
416.044	346.81
416.267	369.81
416.49	335.81
416.713	346.81
416.936	347.81
417.159	360.81
417.382	352.81
417.605	346.81
417.828	356.81
418.051	362.81
418.274	347.81
418.497	347.81
418.72	354.81
418.943	333.81
419.166	336.81
419.389	373.81
419.611	373.81
419.834	363.81
420.057	361.81
420.28	353.81
420.503	356.81
420.726	356.81
420.948	375.81
421.171	387.81
421.394	409.81
421.617	370.81
421.839	364.81
422.062	344.81
422.285	356.81
422.507	386.81
422.73	419.81
422.953	407.81
423.175	397.81
423.398	371.81
423.621	352.81
423.843	377.81
424.066	367.81
424.288	381.81
424.511	392.81
424.733	402.81
424.956	450.81
425.178	431.81
425.401	452.81
425.623	472.81
425.846	394.81
426.068	388.81
426.291	379.81
426.513	363.81
426.735	387.81
426.958	396.81
427.18	456.81
427.402	513.81
427.625	556.81
427.847	469.81
428.069	413.81
428.292	372.81
428.514	362.81
428.736	373.81
428.958	363.81
429.181	361.81
429.403	348.81
429.625	355.81
429.847	379.81
430.069	405.81
430.292	382.81
430.514	352.81
430.736	356.81
430.958	347.81
431.18	343.81
431.402	353.81
431.624	351.81
431.846	332.81
432.068	339.81
432.29	348.81
432.512	338.81
432.734	352.81
432.956	342.81
433.178	338.81
433.4	362.81
433.622	349.81
433.844	337.81
434.066	327.81
434.287	306.81
434.509	330.81
434.731	361.81
434.953	341.81
435.175	351.81
435.397	373.81
435.618	372.81
435.84	400.81
436.062	433.81
436.284	461.81
436.505	423.81
436.727	373.81
436.949	355.81
437.17	369.81
437.392	362.81
437.614	375.81
437.835	372.81
438.057	411.81
438.278	470.81
438.5	475.81
438.721	521.81
438.943	493.81
439.165	401.81
439.386	394.81
439.608	365.81
439.829	377.81
440.05	395.81
440.272	416.81
440.493	393.81
440.715	353.81
440.936	374.81
441.158	372.81
441.379	357.81
441.6	362.81
441.822	387.81
442.043	405.81
442.264	444.81
442.486	466.81
442.707	385.81
442.928	378.81
443.149	392.81
443.371	377.81
443.592	425.81
443.813	455.81
444.034	484.81
444.255	428.81
444.476	414.81
444.698	382.81
444.919	381.81
445.14	514.81
445.361	428.81
445.582	416.81
445.803	433.81
446.024	482.81
446.245	477.81
446.466	459.81
446.687	397.81
446.908	387.81
447.129	337.81
447.35	347.81
447.571	348.81
447.792	344.81
448.013	348.81
448.234	359.81
448.455	391.81
448.675	439.81
448.896	511.81
449.117	441.81
449.338	433.81
449.559	489.81
449.779	524.81
450	459.81
450.221	379.81
450.442	348.81
450.662	338.81
450.883	326.81
451.104	352.81
451.324	354.81
451.545	333.81
451.766	325.81
451.986	299.81
452.207	325.81
452.428	315.81
452.648	319.81
452.869	322.81
453.089	334.81
453.31	339.81
453.53	317.81
453.751	317.81
453.971	308.81
454.192	325.81
454.412	303.81
454.633	308.81
454.853	304.81
455.073	301.81
455.294	312.81
455.514	373.81
455.734	348.81
455.955	303.81
456.175	302.81
456.395	304.81
456.616	317.81
456.836	313.81
457.056	276.81
457.276	297.81
457.497	307.81
457.717	313.81
457.937	310.81
458.157	300.81
458.377	317.81
458.598	331.81
458.818	367.81
459.038	369.81
459.258	390.81
459.478	354.81
459.698	339.81
459.918	349.81
460.138	321.81
460.358	330.81
460.578	357.81
460.798	341.81
461.018	357.81
461.238	358.81
461.458	353.81
461.678	354.81
461.898	328.81
462.118	354.81
462.338	346.81
462.558	356.81
462.777	364.81
462.997	360.81
463.217	362.81
463.437	389.81
463.657	375.81
463.876	372.81
464.096	387.81
464.316	381.81
464.536	385.81
464.755	361.81
464.975	363.81
465.195	370.81
465.414	381.81
465.634	385.81
465.854	349.81
466.073	342.81
466.293	337.81
466.512	348.81
466.732	340.81
466.951	345.81
467.171	336.81
467.391	340.81
467.61	337.81
467.829	327.81
468.049	329.81
468.268	344.81
468.488	312.81
468.707	338.81
468.927	326.81
469.146	323.81
469.365	319.81
469.585	326.81
469.804	324.81
470.023	334.81
470.243	332.81
470.462	316.81
470.681	342.81
470.901	333.81
471.12	330.81
471.339	344.81
471.558	333.81
471.777	329.81
471.997	315.81
472.216	329.81
472.435	334.81
472.654	330.81
472.873	330.81
473.092	336.81
473.311	342.81
473.53	321.81
473.749	333.81
473.968	360.81
474.187	404.81
474.406	412.81
474.625	379.81
474.844	333.81
475.063	334.81
475.282	344.81
475.501	326.81
475.72	338.81
475.939	346.81
476.158	336.81
476.377	349.81
476.596	333.81
476.814	351.81
477.033	359.81
477.252	356.81
477.471	359.81
477.69	348.81
477.908	354.81
478.127	358.81
478.346	375.81
478.564	359.81
478.783	359.81
479.002	395.81
479.22	372.81
479.439	384.81
479.658	392.81
479.876	387.81
480.095	408.81
480.313	411.81
480.532	400.81
480.751	391.81
480.969	399.81
481.188	399.81
481.406	415.81
481.624	402.81
481.843	402.81
482.061	406.81
482.28	387.81
482.498	379.81
482.717	394.81
482.935	387.81
483.153	389.81
483.372	380.81
483.59	380.81
483.808	367.81
484.027	397.81
484.245	383.81
484.463	393.81
484.681	409.81
484.9	412.81
485.118	385.81
485.336	390.81
485.554	394.81
485.772	395.81
485.99	418.81
486.209	384.81
486.427	425.81
486.645	413.81
486.863	428.81
487.081	401.81
487.299	419.81
487.517	414.81
487.735	392.81
487.953	405.81
488.171	421.81
488.389	404.81
488.607	393.81
488.825	413.81
489.043	422.81
489.261	410.81
489.479	418.81
489.696	412.81
489.914	404.81
490.132	424.81
490.35	425.81
490.568	440.81
490.786	440.81
491.003	438.81
491.221	445.81
491.439	448.81
491.657	439.81
491.874	448.81
492.092	458.81
492.31	469.81
492.527	492.81
492.745	479.81
492.963	442.81
493.18	466.81
493.398	481.81
493.615	479.81
493.833	454.81
494.05	472.81
494.268	450.81
494.485	468.81
494.703	484.81
494.92	468.81
495.138	474.81
495.355	474.81
495.573	470.81
495.79	485.81
496.008	497.81
496.225	490.81
496.442	482.81
496.66	481.81
496.877	480.81
497.094	480.81
497.312	504.81
497.529	473.81
497.746	489.81
497.963	492.81
498.181	514.81
498.398	523.81
498.615	547.81
498.832	530.81
499.049	546.81
499.267	554.81
499.484	587.81
499.701	593.81
499.918	625.81
500.135	625.81
500.352	672.81
500.569	683.81
500.786	669.81
501.003	669.81
501.22	654.81
501.437	618.81
501.654	628.81
501.871	601.81
502.088	578.81
502.305	559.81
