Data from 1983.PennyLincolnUp.Lamp.En5.5.200Scan.071819.P1_HRD10591_16-54-43-966.txt Node
Date: Thu Jul 18 16:54:43 EDT 2019
User: cochatt
Spectrometer: HR+D1059
Trigger mode: 1
Integration Time (sec): 1.000000E-1
Scans to average: 1
Electric dark correction enabled: true
Nonlinearity correction enabled: false
Boxcar width: 0
XAxis mode: Wavelengths
Number of Pixels in Spectrum: 2048
>>>>>Begin Spectral Data<<<<<
223.165	-2.94
223.4	-2.94
223.635	-2.94
223.869	-8.94
224.104	-7.94
224.338	-7.94
224.573	-30.94
224.808	-2.94
225.042	-4.94
225.277	-1.94
225.511	-12.94
225.746	3.06
225.98	-12.94
226.215	15.06
226.449	6.06
226.683	16.06
226.918	36.06
227.152	18.06
227.387	21.06
227.621	47.06
227.856	42.06
228.09	59.06
228.324	32.06
228.559	53.06
228.793	59.06
229.027	84.06
229.262	98.06
229.496	126.06
229.73	135.06
229.964	139.06
230.199	128.06
230.433	106.06
230.667	107.06
230.901	98.06
231.136	103.06
231.37	119.06
231.604	99.06
231.838	114.06
232.072	108.06
232.306	122.06
232.541	112.06
232.775	121.06
233.009	107.06
233.243	114.06
233.477	107.06
233.711	111.06
233.945	110.06
234.179	121.06
234.413	119.06
234.647	112.06
234.881	121.06
235.115	131.06
235.349	127.06
235.583	122.06
235.817	110.06
236.051	117.06
236.285	119.06
236.519	127.06
236.753	110.06
236.987	141.06
237.221	185.06
237.455	213.06
237.689	167.06
237.922	133.06
238.156	132.06
238.39	137.06
238.624	127.06
238.858	130.06
239.091	128.06
239.325	119.06
239.559	109.06
239.793	126.06
240.027	141.06
240.26	153.06
240.494	151.06
240.728	154.06
240.961	142.06
241.195	137.06
241.429	146.06
241.662	143.06
241.896	127.06
242.13	138.06
242.363	141.06
242.597	124.06
242.83	145.06
243.064	128.06
243.298	121.06
243.531	140.06
243.765	140.06
243.998	148.06
244.232	132.06
244.465	131.06
244.699	145.06
244.932	129.06
245.166	140.06
245.399	136.06
245.633	139.06
245.866	145.06
246.099	135.06
246.333	151.06
246.566	133.06
246.8	142.06
247.033	154.06
247.266	144.06
247.5	141.06
247.733	165.06
247.966	169.06
248.2	174.06
248.433	177.06
248.666	182.06
248.899	174.06
249.133	200.06
249.366	191.06
249.599	186.06
249.832	182.06
250.066	177.06
250.299	172.06
250.532	185.06
250.765	185.06
250.998	213.06
251.231	208.06
251.465	212.06
251.698	197.06
251.931	188.06
252.164	202.06
252.397	198.06
252.63	190.06
252.863	190.06
253.096	202.06
253.329	217.06
253.562	206.06
253.795	201.06
254.028	200.06
254.261	221.06
254.494	222.06
254.727	229.06
254.96	258.06
255.193	265.06
255.426	242.06
255.659	222.06
255.892	227.06
256.124	223.06
256.357	240.06
256.59	228.06
256.823	215.06
257.056	213.06
257.289	205.06
257.521	204.06
257.754	194.06
257.987	208.06
258.22	190.06
258.452	202.06
258.685	197.06
258.918	188.06
259.151	200.06
259.383	189.06
259.616	220.06
259.849	218.06
260.081	232.06
260.314	241.06
260.547	245.06
260.779	231.06
261.012	206.06
261.244	204.06
261.477	232.06
261.71	210.06
261.942	223.06
262.175	233.06
262.407	231.06
262.64	217.06
262.872	199.06
263.105	204.06
263.337	189.06
263.57	205.06
263.802	214.06
264.035	206.06
264.267	198.06
264.499	195.06
264.732	203.06
264.964	204.06
265.197	199.06
265.429	204.06
265.661	210.06
265.894	204.06
266.126	206.06
266.358	205.06
266.591	206.06
266.823	203.06
267.055	220.06
267.287	201.06
267.52	193.06
267.752	217.06
267.984	211.06
268.216	230.06
268.448	226.06
268.681	231.06
268.913	229.06
269.145	239.06
269.377	257.06
269.609	279.06
269.841	264.06
270.073	259.06
270.306	280.06
270.538	281.06
270.77	291.06
271.002	272.06
271.234	287.06
271.466	304.06
271.698	288.06
271.93	298.06
272.162	303.06
272.394	306.06
272.626	297.06
272.858	274.06
273.09	272.06
273.322	247.06
273.553	238.06
273.785	264.06
274.017	253.06
274.249	251.06
274.481	257.06
274.713	254.06
274.945	261.06
275.176	250.06
275.408	256.06
275.64	250.06
275.872	257.06
276.104	265.06
276.335	250.06
276.567	273.06
276.799	284.06
277.031	286.06
277.262	291.06
277.494	314.06
277.726	300.06
277.957	269.06
278.189	255.06
278.421	241.06
278.652	250.06
278.884	281.06
279.115	240.06
279.347	247.06
279.579	253.06
279.81	251.06
280.042	251.06
280.273	271.06
280.505	256.06
280.736	235.06
280.968	255.06
281.199	251.06
281.431	234.06
281.662	258.06
281.894	244.06
282.125	263.06
282.356	257.06
282.588	295.06
282.819	300.06
283.051	271.06
283.282	253.06
283.513	249.06
283.745	285.06
283.976	270.06
284.207	271.06
284.439	273.06
284.67	277.06
284.901	272.06
285.132	280.06
285.364	253.06
285.595	281.06
285.826	257.06
286.057	272.06
286.288	261.06
286.52	275.06
286.751	263.06
286.982	278.06
287.213	281.06
287.444	259.06
287.675	275.06
287.906	286.06
288.138	285.06
288.369	282.06
288.6	267.06
288.831	281.06
289.062	280.06
289.293	260.06
289.524	274.06
289.755	252.06
289.986	253.06
290.217	258.06
290.448	261.06
290.679	278.06
290.91	275.06
291.141	254.06
291.371	265.06
291.602	263.06
291.833	267.06
292.064	250.06
292.295	278.06
292.526	279.06
292.757	268.06
292.987	274.06
293.218	282.06
293.449	267.06
293.68	261.06
293.91	273.06
294.141	270.06
294.372	270.06
294.603	274.06
294.833	282.06
295.064	281.06
295.295	288.06
295.525	293.06
295.756	297.06
295.987	292.06
296.217	315.06
296.448	311.06
296.679	288.06
296.909	263.06
297.14	282.06
297.37	280.06
297.601	282.06
297.831	275.06
298.062	263.06
298.292	265.06
298.523	279.06
298.753	274.06
298.984	269.06
299.214	271.06
299.445	293.06
299.675	281.06
299.905	294.06
300.136	297.06
300.366	282.06
300.597	285.06
300.827	309.06
301.057	313.06
301.288	328.06
301.518	295.06
301.748	289.06
301.979	313.06
302.209	322.06
302.439	301.06
302.669	288.06
302.9	313.06
303.13	307.06
303.36	303.06
303.59	309.06
303.82	318.06
304.051	317.06
304.281	298.06
304.511	281.06
304.741	294.06
304.971	309.06
305.201	313.06
305.431	313.06
305.661	327.06
305.891	305.06
306.121	323.06
306.352	306.06
306.582	313.06
306.812	313.06
307.042	301.06
307.272	310.06
307.502	315.06
307.731	309.06
307.961	306.06
308.191	322.06
308.421	302.06
308.651	305.06
308.881	328.06
309.111	314.06
309.341	331.06
309.571	332.06
309.8	335.06
310.03	330.06
310.26	350.06
310.49	352.06
310.72	364.06
310.949	385.06
311.179	384.06
311.409	375.06
311.639	357.06
311.868	379.06
312.098	371.06
312.328	360.06
312.557	367.06
312.787	387.06
313.017	386.06
313.246	370.06
313.476	354.06
313.706	346.06
313.935	361.06
314.165	373.06
314.394	382.06
314.624	363.06
314.853	359.06
315.083	351.06
315.312	335.06
315.542	342.06
315.771	329.06
316.001	325.06
316.23	343.06
316.46	364.06
316.689	373.06
316.919	367.06
317.148	377.06
317.377	368.06
317.607	359.06
317.836	362.06
318.065	369.06
318.295	358.06
318.524	345.06
318.753	347.06
318.983	369.06
319.212	350.06
319.441	357.06
319.67	377.06
319.9	370.06
320.129	357.06
320.358	364.06
320.587	376.06
320.816	389.06
321.046	374.06
321.275	379.06
321.504	378.06
321.733	390.06
321.962	404.06
322.191	403.06
322.42	403.06
322.649	411.06
322.878	445.06
323.108	455.06
323.337	474.06
323.566	488.06
323.795	513.06
324.024	601.06
324.253	714.06
324.482	1008.06
324.71	1494.06
324.939	2062.06
325.168	1647.06
325.397	915.06
325.626	641.06
325.855	536.06
326.084	478.06
326.313	473.06
326.542	503.06
326.77	553.06
326.999	653.06
327.228	902.06
327.457	1319.06
327.686	1486.06
327.914	1021.06
328.143	701.06
328.372	626.06
328.6	583.06
328.829	527.06
329.058	586.06
329.287	571.06
329.515	542.06
329.744	494.06
329.972	504.06
330.201	539.06
330.43	589.06
330.658	594.06
330.887	594.06
331.115	584.06
331.344	505.06
331.572	480.06
331.801	480.06
332.03	463.06
332.258	459.06
332.486	434.06
332.715	430.06
332.943	423.06
333.172	423.06
333.4	443.06
333.629	435.06
333.857	433.06
334.085	450.06
334.314	493.06
334.542	531.06
334.771	529.06
334.999	471.06
335.227	471.06
335.455	452.06
335.684	434.06
335.912	422.06
336.14	425.06
336.369	407.06
336.597	434.06
336.825	445.06
337.053	422.06
337.281	418.06
337.51	410.06
337.738	424.06
337.966	412.06
338.194	415.06
338.422	420.06
338.65	399.06
338.878	403.06
339.106	406.06
339.334	409.06
339.562	398.06
339.79	393.06
340.018	398.06
340.246	407.06
340.474	410.06
340.702	411.06
340.93	394.06
341.158	381.06
341.386	412.06
341.614	417.06
341.842	381.06
342.07	394.06
342.298	398.06
342.526	371.06
342.754	389.06
342.981	391.06
343.209	374.06
343.437	400.06
343.665	387.06
343.893	402.06
344.12	406.06
344.348	406.06
344.576	370.06
344.804	413.06
345.031	391.06
345.259	415.06
345.487	412.06
345.714	399.06
345.942	383.06
346.17	386.06
346.397	378.06
346.625	389.06
346.853	377.06
347.08	390.06
347.308	409.06
347.535	392.06
347.763	381.06
347.99	402.06
348.218	407.06
348.445	408.06
348.673	401.06
348.9	376.06
349.128	381.06
349.355	373.06
349.583	362.06
349.81	370.06
350.037	384.06
350.265	368.06
350.492	377.06
350.72	388.06
350.947	381.06
351.174	381.06
351.402	396.06
351.629	389.06
351.856	397.06
352.083	394.06
352.311	417.06
352.538	401.06
352.765	421.06
352.992	391.06
353.22	398.06
353.447	384.06
353.674	370.06
353.901	379.06
354.128	379.06
354.355	354.06
354.583	355.06
354.81	357.06
355.037	362.06
355.264	355.06
355.491	355.06
355.718	356.06
355.945	356.06
356.172	339.06
356.399	357.06
356.626	339.06
356.853	355.06
357.08	358.06
357.307	341.06
357.534	359.06
357.761	344.06
357.988	364.06
358.215	367.06
358.441	364.06
358.668	359.06
358.895	369.06
359.122	373.06
359.349	395.06
359.576	378.06
359.802	418.06
360.029	439.06
360.256	452.06
360.483	423.06
360.709	409.06
360.936	385.06
361.163	397.06
361.39	382.06
361.616	397.06
361.843	383.06
362.07	391.06
362.296	382.06
362.523	392.06
362.749	380.06
362.976	375.06
363.203	382.06
363.429	367.06
363.656	398.06
363.882	367.06
364.109	366.06
364.335	383.06
364.562	379.06
364.788	361.06
365.015	359.06
365.241	356.06
365.468	359.06
365.694	389.06
365.92	384.06
366.147	370.06
366.373	366.06
366.599	347.06
366.826	350.06
367.052	369.06
367.278	362.06
367.505	357.06
367.731	357.06
367.957	364.06
368.184	354.06
368.41	358.06
368.636	397.06
368.862	363.06
369.089	389.06
369.315	362.06
369.541	367.06
369.767	358.06
369.993	377.06
370.219	379.06
370.445	355.06
370.672	361.06
370.898	349.06
371.124	350.06
371.35	365.06
371.576	367.06
371.802	346.06
372.028	375.06
372.254	346.06
372.48	351.06
372.706	357.06
372.932	361.06
373.158	380.06
373.384	382.06
373.61	372.06
373.835	379.06
374.061	367.06
374.287	357.06
374.513	360.06
374.739	367.06
374.965	384.06
375.191	359.06
375.416	361.06
375.642	359.06
375.868	362.06
376.094	361.06
376.319	354.06
376.545	364.06
376.771	362.06
376.997	350.06
377.222	346.06
377.448	365.06
377.674	345.06
377.899	349.06
378.125	328.06
378.35	361.06
378.576	349.06
378.802	343.06
379.027	368.06
379.253	334.06
379.478	354.06
379.704	354.06
379.929	358.06
380.155	347.06
380.38	337.06
380.606	355.06
380.831	357.06
381.057	362.06
381.282	357.06
381.507	362.06
381.733	366.06
381.958	373.06
382.184	359.06
382.409	357.06
382.634	360.06
382.86	370.06
383.085	360.06
383.31	376.06
383.535	352.06
383.761	361.06
383.986	361.06
384.211	371.06
384.436	376.06
384.662	369.06
384.887	383.06
385.112	370.06
385.337	375.06
385.562	371.06
385.787	380.06
386.013	381.06
386.238	382.06
386.463	402.06
386.688	382.06
386.913	389.06
387.138	367.06
387.363	381.06
387.588	389.06
387.813	395.06
388.038	371.06
388.263	381.06
388.488	380.06
388.713	383.06
388.938	386.06
389.163	372.06
389.387	380.06
389.612	377.06
389.837	380.06
390.062	394.06
390.287	375.06
390.512	398.06
390.736	385.06
390.961	401.06
391.186	367.06
391.411	381.06
391.636	392.06
391.86	408.06
392.085	380.06
392.31	376.06
392.534	389.06
392.759	410.06
392.984	393.06
393.208	383.06
393.433	355.06
393.658	383.06
393.882	357.06
394.107	366.06
394.331	397.06
394.556	363.06
394.78	387.06
395.005	383.06
395.229	382.06
395.454	402.06
395.678	388.06
395.903	398.06
396.127	414.06
396.352	403.06
396.576	410.06
396.801	394.06
397.025	374.06
397.249	394.06
397.474	382.06
397.698	411.06
397.922	399.06
398.147	416.06
398.371	416.06
398.595	430.06
398.82	427.06
399.044	408.06
399.268	435.06
399.492	477.06
399.717	487.06
399.941	513.06
400.165	505.06
400.389	514.06
400.613	478.06
400.837	449.06
401.062	445.06
401.286	441.06
401.51	417.06
401.734	432.06
401.958	424.06
402.182	442.06
402.406	444.06
402.63	456.06
402.854	458.06
403.078	422.06
403.302	463.06
403.526	425.06
403.75	459.06
403.974	437.06
404.198	422.06
404.422	461.06
404.645	473.06
404.869	463.06
405.093	471.06
405.317	513.06
405.541	546.06
405.765	512.06
405.988	476.06
406.212	486.06
406.436	525.06
406.66	532.06
406.883	511.06
407.107	525.06
407.331	527.06
407.555	595.06
407.778	567.06
408.002	546.06
408.226	508.06
408.449	479.06
408.673	471.06
408.896	507.06
409.12	515.06
409.344	496.06
409.567	463.06
409.791	446.06
410.014	410.06
410.238	430.06
410.461	436.06
410.685	477.06
410.908	469.06
411.132	479.06
411.355	512.06
411.578	491.06
411.802	439.06
412.025	424.06
412.249	435.06
412.472	481.06
412.695	507.06
412.919	498.06
413.142	469.06
413.365	441.06
413.589	439.06
413.812	414.06
414.035	425.06
414.258	439.06
414.482	418.06
414.705	409.06
414.928	441.06
415.151	414.06
415.374	429.06
415.597	425.06
415.821	408.06
416.044	430.06
416.267	423.06
416.49	434.06
416.713	404.06
416.936	423.06
417.159	432.06
417.382	414.06
417.605	432.06
417.828	436.06
418.051	437.06
418.274	445.06
418.497	440.06
418.72	416.06
418.943	426.06
419.166	434.06
419.389	446.06
419.611	446.06
419.834	464.06
420.057	455.06
420.28	430.06
420.503	439.06
420.726	453.06
420.948	451.06
421.171	491.06
421.394	498.06
421.617	461.06
421.839	438.06
422.062	433.06
422.285	455.06
422.507	509.06
422.73	540.06
422.953	544.06
423.175	479.06
423.398	479.06
423.621	462.06
423.843	475.06
424.066	467.06
424.288	470.06
424.511	480.06
424.733	529.06
424.956	588.06
425.178	565.06
425.401	591.06
425.623	580.06
425.846	496.06
426.068	478.06
426.291	482.06
426.513	462.06
426.735	482.06
426.958	517.06
427.18	576.06
427.402	663.06
427.625	747.06
427.847	695.06
428.069	585.06
428.292	526.06
428.514	492.06
428.736	461.06
428.958	447.06
429.181	442.06
429.403	445.06
429.625	456.06
429.847	462.06
430.069	539.06
430.292	535.06
430.514	447.06
430.736	455.06
430.958	426.06
431.18	425.06
431.402	416.06
431.624	426.06
431.846	411.06
432.068	404.06
432.29	407.06
432.512	400.06
432.734	441.06
432.956	430.06
433.178	421.06
433.4	434.06
433.622	424.06
433.844	406.06
434.066	403.06
434.287	419.06
434.509	400.06
434.731	429.06
434.953	441.06
435.175	424.06
435.397	462.06
435.618	471.06
435.84	502.06
436.062	579.06
436.284	647.06
436.505	535.06
436.727	487.06
436.949	456.06
437.17	444.06
437.392	444.06
437.614	434.06
437.835	496.06
438.057	576.06
438.278	648.06
438.5	643.06
438.721	689.06
438.943	644.06
439.165	521.06
439.386	515.06
439.608	517.06
439.829	480.06
440.05	544.06
440.272	545.06
440.493	493.06
440.715	472.06
440.936	457.06
441.158	425.06
441.379	453.06
441.6	478.06
441.822	470.06
442.043	541.06
442.264	572.06
442.486	591.06
442.707	527.06
442.928	505.06
443.149	509.06
443.371	520.06
443.592	561.06
443.813	612.06
444.034	671.06
444.255	578.06
444.476	501.06
444.698	489.06
444.919	488.06
445.14	590.06
445.361	533.06
445.582	534.06
445.803	575.06
446.024	669.06
446.245	659.06
446.466	594.06
446.687	501.06
446.908	461.06
447.129	460.06
447.35	452.06
447.571	442.06
447.792	448.06
448.013	445.06
448.234	463.06
448.455	525.06
448.675	606.06
448.896	674.06
449.117	595.06
449.338	557.06
449.559	620.06
449.779	697.06
450	583.06
450.221	488.06
450.442	456.06
450.662	428.06
450.883	462.06
451.104	465.06
451.324	459.06
451.545	439.06
451.766	419.06
451.986	419.06
452.207	414.06
452.428	408.06
452.648	397.06
452.869	414.06
453.089	414.06
453.31	424.06
453.53	402.06
453.751	413.06
453.971	403.06
454.192	433.06
454.412	413.06
454.633	406.06
454.853	394.06
455.073	413.06
455.294	415.06
455.514	465.06
455.734	483.06
455.955	395.06
456.175	395.06
456.395	403.06
456.616	368.06
456.836	375.06
457.056	381.06
457.276	345.06
457.497	384.06
457.717	364.06
457.937	376.06
458.157	377.06
458.377	374.06
458.598	425.06
458.818	468.06
459.038	531.06
459.258	534.06
459.478	451.06
459.698	429.06
459.918	429.06
460.138	427.06
460.358	439.06
460.578	422.06
460.798	395.06
461.018	414.06
461.238	414.06
461.458	439.06
461.678	423.06
461.898	407.06
462.118	411.06
462.338	435.06
462.558	430.06
462.777	426.06
462.997	433.06
463.217	435.06
463.437	465.06
463.657	411.06
463.876	431.06
464.096	445.06
464.316	461.06
464.536	445.06
464.755	446.06
464.975	450.06
465.195	507.06
465.414	580.06
465.634	501.06
465.854	462.06
466.073	419.06
466.293	432.06
466.512	423.06
466.732	421.06
466.951	423.06
467.171	423.06
467.391	411.06
467.61	415.06
467.829	414.06
468.049	410.06
468.268	413.06
468.488	408.06
468.707	396.06
468.927	409.06
469.146	377.06
469.365	414.06
469.585	405.06
469.804	418.06
470.023	432.06
470.243	421.06
470.462	432.06
470.681	457.06
470.901	437.06
471.12	424.06
471.339	412.06
471.558	402.06
471.777	408.06
471.997	409.06
472.216	420.06
472.435	463.06
472.654	453.06
472.873	414.06
473.092	421.06
473.311	400.06
473.53	406.06
473.749	425.06
473.968	463.06
474.187	522.06
474.406	555.06
474.625	442.06
474.844	414.06
475.063	422.06
475.282	427.06
475.501	430.06
475.72	409.06
475.939	421.06
476.158	430.06
476.377	433.06
476.596	424.06
476.814	440.06
477.033	431.06
477.252	434.06
477.471	437.06
477.69	445.06
477.908	442.06
478.127	459.06
478.346	448.06
478.564	449.06
478.783	475.06
479.002	461.06
479.22	471.06
479.439	505.06
479.658	515.06
479.876	493.06
480.095	478.06
480.313	507.06
480.532	496.06
480.751	501.06
480.969	524.06
481.188	581.06
481.406	635.06
481.624	545.06
481.843	524.06
482.061	511.06
482.28	504.06
482.498	484.06
482.717	491.06
482.935	496.06
483.153	501.06
483.372	471.06
483.59	486.06
483.808	476.06
484.027	471.06
484.245	497.06
484.463	494.06
484.681	493.06
484.9	509.06
485.118	498.06
485.336	496.06
485.554	490.06
485.772	477.06
485.99	481.06
486.209	488.06
486.427	505.06
486.645	532.06
486.863	549.06
487.081	532.06
487.299	529.06
487.517	524.06
487.735	528.06
487.953	538.06
488.171	522.06
488.389	516.06
488.607	527.06
488.825	508.06
489.043	537.06
489.261	521.06
489.479	536.06
489.696	538.06
489.914	523.06
490.132	551.06
490.35	558.06
490.568	550.06
490.786	562.06
491.003	584.06
491.221	604.06
491.439	583.06
491.657	606.06
491.874	595.06
492.092	610.06
492.31	611.06
492.527	617.06
492.745	629.06
492.963	605.06
493.18	624.06
493.398	636.06
493.615	626.06
493.833	579.06
494.05	656.06
494.268	607.06
494.485	634.06
494.703	615.06
494.92	625.06
495.138	610.06
495.355	616.06
495.573	645.06
495.79	623.06
496.008	638.06
496.225	613.06
496.442	603.06
496.66	624.06
496.877	617.06
497.094	641.06
497.312	616.06
497.529	645.06
497.746	642.06
497.963	638.06
498.181	651.06
498.398	669.06
498.615	664.06
498.832	679.06
499.049	680.06
499.267	679.06
499.484	704.06
499.701	738.06
499.918	731.06
500.135	782.06
500.352	797.06
500.569	804.06
500.786	807.06
501.003	803.06
501.22	797.06
501.437	775.06
501.654	767.06
501.871	747.06
502.088	737.06
