Data from 1983.PennyLincolnUp.Lamp.En5.5.200Scan.071819.P1_HRD10591_16-53-12-965.txt Node
Date: Thu Jul 18 16:53:12 EDT 2019
User: cochatt
Spectrometer: HR+D1059
Trigger mode: 1
Integration Time (sec): 1.000000E-1
Scans to average: 1
Electric dark correction enabled: true
Nonlinearity correction enabled: false
Boxcar width: 0
XAxis mode: Wavelengths
Number of Pixels in Spectrum: 2048
>>>>>Begin Spectral Data<<<<<
223.165	-17.62
223.4	-17.62
223.635	-17.62
223.869	-2.62
224.104	-22.62
224.338	-17.62
224.573	-6.62
224.808	-10.62
225.042	-13.62
225.277	-12.62
225.511	-9.62
225.746	6.38
225.98	6.38
226.215	15.38
226.449	17.38
226.683	23.38
226.918	17.38
227.152	27.38
227.387	33.38
227.621	34.38
227.856	30.38
228.09	45.38
228.324	51.38
228.559	52.38
228.793	52.38
229.027	89.38
229.262	99.38
229.496	94.38
229.73	109.38
229.964	141.38
230.199	117.38
230.433	121.38
230.667	102.38
230.901	104.38
231.136	95.38
231.37	108.38
231.604	102.38
231.838	108.38
232.072	103.38
232.306	109.38
232.541	102.38
232.775	93.38
233.009	105.38
233.243	100.38
233.477	109.38
233.711	98.38
233.945	120.38
234.179	113.38
234.413	118.38
234.647	106.38
234.881	106.38
235.115	114.38
235.349	116.38
235.583	119.38
235.817	117.38
236.051	120.38
236.285	104.38
236.519	117.38
236.753	123.38
236.987	134.38
237.221	165.38
237.455	188.38
237.689	169.38
237.922	135.38
238.156	137.38
238.39	116.38
238.624	117.38
238.858	138.38
239.091	109.38
239.325	121.38
239.559	118.38
239.793	121.38
240.027	122.38
240.26	109.38
240.494	142.38
240.728	139.38
240.961	125.38
241.195	121.38
241.429	116.38
241.662	121.38
241.896	126.38
242.13	124.38
242.363	126.38
242.597	128.38
242.83	129.38
243.064	138.38
243.298	138.38
243.531	126.38
243.765	132.38
243.998	121.38
244.232	138.38
244.465	143.38
244.699	140.38
244.932	128.38
245.166	139.38
245.399	137.38
245.633	145.38
245.866	132.38
246.099	129.38
246.333	127.38
246.566	137.38
246.8	138.38
247.033	123.38
247.266	146.38
247.5	159.38
247.733	149.38
247.966	156.38
248.2	153.38
248.433	162.38
248.666	158.38
248.899	158.38
249.133	179.38
249.366	179.38
249.599	179.38
249.832	173.38
250.066	156.38
250.299	157.38
250.532	171.38
250.765	187.38
250.998	196.38
251.231	196.38
251.465	179.38
251.698	188.38
251.931	185.38
252.164	182.38
252.397	163.38
252.63	173.38
252.863	165.38
253.096	194.38
253.329	194.38
253.562	204.38
253.795	213.38
254.028	204.38
254.261	197.38
254.494	202.38
254.727	215.38
254.96	236.38
255.193	229.38
255.426	203.38
255.659	225.38
255.892	210.38
256.124	189.38
256.357	186.38
256.59	186.38
256.823	173.38
257.056	175.38
257.289	172.38
257.521	185.38
257.754	183.38
257.987	182.38
258.22	177.38
258.452	190.38
258.685	198.38
258.918	170.38
259.151	185.38
259.383	183.38
259.616	199.38
259.849	197.38
260.081	210.38
260.314	221.38
260.547	213.38
260.779	229.38
261.012	216.38
261.244	200.38
261.477	193.38
261.71	210.38
261.942	207.38
262.175	206.38
262.407	218.38
262.64	202.38
262.872	182.38
263.105	179.38
263.337	193.38
263.57	180.38
263.802	178.38
264.035	173.38
264.267	187.38
264.499	193.38
264.732	179.38
264.964	200.38
265.197	185.38
265.429	188.38
265.661	185.38
265.894	199.38
266.126	193.38
266.358	186.38
266.591	185.38
266.823	197.38
267.055	212.38
267.287	201.38
267.52	189.38
267.752	205.38
267.984	191.38
268.216	196.38
268.448	199.38
268.681	196.38
268.913	218.38
269.145	225.38
269.377	222.38
269.609	238.38
269.841	257.38
270.073	237.38
270.306	268.38
270.538	274.38
270.77	261.38
271.002	257.38
271.234	232.38
271.466	261.38
271.698	266.38
271.93	283.38
272.162	271.38
272.394	274.38
272.626	247.38
272.858	222.38
273.09	236.38
273.322	231.38
273.553	230.38
273.785	229.38
274.017	232.38
274.249	237.38
274.481	217.38
274.713	231.38
274.945	211.38
275.176	242.38
275.408	228.38
275.64	229.38
275.872	242.38
276.104	244.38
276.335	248.38
276.567	234.38
276.799	261.38
277.031	283.38
277.262	279.38
277.494	290.38
277.726	271.38
277.957	250.38
278.189	243.38
278.421	255.38
278.652	232.38
278.884	233.38
279.115	230.38
279.347	226.38
279.579	224.38
279.81	226.38
280.042	228.38
280.273	231.38
280.505	228.38
280.736	225.38
280.968	214.38
281.199	238.38
281.431	233.38
281.662	234.38
281.894	240.38
282.125	246.38
282.356	261.38
282.588	268.38
282.819	278.38
283.051	232.38
283.282	233.38
283.513	242.38
283.745	229.38
283.976	233.38
284.207	249.38
284.439	234.38
284.67	246.38
284.901	241.38
285.132	233.38
285.364	239.38
285.595	246.38
285.826	253.38
286.057	237.38
286.288	262.38
286.52	243.38
286.751	263.38
286.982	231.38
287.213	211.38
287.444	244.38
287.675	258.38
287.906	275.38
288.138	252.38
288.369	251.38
288.6	265.38
288.831	261.38
289.062	269.38
289.293	258.38
289.524	244.38
289.755	260.38
289.986	257.38
290.217	249.38
290.448	280.38
290.679	248.38
290.91	246.38
291.141	250.38
291.371	250.38
291.602	246.38
291.833	243.38
292.064	248.38
292.295	249.38
292.526	247.38
292.757	241.38
292.987	236.38
293.218	242.38
293.449	257.38
293.68	242.38
293.91	260.38
294.141	243.38
294.372	247.38
294.603	252.38
294.833	252.38
295.064	254.38
295.295	246.38
295.525	251.38
295.756	248.38
295.987	264.38
296.217	271.38
296.448	276.38
296.679	273.38
296.909	236.38
297.14	259.38
297.37	269.38
297.601	268.38
297.831	261.38
298.062	256.38
298.292	267.38
298.523	262.38
298.753	279.38
298.984	259.38
299.214	248.38
299.445	251.38
299.675	263.38
299.905	262.38
300.136	259.38
300.366	267.38
300.597	266.38
300.827	294.38
301.057	279.38
301.288	293.38
301.518	272.38
301.748	285.38
301.979	299.38
302.209	280.38
302.439	279.38
302.669	287.38
302.9	271.38
303.13	288.38
303.36	301.38
303.59	293.38
303.82	302.38
304.051	295.38
304.281	289.38
304.511	286.38
304.741	270.38
304.971	275.38
305.201	273.38
305.431	290.38
305.661	295.38
305.891	282.38
306.121	285.38
306.352	296.38
306.582	290.38
306.812	299.38
307.042	288.38
307.272	284.38
307.502	288.38
307.731	287.38
307.961	291.38
308.191	286.38
308.421	288.38
308.651	279.38
308.881	280.38
309.111	286.38
309.341	314.38
309.571	314.38
309.8	325.38
310.03	318.38
310.26	333.38
310.49	337.38
310.72	331.38
310.949	333.38
311.179	336.38
311.409	325.38
311.639	333.38
311.868	326.38
312.098	332.38
312.328	339.38
312.557	353.38
312.787	348.38
313.017	347.38
313.246	343.38
313.476	328.38
313.706	338.38
313.935	318.38
314.165	339.38
314.394	336.38
314.624	334.38
314.853	334.38
315.083	328.38
315.312	322.38
315.542	309.38
315.771	305.38
316.001	314.38
316.23	332.38
316.46	324.38
316.689	337.38
316.919	329.38
317.148	334.38
317.377	335.38
317.607	350.38
317.836	338.38
318.065	323.38
318.295	323.38
318.524	321.38
318.753	329.38
318.983	330.38
319.212	339.38
319.441	338.38
319.67	330.38
319.9	329.38
320.129	319.38
320.358	343.38
320.587	311.38
320.816	339.38
321.046	337.38
321.275	354.38
321.504	353.38
321.733	358.38
321.962	342.38
322.191	378.38
322.42	383.38
322.649	382.38
322.878	406.38
323.108	403.38
323.337	427.38
323.566	443.38
323.795	464.38
324.024	509.38
324.253	631.38
324.482	909.38
324.71	1349.38
324.939	1787.38
325.168	1552.38
325.397	805.38
325.626	578.38
325.855	475.38
326.084	453.38
326.313	453.38
326.542	461.38
326.77	476.38
326.999	573.38
327.228	837.38
327.457	1196.38
327.686	1339.38
327.914	895.38
328.143	614.38
328.372	562.38
328.6	506.38
328.829	481.38
329.058	503.38
329.287	507.38
329.515	477.38
329.744	404.38
329.972	423.38
330.201	441.38
330.43	461.38
330.658	485.38
330.887	516.38
331.115	503.38
331.344	448.38
331.572	421.38
331.801	423.38
332.03	421.38
332.258	390.38
332.486	387.38
332.715	375.38
332.943	378.38
333.172	375.38
333.4	365.38
333.629	389.38
333.857	389.38
334.085	392.38
334.314	387.38
334.542	411.38
334.771	389.38
334.999	373.38
335.227	391.38
335.455	379.38
335.684	381.38
335.912	377.38
336.14	376.38
336.369	381.38
336.597	375.38
336.825	389.38
337.053	381.38
337.281	360.38
337.51	378.38
337.738	369.38
337.966	384.38
338.194	376.38
338.422	391.38
338.65	363.38
338.878	358.38
339.106	364.38
339.334	350.38
339.562	354.38
339.79	360.38
340.018	363.38
340.246	373.38
340.474	374.38
340.702	353.38
340.93	355.38
341.158	371.38
341.386	358.38
341.614	365.38
341.842	372.38
342.07	369.38
342.298	347.38
342.526	356.38
342.754	348.38
342.981	347.38
343.209	353.38
343.437	351.38
343.665	353.38
343.893	351.38
344.12	365.38
344.348	351.38
344.576	350.38
344.804	373.38
345.031	379.38
345.259	374.38
345.487	375.38
345.714	356.38
345.942	345.38
346.17	356.38
346.397	355.38
346.625	360.38
346.853	342.38
347.08	345.38
347.308	368.38
347.535	371.38
347.763	389.38
347.99	362.38
348.218	365.38
348.445	374.38
348.673	365.38
348.9	363.38
349.128	330.38
349.355	316.38
349.583	343.38
349.81	348.38
350.037	354.38
350.265	349.38
350.492	343.38
350.72	346.38
350.947	371.38
351.174	374.38
351.402	371.38
351.629	372.38
351.856	359.38
352.083	385.38
352.311	357.38
352.538	364.38
352.765	380.38
352.992	348.38
353.22	369.38
353.447	369.38
353.674	357.38
353.901	350.38
354.128	331.38
354.355	327.38
354.583	338.38
354.81	351.38
355.037	335.38
355.264	323.38
355.491	330.38
355.718	318.38
355.945	321.38
356.172	341.38
356.399	307.38
356.626	320.38
356.853	317.38
357.08	311.38
357.307	332.38
357.534	319.38
357.761	341.38
357.988	312.38
358.215	335.38
358.441	327.38
358.668	337.38
358.895	335.38
359.122	314.38
359.349	348.38
359.576	361.38
359.802	383.38
360.029	410.38
360.256	412.38
360.483	382.38
360.709	374.38
360.936	367.38
361.163	343.38
361.39	347.38
361.616	356.38
361.843	349.38
362.07	354.38
362.296	366.38
362.523	361.38
362.749	352.38
362.976	329.38
363.203	361.38
363.429	351.38
363.656	363.38
363.882	332.38
364.109	345.38
364.335	333.38
364.562	338.38
364.788	334.38
365.015	339.38
365.241	339.38
365.468	341.38
365.694	340.38
365.92	331.38
366.147	338.38
366.373	324.38
366.599	319.38
366.826	327.38
367.052	333.38
367.278	349.38
367.505	342.38
367.731	350.38
367.957	322.38
368.184	320.38
368.41	331.38
368.636	357.38
368.862	356.38
369.089	343.38
369.315	348.38
369.541	345.38
369.767	328.38
369.993	338.38
370.219	333.38
370.445	334.38
370.672	329.38
370.898	335.38
371.124	305.38
371.35	317.38
371.576	325.38
371.802	331.38
372.028	320.38
372.254	333.38
372.48	327.38
372.706	321.38
372.932	343.38
373.158	326.38
373.384	335.38
373.61	342.38
373.835	342.38
374.061	343.38
374.287	330.38
374.513	333.38
374.739	332.38
374.965	332.38
375.191	349.38
375.416	340.38
375.642	347.38
375.868	336.38
376.094	320.38
376.319	335.38
376.545	334.38
376.771	320.38
376.997	326.38
377.222	319.38
377.448	324.38
377.674	327.38
377.899	321.38
378.125	313.38
378.35	331.38
378.576	334.38
378.802	342.38
379.027	329.38
379.253	340.38
379.478	335.38
379.704	333.38
379.929	333.38
380.155	321.38
380.38	321.38
380.606	331.38
380.831	345.38
381.057	357.38
381.282	340.38
381.507	332.38
381.733	321.38
381.958	321.38
382.184	329.38
382.409	315.38
382.634	336.38
382.86	339.38
383.085	342.38
383.31	329.38
383.535	328.38
383.761	322.38
383.986	332.38
384.211	341.38
384.436	351.38
384.662	348.38
384.887	340.38
385.112	352.38
385.337	355.38
385.562	355.38
385.787	363.38
386.013	373.38
386.238	366.38
386.463	353.38
386.688	371.38
386.913	363.38
387.138	337.38
387.363	342.38
387.588	370.38
387.813	346.38
388.038	346.38
388.263	326.38
388.488	372.38
388.713	361.38
388.938	373.38
389.163	347.38
389.387	356.38
389.612	341.38
389.837	344.38
390.062	339.38
390.287	359.38
390.512	361.38
390.736	358.38
390.961	346.38
391.186	353.38
391.411	347.38
391.636	361.38
391.86	369.38
392.085	358.38
392.31	344.38
392.534	355.38
392.759	356.38
392.984	358.38
393.208	359.38
393.433	340.38
393.658	369.38
393.882	345.38
394.107	357.38
394.331	356.38
394.556	344.38
394.78	354.38
395.005	349.38
395.229	360.38
395.454	375.38
395.678	364.38
395.903	375.38
396.127	380.38
396.352	379.38
396.576	377.38
396.801	391.38
397.025	353.38
397.249	354.38
397.474	383.38
397.698	381.38
397.922	380.38
398.147	402.38
398.371	395.38
398.595	398.38
398.82	381.38
399.044	382.38
399.268	387.38
399.492	435.38
399.717	447.38
399.941	457.38
400.165	478.38
400.389	460.38
400.613	441.38
400.837	438.38
401.062	401.38
401.286	424.38
401.51	400.38
401.734	399.38
401.958	395.38
402.182	391.38
402.406	407.38
402.63	414.38
402.854	429.38
403.078	407.38
403.302	412.38
403.526	397.38
403.75	405.38
403.974	405.38
404.198	407.38
404.422	415.38
404.645	423.38
404.869	413.38
405.093	431.38
405.317	445.38
405.541	482.38
405.765	435.38
405.988	424.38
406.212	439.38
406.436	439.38
406.66	465.38
406.883	444.38
407.107	453.38
407.331	515.38
407.555	525.38
407.778	535.38
408.002	486.38
408.226	467.38
408.449	450.38
408.673	448.38
408.896	473.38
409.12	505.38
409.344	463.38
409.567	451.38
409.791	435.38
410.014	421.38
410.238	412.38
410.461	416.38
410.685	405.38
410.908	429.38
411.132	455.38
411.355	468.38
411.578	453.38
411.802	440.38
412.025	413.38
412.249	409.38
412.472	414.38
412.695	412.38
412.919	410.38
413.142	401.38
413.365	400.38
413.589	412.38
413.812	403.38
414.035	386.38
414.258	376.38
414.482	393.38
414.705	390.38
414.928	396.38
415.151	381.38
415.374	377.38
415.597	379.38
415.821	369.38
416.044	372.38
416.267	379.38
416.49	390.38
416.713	373.38
416.936	382.38
417.159	381.38
417.382	392.38
417.605	390.38
417.828	413.38
418.051	422.38
418.274	398.38
418.497	378.38
418.72	385.38
418.943	395.38
419.166	407.38
419.389	411.38
419.611	404.38
419.834	416.38
420.057	409.38
420.28	385.38
420.503	381.38
420.726	392.38
420.948	399.38
421.171	438.38
421.394	461.38
421.617	430.38
421.839	417.38
422.062	418.38
422.285	403.38
422.507	451.38
422.73	478.38
422.953	503.38
423.175	451.38
423.398	433.38
423.621	422.38
423.843	438.38
424.066	459.38
424.288	424.38
424.511	475.38
424.733	497.38
424.956	525.38
425.178	531.38
425.401	539.38
425.623	546.38
425.846	483.38
426.068	446.38
426.291	447.38
426.513	447.38
426.735	442.38
426.958	498.38
427.18	524.38
427.402	639.38
427.625	681.38
427.847	629.38
428.069	538.38
428.292	467.38
428.514	413.38
428.736	415.38
428.958	407.38
429.181	412.38
429.403	414.38
429.625	422.38
429.847	446.38
430.069	485.38
430.292	470.38
430.514	426.38
430.736	405.38
430.958	383.38
431.18	377.38
431.402	385.38
431.624	393.38
431.846	394.38
432.068	393.38
432.29	388.38
432.512	373.38
432.734	405.38
432.956	366.38
433.178	391.38
433.4	401.38
433.622	407.38
433.844	389.38
434.066	388.38
434.287	396.38
434.509	385.38
434.731	384.38
434.953	395.38
435.175	424.38
435.397	413.38
435.618	439.38
435.84	486.38
436.062	548.38
436.284	558.38
436.505	501.38
436.727	442.38
436.949	412.38
437.17	426.38
437.392	415.38
437.614	410.38
437.835	437.38
438.057	527.38
438.278	599.38
438.5	583.38
438.721	641.38
438.943	610.38
439.165	503.38
439.386	459.38
439.608	461.38
439.829	462.38
440.05	478.38
440.272	492.38
440.493	457.38
440.715	441.38
440.936	443.38
441.158	420.38
441.379	406.38
441.6	430.38
441.822	455.38
442.043	486.38
442.264	530.38
442.486	560.38
442.707	492.38
442.928	455.38
443.149	442.38
443.371	490.38
443.592	506.38
443.813	581.38
444.034	608.38
444.255	494.38
444.476	463.38
444.698	454.38
444.919	421.38
445.14	550.38
445.361	514.38
445.582	477.38
445.803	528.38
446.024	592.38
446.245	611.38
446.466	555.38
446.687	471.38
446.908	437.38
447.129	425.38
447.35	434.38
447.571	430.38
447.792	405.38
448.013	429.38
448.234	438.38
448.455	473.38
448.675	535.38
448.896	610.38
449.117	545.38
449.338	529.38
449.559	590.38
449.779	635.38
450	531.38
450.221	460.38
450.442	411.38
450.662	393.38
450.883	423.38
451.104	447.38
451.324	425.38
451.545	399.38
451.766	391.38
451.986	371.38
452.207	353.38
452.428	379.38
452.648	375.38
452.869	373.38
453.089	365.38
453.31	401.38
453.53	368.38
453.751	377.38
453.971	366.38
454.192	385.38
454.412	375.38
454.633	366.38
454.853	369.38
455.073	357.38
455.294	400.38
455.514	428.38
455.734	425.38
455.955	381.38
456.175	359.38
456.395	337.38
456.616	353.38
456.836	358.38
457.056	339.38
457.276	329.38
457.497	368.38
457.717	362.38
457.937	358.38
458.157	356.38
458.377	351.38
458.598	390.38
458.818	452.38
459.038	510.38
459.258	486.38
459.478	412.38
459.698	393.38
459.918	381.38
460.138	379.38
460.358	366.38
460.578	408.38
460.798	399.38
461.018	405.38
461.238	393.38
461.458	387.38
461.678	378.38
461.898	411.38
462.118	369.38
462.338	389.38
462.558	403.38
462.777	402.38
462.997	415.38
463.217	430.38
463.437	427.38
463.657	405.38
463.876	407.38
464.096	410.38
464.316	431.38
464.536	435.38
464.755	429.38
464.975	421.38
465.195	485.38
465.414	517.38
465.634	462.38
465.854	431.38
466.073	395.38
466.293	394.38
466.512	381.38
466.732	389.38
466.951	388.38
467.171	360.38
467.391	379.38
467.61	397.38
467.829	383.38
468.049	394.38
468.268	372.38
468.488	374.38
468.707	377.38
468.927	389.38
469.146	361.38
469.365	355.38
469.585	358.38
469.804	362.38
470.023	401.38
470.243	383.38
470.462	377.38
470.681	395.38
470.901	381.38
471.12	375.38
471.339	386.38
471.558	391.38
471.777	370.38
471.997	357.38
472.216	380.38
472.435	373.38
472.654	369.38
472.873	369.38
473.092	367.38
473.311	371.38
473.53	385.38
473.749	381.38
473.968	417.38
474.187	513.38
474.406	504.38
474.625	415.38
474.844	406.38
475.063	385.38
475.282	400.38
475.501	387.38
475.72	392.38
475.939	381.38
476.158	405.38
476.377	381.38
476.596	395.38
476.814	386.38
477.033	423.38
477.252	409.38
477.471	396.38
477.69	392.38
477.908	419.38
478.127	422.38
478.346	406.38
478.564	409.38
478.783	415.38
479.002	437.38
479.22	427.38
479.439	436.38
479.658	466.38
479.876	459.38
480.095	447.38
480.313	474.38
480.532	457.38
480.751	469.38
480.969	444.38
481.188	474.38
481.406	488.38
481.624	455.38
481.843	444.38
482.061	447.38
482.28	423.38
482.498	436.38
482.717	426.38
482.935	435.38
483.153	457.38
483.372	433.38
483.59	446.38
483.808	443.38
484.027	462.38
484.245	465.38
484.463	473.38
484.681	450.38
484.9	455.38
485.118	443.38
485.336	449.38
485.554	460.38
485.772	445.38
485.99	467.38
486.209	489.38
486.427	446.38
486.645	466.38
486.863	500.38
487.081	503.38
487.299	475.38
487.517	469.38
487.735	460.38
487.953	467.38
488.171	475.38
488.389	485.38
488.607	464.38
488.825	471.38
489.043	477.38
489.261	472.38
489.479	500.38
489.696	519.38
489.914	501.38
490.132	486.38
490.35	499.38
490.568	510.38
490.786	519.38
491.003	502.38
491.221	522.38
491.439	526.38
491.657	547.38
491.874	546.38
492.092	544.38
492.31	555.38
492.527	553.38
492.745	528.38
492.963	546.38
493.18	544.38
493.398	561.38
493.615	533.38
493.833	554.38
494.05	563.38
494.268	583.38
494.485	550.38
494.703	557.38
494.92	570.38
495.138	571.38
495.355	570.38
495.573	543.38
495.79	546.38
496.008	568.38
496.225	561.38
496.442	571.38
496.66	558.38
496.877	566.38
497.094	577.38
497.312	583.38
497.529	577.38
497.746	583.38
497.963	579.38
498.181	603.38
498.398	612.38
498.615	613.38
498.832	615.38
499.049	632.38
499.267	655.38
499.484	669.38
499.701	661.38
499.918	682.38
500.135	693.38
500.352	754.38
500.569	744.38
500.786	750.38
501.003	746.38
501.22	745.38
501.437	700.38
501.654	711.38
501.871	705.38
502.088	679.38
