Data from 1983.PennyLincolnUp.Lamp.En5.5.200Scan.071819.P1_HRD10591_16-54-13-965.txt Node
Date: Thu Jul 18 16:54:13 EDT 2019
User: cochatt
Spectrometer: HR+D1059
Trigger mode: 1
Integration Time (sec): 1.000000E-1
Scans to average: 1
Electric dark correction enabled: true
Nonlinearity correction enabled: false
Boxcar width: 0
XAxis mode: Wavelengths
Number of Pixels in Spectrum: 2048
>>>>>Begin Spectral Data<<<<<
223.165	-20.38
223.4	-20.38
223.635	-20.38
223.869	-11.38
224.104	-13.38
224.338	-20.38
224.573	-19.38
224.808	-14.38
225.042	-16.38
225.277	-0.38
225.511	0.62
225.746	7.62
225.98	7.62
226.215	1.62
226.449	13.62
226.683	21.62
226.918	29.62
227.152	33.62
227.387	31.62
227.621	38.62
227.856	45.62
228.09	56.62
228.324	51.62
228.559	53.62
228.793	60.62
229.027	94.62
229.262	89.62
229.496	110.62
229.73	129.62
229.964	151.62
230.199	133.62
230.433	112.62
230.667	110.62
230.901	101.62
231.136	96.62
231.37	104.62
231.604	109.62
231.838	96.62
232.072	108.62
232.306	114.62
232.541	99.62
232.775	116.62
233.009	98.62
233.243	109.62
233.477	109.62
233.711	106.62
233.945	117.62
234.179	116.62
234.413	103.62
234.647	119.62
234.881	117.62
235.115	106.62
235.349	121.62
235.583	123.62
235.817	112.62
236.051	126.62
236.285	123.62
236.519	128.62
236.753	133.62
236.987	139.62
237.221	177.62
237.455	201.62
237.689	165.62
237.922	129.62
238.156	129.62
238.39	107.62
238.624	102.62
238.858	128.62
239.091	131.62
239.325	121.62
239.559	129.62
239.793	115.62
240.027	114.62
240.26	141.62
240.494	146.62
240.728	137.62
240.961	133.62
241.195	138.62
241.429	129.62
241.662	128.62
241.896	124.62
242.13	129.62
242.363	131.62
242.597	130.62
242.83	121.62
243.064	139.62
243.298	139.62
243.531	127.62
243.765	118.62
243.998	125.62
244.232	132.62
244.465	138.62
244.699	133.62
244.932	126.62
245.166	133.62
245.399	129.62
245.633	131.62
245.866	139.62
246.099	147.62
246.333	149.62
246.566	143.62
246.8	136.62
247.033	139.62
247.266	132.62
247.5	153.62
247.733	147.62
247.966	157.62
248.2	157.62
248.433	155.62
248.666	170.62
248.899	179.62
249.133	189.62
249.366	195.62
249.599	195.62
249.832	174.62
250.066	167.62
250.299	167.62
250.532	181.62
250.765	193.62
250.998	198.62
251.231	219.62
251.465	187.62
251.698	186.62
251.931	171.62
252.164	190.62
252.397	208.62
252.63	177.62
252.863	196.62
253.096	194.62
253.329	221.62
253.562	209.62
253.795	201.62
254.028	212.62
254.261	210.62
254.494	205.62
254.727	233.62
254.96	265.62
255.193	257.62
255.426	227.62
255.659	220.62
255.892	235.62
256.124	215.62
256.357	196.62
256.59	212.62
256.823	205.62
257.056	185.62
257.289	188.62
257.521	195.62
257.754	195.62
257.987	190.62
258.22	196.62
258.452	197.62
258.685	203.62
258.918	184.62
259.151	203.62
259.383	195.62
259.616	210.62
259.849	207.62
260.081	213.62
260.314	238.62
260.547	231.62
260.779	229.62
261.012	214.62
261.244	216.62
261.477	214.62
261.71	200.62
261.942	205.62
262.175	218.62
262.407	197.62
262.64	183.62
262.872	203.62
263.105	187.62
263.337	205.62
263.57	186.62
263.802	179.62
264.035	189.62
264.267	194.62
264.499	193.62
264.732	197.62
264.964	199.62
265.197	184.62
265.429	201.62
265.661	189.62
265.894	190.62
266.126	219.62
266.358	193.62
266.591	193.62
266.823	202.62
267.055	200.62
267.287	214.62
267.52	196.62
267.752	203.62
267.984	198.62
268.216	219.62
268.448	212.62
268.681	222.62
268.913	223.62
269.145	233.62
269.377	265.62
269.609	246.62
269.841	242.62
270.073	257.62
270.306	281.62
270.538	282.62
270.77	281.62
271.002	284.62
271.234	261.62
271.466	257.62
271.698	271.62
271.93	284.62
272.162	300.62
272.394	290.62
272.626	285.62
272.858	261.62
273.09	235.62
273.322	249.62
273.553	245.62
273.785	231.62
274.017	244.62
274.249	245.62
274.481	243.62
274.713	251.62
274.945	267.62
275.176	246.62
275.408	234.62
275.64	236.62
275.872	229.62
276.104	225.62
276.335	241.62
276.567	254.62
276.799	257.62
277.031	279.62
277.262	305.62
277.494	301.62
277.726	277.62
277.957	259.62
278.189	271.62
278.421	272.62
278.652	267.62
278.884	246.62
279.115	248.62
279.347	246.62
279.579	233.62
279.81	247.62
280.042	259.62
280.273	241.62
280.505	240.62
280.736	239.62
280.968	230.62
281.199	223.62
281.431	227.62
281.662	230.62
281.894	266.62
282.125	235.62
282.356	263.62
282.588	281.62
282.819	281.62
283.051	271.62
283.282	250.62
283.513	258.62
283.745	262.62
283.976	264.62
284.207	254.62
284.439	259.62
284.67	263.62
284.901	257.62
285.132	237.62
285.364	242.62
285.595	243.62
285.826	257.62
286.057	245.62
286.288	246.62
286.52	242.62
286.751	242.62
286.982	244.62
287.213	261.62
287.444	257.62
287.675	264.62
287.906	263.62
288.138	269.62
288.369	282.62
288.6	257.62
288.831	255.62
289.062	285.62
289.293	267.62
289.524	279.62
289.755	250.62
289.986	267.62
290.217	259.62
290.448	240.62
290.679	256.62
290.91	262.62
291.141	261.62
291.371	259.62
291.602	255.62
291.833	266.62
292.064	257.62
292.295	263.62
292.526	263.62
292.757	258.62
292.987	259.62
293.218	263.62
293.449	262.62
293.68	270.62
293.91	267.62
294.141	287.62
294.372	257.62
294.603	256.62
294.833	269.62
295.064	279.62
295.295	257.62
295.525	264.62
295.756	276.62
295.987	267.62
296.217	315.62
296.448	319.62
296.679	281.62
296.909	284.62
297.14	264.62
297.37	250.62
297.601	289.62
297.831	281.62
298.062	269.62
298.292	268.62
298.523	289.62
298.753	285.62
298.984	283.62
299.214	277.62
299.445	283.62
299.675	286.62
299.905	285.62
300.136	279.62
300.366	283.62
300.597	284.62
300.827	298.62
301.057	287.62
301.288	297.62
301.518	295.62
301.748	293.62
301.979	296.62
302.209	298.62
302.439	304.62
302.669	298.62
302.9	288.62
303.13	303.62
303.36	297.62
303.59	306.62
303.82	297.62
304.051	292.62
304.281	299.62
304.511	286.62
304.741	297.62
304.971	287.62
305.201	287.62
305.431	283.62
305.661	280.62
305.891	290.62
306.121	318.62
306.352	314.62
306.582	308.62
306.812	317.62
307.042	319.62
307.272	295.62
307.502	303.62
307.731	300.62
307.961	310.62
308.191	289.62
308.421	308.62
308.651	316.62
308.881	290.62
309.111	341.62
309.341	316.62
309.571	323.62
309.8	333.62
310.03	333.62
310.26	347.62
310.49	350.62
310.72	355.62
310.949	363.62
311.179	381.62
311.409	375.62
311.639	347.62
311.868	346.62
312.098	349.62
312.328	374.62
312.557	375.62
312.787	391.62
313.017	379.62
313.246	358.62
313.476	361.62
313.706	350.62
313.935	338.62
314.165	353.62
314.394	373.62
314.624	375.62
314.853	376.62
315.083	370.62
315.312	345.62
315.542	353.62
315.771	339.62
316.001	339.62
316.23	327.62
316.46	348.62
316.689	339.62
316.919	343.62
317.148	375.62
317.377	379.62
317.607	357.62
317.836	358.62
318.065	332.62
318.295	337.62
318.524	337.62
318.753	335.62
318.983	350.62
319.212	362.62
319.441	342.62
319.67	363.62
319.9	341.62
320.129	360.62
320.358	344.62
320.587	351.62
320.816	368.62
321.046	379.62
321.275	372.62
321.504	351.62
321.733	366.62
321.962	355.62
322.191	391.62
322.42	410.62
322.649	405.62
322.878	429.62
323.108	441.62
323.337	441.62
323.566	464.62
323.795	521.62
324.024	569.62
324.253	693.62
324.482	1010.62
324.71	1507.62
324.939	2017.62
325.168	1698.62
325.397	911.62
325.626	636.62
325.855	526.62
326.084	467.62
326.313	478.62
326.542	480.62
326.77	528.62
326.999	650.62
327.228	883.62
327.457	1310.62
327.686	1512.62
327.914	1013.62
328.143	693.62
328.372	599.62
328.6	562.62
328.829	543.62
329.058	555.62
329.287	559.62
329.515	543.62
329.744	476.62
329.972	473.62
330.201	510.62
330.43	525.62
330.658	540.62
330.887	590.62
331.115	575.62
331.344	490.62
331.572	468.62
331.801	461.62
332.03	453.62
332.258	429.62
332.486	414.62
332.715	412.62
332.943	407.62
333.172	412.62
333.4	404.62
333.629	409.62
333.857	443.62
334.085	435.62
334.314	434.62
334.542	485.62
334.771	494.62
334.999	454.62
335.227	433.62
335.455	408.62
335.684	407.62
335.912	419.62
336.14	426.62
336.369	422.62
336.597	426.62
336.825	431.62
337.053	395.62
337.281	394.62
337.51	379.62
337.738	361.62
337.966	396.62
338.194	371.62
338.422	393.62
338.65	399.62
338.878	395.62
339.106	375.62
339.334	397.62
339.562	398.62
339.79	391.62
340.018	378.62
340.246	401.62
340.474	385.62
340.702	399.62
340.93	383.62
341.158	393.62
341.386	398.62
341.614	407.62
341.842	376.62
342.07	361.62
342.298	391.62
342.526	383.62
342.754	370.62
342.981	356.62
343.209	369.62
343.437	377.62
343.665	387.62
343.893	393.62
344.12	383.62
344.348	386.62
344.576	384.62
344.804	411.62
345.031	406.62
345.259	396.62
345.487	380.62
345.714	402.62
345.942	360.62
346.17	374.62
346.397	393.62
346.625	408.62
346.853	370.62
347.08	366.62
347.308	379.62
347.535	369.62
347.763	386.62
347.99	402.62
348.218	390.62
348.445	391.62
348.673	403.62
348.9	381.62
349.128	362.62
349.355	371.62
349.583	370.62
349.81	377.62
350.037	364.62
350.265	368.62
350.492	355.62
350.72	359.62
350.947	363.62
351.174	391.62
351.402	377.62
351.629	381.62
351.856	387.62
352.083	384.62
352.311	406.62
352.538	379.62
352.765	393.62
352.992	401.62
353.22	386.62
353.447	373.62
353.674	389.62
353.901	362.62
354.128	334.62
354.355	369.62
354.583	353.62
354.81	350.62
355.037	335.62
355.264	337.62
355.491	355.62
355.718	331.62
355.945	348.62
356.172	340.62
356.399	333.62
356.626	356.62
356.853	342.62
357.08	341.62
357.307	347.62
357.534	337.62
357.761	358.62
357.988	348.62
358.215	343.62
358.441	331.62
358.668	340.62
358.895	364.62
359.122	355.62
359.349	374.62
359.576	377.62
359.802	407.62
360.029	452.62
360.256	457.62
360.483	418.62
360.709	373.62
360.936	379.62
361.163	375.62
361.39	360.62
361.616	360.62
361.843	364.62
362.07	370.62
362.296	391.62
362.523	384.62
362.749	380.62
362.976	362.62
363.203	364.62
363.429	359.62
363.656	369.62
363.882	373.62
364.109	341.62
364.335	353.62
364.562	355.62
364.788	346.62
365.015	355.62
365.241	358.62
365.468	365.62
365.694	367.62
365.92	358.62
366.147	362.62
366.373	357.62
366.599	327.62
366.826	342.62
367.052	355.62
367.278	349.62
367.505	358.62
367.731	363.62
367.957	354.62
368.184	363.62
368.41	339.62
368.636	358.62
368.862	370.62
369.089	344.62
369.315	369.62
369.541	358.62
369.767	348.62
369.993	345.62
370.219	340.62
370.445	366.62
370.672	349.62
370.898	343.62
371.124	350.62
371.35	355.62
371.576	355.62
371.802	327.62
372.028	340.62
372.254	358.62
372.48	356.62
372.706	335.62
372.932	350.62
373.158	367.62
373.384	364.62
373.61	345.62
373.835	346.62
374.061	341.62
374.287	329.62
374.513	324.62
374.739	341.62
374.965	354.62
375.191	362.62
375.416	354.62
375.642	349.62
375.868	356.62
376.094	333.62
376.319	342.62
376.545	350.62
376.771	349.62
376.997	357.62
377.222	358.62
377.448	334.62
377.674	347.62
377.899	333.62
378.125	358.62
378.35	359.62
378.576	357.62
378.802	346.62
379.027	359.62
379.253	340.62
379.478	338.62
379.704	335.62
379.929	345.62
380.155	357.62
380.38	358.62
380.606	337.62
380.831	332.62
381.057	349.62
381.282	348.62
381.507	339.62
381.733	343.62
381.958	359.62
382.184	354.62
382.409	353.62
382.634	363.62
382.86	360.62
383.085	353.62
383.31	365.62
383.535	358.62
383.761	365.62
383.986	371.62
384.211	356.62
384.436	357.62
384.662	360.62
384.887	370.62
385.112	374.62
385.337	367.62
385.562	362.62
385.787	347.62
386.013	386.62
386.238	389.62
386.463	384.62
386.688	370.62
386.913	366.62
387.138	365.62
387.363	382.62
387.588	368.62
387.813	364.62
388.038	373.62
388.263	378.62
388.488	369.62
388.713	377.62
388.938	373.62
389.163	374.62
389.387	370.62
389.612	349.62
389.837	385.62
390.062	375.62
390.287	365.62
390.512	372.62
390.736	361.62
390.961	377.62
391.186	373.62
391.411	376.62
391.636	363.62
391.86	357.62
392.085	373.62
392.31	381.62
392.534	376.62
392.759	376.62
392.984	361.62
393.208	381.62
393.433	344.62
393.658	344.62
393.882	382.62
394.107	389.62
394.331	374.62
394.556	386.62
394.78	381.62
395.005	379.62
395.229	372.62
395.454	368.62
395.678	390.62
395.903	389.62
396.127	412.62
396.352	413.62
396.576	387.62
396.801	384.62
397.025	382.62
397.249	377.62
397.474	383.62
397.698	393.62
397.922	381.62
398.147	427.62
398.371	399.62
398.595	411.62
398.82	415.62
399.044	414.62
399.268	426.62
399.492	453.62
399.717	471.62
399.941	482.62
400.165	469.62
400.389	505.62
400.613	463.62
400.837	453.62
401.062	430.62
401.286	412.62
401.51	416.62
401.734	397.62
401.958	425.62
402.182	413.62
402.406	416.62
402.63	423.62
402.854	441.62
403.078	446.62
403.302	423.62
403.526	437.62
403.75	422.62
403.974	405.62
404.198	423.62
404.422	421.62
404.645	436.62
404.869	445.62
405.093	462.62
405.317	478.62
405.541	509.62
405.765	493.62
405.988	455.62
406.212	455.62
406.436	481.62
406.66	515.62
406.883	469.62
407.107	473.62
407.331	515.62
407.555	570.62
407.778	558.62
408.002	500.62
408.226	485.62
408.449	476.62
408.673	477.62
408.896	500.62
409.12	532.62
409.344	477.62
409.567	446.62
409.791	460.62
410.014	424.62
410.238	414.62
410.461	413.62
410.685	430.62
410.908	435.62
411.132	439.62
411.355	498.62
411.578	481.62
411.802	426.62
412.025	427.62
412.249	434.62
412.472	437.62
412.695	472.62
412.919	461.62
413.142	437.62
413.365	418.62
413.589	416.62
413.812	425.62
414.035	397.62
414.258	402.62
414.482	403.62
414.705	410.62
414.928	391.62
415.151	409.62
415.374	398.62
415.597	396.62
415.821	413.62
416.044	399.62
416.267	425.62
416.49	395.62
416.713	405.62
416.936	401.62
417.159	395.62
417.382	417.62
417.605	389.62
417.828	425.62
418.051	438.62
418.274	431.62
418.497	394.62
418.72	388.62
418.943	403.62
419.166	435.62
419.389	434.62
419.611	439.62
419.834	417.62
420.057	428.62
420.28	417.62
420.503	419.62
420.726	412.62
420.948	447.62
421.171	484.62
421.394	495.62
421.617	437.62
421.839	424.62
422.062	437.62
422.285	462.62
422.507	495.62
422.73	536.62
422.953	528.62
423.175	490.62
423.398	459.62
423.621	440.62
423.843	449.62
424.066	460.62
424.288	484.62
424.511	473.62
424.733	499.62
424.956	573.62
425.178	571.62
425.401	555.62
425.623	568.62
425.846	506.62
426.068	459.62
426.291	447.62
426.513	444.62
426.735	490.62
426.958	507.62
427.18	582.62
427.402	667.62
427.625	742.62
427.847	680.62
428.069	588.62
428.292	487.62
428.514	457.62
428.736	468.62
428.958	446.62
429.181	422.62
429.403	439.62
429.625	444.62
429.847	470.62
430.069	509.62
430.292	517.62
430.514	459.62
430.736	425.62
430.958	413.62
431.18	428.62
431.402	415.62
431.624	395.62
431.846	373.62
432.068	402.62
432.29	387.62
432.512	387.62
432.734	398.62
432.956	389.62
433.178	414.62
433.4	407.62
433.622	420.62
433.844	429.62
434.066	416.62
434.287	391.62
434.509	404.62
434.731	420.62
434.953	429.62
435.175	434.62
435.397	469.62
435.618	469.62
435.84	504.62
436.062	581.62
436.284	617.62
436.505	512.62
436.727	481.62
436.949	443.62
437.17	447.62
437.392	449.62
437.614	437.62
437.835	465.62
438.057	565.62
438.278	637.62
438.5	614.62
438.721	669.62
438.943	645.62
439.165	518.62
439.386	489.62
439.608	478.62
439.829	492.62
440.05	516.62
440.272	529.62
440.493	508.62
440.715	491.62
440.936	428.62
441.158	406.62
441.379	433.62
441.6	462.62
441.822	467.62
442.043	507.62
442.264	545.62
442.486	593.62
442.707	494.62
442.928	457.62
443.149	483.62
443.371	511.62
443.592	539.62
443.813	587.62
444.034	623.62
444.255	534.62
444.476	505.62
444.698	490.62
444.919	460.62
445.14	550.62
445.361	539.62
445.582	509.62
445.803	579.62
446.024	610.62
446.245	618.62
446.466	591.62
446.687	523.62
446.908	471.62
447.129	452.62
447.35	452.62
447.571	422.62
447.792	402.62
448.013	430.62
448.234	441.62
448.455	502.62
448.675	578.62
448.896	648.62
449.117	556.62
449.338	539.62
449.559	629.62
449.779	697.62
450	565.62
450.221	484.62
450.442	426.62
450.662	437.62
450.883	445.62
451.104	462.62
451.324	440.62
451.545	425.62
451.766	389.62
451.986	406.62
452.207	410.62
452.428	379.62
452.648	407.62
452.869	406.62
453.089	377.62
453.31	409.62
453.53	384.62
453.751	389.62
453.971	395.62
454.192	431.62
454.412	409.62
454.633	397.62
454.853	378.62
455.073	392.62
455.294	425.62
455.514	462.62
455.734	462.62
455.955	413.62
456.175	367.62
456.395	379.62
456.616	369.62
456.836	382.62
457.056	374.62
457.276	347.62
457.497	371.62
457.717	373.62
457.937	379.62
458.157	381.62
458.377	419.62
458.598	405.62
458.818	454.62
459.038	526.62
459.258	533.62
459.478	453.62
459.698	422.62
459.918	412.62
460.138	387.62
460.358	419.62
460.578	416.62
460.798	435.62
461.018	396.62
461.238	403.62
461.458	429.62
461.678	385.62
461.898	398.62
462.118	410.62
462.338	409.62
462.558	433.62
462.777	413.62
462.997	434.62
463.217	437.62
463.437	449.62
463.657	430.62
463.876	424.62
464.096	453.62
464.316	433.62
464.536	435.62
464.755	468.62
464.975	454.62
465.195	485.62
465.414	586.62
465.634	483.62
465.854	447.62
466.073	421.62
466.293	403.62
466.512	409.62
466.732	400.62
466.951	387.62
467.171	409.62
467.391	390.62
467.61	399.62
467.829	419.62
468.049	417.62
468.268	412.62
468.488	400.62
468.707	386.62
468.927	384.62
469.146	389.62
469.365	386.62
469.585	381.62
469.804	395.62
470.023	399.62
470.243	418.62
470.462	418.62
470.681	430.62
470.901	430.62
471.12	396.62
471.339	395.62
471.558	402.62
471.777	403.62
471.997	392.62
472.216	409.62
472.435	426.62
472.654	408.62
472.873	398.62
473.092	391.62
473.311	400.62
473.53	407.62
473.749	429.62
473.968	438.62
474.187	541.62
474.406	537.62
474.625	463.62
474.844	429.62
475.063	421.62
475.282	407.62
475.501	419.62
475.72	424.62
475.939	418.62
476.158	402.62
476.377	407.62
476.596	406.62
476.814	421.62
477.033	412.62
477.252	407.62
477.471	427.62
477.69	429.62
477.908	453.62
478.127	431.62
478.346	431.62
478.564	441.62
478.783	429.62
479.002	450.62
479.22	459.62
479.439	474.62
479.658	490.62
479.876	486.62
480.095	497.62
480.313	537.62
480.532	500.62
480.751	502.62
480.969	498.62
481.188	536.62
481.406	567.62
481.624	499.62
481.843	504.62
482.061	457.62
482.28	488.62
482.498	457.62
482.717	466.62
482.935	470.62
483.153	438.62
483.372	501.62
483.59	462.62
483.808	484.62
484.027	475.62
484.245	478.62
484.463	474.62
484.681	470.62
484.9	460.62
485.118	470.62
485.336	466.62
485.554	469.62
485.772	467.62
485.99	500.62
486.209	485.62
486.427	484.62
486.645	522.62
486.863	517.62
487.081	525.62
487.299	511.62
487.517	494.62
487.735	496.62
487.953	493.62
488.171	509.62
488.389	515.62
488.607	530.62
488.825	514.62
489.043	497.62
489.261	528.62
489.479	486.62
489.696	522.62
489.914	505.62
490.132	537.62
490.35	528.62
490.568	518.62
490.786	546.62
491.003	543.62
491.221	569.62
491.439	551.62
491.657	586.62
491.874	579.62
492.092	575.62
492.31	598.62
492.527	589.62
492.745	611.62
492.963	585.62
493.18	595.62
493.398	611.62
493.615	584.62
493.833	596.62
494.05	604.62
494.268	576.62
494.485	596.62
494.703	618.62
494.92	599.62
495.138	609.62
495.355	595.62
495.573	600.62
495.79	597.62
496.008	592.62
496.225	603.62
496.442	603.62
496.66	589.62
496.877	587.62
497.094	598.62
497.312	582.62
497.529	606.62
497.746	620.62
497.963	607.62
498.181	657.62
498.398	630.62
498.615	645.62
498.832	674.62
499.049	643.62
499.267	696.62
499.484	725.62
499.701	726.62
499.918	710.62
500.135	730.62
500.352	785.62
500.569	797.62
500.786	782.62
501.003	767.62
501.22	768.62
501.437	775.62
501.654	764.62
501.871	756.62
502.088	697.62
