Data from 1983.PennyLincolnUp.Lamp.En5.5.200Scan.071819.P1_HRD10591_16-52-24-966.txt Node
Date: Thu Jul 18 16:52:24 EDT 2019
User: cochatt
Spectrometer: HR+D1059
Trigger mode: 1
Integration Time (sec): 1.000000E-1
Scans to average: 1
Electric dark correction enabled: true
Nonlinearity correction enabled: false
Boxcar width: 0
XAxis mode: Wavelengths
Number of Pixels in Spectrum: 2048
>>>>>Begin Spectral Data<<<<<
223.165	-19.88
223.4	-19.88
223.635	-19.88
223.869	-13.88
224.104	-23.88
224.338	-17.88
224.573	-15.88
224.808	-28.88
225.042	2.12
225.277	6.12
225.511	7.12
225.746	11.12
225.98	7.12
226.215	5.12
226.449	11.12
226.683	4.12
226.918	30.12
227.152	36.12
227.387	27.12
227.621	29.12
227.856	25.12
228.09	48.12
228.324	49.12
228.559	54.12
228.793	63.12
229.027	80.12
229.262	78.12
229.496	89.12
229.73	114.12
229.964	132.12
230.199	120.12
230.433	103.12
230.667	113.12
230.901	110.12
231.136	102.12
231.37	98.12
231.604	102.12
231.838	97.12
232.072	104.12
232.306	106.12
232.541	111.12
232.775	104.12
233.009	90.12
233.243	121.12
233.477	101.12
233.711	110.12
233.945	96.12
234.179	99.12
234.413	102.12
234.647	112.12
234.881	110.12
235.115	96.12
235.349	122.12
235.583	118.12
235.817	118.12
236.051	104.12
236.285	112.12
236.519	112.12
236.753	105.12
236.987	120.12
237.221	148.12
237.455	170.12
237.689	151.12
237.922	122.12
238.156	123.12
238.39	103.12
238.624	104.12
238.858	118.12
239.091	96.12
239.325	103.12
239.559	123.12
239.793	105.12
240.027	115.12
240.26	125.12
240.494	122.12
240.728	136.12
240.961	133.12
241.195	126.12
241.429	112.12
241.662	126.12
241.896	124.12
242.13	110.12
242.363	114.12
242.597	123.12
242.83	124.12
243.064	118.12
243.298	111.12
243.531	126.12
243.765	129.12
243.998	134.12
244.232	124.12
244.465	137.12
244.699	138.12
244.932	120.12
245.166	119.12
245.399	120.12
245.633	139.12
245.866	136.12
246.099	129.12
246.333	139.12
246.566	144.12
246.8	130.12
247.033	141.12
247.266	131.12
247.5	139.12
247.733	122.12
247.966	154.12
248.2	148.12
248.433	137.12
248.666	153.12
248.899	148.12
249.133	154.12
249.366	175.12
249.599	152.12
249.832	163.12
250.066	154.12
250.299	155.12
250.532	132.12
250.765	143.12
250.998	180.12
251.231	180.12
251.465	182.12
251.698	183.12
251.931	174.12
252.164	167.12
252.397	163.12
252.63	171.12
252.863	181.12
253.096	165.12
253.329	192.12
253.562	198.12
253.795	187.12
254.028	190.12
254.261	180.12
254.494	200.12
254.727	218.12
254.96	223.12
255.193	223.12
255.426	193.12
255.659	188.12
255.892	192.12
256.124	170.12
256.357	174.12
256.59	172.12
256.823	182.12
257.056	170.12
257.289	189.12
257.521	178.12
257.754	180.12
257.987	190.12
258.22	182.12
258.452	177.12
258.685	183.12
258.918	184.12
259.151	168.12
259.383	169.12
259.616	195.12
259.849	177.12
260.081	178.12
260.314	214.12
260.547	221.12
260.779	207.12
261.012	180.12
261.244	195.12
261.477	186.12
261.71	193.12
261.942	175.12
262.175	189.12
262.407	190.12
262.64	175.12
262.872	190.12
263.105	183.12
263.337	180.12
263.57	193.12
263.802	172.12
264.035	183.12
264.267	174.12
264.499	183.12
264.732	184.12
264.964	204.12
265.197	168.12
265.429	184.12
265.661	175.12
265.894	188.12
266.126	185.12
266.358	185.12
266.591	191.12
266.823	199.12
267.055	187.12
267.287	194.12
267.52	186.12
267.752	179.12
267.984	198.12
268.216	194.12
268.448	211.12
268.681	191.12
268.913	224.12
269.145	208.12
269.377	222.12
269.609	220.12
269.841	232.12
270.073	215.12
270.306	228.12
270.538	236.12
270.77	254.12
271.002	235.12
271.234	249.12
271.466	244.12
271.698	262.12
271.93	254.12
272.162	264.12
272.394	274.12
272.626	251.12
272.858	224.12
273.09	230.12
273.322	228.12
273.553	230.12
273.785	223.12
274.017	208.12
274.249	224.12
274.481	209.12
274.713	228.12
274.945	218.12
275.176	197.12
275.408	211.12
275.64	220.12
275.872	212.12
276.104	219.12
276.335	232.12
276.567	229.12
276.799	247.12
277.031	245.12
277.262	263.12
277.494	276.12
277.726	240.12
277.957	239.12
278.189	242.12
278.421	216.12
278.652	234.12
278.884	230.12
279.115	226.12
279.347	226.12
279.579	217.12
279.81	228.12
280.042	228.12
280.273	208.12
280.505	232.12
280.736	223.12
280.968	213.12
281.199	217.12
281.431	227.12
281.662	231.12
281.894	234.12
282.125	235.12
282.356	241.12
282.588	227.12
282.819	243.12
283.051	244.12
283.282	234.12
283.513	238.12
283.745	244.12
283.976	224.12
284.207	254.12
284.439	224.12
284.67	244.12
284.901	229.12
285.132	240.12
285.364	231.12
285.595	250.12
285.826	221.12
286.057	246.12
286.288	235.12
286.52	232.12
286.751	228.12
286.982	254.12
287.213	226.12
287.444	250.12
287.675	238.12
287.906	227.12
288.138	235.12
288.369	250.12
288.6	264.12
288.831	260.12
289.062	233.12
289.293	229.12
289.524	248.12
289.755	246.12
289.986	257.12
290.217	229.12
290.448	241.12
290.679	240.12
290.91	227.12
291.141	240.12
291.371	250.12
291.602	259.12
291.833	250.12
292.064	241.12
292.295	244.12
292.526	241.12
292.757	234.12
292.987	245.12
293.218	240.12
293.449	245.12
293.68	257.12
293.91	254.12
294.141	246.12
294.372	233.12
294.603	259.12
294.833	260.12
295.064	247.12
295.295	244.12
295.525	246.12
295.756	258.12
295.987	249.12
296.217	269.12
296.448	276.12
296.679	261.12
296.909	266.12
297.14	252.12
297.37	255.12
297.601	241.12
297.831	255.12
298.062	265.12
298.292	238.12
298.523	262.12
298.753	246.12
298.984	265.12
299.214	255.12
299.445	255.12
299.675	258.12
299.905	246.12
300.136	246.12
300.366	251.12
300.597	257.12
300.827	272.12
301.057	266.12
301.288	280.12
301.518	262.12
301.748	265.12
301.979	262.12
302.209	275.12
302.439	275.12
302.669	271.12
302.9	263.12
303.13	280.12
303.36	264.12
303.59	269.12
303.82	286.12
304.051	295.12
304.281	298.12
304.511	289.12
304.741	277.12
304.971	268.12
305.201	270.12
305.431	277.12
305.661	275.12
305.891	287.12
306.121	265.12
306.352	275.12
306.582	289.12
306.812	268.12
307.042	271.12
307.272	284.12
307.502	274.12
307.731	275.12
307.961	283.12
308.191	276.12
308.421	266.12
308.651	273.12
308.881	284.12
309.111	297.12
309.341	291.12
309.571	306.12
309.8	294.12
310.03	283.12
310.26	315.12
310.49	313.12
310.72	325.12
310.949	316.12
311.179	330.12
311.409	304.12
311.639	311.12
311.868	306.12
312.098	278.12
312.328	315.12
312.557	325.12
312.787	327.12
313.017	323.12
313.246	329.12
313.476	311.12
313.706	308.12
313.935	304.12
314.165	328.12
314.394	326.12
314.624	314.12
314.853	313.12
315.083	334.12
315.312	317.12
315.542	311.12
315.771	297.12
316.001	318.12
316.23	312.12
316.46	319.12
316.689	312.12
316.919	310.12
317.148	308.12
317.377	340.12
317.607	300.12
317.836	299.12
318.065	327.12
318.295	315.12
318.524	312.12
318.753	327.12
318.983	318.12
319.212	331.12
319.441	315.12
319.67	337.12
319.9	313.12
320.129	316.12
320.358	337.12
320.587	322.12
320.816	317.12
321.046	334.12
321.275	321.12
321.504	320.12
321.733	329.12
321.962	346.12
322.191	329.12
322.42	351.12
322.649	362.12
322.878	354.12
323.108	363.12
323.337	387.12
323.566	403.12
323.795	420.12
324.024	446.12
324.253	514.12
324.482	735.12
324.71	1096.12
324.939	1460.12
325.168	1228.12
325.397	670.12
325.626	489.12
325.855	431.12
326.084	381.12
326.313	392.12
326.542	399.12
326.77	415.12
326.999	492.12
327.228	643.12
327.457	914.12
327.686	1074.12
327.914	727.12
328.143	537.12
328.372	483.12
328.6	410.12
328.829	422.12
329.058	426.12
329.287	441.12
329.515	422.12
329.744	393.12
329.972	370.12
330.201	405.12
330.43	403.12
330.658	418.12
330.887	466.12
331.115	433.12
331.344	397.12
331.572	383.12
331.801	352.12
332.03	382.12
332.258	366.12
332.486	370.12
332.715	366.12
332.943	363.12
333.172	343.12
333.4	362.12
333.629	371.12
333.857	380.12
334.085	377.12
334.314	376.12
334.542	372.12
334.771	377.12
334.999	374.12
335.227	377.12
335.455	354.12
335.684	371.12
335.912	359.12
336.14	374.12
336.369	378.12
336.597	369.12
336.825	375.12
337.053	383.12
337.281	358.12
337.51	357.12
337.738	360.12
337.966	379.12
338.194	358.12
338.422	367.12
338.65	369.12
338.878	359.12
339.106	352.12
339.334	335.12
339.562	345.12
339.79	346.12
340.018	349.12
340.246	354.12
340.474	363.12
340.702	367.12
340.93	333.12
341.158	352.12
341.386	351.12
341.614	327.12
341.842	346.12
342.07	348.12
342.298	329.12
342.526	338.12
342.754	333.12
342.981	350.12
343.209	327.12
343.437	351.12
343.665	342.12
343.893	344.12
344.12	366.12
344.348	341.12
344.576	350.12
344.804	374.12
345.031	378.12
345.259	375.12
345.487	341.12
345.714	347.12
345.942	348.12
346.17	338.12
346.397	340.12
346.625	336.12
346.853	332.12
347.08	325.12
347.308	347.12
347.535	340.12
347.763	336.12
347.99	336.12
348.218	339.12
348.445	357.12
348.673	354.12
348.9	360.12
349.128	355.12
349.355	338.12
349.583	331.12
349.81	332.12
350.037	332.12
350.265	334.12
350.492	339.12
350.72	328.12
350.947	324.12
351.174	321.12
351.402	349.12
351.629	339.12
351.856	331.12
352.083	342.12
352.311	344.12
352.538	361.12
352.765	351.12
352.992	341.12
353.22	339.12
353.447	332.12
353.674	334.12
353.901	336.12
354.128	314.12
354.355	331.12
354.583	325.12
354.81	318.12
355.037	322.12
355.264	321.12
355.491	338.12
355.718	321.12
355.945	309.12
356.172	338.12
356.399	340.12
356.626	296.12
356.853	314.12
357.08	323.12
357.307	304.12
357.534	298.12
357.761	318.12
357.988	324.12
358.215	318.12
358.441	335.12
358.668	314.12
358.895	322.12
359.122	327.12
359.349	337.12
359.576	326.12
359.802	355.12
360.029	347.12
360.256	374.12
360.483	379.12
360.709	360.12
360.936	362.12
361.163	337.12
361.39	343.12
361.616	350.12
361.843	326.12
362.07	336.12
362.296	334.12
362.523	326.12
362.749	338.12
362.976	333.12
363.203	339.12
363.429	323.12
363.656	326.12
363.882	324.12
364.109	336.12
364.335	327.12
364.562	345.12
364.788	322.12
365.015	318.12
365.241	330.12
365.468	331.12
365.694	335.12
365.92	339.12
366.147	320.12
366.373	330.12
366.599	331.12
366.826	331.12
367.052	328.12
367.278	331.12
367.505	328.12
367.731	303.12
367.957	319.12
368.184	336.12
368.41	347.12
368.636	331.12
368.862	340.12
369.089	329.12
369.315	336.12
369.541	326.12
369.767	321.12
369.993	320.12
370.219	322.12
370.445	340.12
370.672	314.12
370.898	335.12
371.124	321.12
371.35	360.12
371.576	320.12
371.802	329.12
372.028	325.12
372.254	324.12
372.48	333.12
372.706	337.12
372.932	326.12
373.158	320.12
373.384	320.12
373.61	336.12
373.835	322.12
374.061	323.12
374.287	328.12
374.513	326.12
374.739	340.12
374.965	345.12
375.191	327.12
375.416	326.12
375.642	328.12
375.868	320.12
376.094	327.12
376.319	325.12
376.545	316.12
376.771	339.12
376.997	322.12
377.222	328.12
377.448	313.12
377.674	342.12
377.899	333.12
378.125	314.12
378.35	327.12
378.576	336.12
378.802	328.12
379.027	316.12
379.253	312.12
379.478	327.12
379.704	325.12
379.929	329.12
380.155	332.12
380.38	336.12
380.606	341.12
380.831	327.12
381.057	325.12
381.282	327.12
381.507	331.12
381.733	335.12
381.958	332.12
382.184	333.12
382.409	328.12
382.634	331.12
382.86	331.12
383.085	331.12
383.31	331.12
383.535	345.12
383.761	338.12
383.986	324.12
384.211	320.12
384.436	333.12
384.662	359.12
384.887	358.12
385.112	337.12
385.337	378.12
385.562	375.12
385.787	343.12
386.013	367.12
386.238	344.12
386.463	346.12
386.688	356.12
386.913	351.12
387.138	346.12
387.363	357.12
387.588	379.12
387.813	358.12
388.038	354.12
388.263	363.12
388.488	355.12
388.713	366.12
388.938	349.12
389.163	366.12
389.387	358.12
389.612	333.12
389.837	341.12
390.062	347.12
390.287	355.12
390.512	351.12
390.736	354.12
390.961	354.12
391.186	352.12
391.411	348.12
391.636	355.12
391.86	361.12
392.085	367.12
392.31	358.12
392.534	367.12
392.759	358.12
392.984	363.12
393.208	383.12
393.433	356.12
393.658	350.12
393.882	351.12
394.107	337.12
394.331	364.12
394.556	360.12
394.78	357.12
395.005	354.12
395.229	361.12
395.454	380.12
395.678	392.12
395.903	368.12
396.127	392.12
396.352	377.12
396.576	378.12
396.801	360.12
397.025	354.12
397.249	388.12
397.474	344.12
397.698	369.12
397.922	398.12
398.147	388.12
398.371	395.12
398.595	387.12
398.82	377.12
399.044	396.12
399.268	422.12
399.492	435.12
399.717	451.12
399.941	461.12
400.165	473.12
400.389	483.12
400.613	441.12
400.837	416.12
401.062	409.12
401.286	402.12
401.51	404.12
401.734	383.12
401.958	423.12
402.182	410.12
402.406	390.12
402.63	426.12
402.854	395.12
403.078	408.12
403.302	387.12
403.526	408.12
403.75	407.12
403.974	407.12
404.198	418.12
404.422	396.12
404.645	410.12
404.869	390.12
405.093	429.12
405.317	454.12
405.541	454.12
405.765	423.12
405.988	447.12
406.212	437.12
406.436	432.12
406.66	431.12
406.883	406.12
407.107	436.12
407.331	498.12
407.555	523.12
407.778	524.12
408.002	490.12
408.226	452.12
408.449	443.12
408.673	434.12
408.896	449.12
409.12	498.12
409.344	464.12
409.567	419.12
409.791	431.12
410.014	411.12
410.238	413.12
410.461	425.12
410.685	415.12
410.908	429.12
411.132	437.12
411.355	464.12
411.578	436.12
411.802	430.12
412.025	404.12
412.249	424.12
412.472	418.12
412.695	408.12
412.919	394.12
413.142	404.12
413.365	390.12
413.589	393.12
413.812	368.12
414.035	368.12
414.258	379.12
414.482	393.12
414.705	388.12
414.928	386.12
415.151	397.12
415.374	379.12
415.597	376.12
415.821	377.12
416.044	394.12
416.267	406.12
416.49	393.12
416.713	385.12
416.936	383.12
417.159	402.12
417.382	377.12
417.605	363.12
417.828	388.12
418.051	405.12
418.274	408.12
418.497	381.12
418.72	382.12
418.943	391.12
419.166	396.12
419.389	409.12
419.611	401.12
419.834	412.12
420.057	424.12
420.28	397.12
420.503	402.12
420.726	386.12
420.948	416.12
421.171	443.12
421.394	463.12
421.617	422.12
421.839	394.12
422.062	380.12
422.285	423.12
422.507	455.12
422.73	478.12
422.953	466.12
423.175	415.12
423.398	414.12
423.621	426.12
423.843	415.12
424.066	445.12
424.288	432.12
424.511	438.12
424.733	496.12
424.956	529.12
425.178	512.12
425.401	518.12
425.623	510.12
425.846	468.12
426.068	421.12
426.291	426.12
426.513	443.12
426.735	434.12
426.958	463.12
427.18	510.12
427.402	614.12
427.625	650.12
427.847	573.12
428.069	499.12
428.292	455.12
428.514	432.12
428.736	401.12
428.958	395.12
429.181	394.12
429.403	397.12
429.625	424.12
429.847	431.12
430.069	475.12
430.292	472.12
430.514	424.12
430.736	381.12
430.958	368.12
431.18	387.12
431.402	394.12
431.624	366.12
431.846	378.12
432.068	367.12
432.29	401.12
432.512	370.12
432.734	377.12
432.956	402.12
433.178	380.12
433.4	385.12
433.622	396.12
433.844	378.12
434.066	391.12
434.287	370.12
434.509	382.12
434.731	391.12
434.953	374.12
435.175	384.12
435.397	447.12
435.618	437.12
435.84	446.12
436.062	537.12
436.284	555.12
436.505	474.12
436.727	434.12
436.949	402.12
437.17	378.12
437.392	410.12
437.614	426.12
437.835	434.12
438.057	485.12
438.278	535.12
438.5	577.12
438.721	608.12
438.943	612.12
439.165	480.12
439.386	452.12
439.608	430.12
439.829	423.12
440.05	462.12
440.272	467.12
440.493	455.12
440.715	408.12
440.936	414.12
441.158	422.12
441.379	407.12
441.6	422.12
441.822	438.12
442.043	458.12
442.264	514.12
442.486	529.12
442.707	479.12
442.928	458.12
443.149	439.12
443.371	468.12
443.592	497.12
443.813	543.12
444.034	586.12
444.255	511.12
444.476	455.12
444.698	447.12
444.919	437.12
445.14	578.12
445.361	514.12
445.582	463.12
445.803	494.12
446.024	567.12
446.245	589.12
446.466	525.12
446.687	431.12
446.908	426.12
447.129	381.12
447.35	398.12
447.571	397.12
447.792	404.12
448.013	408.12
448.234	436.12
448.455	457.12
448.675	534.12
448.896	603.12
449.117	514.12
449.338	512.12
449.559	563.12
449.779	638.12
450	483.12
450.221	438.12
450.442	414.12
450.662	398.12
450.883	394.12
451.104	389.12
451.324	391.12
451.545	386.12
451.766	367.12
451.986	369.12
452.207	348.12
452.428	347.12
452.648	371.12
452.869	360.12
453.089	387.12
453.31	370.12
453.53	366.12
453.751	375.12
453.971	363.12
454.192	375.12
454.412	372.12
454.633	376.12
454.853	358.12
455.073	350.12
455.294	395.12
455.514	414.12
455.734	405.12
455.955	354.12
456.175	352.12
456.395	338.12
456.616	329.12
456.836	330.12
457.056	329.12
457.276	330.12
457.497	338.12
457.717	343.12
457.937	352.12
458.157	359.12
458.377	353.12
458.598	354.12
458.818	411.12
459.038	478.12
459.258	465.12
459.478	415.12
459.698	384.12
459.918	376.12
460.138	363.12
460.358	392.12
460.578	374.12
460.798	385.12
461.018	375.12
461.238	397.12
461.458	363.12
461.678	380.12
461.898	388.12
462.118	375.12
462.338	410.12
462.558	395.12
462.777	405.12
462.997	416.12
463.217	428.12
463.437	421.12
463.657	418.12
463.876	405.12
464.096	415.12
464.316	416.12
464.536	424.12
464.755	400.12
464.975	399.12
465.195	448.12
465.414	482.12
465.634	434.12
465.854	408.12
466.073	389.12
466.293	395.12
466.512	376.12
466.732	379.12
466.951	382.12
467.171	375.12
467.391	376.12
467.61	381.12
467.829	375.12
468.049	385.12
468.268	359.12
468.488	368.12
468.707	342.12
468.927	359.12
469.146	364.12
469.365	354.12
469.585	369.12
469.804	376.12
470.023	374.12
470.243	383.12
470.462	360.12
470.681	382.12
470.901	372.12
471.12	362.12
471.339	352.12
471.558	386.12
471.777	360.12
471.997	364.12
472.216	371.12
472.435	353.12
472.654	374.12
472.873	378.12
473.092	346.12
473.311	358.12
473.53	381.12
473.749	382.12
473.968	412.12
474.187	489.12
474.406	475.12
474.625	417.12
474.844	388.12
475.063	373.12
475.282	368.12
475.501	384.12
475.72	387.12
475.939	390.12
476.158	383.12
476.377	403.12
476.596	392.12
476.814	398.12
477.033	402.12
477.252	408.12
477.471	415.12
477.69	402.12
477.908	391.12
478.127	418.12
478.346	399.12
478.564	420.12
478.783	395.12
479.002	417.12
479.22	450.12
479.439	437.12
479.658	433.12
479.876	427.12
480.095	432.12
480.313	459.12
480.532	467.12
480.751	449.12
480.969	442.12
481.188	444.12
481.406	448.12
481.624	445.12
481.843	439.12
482.061	444.12
482.28	444.12
482.498	434.12
482.717	411.12
482.935	412.12
483.153	430.12
483.372	469.12
483.59	422.12
483.808	418.12
484.027	439.12
484.245	419.12
484.463	450.12
484.681	437.12
484.9	434.12
485.118	442.12
485.336	430.12
485.554	451.12
485.772	472.12
485.99	447.12
486.209	431.12
486.427	449.12
486.645	464.12
486.863	467.12
487.081	474.12
487.299	465.12
487.517	444.12
487.735	458.12
487.953	465.12
488.171	474.12
488.389	441.12
488.607	463.12
488.825	457.12
489.043	486.12
489.261	465.12
489.479	476.12
489.696	491.12
489.914	470.12
490.132	468.12
490.35	465.12
490.568	492.12
490.786	481.12
491.003	478.12
491.221	534.12
491.439	521.12
491.657	530.12
491.874	512.12
492.092	516.12
492.31	528.12
492.527	513.12
492.745	503.12
492.963	532.12
493.18	550.12
493.398	542.12
493.615	542.12
493.833	542.12
494.05	527.12
494.268	561.12
494.485	521.12
494.703	549.12
494.92	555.12
495.138	533.12
495.355	547.12
495.573	534.12
495.79	544.12
496.008	544.12
496.225	541.12
496.442	532.12
496.66	544.12
496.877	519.12
497.094	564.12
497.312	550.12
497.529	557.12
497.746	560.12
497.963	560.12
498.181	603.12
498.398	578.12
498.615	601.12
498.832	598.12
499.049	623.12
499.267	624.12
499.484	626.12
499.701	663.12
499.918	680.12
500.135	724.12
500.352	734.12
500.569	740.12
500.786	742.12
501.003	719.12
501.22	725.12
501.437	687.12
501.654	695.12
501.871	652.12
502.088	660.12
