Data from 1983.PennyLincolnUp.Lamp.En5.5.200Scan.071819.P1_HRD10591_16-53-27-965.txt Node
Date: Thu Jul 18 16:53:27 EDT 2019
User: cochatt
Spectrometer: HR+D1059
Trigger mode: 1
Integration Time (sec): 1.000000E-1
Scans to average: 1
Electric dark correction enabled: true
Nonlinearity correction enabled: false
Boxcar width: 0
XAxis mode: Wavelengths
Number of Pixels in Spectrum: 2048
>>>>>Begin Spectral Data<<<<<
223.165	-17.06
223.4	-17.06
223.635	-17.06
223.869	-11.06
224.104	-12.06
224.338	-21.06
224.573	-12.06
224.808	-13.06
225.042	-3.06
225.277	-10.06
225.511	1.94
225.746	1.94
225.98	1.94
226.215	10.94
226.449	7.94
226.683	19.94
226.918	23.94
227.152	30.94
227.387	34.94
227.621	24.94
227.856	43.94
228.09	46.94
228.324	51.94
228.559	63.94
228.793	63.94
229.027	89.94
229.262	89.94
229.496	107.94
229.73	126.94
229.964	133.94
230.199	124.94
230.433	105.94
230.667	97.94
230.901	107.94
231.136	113.94
231.37	103.94
231.604	106.94
231.838	107.94
232.072	105.94
232.306	118.94
232.541	108.94
232.775	117.94
233.009	102.94
233.243	107.94
233.477	102.94
233.711	113.94
233.945	101.94
234.179	101.94
234.413	125.94
234.647	111.94
234.881	115.94
235.115	116.94
235.349	116.94
235.583	110.94
235.817	110.94
236.051	132.94
236.285	115.94
236.519	135.94
236.753	130.94
236.987	130.94
237.221	161.94
237.455	203.94
237.689	182.94
237.922	132.94
238.156	137.94
238.39	123.94
238.624	115.94
238.858	137.94
239.091	127.94
239.325	111.94
239.559	117.94
239.793	113.94
240.027	118.94
240.26	142.94
240.494	147.94
240.728	141.94
240.961	123.94
241.195	134.94
241.429	126.94
241.662	142.94
241.896	132.94
242.13	144.94
242.363	129.94
242.597	124.94
242.83	124.94
243.064	123.94
243.298	123.94
243.531	116.94
243.765	122.94
243.998	151.94
244.232	124.94
244.465	119.94
244.699	135.94
244.932	123.94
245.166	131.94
245.399	135.94
245.633	140.94
245.866	126.94
246.099	137.94
246.333	143.94
246.566	146.94
246.8	151.94
247.033	143.94
247.266	137.94
247.5	161.94
247.733	164.94
247.966	162.94
248.2	154.94
248.433	154.94
248.666	167.94
248.899	161.94
249.133	186.94
249.366	181.94
249.599	195.94
249.832	166.94
250.066	173.94
250.299	172.94
250.532	179.94
250.765	183.94
250.998	188.94
251.231	194.94
251.465	181.94
251.698	182.94
251.931	178.94
252.164	179.94
252.397	163.94
252.63	186.94
252.863	183.94
253.096	204.94
253.329	216.94
253.562	175.94
253.795	189.94
254.028	203.94
254.261	190.94
254.494	187.94
254.727	233.94
254.96	236.94
255.193	251.94
255.426	232.94
255.659	207.94
255.892	213.94
256.124	197.94
256.357	197.94
256.59	213.94
256.823	193.94
257.056	201.94
257.289	193.94
257.521	199.94
257.754	181.94
257.987	198.94
258.22	191.94
258.452	195.94
258.685	192.94
258.918	212.94
259.151	190.94
259.383	202.94
259.616	191.94
259.849	213.94
260.081	233.94
260.314	236.94
260.547	238.94
260.779	218.94
261.012	227.94
261.244	199.94
261.477	217.94
261.71	183.94
261.942	209.94
262.175	216.94
262.407	224.94
262.64	181.94
262.872	193.94
263.105	204.94
263.337	171.94
263.57	194.94
263.802	183.94
264.035	183.94
264.267	199.94
264.499	207.94
264.732	199.94
264.964	179.94
265.197	198.94
265.429	202.94
265.661	193.94
265.894	193.94
266.126	185.94
266.358	191.94
266.591	173.94
266.823	204.94
267.055	208.94
267.287	206.94
267.52	201.94
267.752	210.94
267.984	216.94
268.216	213.94
268.448	209.94
268.681	210.94
268.913	227.94
269.145	216.94
269.377	234.94
269.609	252.94
269.841	242.94
270.073	241.94
270.306	267.94
270.538	271.94
270.77	295.94
271.002	254.94
271.234	268.94
271.466	285.94
271.698	273.94
271.93	285.94
272.162	268.94
272.394	278.94
272.626	283.94
272.858	270.94
273.09	249.94
273.322	261.94
273.553	235.94
273.785	249.94
274.017	242.94
274.249	245.94
274.481	246.94
274.713	242.94
274.945	227.94
275.176	250.94
275.408	231.94
275.64	233.94
275.872	241.94
276.104	248.94
276.335	236.94
276.567	248.94
276.799	244.94
277.031	283.94
277.262	271.94
277.494	296.94
277.726	271.94
277.957	277.94
278.189	250.94
278.421	271.94
278.652	229.94
278.884	249.94
279.115	239.94
279.347	242.94
279.579	236.94
279.81	225.94
280.042	229.94
280.273	217.94
280.505	235.94
280.736	236.94
280.968	254.94
281.199	249.94
281.431	242.94
281.662	241.94
281.894	236.94
282.125	245.94
282.356	262.94
282.588	283.94
282.819	279.94
283.051	245.94
283.282	222.94
283.513	236.94
283.745	248.94
283.976	226.94
284.207	257.94
284.439	246.94
284.67	265.94
284.901	239.94
285.132	248.94
285.364	241.94
285.595	237.94
285.826	241.94
286.057	265.94
286.288	262.94
286.52	246.94
286.751	255.94
286.982	279.94
287.213	259.94
287.444	249.94
287.675	258.94
287.906	246.94
288.138	266.94
288.369	270.94
288.6	273.94
288.831	255.94
289.062	269.94
289.293	259.94
289.524	262.94
289.755	257.94
289.986	263.94
290.217	261.94
290.448	242.94
290.679	247.94
290.91	256.94
291.141	245.94
291.371	265.94
291.602	247.94
291.833	262.94
292.064	263.94
292.295	265.94
292.526	267.94
292.757	257.94
292.987	259.94
293.218	262.94
293.449	263.94
293.68	276.94
293.91	257.94
294.141	265.94
294.372	265.94
294.603	290.94
294.833	276.94
295.064	249.94
295.295	253.94
295.525	258.94
295.756	271.94
295.987	284.94
296.217	310.94
296.448	321.94
296.679	270.94
296.909	277.94
297.14	257.94
297.37	269.94
297.601	291.94
297.831	250.94
298.062	271.94
298.292	273.94
298.523	291.94
298.753	273.94
298.984	268.94
299.214	277.94
299.445	274.94
299.675	284.94
299.905	297.94
300.136	278.94
300.366	276.94
300.597	293.94
300.827	290.94
301.057	288.94
301.288	303.94
301.518	287.94
301.748	291.94
301.979	299.94
302.209	286.94
302.439	280.94
302.669	309.94
302.9	303.94
303.13	297.94
303.36	310.94
303.59	297.94
303.82	306.94
304.051	301.94
304.281	287.94
304.511	293.94
304.741	297.94
304.971	279.94
305.201	282.94
305.431	300.94
305.661	308.94
305.891	286.94
306.121	298.94
306.352	289.94
306.582	302.94
306.812	287.94
307.042	310.94
307.272	297.94
307.502	299.94
307.731	300.94
307.961	307.94
308.191	280.94
308.421	293.94
308.651	297.94
308.881	297.94
309.111	316.94
309.341	338.94
309.571	320.94
309.8	322.94
310.03	323.94
310.26	339.94
310.49	345.94
310.72	345.94
310.949	361.94
311.179	377.94
311.409	347.94
311.639	347.94
311.868	344.94
312.098	356.94
312.328	338.94
312.557	366.94
312.787	356.94
313.017	379.94
313.246	346.94
313.476	335.94
313.706	337.94
313.935	372.94
314.165	373.94
314.394	365.94
314.624	367.94
314.853	356.94
315.083	335.94
315.312	328.94
315.542	337.94
315.771	325.94
316.001	344.94
316.23	357.94
316.46	323.94
316.689	342.94
316.919	334.94
317.148	357.94
317.377	349.94
317.607	353.94
317.836	361.94
318.065	342.94
318.295	340.94
318.524	338.94
318.753	350.94
318.983	329.94
319.212	334.94
319.441	341.94
319.67	355.94
319.9	343.94
320.129	332.94
320.358	344.94
320.587	354.94
320.816	349.94
321.046	358.94
321.275	369.94
321.504	361.94
321.733	364.94
321.962	366.94
322.191	365.94
322.42	392.94
322.649	418.94
322.878	420.94
323.108	419.94
323.337	449.94
323.566	461.94
323.795	505.94
324.024	545.94
324.253	646.94
324.482	929.94
324.71	1422.94
324.939	1885.94
325.168	1562.94
325.397	853.94
325.626	602.94
325.855	508.94
326.084	462.94
326.313	473.94
326.542	484.94
326.77	502.94
326.999	615.94
327.228	849.94
327.457	1233.94
327.686	1403.94
327.914	954.94
328.143	666.94
328.372	563.94
328.6	505.94
328.829	513.94
329.058	523.94
329.287	541.94
329.515	479.94
329.744	447.94
329.972	443.94
330.201	469.94
330.43	478.94
330.658	498.94
330.887	540.94
331.115	548.94
331.344	457.94
331.572	446.94
331.801	433.94
332.03	425.94
332.258	433.94
332.486	393.94
332.715	393.94
332.943	401.94
333.172	394.94
333.4	416.94
333.629	424.94
333.857	413.94
334.085	402.94
334.314	404.94
334.542	421.94
334.771	426.94
334.999	442.94
335.227	422.94
335.455	396.94
335.684	395.94
335.912	389.94
336.14	410.94
336.369	392.94
336.597	399.94
336.825	390.94
337.053	392.94
337.281	385.94
337.51	370.94
337.738	398.94
337.966	386.94
338.194	393.94
338.422	392.94
338.65	396.94
338.878	391.94
339.106	395.94
339.334	382.94
339.562	371.94
339.79	400.94
340.018	380.94
340.246	387.94
340.474	389.94
340.702	395.94
340.93	365.94
341.158	378.94
341.386	391.94
341.614	405.94
341.842	396.94
342.07	372.94
342.298	382.94
342.526	362.94
342.754	378.94
342.981	356.94
343.209	371.94
343.437	385.94
343.665	363.94
343.893	370.94
344.12	382.94
344.348	384.94
344.576	380.94
344.804	378.94
345.031	394.94
345.259	394.94
345.487	398.94
345.714	380.94
345.942	387.94
346.17	368.94
346.397	373.94
346.625	374.94
346.853	374.94
347.08	347.94
347.308	366.94
347.535	378.94
347.763	387.94
347.99	377.94
348.218	383.94
348.445	382.94
348.673	389.94
348.9	379.94
349.128	360.94
349.355	373.94
349.583	366.94
349.81	360.94
350.037	359.94
350.265	358.94
350.492	367.94
350.72	362.94
350.947	358.94
351.174	386.94
351.402	377.94
351.629	373.94
351.856	377.94
352.083	382.94
352.311	391.94
352.538	396.94
352.765	403.94
352.992	393.94
353.22	383.94
353.447	399.94
353.674	373.94
353.901	348.94
354.128	372.94
354.355	335.94
354.583	335.94
354.81	336.94
355.037	330.94
355.264	352.94
355.491	339.94
355.718	349.94
355.945	343.94
356.172	342.94
356.399	349.94
356.626	357.94
356.853	344.94
357.08	337.94
357.307	331.94
357.534	319.94
357.761	332.94
357.988	342.94
358.215	353.94
358.441	355.94
358.668	361.94
358.895	351.94
359.122	346.94
359.349	359.94
359.576	367.94
359.802	387.94
360.029	420.94
360.256	420.94
360.483	415.94
360.709	392.94
360.936	386.94
361.163	361.94
361.39	372.94
361.616	373.94
361.843	361.94
362.07	375.94
362.296	381.94
362.523	361.94
362.749	373.94
362.976	374.94
363.203	365.94
363.429	367.94
363.656	372.94
363.882	357.94
364.109	350.94
364.335	335.94
364.562	360.94
364.788	365.94
365.015	366.94
365.241	346.94
365.468	334.94
365.694	360.94
365.92	368.94
366.147	350.94
366.373	353.94
366.599	339.94
366.826	346.94
367.052	345.94
367.278	351.94
367.505	343.94
367.731	352.94
367.957	342.94
368.184	347.94
368.41	355.94
368.636	367.94
368.862	360.94
369.089	348.94
369.315	369.94
369.541	373.94
369.767	336.94
369.993	351.94
370.219	356.94
370.445	352.94
370.672	353.94
370.898	345.94
371.124	344.94
371.35	351.94
371.576	333.94
371.802	344.94
372.028	333.94
372.254	343.94
372.48	342.94
372.706	354.94
372.932	375.94
373.158	333.94
373.384	355.94
373.61	356.94
373.835	350.94
374.061	351.94
374.287	347.94
374.513	359.94
374.739	350.94
374.965	362.94
375.191	356.94
375.416	362.94
375.642	335.94
375.868	353.94
376.094	347.94
376.319	354.94
376.545	344.94
376.771	343.94
376.997	341.94
377.222	354.94
377.448	343.94
377.674	341.94
377.899	345.94
378.125	353.94
378.35	344.94
378.576	350.94
378.802	358.94
379.027	326.94
379.253	345.94
379.478	344.94
379.704	338.94
379.929	349.94
380.155	343.94
380.38	346.94
380.606	362.94
380.831	334.94
381.057	345.94
381.282	343.94
381.507	349.94
381.733	357.94
381.958	349.94
382.184	350.94
382.409	365.94
382.634	347.94
382.86	365.94
383.085	355.94
383.31	348.94
383.535	351.94
383.761	350.94
383.986	364.94
384.211	347.94
384.436	373.94
384.662	375.94
384.887	365.94
385.112	387.94
385.337	366.94
385.562	372.94
385.787	381.94
386.013	391.94
386.238	407.94
386.463	388.94
386.688	377.94
386.913	377.94
387.138	367.94
387.363	355.94
387.588	342.94
387.813	375.94
388.038	383.94
388.263	359.94
388.488	358.94
388.713	378.94
388.938	380.94
389.163	364.94
389.387	381.94
389.612	357.94
389.837	363.94
390.062	365.94
390.287	386.94
390.512	379.94
390.736	367.94
390.961	372.94
391.186	369.94
391.411	372.94
391.636	377.94
391.86	381.94
392.085	394.94
392.31	391.94
392.534	373.94
392.759	392.94
392.984	374.94
393.208	380.94
393.433	385.94
393.658	371.94
393.882	387.94
394.107	385.94
394.331	369.94
394.556	383.94
394.78	374.94
395.005	370.94
395.229	371.94
395.454	385.94
395.678	394.94
395.903	389.94
396.127	398.94
396.352	393.94
396.576	393.94
396.801	382.94
397.025	381.94
397.249	371.94
397.474	381.94
397.698	397.94
397.922	398.94
398.147	413.94
398.371	415.94
398.595	421.94
398.82	418.94
399.044	410.94
399.268	441.94
399.492	454.94
399.717	479.94
399.941	482.94
400.165	506.94
400.389	519.94
400.613	479.94
400.837	450.94
401.062	435.94
401.286	416.94
401.51	418.94
401.734	442.94
401.958	417.94
402.182	437.94
402.406	450.94
402.63	445.94
402.854	441.94
403.078	450.94
403.302	441.94
403.526	442.94
403.75	429.94
403.974	435.94
404.198	417.94
404.422	428.94
404.645	452.94
404.869	437.94
405.093	445.94
405.317	464.94
405.541	487.94
405.765	469.94
405.988	478.94
406.212	468.94
406.436	486.94
406.66	490.94
406.883	479.94
407.107	488.94
407.331	513.94
407.555	554.94
407.778	551.94
408.002	504.94
408.226	481.94
408.449	481.94
408.673	472.94
408.896	490.94
409.12	527.94
409.344	485.94
409.567	463.94
409.791	444.94
410.014	443.94
410.238	439.94
410.461	443.94
410.685	424.94
410.908	449.94
411.132	483.94
411.355	497.94
411.578	488.94
411.802	419.94
412.025	439.94
412.249	448.94
412.472	427.94
412.695	458.94
412.919	458.94
413.142	415.94
413.365	426.94
413.589	412.94
413.812	421.94
414.035	414.94
414.258	397.94
414.482	408.94
414.705	410.94
414.928	409.94
415.151	402.94
415.374	414.94
415.597	427.94
415.821	422.94
416.044	416.94
416.267	405.94
416.49	423.94
416.713	398.94
416.936	411.94
417.159	434.94
417.382	401.94
417.605	407.94
417.828	420.94
418.051	436.94
418.274	415.94
418.497	413.94
418.72	407.94
418.943	405.94
419.166	439.94
419.389	436.94
419.611	445.94
419.834	430.94
420.057	452.94
420.28	429.94
420.503	439.94
420.726	409.94
420.948	432.94
421.171	472.94
421.394	497.94
421.617	471.94
421.839	438.94
422.062	451.94
422.285	443.94
422.507	476.94
422.73	522.94
422.953	551.94
423.175	475.94
423.398	454.94
423.621	478.94
423.843	469.94
424.066	490.94
424.288	450.94
424.511	454.94
424.733	529.94
424.956	563.94
425.178	557.94
425.401	504.94
425.623	542.94
425.846	503.94
426.068	465.94
426.291	462.94
426.513	453.94
426.735	477.94
426.958	505.94
427.18	559.94
427.402	640.94
427.625	713.94
427.847	640.94
428.069	545.94
428.292	499.94
428.514	464.94
428.736	438.94
428.958	450.94
429.181	434.94
429.403	428.94
429.625	420.94
429.847	477.94
430.069	516.94
430.292	492.94
430.514	430.94
430.736	434.94
430.958	419.94
431.18	425.94
431.402	391.94
431.624	395.94
431.846	413.94
432.068	413.94
432.29	408.94
432.512	404.94
432.734	389.94
432.956	390.94
433.178	413.94
433.4	407.94
433.622	410.94
433.844	409.94
434.066	421.94
434.287	384.94
434.509	413.94
434.731	437.94
434.953	431.94
435.175	446.94
435.397	451.94
435.618	468.94
435.84	490.94
436.062	563.94
436.284	603.94
436.505	535.94
436.727	486.94
436.949	458.94
437.17	429.94
437.392	438.94
437.614	441.94
437.835	497.94
438.057	569.94
438.278	619.94
438.5	602.94
438.721	660.94
438.943	647.94
439.165	526.94
439.386	475.94
439.608	482.94
439.829	495.94
440.05	479.94
440.272	538.94
440.493	486.94
440.715	470.94
440.936	439.94
441.158	447.94
441.379	444.94
441.6	442.94
441.822	480.94
442.043	514.94
442.264	557.94
442.486	583.94
442.707	519.94
442.928	475.94
443.149	463.94
443.371	510.94
443.592	545.94
443.813	605.94
444.034	625.94
444.255	535.94
444.476	480.94
444.698	497.94
444.919	466.94
445.14	596.94
445.361	542.94
445.582	504.94
445.803	574.94
446.024	621.94
446.245	620.94
446.466	577.94
446.687	517.94
446.908	481.94
447.129	442.94
447.35	422.94
447.571	446.94
447.792	437.94
448.013	426.94
448.234	453.94
448.455	504.94
448.675	562.94
448.896	663.94
449.117	576.94
449.338	565.94
449.559	610.94
449.779	664.94
450	567.94
450.221	471.94
450.442	449.94
450.662	434.94
450.883	447.94
451.104	450.94
451.324	445.94
451.545	425.94
451.766	405.94
451.986	387.94
452.207	401.94
452.428	387.94
452.648	378.94
452.869	395.94
453.089	391.94
453.31	398.94
453.53	400.94
453.751	387.94
453.971	396.94
454.192	406.94
454.412	397.94
454.633	401.94
454.853	384.94
455.073	373.94
455.294	414.94
455.514	453.94
455.734	431.94
455.955	391.94
456.175	366.94
456.395	366.94
456.616	371.94
456.836	386.94
457.056	361.94
457.276	360.94
457.497	366.94
457.717	378.94
457.937	356.94
458.157	373.94
458.377	396.94
458.598	409.94
458.818	466.94
459.038	529.94
459.258	538.94
459.478	438.94
459.698	443.94
459.918	400.94
460.138	391.94
460.358	400.94
460.578	399.94
460.798	401.94
461.018	431.94
461.238	406.94
461.458	441.94
461.678	420.94
461.898	413.94
462.118	407.94
462.338	431.94
462.558	423.94
462.777	419.94
462.997	439.94
463.217	450.94
463.437	458.94
463.657	434.94
463.876	428.94
464.096	430.94
464.316	435.94
464.536	433.94
464.755	462.94
464.975	427.94
465.195	486.94
465.414	565.94
465.634	486.94
465.854	444.94
466.073	433.94
466.293	416.94
466.512	407.94
466.732	406.94
466.951	393.94
467.171	417.94
467.391	417.94
467.61	403.94
467.829	420.94
468.049	416.94
468.268	406.94
468.488	393.94
468.707	373.94
468.927	382.94
469.146	394.94
469.365	389.94
469.585	388.94
469.804	397.94
470.023	400.94
470.243	396.94
470.462	410.94
470.681	438.94
470.901	428.94
471.12	416.94
471.339	396.94
471.558	415.94
471.777	402.94
471.997	396.94
472.216	390.94
472.435	428.94
472.654	387.94
472.873	403.94
473.092	412.94
473.311	389.94
473.53	376.94
473.749	420.94
473.968	461.94
474.187	519.94
474.406	537.94
474.625	459.94
474.844	430.94
475.063	402.94
475.282	380.94
475.501	403.94
475.72	429.94
475.939	425.94
476.158	409.94
476.377	412.94
476.596	409.94
476.814	441.94
477.033	410.94
477.252	426.94
477.471	419.94
477.69	428.94
477.908	444.94
478.127	457.94
478.346	428.94
478.564	437.94
478.783	425.94
479.002	447.94
479.22	473.94
479.439	463.94
479.658	486.94
479.876	498.94
480.095	473.94
480.313	500.94
480.532	488.94
480.751	487.94
480.969	503.94
481.188	489.94
481.406	525.94
481.624	488.94
481.843	471.94
482.061	458.94
482.28	466.94
482.498	478.94
482.717	452.94
482.935	452.94
483.153	469.94
483.372	459.94
483.59	462.94
483.808	447.94
484.027	474.94
484.245	472.94
484.463	460.94
484.681	479.94
484.9	480.94
485.118	478.94
485.336	469.94
485.554	488.94
485.772	463.94
485.99	467.94
486.209	501.94
486.427	493.94
486.645	478.94
486.863	517.94
487.081	504.94
487.299	490.94
487.517	516.94
487.735	486.94
487.953	511.94
488.171	505.94
488.389	512.94
488.607	514.94
488.825	490.94
489.043	487.94
489.261	498.94
489.479	503.94
489.696	508.94
489.914	504.94
490.132	498.94
490.35	534.94
490.568	527.94
490.786	547.94
491.003	553.94
491.221	544.94
491.439	561.94
491.657	563.94
491.874	569.94
492.092	563.94
492.31	561.94
492.527	573.94
492.745	575.94
492.963	577.94
493.18	598.94
493.398	556.94
493.615	572.94
493.833	577.94
494.05	584.94
494.268	599.94
494.485	599.94
494.703	575.94
494.92	596.94
495.138	597.94
495.355	612.94
495.573	574.94
495.79	582.94
496.008	584.94
496.225	587.94
496.442	593.94
496.66	591.94
496.877	609.94
497.094	586.94
497.312	607.94
497.529	602.94
497.746	602.94
497.963	613.94
498.181	631.94
498.398	635.94
498.615	635.94
498.832	663.94
499.049	658.94
499.267	675.94
499.484	685.94
499.701	718.94
499.918	755.94
500.135	751.94
500.352	773.94
500.569	821.94
500.786	823.94
501.003	775.94
501.22	761.94
501.437	737.94
501.654	727.94
501.871	733.94
502.088	711.94
