Data from 1983.PennyLincolnUp.Lamp.En5.5.200Scan.071819.P1_HRD10591_16-53-54-965.txt Node
Date: Thu Jul 18 16:53:54 EDT 2019
User: cochatt
Spectrometer: HR+D1059
Trigger mode: 1
Integration Time (sec): 1.000000E-1
Scans to average: 1
Electric dark correction enabled: true
Nonlinearity correction enabled: false
Boxcar width: 0
XAxis mode: Wavelengths
Number of Pixels in Spectrum: 2048
>>>>>Begin Spectral Data<<<<<
223.165	-30.88
223.4	-30.88
223.635	-30.88
223.869	-10.88
224.104	-23.88
224.338	-25.88
224.573	-12.88
224.808	-4.88
225.042	-10.88
225.277	-10.88
225.511	5.12
225.746	-0.88
225.98	5.12
226.215	31.12
226.449	17.12
226.683	16.12
226.918	28.12
227.152	29.12
227.387	29.12
227.621	37.12
227.856	30.12
228.09	49.12
228.324	49.12
228.559	59.12
228.793	68.12
229.027	82.12
229.262	92.12
229.496	111.12
229.73	118.12
229.964	122.12
230.199	130.12
230.433	98.12
230.667	91.12
230.901	110.12
231.136	115.12
231.37	103.12
231.604	102.12
231.838	102.12
232.072	99.12
232.306	115.12
232.541	114.12
232.775	113.12
233.009	103.12
233.243	123.12
233.477	107.12
233.711	92.12
233.945	107.12
234.179	116.12
234.413	106.12
234.647	104.12
234.881	112.12
235.115	103.12
235.349	114.12
235.583	113.12
235.817	118.12
236.051	115.12
236.285	111.12
236.519	111.12
236.753	120.12
236.987	135.12
237.221	173.12
237.455	222.12
237.689	172.12
237.922	137.12
238.156	135.12
238.39	121.12
238.624	117.12
238.858	104.12
239.091	119.12
239.325	110.12
239.559	113.12
239.793	119.12
240.027	123.12
240.26	149.12
240.494	146.12
240.728	154.12
240.961	152.12
241.195	135.12
241.429	135.12
241.662	124.12
241.896	120.12
242.13	110.12
242.363	121.12
242.597	93.12
242.83	121.12
243.064	134.12
243.298	139.12
243.531	132.12
243.765	139.12
243.998	142.12
244.232	130.12
244.465	136.12
244.699	133.12
244.932	129.12
245.166	138.12
245.399	134.12
245.633	146.12
245.866	150.12
246.099	131.12
246.333	137.12
246.566	153.12
246.8	139.12
247.033	135.12
247.266	153.12
247.5	153.12
247.733	170.12
247.966	164.12
248.2	158.12
248.433	161.12
248.666	158.12
248.899	185.12
249.133	193.12
249.366	197.12
249.599	186.12
249.832	156.12
250.066	168.12
250.299	163.12
250.532	166.12
250.765	177.12
250.998	201.12
251.231	206.12
251.465	203.12
251.698	204.12
251.931	188.12
252.164	189.12
252.397	186.12
252.63	182.12
252.863	196.12
253.096	205.12
253.329	206.12
253.562	204.12
253.795	185.12
254.028	180.12
254.261	209.12
254.494	206.12
254.727	235.12
254.96	253.12
255.193	267.12
255.426	236.12
255.659	217.12
255.892	216.12
256.124	212.12
256.357	231.12
256.59	198.12
256.823	184.12
257.056	209.12
257.289	191.12
257.521	201.12
257.754	188.12
257.987	203.12
258.22	188.12
258.452	192.12
258.685	191.12
258.918	190.12
259.151	199.12
259.383	209.12
259.616	214.12
259.849	211.12
260.081	212.12
260.314	249.12
260.547	216.12
260.779	228.12
261.012	225.12
261.244	209.12
261.477	201.12
261.71	201.12
261.942	203.12
262.175	222.12
262.407	225.12
262.64	212.12
262.872	201.12
263.105	196.12
263.337	198.12
263.57	199.12
263.802	197.12
264.035	187.12
264.267	198.12
264.499	202.12
264.732	207.12
264.964	188.12
265.197	194.12
265.429	195.12
265.661	179.12
265.894	188.12
266.126	215.12
266.358	194.12
266.591	210.12
266.823	197.12
267.055	210.12
267.287	222.12
267.52	211.12
267.752	223.12
267.984	202.12
268.216	215.12
268.448	218.12
268.681	226.12
268.913	209.12
269.145	243.12
269.377	243.12
269.609	265.12
269.841	257.12
270.073	234.12
270.306	261.12
270.538	275.12
270.77	286.12
271.002	289.12
271.234	277.12
271.466	264.12
271.698	301.12
271.93	277.12
272.162	297.12
272.394	306.12
272.626	277.12
272.858	252.12
273.09	248.12
273.322	252.12
273.553	243.12
273.785	247.12
274.017	241.12
274.249	235.12
274.481	243.12
274.713	252.12
274.945	262.12
275.176	246.12
275.408	238.12
275.64	261.12
275.872	243.12
276.104	252.12
276.335	259.12
276.567	259.12
276.799	263.12
277.031	292.12
277.262	294.12
277.494	308.12
277.726	276.12
277.957	270.12
278.189	270.12
278.421	253.12
278.652	262.12
278.884	253.12
279.115	245.12
279.347	233.12
279.579	243.12
279.81	257.12
280.042	251.12
280.273	237.12
280.505	252.12
280.736	243.12
280.968	248.12
281.199	245.12
281.431	252.12
281.662	253.12
281.894	261.12
282.125	257.12
282.356	278.12
282.588	301.12
282.819	282.12
283.051	263.12
283.282	254.12
283.513	269.12
283.745	263.12
283.976	263.12
284.207	269.12
284.439	269.12
284.67	270.12
284.901	256.12
285.132	254.12
285.364	238.12
285.595	246.12
285.826	251.12
286.057	239.12
286.288	253.12
286.52	265.12
286.751	250.12
286.982	270.12
287.213	245.12
287.444	262.12
287.675	273.12
287.906	270.12
288.138	285.12
288.369	270.12
288.6	275.12
288.831	272.12
289.062	282.12
289.293	269.12
289.524	276.12
289.755	258.12
289.986	247.12
290.217	270.12
290.448	274.12
290.679	271.12
290.91	260.12
291.141	255.12
291.371	265.12
291.602	263.12
291.833	270.12
292.064	276.12
292.295	275.12
292.526	254.12
292.757	273.12
292.987	252.12
293.218	263.12
293.449	264.12
293.68	259.12
293.91	261.12
294.141	272.12
294.372	256.12
294.603	281.12
294.833	284.12
295.064	271.12
295.295	268.12
295.525	263.12
295.756	282.12
295.987	277.12
296.217	309.12
296.448	317.12
296.679	291.12
296.909	277.12
297.14	271.12
297.37	265.12
297.601	260.12
297.831	267.12
298.062	281.12
298.292	281.12
298.523	282.12
298.753	279.12
298.984	279.12
299.214	291.12
299.445	280.12
299.675	271.12
299.905	279.12
300.136	297.12
300.366	281.12
300.597	287.12
300.827	303.12
301.057	305.12
301.288	305.12
301.518	297.12
301.748	277.12
301.979	300.12
302.209	301.12
302.439	309.12
302.669	307.12
302.9	310.12
303.13	306.12
303.36	292.12
303.59	302.12
303.82	311.12
304.051	335.12
304.281	305.12
304.511	308.12
304.741	303.12
304.971	309.12
305.201	314.12
305.431	319.12
305.661	309.12
305.891	302.12
306.121	296.12
306.352	322.12
306.582	329.12
306.812	302.12
307.042	302.12
307.272	309.12
307.502	313.12
307.731	314.12
307.961	300.12
308.191	291.12
308.421	301.12
308.651	295.12
308.881	301.12
309.111	306.12
309.341	321.12
309.571	330.12
309.8	338.12
310.03	341.12
310.26	344.12
310.49	346.12
310.72	357.12
310.949	369.12
311.179	373.12
311.409	367.12
311.639	361.12
311.868	349.12
312.098	358.12
312.328	372.12
312.557	395.12
312.787	374.12
313.017	398.12
313.246	373.12
313.476	357.12
313.706	360.12
313.935	364.12
314.165	362.12
314.394	373.12
314.624	363.12
314.853	367.12
315.083	342.12
315.312	365.12
315.542	340.12
315.771	336.12
316.001	343.12
316.23	347.12
316.46	339.12
316.689	341.12
316.919	380.12
317.148	356.12
317.377	370.12
317.607	366.12
317.836	355.12
318.065	359.12
318.295	349.12
318.524	332.12
318.753	346.12
318.983	347.12
319.212	348.12
319.441	349.12
319.67	360.12
319.9	360.12
320.129	339.12
320.358	358.12
320.587	354.12
320.816	376.12
321.046	377.12
321.275	393.12
321.504	378.12
321.733	366.12
321.962	373.12
322.191	398.12
322.42	399.12
322.649	420.12
322.878	425.12
323.108	443.12
323.337	491.12
323.566	489.12
323.795	517.12
324.024	573.12
324.253	709.12
324.482	1029.12
324.71	1556.12
324.939	2124.12
325.168	1752.12
325.397	937.12
325.626	638.12
325.855	523.12
326.084	483.12
326.313	487.12
326.542	492.12
326.77	547.12
326.999	637.12
327.228	915.12
327.457	1335.12
327.686	1520.12
327.914	1028.12
328.143	705.12
328.372	608.12
328.6	581.12
328.829	559.12
329.058	556.12
329.287	582.12
329.515	503.12
329.744	479.12
329.972	480.12
330.201	464.12
330.43	545.12
330.658	562.12
330.887	599.12
331.115	567.12
331.344	504.12
331.572	457.12
331.801	467.12
332.03	471.12
332.258	459.12
332.486	419.12
332.715	406.12
332.943	409.12
333.172	426.12
333.4	402.12
333.629	406.12
333.857	426.12
334.085	430.12
334.314	454.12
334.542	477.12
334.771	461.12
334.999	445.12
335.227	423.12
335.455	428.12
335.684	432.12
335.912	399.12
336.14	393.12
336.369	409.12
336.597	419.12
336.825	413.12
337.053	398.12
337.281	387.12
337.51	398.12
337.738	400.12
337.966	391.12
338.194	423.12
338.422	404.12
338.65	386.12
338.878	390.12
339.106	381.12
339.334	381.12
339.562	388.12
339.79	382.12
340.018	399.12
340.246	421.12
340.474	405.12
340.702	387.12
340.93	397.12
341.158	404.12
341.386	410.12
341.614	384.12
341.842	397.12
342.07	418.12
342.298	387.12
342.526	379.12
342.754	381.12
342.981	383.12
343.209	359.12
343.437	389.12
343.665	379.12
343.893	398.12
344.12	395.12
344.348	379.12
344.576	378.12
344.804	394.12
345.031	406.12
345.259	435.12
345.487	405.12
345.714	393.12
345.942	400.12
346.17	391.12
346.397	389.12
346.625	390.12
346.853	374.12
347.08	387.12
347.308	369.12
347.535	400.12
347.763	397.12
347.99	385.12
348.218	397.12
348.445	388.12
348.673	393.12
348.9	371.12
349.128	366.12
349.355	359.12
349.583	371.12
349.81	364.12
350.037	358.12
350.265	374.12
350.492	364.12
350.72	369.12
350.947	375.12
351.174	393.12
351.402	395.12
351.629	395.12
351.856	381.12
352.083	393.12
352.311	416.12
352.538	409.12
352.765	420.12
352.992	388.12
353.22	387.12
353.447	397.12
353.674	368.12
353.901	373.12
354.128	358.12
354.355	350.12
354.583	353.12
354.81	349.12
355.037	365.12
355.264	354.12
355.491	355.12
355.718	347.12
355.945	340.12
356.172	342.12
356.399	349.12
356.626	339.12
356.853	353.12
357.08	356.12
357.307	353.12
357.534	344.12
357.761	326.12
357.988	354.12
358.215	341.12
358.441	355.12
358.668	365.12
358.895	358.12
359.122	376.12
359.349	355.12
359.576	383.12
359.802	409.12
360.029	425.12
360.256	452.12
360.483	409.12
360.709	382.12
360.936	364.12
361.163	377.12
361.39	383.12
361.616	390.12
361.843	382.12
362.07	388.12
362.296	377.12
362.523	394.12
362.749	377.12
362.976	373.12
363.203	361.12
363.429	366.12
363.656	361.12
363.882	365.12
364.109	364.12
364.335	359.12
364.562	358.12
364.788	353.12
365.015	362.12
365.241	355.12
365.468	379.12
365.694	363.12
365.92	367.12
366.147	369.12
366.373	364.12
366.599	375.12
366.826	373.12
367.052	350.12
367.278	346.12
367.505	361.12
367.731	355.12
367.957	357.12
368.184	380.12
368.41	366.12
368.636	373.12
368.862	355.12
369.089	352.12
369.315	353.12
369.541	361.12
369.767	376.12
369.993	355.12
370.219	358.12
370.445	383.12
370.672	358.12
370.898	366.12
371.124	352.12
371.35	353.12
371.576	351.12
371.802	321.12
372.028	335.12
372.254	361.12
372.48	349.12
372.706	333.12
372.932	366.12
373.158	347.12
373.384	355.12
373.61	364.12
373.835	349.12
374.061	353.12
374.287	349.12
374.513	357.12
374.739	339.12
374.965	370.12
375.191	351.12
375.416	358.12
375.642	359.12
375.868	359.12
376.094	352.12
376.319	347.12
376.545	344.12
376.771	337.12
376.997	347.12
377.222	349.12
377.448	345.12
377.674	346.12
377.899	341.12
378.125	340.12
378.35	361.12
378.576	341.12
378.802	361.12
379.027	349.12
379.253	348.12
379.478	350.12
379.704	349.12
379.929	355.12
380.155	359.12
380.38	343.12
380.606	356.12
380.831	357.12
381.057	370.12
381.282	342.12
381.507	345.12
381.733	362.12
381.958	340.12
382.184	351.12
382.409	359.12
382.634	344.12
382.86	338.12
383.085	343.12
383.31	359.12
383.535	365.12
383.761	366.12
383.986	373.12
384.211	345.12
384.436	366.12
384.662	372.12
384.887	370.12
385.112	379.12
385.337	357.12
385.562	366.12
385.787	370.12
386.013	394.12
386.238	402.12
386.463	377.12
386.688	389.12
386.913	366.12
387.138	381.12
387.363	369.12
387.588	355.12
387.813	367.12
388.038	377.12
388.263	385.12
388.488	359.12
388.713	356.12
388.938	376.12
389.163	373.12
389.387	378.12
389.612	376.12
389.837	358.12
390.062	385.12
390.287	387.12
390.512	366.12
390.736	355.12
390.961	381.12
391.186	371.12
391.411	367.12
391.636	357.12
391.86	377.12
392.085	384.12
392.31	366.12
392.534	392.12
392.759	382.12
392.984	367.12
393.208	379.12
393.433	381.12
393.658	371.12
393.882	371.12
394.107	372.12
394.331	379.12
394.556	380.12
394.78	372.12
395.005	385.12
395.229	387.12
395.454	374.12
395.678	400.12
395.903	390.12
396.127	417.12
396.352	410.12
396.576	389.12
396.801	364.12
397.025	383.12
397.249	397.12
397.474	415.12
397.698	407.12
397.922	408.12
398.147	424.12
398.371	404.12
398.595	418.12
398.82	423.12
399.044	435.12
399.268	442.12
399.492	454.12
399.717	470.12
399.941	497.12
400.165	534.12
400.389	511.12
400.613	459.12
400.837	437.12
401.062	430.12
401.286	425.12
401.51	433.12
401.734	425.12
401.958	419.12
402.182	433.12
402.406	450.12
402.63	434.12
402.854	454.12
403.078	440.12
403.302	424.12
403.526	442.12
403.75	440.12
403.974	443.12
404.198	450.12
404.422	435.12
404.645	442.12
404.869	442.12
405.093	482.12
405.317	487.12
405.541	517.12
405.765	482.12
405.988	453.12
406.212	482.12
406.436	508.12
406.66	489.12
406.883	470.12
407.107	517.12
407.331	531.12
407.555	593.12
407.778	587.12
408.002	521.12
408.226	512.12
408.449	490.12
408.673	468.12
408.896	517.12
409.12	538.12
409.344	513.12
409.567	465.12
409.791	454.12
410.014	421.12
410.238	439.12
410.461	433.12
410.685	442.12
410.908	463.12
411.132	476.12
411.355	506.12
411.578	477.12
411.802	455.12
412.025	414.12
412.249	453.12
412.472	439.12
412.695	482.12
412.919	453.12
413.142	454.12
413.365	414.12
413.589	430.12
413.812	425.12
414.035	408.12
414.258	419.12
414.482	407.12
414.705	407.12
414.928	414.12
415.151	420.12
415.374	429.12
415.597	410.12
415.821	415.12
416.044	412.12
416.267	426.12
416.49	417.12
416.713	410.12
416.936	412.12
417.159	418.12
417.382	417.12
417.605	410.12
417.828	422.12
418.051	427.12
418.274	448.12
418.497	421.12
418.72	428.12
418.943	430.12
419.166	438.12
419.389	441.12
419.611	451.12
419.834	437.12
420.057	429.12
420.28	456.12
420.503	427.12
420.726	454.12
420.948	457.12
421.171	484.12
421.394	495.12
421.617	448.12
421.839	451.12
422.062	424.12
422.285	447.12
422.507	500.12
422.73	541.12
422.953	535.12
423.175	482.12
423.398	450.12
423.621	462.12
423.843	453.12
424.066	465.12
424.288	481.12
424.511	500.12
424.733	511.12
424.956	586.12
425.178	569.12
425.401	551.12
425.623	549.12
425.846	503.12
426.068	484.12
426.291	470.12
426.513	468.12
426.735	473.12
426.958	510.12
427.18	588.12
427.402	695.12
427.625	773.12
427.847	672.12
428.069	571.12
428.292	525.12
428.514	475.12
428.736	453.12
428.958	443.12
429.181	424.12
429.403	451.12
429.625	446.12
429.847	488.12
430.069	505.12
430.292	512.12
430.514	439.12
430.736	435.12
430.958	438.12
431.18	430.12
431.402	414.12
431.624	392.12
431.846	401.12
432.068	387.12
432.29	406.12
432.512	402.12
432.734	406.12
432.956	412.12
433.178	437.12
433.4	412.12
433.622	433.12
433.844	428.12
434.066	403.12
434.287	433.12
434.509	415.12
434.731	422.12
434.953	448.12
435.175	455.12
435.397	474.12
435.618	484.12
435.84	516.12
436.062	577.12
436.284	609.12
436.505	521.12
436.727	473.12
436.949	457.12
437.17	441.12
437.392	452.12
437.614	460.12
437.835	494.12
438.057	581.12
438.278	631.12
438.5	638.12
438.721	654.12
438.943	623.12
439.165	531.12
439.386	477.12
439.608	467.12
439.829	496.12
440.05	519.12
440.272	541.12
440.493	529.12
440.715	478.12
440.936	451.12
441.158	453.12
441.379	448.12
441.6	471.12
441.822	476.12
442.043	491.12
442.264	561.12
442.486	590.12
442.707	527.12
442.928	513.12
443.149	500.12
443.371	528.12
443.592	552.12
443.813	613.12
444.034	643.12
444.255	560.12
444.476	492.12
444.698	478.12
444.919	475.12
445.14	575.12
445.361	534.12
445.582	505.12
445.803	583.12
446.024	655.12
446.245	652.12
446.466	556.12
446.687	534.12
446.908	463.12
447.129	458.12
447.35	443.12
447.571	424.12
447.792	421.12
448.013	457.12
448.234	465.12
448.455	514.12
448.675	585.12
448.896	683.12
449.117	568.12
449.338	543.12
449.559	646.12
449.779	681.12
450	579.12
450.221	464.12
450.442	463.12
450.662	434.12
450.883	434.12
451.104	457.12
451.324	459.12
451.545	424.12
451.766	415.12
451.986	391.12
452.207	411.12
452.428	387.12
452.648	404.12
452.869	411.12
453.089	410.12
453.31	429.12
453.53	393.12
453.751	378.12
453.971	383.12
454.192	409.12
454.412	405.12
454.633	404.12
454.853	399.12
455.073	379.12
455.294	415.12
455.514	491.12
455.734	453.12
455.955	403.12
456.175	383.12
456.395	374.12
456.616	382.12
456.836	370.12
457.056	377.12
457.276	371.12
457.497	358.12
457.717	356.12
457.937	378.12
458.157	385.12
458.377	373.12
458.598	395.12
458.818	471.12
459.038	533.12
459.258	557.12
459.478	455.12
459.698	400.12
459.918	413.12
460.138	426.12
460.358	423.12
460.578	407.12
460.798	413.12
461.018	435.12
461.238	412.12
461.458	414.12
461.678	414.12
461.898	440.12
462.118	369.12
462.338	421.12
462.558	406.12
462.777	429.12
462.997	443.12
463.217	472.12
463.437	437.12
463.657	435.12
463.876	442.12
464.096	441.12
464.316	453.12
464.536	464.12
464.755	459.12
464.975	434.12
465.195	509.12
465.414	594.12
465.634	525.12
465.854	459.12
466.073	445.12
466.293	413.12
466.512	393.12
466.732	423.12
466.951	406.12
467.171	395.12
467.391	407.12
467.61	422.12
467.829	419.12
468.049	430.12
468.268	404.12
468.488	384.12
468.707	390.12
468.927	406.12
469.146	401.12
469.365	389.12
469.585	410.12
469.804	398.12
470.023	418.12
470.243	410.12
470.462	426.12
470.681	427.12
470.901	429.12
471.12	407.12
471.339	403.12
471.558	414.12
471.777	413.12
471.997	407.12
472.216	413.12
472.435	442.12
472.654	420.12
472.873	412.12
473.092	394.12
473.311	413.12
473.53	412.12
473.749	422.12
473.968	442.12
474.187	517.12
474.406	553.12
474.625	453.12
474.844	430.12
475.063	393.12
475.282	435.12
475.501	422.12
475.72	425.12
475.939	403.12
476.158	419.12
476.377	425.12
476.596	412.12
476.814	433.12
477.033	427.12
477.252	438.12
477.471	442.12
477.69	435.12
477.908	437.12
478.127	432.12
478.346	438.12
478.564	436.12
478.783	462.12
479.002	450.12
479.22	461.12
479.439	494.12
479.658	482.12
479.876	503.12
480.095	495.12
480.313	524.12
480.532	489.12
480.751	497.12
480.969	479.12
481.188	539.12
481.406	554.12
481.624	509.12
481.843	493.12
482.061	475.12
482.28	492.12
482.498	477.12
482.717	475.12
482.935	482.12
483.153	487.12
483.372	466.12
483.59	470.12
483.808	459.12
484.027	472.12
484.245	481.12
484.463	466.12
484.681	503.12
484.9	497.12
485.118	490.12
485.336	465.12
485.554	488.12
485.772	511.12
485.99	478.12
486.209	517.12
486.427	495.12
486.645	505.12
486.863	552.12
487.081	534.12
487.299	487.12
487.517	506.12
487.735	483.12
487.953	521.12
488.171	533.12
488.389	504.12
488.607	524.12
488.825	497.12
489.043	515.12
489.261	544.12
489.479	527.12
489.696	515.12
489.914	515.12
490.132	524.12
490.35	527.12
490.568	529.12
490.786	544.12
491.003	550.12
491.221	553.12
491.439	588.12
491.657	574.12
491.874	575.12
492.092	602.12
492.31	600.12
492.527	627.12
492.745	626.12
492.963	587.12
493.18	595.12
493.398	580.12
493.615	577.12
493.833	598.12
494.05	587.12
494.268	599.12
494.485	615.12
494.703	574.12
494.92	598.12
495.138	613.12
495.355	587.12
495.573	592.12
495.79	596.12
496.008	609.12
496.225	574.12
496.442	603.12
496.66	619.12
496.877	606.12
497.094	605.12
497.312	613.12
497.529	629.12
497.746	619.12
497.963	634.12
498.181	665.12
498.398	653.12
498.615	651.12
498.832	687.12
499.049	674.12
499.267	665.12
499.484	678.12
499.701	718.12
499.918	738.12
500.135	774.12
500.352	801.12
500.569	836.12
500.786	811.12
501.003	820.12
501.22	771.12
501.437	747.12
501.654	746.12
501.871	740.12
502.088	728.12
