Data from 1983.PennyLincolnUp.Lamp.En5.5.200Scan.071819.P1_HRD10591_16-54-16-965.txt Node
Date: Thu Jul 18 16:54:16 EDT 2019
User: cochatt
Spectrometer: HR+D1059
Trigger mode: 1
Integration Time (sec): 1.000000E-1
Scans to average: 1
Electric dark correction enabled: true
Nonlinearity correction enabled: false
Boxcar width: 0
XAxis mode: Wavelengths
Number of Pixels in Spectrum: 2048
>>>>>Begin Spectral Data<<<<<
223.165	5.19
223.4	5.19
223.635	5.19
223.869	-12.81
224.104	-10.81
224.338	-22.81
224.573	-19.81
224.808	-19.81
225.042	-12.81
225.277	-9.81
225.511	-7.81
225.746	-4.81
225.98	18.19
226.215	10.19
226.449	20.19
226.683	21.19
226.918	21.19
227.152	25.19
227.387	42.19
227.621	31.19
227.856	36.19
228.09	53.19
228.324	46.19
228.559	62.19
228.793	54.19
229.027	100.19
229.262	109.19
229.496	123.19
229.73	123.19
229.964	144.19
230.199	126.19
230.433	119.19
230.667	99.19
230.901	106.19
231.136	115.19
231.37	107.19
231.604	118.19
231.838	98.19
232.072	107.19
232.306	105.19
232.541	120.19
232.775	98.19
233.009	109.19
233.243	119.19
233.477	108.19
233.711	117.19
233.945	95.19
234.179	103.19
234.413	100.19
234.647	109.19
234.881	99.19
235.115	114.19
235.349	113.19
235.583	122.19
235.817	111.19
236.051	117.19
236.285	125.19
236.519	105.19
236.753	123.19
236.987	137.19
237.221	182.19
237.455	212.19
237.689	161.19
237.922	125.19
238.156	135.19
238.39	125.19
238.624	109.19
238.858	122.19
239.091	111.19
239.325	113.19
239.559	123.19
239.793	130.19
240.027	125.19
240.26	133.19
240.494	147.19
240.728	140.19
240.961	121.19
241.195	131.19
241.429	123.19
241.662	133.19
241.896	111.19
242.13	121.19
242.363	129.19
242.597	126.19
242.83	135.19
243.064	117.19
243.298	126.19
243.531	127.19
243.765	127.19
243.998	125.19
244.232	132.19
244.465	114.19
244.699	131.19
244.932	136.19
245.166	143.19
245.399	131.19
245.633	131.19
245.866	143.19
246.099	133.19
246.333	143.19
246.566	142.19
246.8	158.19
247.033	127.19
247.266	141.19
247.5	148.19
247.733	157.19
247.966	154.19
248.2	166.19
248.433	171.19
248.666	167.19
248.899	175.19
249.133	187.19
249.366	194.19
249.599	180.19
249.832	180.19
250.066	186.19
250.299	159.19
250.532	170.19
250.765	187.19
250.998	202.19
251.231	184.19
251.465	209.19
251.698	197.19
251.931	175.19
252.164	185.19
252.397	175.19
252.63	172.19
252.863	181.19
253.096	215.19
253.329	206.19
253.562	203.19
253.795	190.19
254.028	195.19
254.261	216.19
254.494	210.19
254.727	241.19
254.96	260.19
255.193	220.19
255.426	223.19
255.659	206.19
255.892	212.19
256.124	210.19
256.357	212.19
256.59	206.19
256.823	197.19
257.056	194.19
257.289	180.19
257.521	203.19
257.754	193.19
257.987	197.19
258.22	186.19
258.452	212.19
258.685	187.19
258.918	203.19
259.151	179.19
259.383	207.19
259.616	200.19
259.849	204.19
260.081	217.19
260.314	236.19
260.547	234.19
260.779	236.19
261.012	219.19
261.244	201.19
261.477	208.19
261.71	203.19
261.942	213.19
262.175	235.19
262.407	205.19
262.64	191.19
262.872	186.19
263.105	193.19
263.337	205.19
263.57	197.19
263.802	190.19
264.035	192.19
264.267	206.19
264.499	189.19
264.732	197.19
264.964	202.19
265.197	188.19
265.429	202.19
265.661	206.19
265.894	190.19
266.126	189.19
266.358	198.19
266.591	204.19
266.823	202.19
267.055	202.19
267.287	203.19
267.52	194.19
267.752	209.19
267.984	201.19
268.216	217.19
268.448	207.19
268.681	217.19
268.913	220.19
269.145	257.19
269.377	263.19
269.609	251.19
269.841	231.19
270.073	269.19
270.306	258.19
270.538	283.19
270.77	292.19
271.002	256.19
271.234	247.19
271.466	264.19
271.698	271.19
271.93	280.19
272.162	302.19
272.394	277.19
272.626	258.19
272.858	249.19
273.09	264.19
273.322	246.19
273.553	246.19
273.785	241.19
274.017	226.19
274.249	238.19
274.481	251.19
274.713	251.19
274.945	244.19
275.176	236.19
275.408	248.19
275.64	241.19
275.872	255.19
276.104	232.19
276.335	253.19
276.567	249.19
276.799	260.19
277.031	263.19
277.262	290.19
277.494	300.19
277.726	267.19
277.957	259.19
278.189	251.19
278.421	234.19
278.652	234.19
278.884	247.19
279.115	243.19
279.347	253.19
279.579	251.19
279.81	227.19
280.042	257.19
280.273	225.19
280.505	237.19
280.736	258.19
280.968	247.19
281.199	237.19
281.431	238.19
281.662	247.19
281.894	226.19
282.125	236.19
282.356	287.19
282.588	301.19
282.819	272.19
283.051	246.19
283.282	239.19
283.513	241.19
283.745	243.19
283.976	242.19
284.207	271.19
284.439	243.19
284.67	246.19
284.901	244.19
285.132	260.19
285.364	253.19
285.595	252.19
285.826	246.19
286.057	243.19
286.288	259.19
286.52	257.19
286.751	255.19
286.982	265.19
287.213	263.19
287.444	262.19
287.675	265.19
287.906	255.19
288.138	283.19
288.369	279.19
288.6	276.19
288.831	275.19
289.062	255.19
289.293	265.19
289.524	273.19
289.755	245.19
289.986	255.19
290.217	262.19
290.448	245.19
290.679	275.19
290.91	269.19
291.141	266.19
291.371	258.19
291.602	252.19
291.833	263.19
292.064	245.19
292.295	273.19
292.526	271.19
292.757	271.19
292.987	263.19
293.218	268.19
293.449	261.19
293.68	236.19
293.91	254.19
294.141	267.19
294.372	247.19
294.603	261.19
294.833	267.19
295.064	252.19
295.295	277.19
295.525	269.19
295.756	283.19
295.987	275.19
296.217	295.19
296.448	294.19
296.679	283.19
296.909	261.19
297.14	269.19
297.37	266.19
297.601	259.19
297.831	258.19
298.062	278.19
298.292	262.19
298.523	271.19
298.753	283.19
298.984	286.19
299.214	271.19
299.445	273.19
299.675	284.19
299.905	269.19
300.136	275.19
300.366	281.19
300.597	277.19
300.827	281.19
301.057	284.19
301.288	313.19
301.518	308.19
301.748	285.19
301.979	292.19
302.209	288.19
302.439	283.19
302.669	294.19
302.9	277.19
303.13	281.19
303.36	309.19
303.59	315.19
303.82	313.19
304.051	303.19
304.281	287.19
304.511	295.19
304.741	291.19
304.971	290.19
305.201	282.19
305.431	295.19
305.661	285.19
305.891	282.19
306.121	281.19
306.352	296.19
306.582	285.19
306.812	294.19
307.042	300.19
307.272	308.19
307.502	301.19
307.731	303.19
307.961	286.19
308.191	304.19
308.421	318.19
308.651	305.19
308.881	305.19
309.111	300.19
309.341	316.19
309.571	309.19
309.8	319.19
310.03	329.19
310.26	339.19
310.49	335.19
310.72	337.19
310.949	365.19
311.179	377.19
311.409	347.19
311.639	342.19
311.868	339.19
312.098	357.19
312.328	351.19
312.557	365.19
312.787	381.19
313.017	377.19
313.246	353.19
313.476	337.19
313.706	332.19
313.935	347.19
314.165	361.19
314.394	372.19
314.624	373.19
314.853	347.19
315.083	319.19
315.312	342.19
315.542	333.19
315.771	336.19
316.001	327.19
316.23	330.19
316.46	343.19
316.689	346.19
316.919	354.19
317.148	348.19
317.377	363.19
317.607	359.19
317.836	329.19
318.065	348.19
318.295	344.19
318.524	355.19
318.753	318.19
318.983	355.19
319.212	335.19
319.441	355.19
319.67	362.19
319.9	343.19
320.129	345.19
320.358	327.19
320.587	354.19
320.816	364.19
321.046	354.19
321.275	360.19
321.504	370.19
321.733	375.19
321.962	395.19
322.191	400.19
322.42	400.19
322.649	422.19
322.878	437.19
323.108	460.19
323.337	466.19
323.566	482.19
323.795	511.19
324.024	554.19
324.253	682.19
324.482	1020.19
324.71	1531.19
324.939	2049.19
325.168	1674.19
325.397	915.19
325.626	617.19
325.855	525.19
326.084	486.19
326.313	480.19
326.542	488.19
326.77	521.19
326.999	622.19
327.228	874.19
327.457	1351.19
327.686	1521.19
327.914	1009.19
328.143	673.19
328.372	586.19
328.6	564.19
328.829	543.19
329.058	541.19
329.287	573.19
329.515	512.19
329.744	470.19
329.972	481.19
330.201	489.19
330.43	533.19
330.658	539.19
330.887	601.19
331.115	588.19
331.344	506.19
331.572	475.19
331.801	454.19
332.03	463.19
332.258	435.19
332.486	403.19
332.715	399.19
332.943	398.19
333.172	427.19
333.4	414.19
333.629	407.19
333.857	444.19
334.085	442.19
334.314	445.19
334.542	451.19
334.771	500.19
334.999	437.19
335.227	409.19
335.455	429.19
335.684	394.19
335.912	399.19
336.14	380.19
336.369	406.19
336.597	416.19
336.825	409.19
337.053	393.19
337.281	386.19
337.51	394.19
337.738	370.19
337.966	389.19
338.194	414.19
338.422	426.19
338.65	391.19
338.878	377.19
339.106	384.19
339.334	365.19
339.562	396.19
339.79	383.19
340.018	367.19
340.246	379.19
340.474	403.19
340.702	381.19
340.93	373.19
341.158	383.19
341.386	396.19
341.614	380.19
341.842	390.19
342.07	373.19
342.298	371.19
342.526	377.19
342.754	359.19
342.981	362.19
343.209	377.19
343.437	362.19
343.665	375.19
343.893	375.19
344.12	388.19
344.348	382.19
344.576	393.19
344.804	394.19
345.031	389.19
345.259	417.19
345.487	382.19
345.714	383.19
345.942	370.19
346.17	364.19
346.397	369.19
346.625	381.19
346.853	375.19
347.08	374.19
347.308	382.19
347.535	373.19
347.763	384.19
347.99	380.19
348.218	386.19
348.445	366.19
348.673	377.19
348.9	371.19
349.128	372.19
349.355	366.19
349.583	369.19
349.81	375.19
350.037	358.19
350.265	349.19
350.492	361.19
350.72	365.19
350.947	357.19
351.174	378.19
351.402	385.19
351.629	365.19
351.856	385.19
352.083	410.19
352.311	407.19
352.538	410.19
352.765	406.19
352.992	369.19
353.22	364.19
353.447	351.19
353.674	362.19
353.901	355.19
354.128	364.19
354.355	350.19
354.583	352.19
354.81	338.19
355.037	358.19
355.264	353.19
355.491	329.19
355.718	350.19
355.945	344.19
356.172	331.19
356.399	341.19
356.626	340.19
356.853	333.19
357.08	337.19
357.307	326.19
357.534	327.19
357.761	331.19
357.988	319.19
358.215	342.19
358.441	335.19
358.668	343.19
358.895	360.19
359.122	343.19
359.349	378.19
359.576	375.19
359.802	409.19
360.029	424.19
360.256	420.19
360.483	422.19
360.709	413.19
360.936	364.19
361.163	370.19
361.39	371.19
361.616	381.19
361.843	360.19
362.07	358.19
362.296	377.19
362.523	360.19
362.749	380.19
362.976	360.19
363.203	336.19
363.429	359.19
363.656	359.19
363.882	334.19
364.109	362.19
364.335	349.19
364.562	355.19
364.788	345.19
365.015	353.19
365.241	376.19
365.468	381.19
365.694	376.19
365.92	351.19
366.147	356.19
366.373	342.19
366.599	366.19
366.826	350.19
367.052	349.19
367.278	336.19
367.505	374.19
367.731	368.19
367.957	346.19
368.184	347.19
368.41	359.19
368.636	375.19
368.862	369.19
369.089	352.19
369.315	369.19
369.541	343.19
369.767	349.19
369.993	338.19
370.219	338.19
370.445	351.19
370.672	351.19
370.898	345.19
371.124	334.19
371.35	353.19
371.576	350.19
371.802	329.19
372.028	327.19
372.254	356.19
372.48	371.19
372.706	355.19
372.932	355.19
373.158	337.19
373.384	363.19
373.61	362.19
373.835	363.19
374.061	346.19
374.287	351.19
374.513	325.19
374.739	343.19
374.965	353.19
375.191	366.19
375.416	344.19
375.642	333.19
375.868	359.19
376.094	338.19
376.319	347.19
376.545	357.19
376.771	356.19
376.997	341.19
377.222	331.19
377.448	340.19
377.674	341.19
377.899	340.19
378.125	336.19
378.35	337.19
378.576	343.19
378.802	338.19
379.027	347.19
379.253	352.19
379.478	342.19
379.704	337.19
379.929	357.19
380.155	351.19
380.38	351.19
380.606	351.19
380.831	331.19
381.057	334.19
381.282	348.19
381.507	338.19
381.733	334.19
381.958	331.19
382.184	332.19
382.409	358.19
382.634	355.19
382.86	353.19
383.085	348.19
383.31	330.19
383.535	353.19
383.761	349.19
383.986	347.19
384.211	347.19
384.436	373.19
384.662	347.19
384.887	355.19
385.112	356.19
385.337	374.19
385.562	355.19
385.787	361.19
386.013	402.19
386.238	372.19
386.463	350.19
386.688	362.19
386.913	358.19
387.138	356.19
387.363	373.19
387.588	364.19
387.813	362.19
388.038	377.19
388.263	377.19
388.488	370.19
388.713	357.19
388.938	347.19
389.163	350.19
389.387	354.19
389.612	353.19
389.837	366.19
390.062	376.19
390.287	379.19
390.512	387.19
390.736	366.19
390.961	365.19
391.186	367.19
391.411	374.19
391.636	365.19
391.86	374.19
392.085	373.19
392.31	381.19
392.534	364.19
392.759	383.19
392.984	352.19
393.208	377.19
393.433	358.19
393.658	341.19
393.882	353.19
394.107	361.19
394.331	351.19
394.556	362.19
394.78	391.19
395.005	387.19
395.229	358.19
395.454	361.19
395.678	374.19
395.903	369.19
396.127	394.19
396.352	421.19
396.576	383.19
396.801	371.19
397.025	386.19
397.249	392.19
397.474	378.19
397.698	370.19
397.922	403.19
398.147	405.19
398.371	400.19
398.595	408.19
398.82	409.19
399.044	419.19
399.268	437.19
399.492	455.19
399.717	462.19
399.941	492.19
400.165	486.19
400.389	518.19
400.613	461.19
400.837	426.19
401.062	444.19
401.286	405.19
401.51	414.19
401.734	407.19
401.958	411.19
402.182	399.19
402.406	421.19
402.63	437.19
402.854	425.19
403.078	419.19
403.302	421.19
403.526	428.19
403.75	424.19
403.974	444.19
404.198	437.19
404.422	428.19
404.645	446.19
404.869	464.19
405.093	453.19
405.317	488.19
405.541	524.19
405.765	473.19
405.988	451.19
406.212	461.19
406.436	501.19
406.66	494.19
406.883	459.19
407.107	472.19
407.331	521.19
407.555	567.19
407.778	541.19
408.002	487.19
408.226	462.19
408.449	479.19
408.673	470.19
408.896	481.19
409.12	526.19
409.344	501.19
409.567	443.19
409.791	442.19
410.014	453.19
410.238	439.19
410.461	439.19
410.685	439.19
410.908	423.19
411.132	475.19
411.355	487.19
411.578	452.19
411.802	430.19
412.025	435.19
412.249	449.19
412.472	449.19
412.695	470.19
412.919	465.19
413.142	419.19
413.365	427.19
413.589	408.19
413.812	403.19
414.035	405.19
414.258	380.19
414.482	393.19
414.705	394.19
414.928	407.19
415.151	415.19
415.374	410.19
415.597	380.19
415.821	399.19
416.044	414.19
416.267	399.19
416.49	390.19
416.713	408.19
416.936	405.19
417.159	414.19
417.382	424.19
417.605	423.19
417.828	425.19
418.051	437.19
418.274	426.19
418.497	399.19
418.72	410.19
418.943	406.19
419.166	411.19
419.389	419.19
419.611	448.19
419.834	420.19
420.057	428.19
420.28	424.19
420.503	417.19
420.726	411.19
420.948	433.19
421.171	444.19
421.394	500.19
421.617	451.19
421.839	425.19
422.062	408.19
422.285	446.19
422.507	472.19
422.73	530.19
422.953	511.19
423.175	471.19
423.398	443.19
423.621	442.19
423.843	452.19
424.066	459.19
424.288	460.19
424.511	488.19
424.733	524.19
424.956	560.19
425.178	550.19
425.401	549.19
425.623	547.19
425.846	501.19
426.068	474.19
426.291	462.19
426.513	454.19
426.735	450.19
426.958	505.19
427.18	561.19
427.402	652.19
427.625	706.19
427.847	664.19
428.069	585.19
428.292	501.19
428.514	443.19
428.736	447.19
428.958	434.19
429.181	425.19
429.403	410.19
429.625	433.19
429.847	469.19
430.069	497.19
430.292	502.19
430.514	435.19
430.736	439.19
430.958	443.19
431.18	421.19
431.402	398.19
431.624	405.19
431.846	401.19
432.068	404.19
432.29	403.19
432.512	422.19
432.734	415.19
432.956	404.19
433.178	411.19
433.4	409.19
433.622	410.19
433.844	405.19
434.066	395.19
434.287	410.19
434.509	415.19
434.731	423.19
434.953	427.19
435.175	439.19
435.397	444.19
435.618	453.19
435.84	511.19
436.062	575.19
436.284	603.19
436.505	520.19
436.727	479.19
436.949	436.19
437.17	433.19
437.392	405.19
437.614	442.19
437.835	447.19
438.057	547.19
438.278	631.19
438.5	602.19
438.721	655.19
438.943	627.19
439.165	505.19
439.386	473.19
439.608	471.19
439.829	470.19
440.05	500.19
440.272	517.19
440.493	515.19
440.715	477.19
440.936	437.19
441.158	431.19
441.379	431.19
441.6	452.19
441.822	481.19
442.043	516.19
442.264	562.19
442.486	599.19
442.707	528.19
442.928	493.19
443.149	489.19
443.371	522.19
443.592	538.19
443.813	587.19
444.034	635.19
444.255	521.19
444.476	474.19
444.698	472.19
444.919	435.19
445.14	557.19
445.361	538.19
445.582	489.19
445.803	553.19
446.024	643.19
446.245	651.19
446.466	577.19
446.687	494.19
446.908	474.19
447.129	436.19
447.35	421.19
447.571	430.19
447.792	427.19
448.013	439.19
448.234	472.19
448.455	503.19
448.675	572.19
448.896	652.19
449.117	565.19
449.338	544.19
449.559	591.19
449.779	686.19
450	547.19
450.221	485.19
450.442	454.19
450.662	433.19
450.883	449.19
451.104	465.19
451.324	427.19
451.545	422.19
451.766	395.19
451.986	382.19
452.207	386.19
452.428	371.19
452.648	388.19
452.869	395.19
453.089	386.19
453.31	403.19
453.53	401.19
453.751	395.19
453.971	386.19
454.192	415.19
454.412	389.19
454.633	391.19
454.853	393.19
455.073	389.19
455.294	411.19
455.514	468.19
455.734	454.19
455.955	374.19
456.175	370.19
456.395	362.19
456.616	362.19
456.836	343.19
457.056	373.19
457.276	357.19
457.497	359.19
457.717	363.19
457.937	377.19
458.157	381.19
458.377	365.19
458.598	403.19
458.818	439.19
459.038	524.19
459.258	535.19
459.478	455.19
459.698	409.19
459.918	389.19
460.138	403.19
460.358	397.19
460.578	383.19
460.798	406.19
461.018	410.19
461.238	412.19
461.458	388.19
461.678	386.19
461.898	406.19
462.118	397.19
462.338	427.19
462.558	418.19
462.777	405.19
462.997	411.19
463.217	437.19
463.437	470.19
463.657	429.19
463.876	427.19
464.096	423.19
464.316	424.19
464.536	442.19
464.755	426.19
464.975	445.19
465.195	498.19
465.414	591.19
465.634	501.19
465.854	441.19
466.073	433.19
466.293	411.19
466.512	385.19
466.732	383.19
466.951	387.19
467.171	393.19
467.391	408.19
467.61	430.19
467.829	418.19
468.049	408.19
468.268	398.19
468.488	389.19
468.707	397.19
468.927	365.19
469.146	358.19
469.365	404.19
469.585	387.19
469.804	399.19
470.023	403.19
470.243	398.19
470.462	409.19
470.681	421.19
470.901	442.19
471.12	386.19
471.339	395.19
471.558	401.19
471.777	388.19
471.997	392.19
472.216	410.19
472.435	433.19
472.654	406.19
472.873	412.19
473.092	390.19
473.311	397.19
473.53	401.19
473.749	433.19
473.968	441.19
474.187	545.19
474.406	534.19
474.625	467.19
474.844	406.19
475.063	397.19
475.282	379.19
475.501	383.19
475.72	400.19
475.939	418.19
476.158	411.19
476.377	434.19
476.596	421.19
476.814	433.19
477.033	411.19
477.252	422.19
477.471	416.19
477.69	437.19
477.908	430.19
478.127	435.19
478.346	425.19
478.564	435.19
478.783	437.19
479.002	446.19
479.22	453.19
479.439	470.19
479.658	495.19
479.876	487.19
480.095	488.19
480.313	527.19
480.532	502.19
480.751	466.19
480.969	506.19
481.188	568.19
481.406	607.19
481.624	533.19
481.843	521.19
482.061	484.19
482.28	481.19
482.498	473.19
482.717	484.19
482.935	476.19
483.153	481.19
483.372	459.19
483.59	462.19
483.808	456.19
484.027	479.19
484.245	466.19
484.463	457.19
484.681	460.19
484.9	468.19
485.118	490.19
485.336	466.19
485.554	471.19
485.772	479.19
485.99	465.19
486.209	475.19
486.427	485.19
486.645	500.19
486.863	492.19
487.081	519.19
487.299	511.19
487.517	510.19
487.735	504.19
487.953	494.19
488.171	488.19
488.389	497.19
488.607	498.19
488.825	509.19
489.043	499.19
489.261	515.19
489.479	485.19
489.696	509.19
489.914	492.19
490.132	524.19
490.35	531.19
490.568	519.19
490.786	523.19
491.003	550.19
491.221	547.19
491.439	554.19
491.657	586.19
491.874	569.19
492.092	550.19
492.31	577.19
492.527	583.19
492.745	588.19
492.963	579.19
493.18	585.19
493.398	593.19
493.615	579.19
493.833	605.19
494.05	605.19
494.268	580.19
494.485	589.19
494.703	588.19
494.92	612.19
495.138	612.19
495.355	631.19
495.573	593.19
495.79	603.19
496.008	602.19
496.225	620.19
496.442	614.19
496.66	613.19
496.877	596.19
497.094	613.19
497.312	584.19
497.529	637.19
497.746	611.19
497.963	614.19
498.181	635.19
498.398	634.19
498.615	652.19
498.832	637.19
499.049	650.19
499.267	659.19
499.484	665.19
499.701	682.19
499.918	682.19
500.135	731.19
500.352	780.19
500.569	753.19
500.786	789.19
501.003	776.19
501.22	761.19
501.437	729.19
501.654	738.19
501.871	694.19
502.088	719.19
