Data from 1983.PennyLincolnUp.Lamp.En5.5.200Scan.071819.P1_HRD10591_16-54-31-965.txt Node
Date: Thu Jul 18 16:54:31 EDT 2019
User: cochatt
Spectrometer: HR+D1059
Trigger mode: 1
Integration Time (sec): 1.000000E-1
Scans to average: 1
Electric dark correction enabled: true
Nonlinearity correction enabled: false
Boxcar width: 0
XAxis mode: Wavelengths
Number of Pixels in Spectrum: 2048
>>>>>Begin Spectral Data<<<<<
223.165	-17.94
223.4	-17.94
223.635	-17.94
223.869	-18.94
224.104	-7.94
224.338	-2.94
224.573	-13.94
224.808	-15.94
225.042	-5.94
225.277	-18.94
225.511	-5.94
225.746	-1.94
225.98	10.06
226.215	14.06
226.449	21.06
226.683	30.06
226.918	13.06
227.152	22.06
227.387	34.06
227.621	46.06
227.856	53.06
228.09	39.06
228.324	37.06
228.559	68.06
228.793	69.06
229.027	97.06
229.262	118.06
229.496	113.06
229.73	125.06
229.964	150.06
230.199	137.06
230.433	110.06
230.667	115.06
230.901	102.06
231.136	109.06
231.37	119.06
231.604	101.06
231.838	117.06
232.072	115.06
232.306	100.06
232.541	101.06
232.775	117.06
233.009	109.06
233.243	116.06
233.477	95.06
233.711	105.06
233.945	105.06
234.179	113.06
234.413	120.06
234.647	116.06
234.881	121.06
235.115	111.06
235.349	117.06
235.583	136.06
235.817	122.06
236.051	113.06
236.285	113.06
236.519	122.06
236.753	131.06
236.987	139.06
237.221	175.06
237.455	222.06
237.689	175.06
237.922	138.06
238.156	127.06
238.39	119.06
238.624	116.06
238.858	101.06
239.091	119.06
239.325	116.06
239.559	119.06
239.793	126.06
240.027	129.06
240.26	137.06
240.494	149.06
240.728	135.06
240.961	151.06
241.195	141.06
241.429	124.06
241.662	136.06
241.896	120.06
242.13	136.06
242.363	118.06
242.597	119.06
242.83	133.06
243.064	134.06
243.298	133.06
243.531	139.06
243.765	127.06
243.998	140.06
244.232	128.06
244.465	137.06
244.699	133.06
244.932	153.06
245.166	131.06
245.399	122.06
245.633	144.06
245.866	139.06
246.099	142.06
246.333	141.06
246.566	151.06
246.8	140.06
247.033	140.06
247.266	156.06
247.5	157.06
247.733	164.06
247.966	161.06
248.2	155.06
248.433	150.06
248.666	156.06
248.899	156.06
249.133	198.06
249.366	195.06
249.599	173.06
249.832	177.06
250.066	159.06
250.299	187.06
250.532	184.06
250.765	201.06
250.998	217.06
251.231	217.06
251.465	204.06
251.698	205.06
251.931	191.06
252.164	183.06
252.397	171.06
252.63	185.06
252.863	190.06
253.096	205.06
253.329	222.06
253.562	198.06
253.795	206.06
254.028	208.06
254.261	193.06
254.494	215.06
254.727	241.06
254.96	263.06
255.193	243.06
255.426	232.06
255.659	202.06
255.892	225.06
256.124	219.06
256.357	227.06
256.59	218.06
256.823	221.06
257.056	187.06
257.289	203.06
257.521	186.06
257.754	181.06
257.987	179.06
258.22	184.06
258.452	185.06
258.685	198.06
258.918	189.06
259.151	171.06
259.383	204.06
259.616	209.06
259.849	206.06
260.081	208.06
260.314	230.06
260.547	242.06
260.779	224.06
261.012	226.06
261.244	214.06
261.477	211.06
261.71	204.06
261.942	214.06
262.175	230.06
262.407	222.06
262.64	219.06
262.872	201.06
263.105	205.06
263.337	202.06
263.57	200.06
263.802	194.06
264.035	212.06
264.267	197.06
264.499	198.06
264.732	196.06
264.964	198.06
265.197	196.06
265.429	192.06
265.661	198.06
265.894	206.06
266.126	210.06
266.358	191.06
266.591	204.06
266.823	214.06
267.055	200.06
267.287	212.06
267.52	183.06
267.752	210.06
267.984	206.06
268.216	224.06
268.448	212.06
268.681	210.06
268.913	224.06
269.145	252.06
269.377	271.06
269.609	251.06
269.841	243.06
270.073	258.06
270.306	268.06
270.538	294.06
270.77	288.06
271.002	293.06
271.234	272.06
271.466	283.06
271.698	279.06
271.93	286.06
272.162	301.06
272.394	297.06
272.626	280.06
272.858	271.06
273.09	246.06
273.322	262.06
273.553	229.06
273.785	218.06
274.017	243.06
274.249	241.06
274.481	237.06
274.713	251.06
274.945	246.06
275.176	243.06
275.408	246.06
275.64	242.06
275.872	249.06
276.104	263.06
276.335	243.06
276.567	253.06
276.799	263.06
277.031	301.06
277.262	298.06
277.494	309.06
277.726	277.06
277.957	272.06
278.189	252.06
278.421	246.06
278.652	250.06
278.884	256.06
279.115	261.06
279.347	242.06
279.579	237.06
279.81	239.06
280.042	263.06
280.273	233.06
280.505	245.06
280.736	241.06
280.968	244.06
281.199	243.06
281.431	245.06
281.662	245.06
281.894	243.06
282.125	241.06
282.356	269.06
282.588	284.06
282.819	286.06
283.051	258.06
283.282	249.06
283.513	255.06
283.745	257.06
283.976	256.06
284.207	271.06
284.439	262.06
284.67	241.06
284.901	257.06
285.132	246.06
285.364	255.06
285.595	250.06
285.826	258.06
286.057	258.06
286.288	264.06
286.52	268.06
286.751	276.06
286.982	270.06
287.213	252.06
287.444	255.06
287.675	255.06
287.906	286.06
288.138	276.06
288.369	281.06
288.6	282.06
288.831	265.06
289.062	277.06
289.293	271.06
289.524	263.06
289.755	259.06
289.986	246.06
290.217	274.06
290.448	278.06
290.679	254.06
290.91	258.06
291.141	262.06
291.371	255.06
291.602	271.06
291.833	268.06
292.064	264.06
292.295	267.06
292.526	277.06
292.757	259.06
292.987	281.06
293.218	280.06
293.449	278.06
293.68	263.06
293.91	265.06
294.141	267.06
294.372	276.06
294.603	261.06
294.833	248.06
295.064	267.06
295.295	267.06
295.525	278.06
295.756	263.06
295.987	278.06
296.217	309.06
296.448	302.06
296.679	284.06
296.909	266.06
297.14	275.06
297.37	289.06
297.601	256.06
297.831	278.06
298.062	282.06
298.292	270.06
298.523	285.06
298.753	295.06
298.984	272.06
299.214	285.06
299.445	297.06
299.675	302.06
299.905	287.06
300.136	282.06
300.366	271.06
300.597	270.06
300.827	299.06
301.057	303.06
301.288	328.06
301.518	305.06
301.748	302.06
301.979	303.06
302.209	308.06
302.439	311.06
302.669	317.06
302.9	302.06
303.13	295.06
303.36	300.06
303.59	311.06
303.82	300.06
304.051	309.06
304.281	310.06
304.511	290.06
304.741	299.06
304.971	287.06
305.201	288.06
305.431	296.06
305.661	275.06
305.891	279.06
306.121	294.06
306.352	294.06
306.582	311.06
306.812	305.06
307.042	308.06
307.272	321.06
307.502	309.06
307.731	309.06
307.961	326.06
308.191	308.06
308.421	294.06
308.651	334.06
308.881	302.06
309.111	303.06
309.341	322.06
309.571	323.06
309.8	338.06
310.03	335.06
310.26	347.06
310.49	350.06
310.72	349.06
310.949	356.06
311.179	366.06
311.409	371.06
311.639	366.06
311.868	355.06
312.098	364.06
312.328	351.06
312.557	379.06
312.787	379.06
313.017	379.06
313.246	366.06
313.476	352.06
313.706	341.06
313.935	356.06
314.165	390.06
314.394	358.06
314.624	365.06
314.853	365.06
315.083	365.06
315.312	353.06
315.542	350.06
315.771	347.06
316.001	345.06
316.23	347.06
316.46	340.06
316.689	350.06
316.919	347.06
317.148	371.06
317.377	379.06
317.607	375.06
317.836	371.06
318.065	352.06
318.295	356.06
318.524	338.06
318.753	342.06
318.983	348.06
319.212	357.06
319.441	360.06
319.67	380.06
319.9	375.06
320.129	356.06
320.358	373.06
320.587	359.06
320.816	359.06
321.046	374.06
321.275	376.06
321.504	369.06
321.733	369.06
321.962	375.06
322.191	392.06
322.42	404.06
322.649	422.06
322.878	409.06
323.108	447.06
323.337	469.06
323.566	519.06
323.795	511.06
324.024	580.06
324.253	708.06
324.482	1027.06
324.71	1522.06
324.939	2028.06
325.168	1693.06
325.397	927.06
325.626	634.06
325.855	540.06
326.084	494.06
326.313	467.06
326.542	477.06
326.77	544.06
326.999	649.06
327.228	936.06
327.457	1333.06
327.686	1517.06
327.914	1023.06
328.143	697.06
328.372	636.06
328.6	572.06
328.829	552.06
329.058	557.06
329.287	568.06
329.515	520.06
329.744	480.06
329.972	475.06
330.201	505.06
330.43	550.06
330.658	565.06
330.887	604.06
331.115	570.06
331.344	509.06
331.572	462.06
331.801	477.06
332.03	457.06
332.258	441.06
332.486	429.06
332.715	412.06
332.943	435.06
333.172	412.06
333.4	411.06
333.629	425.06
333.857	461.06
334.085	474.06
334.314	497.06
334.542	494.06
334.771	500.06
334.999	461.06
335.227	409.06
335.455	430.06
335.684	405.06
335.912	421.06
336.14	397.06
336.369	406.06
336.597	405.06
336.825	439.06
337.053	405.06
337.281	403.06
337.51	406.06
337.738	409.06
337.966	406.06
338.194	400.06
338.422	415.06
338.65	414.06
338.878	379.06
339.106	409.06
339.334	393.06
339.562	402.06
339.79	393.06
340.018	379.06
340.246	384.06
340.474	411.06
340.702	395.06
340.93	385.06
341.158	385.06
341.386	393.06
341.614	381.06
341.842	417.06
342.07	405.06
342.298	385.06
342.526	373.06
342.754	384.06
342.981	388.06
343.209	373.06
343.437	385.06
343.665	383.06
343.893	389.06
344.12	398.06
344.348	402.06
344.576	405.06
344.804	393.06
345.031	425.06
345.259	409.06
345.487	415.06
345.714	402.06
345.942	393.06
346.17	388.06
346.397	378.06
346.625	396.06
346.853	384.06
347.08	390.06
347.308	386.06
347.535	403.06
347.763	407.06
347.99	395.06
348.218	400.06
348.445	404.06
348.673	394.06
348.9	404.06
349.128	393.06
349.355	395.06
349.583	365.06
349.81	354.06
350.037	391.06
350.265	342.06
350.492	358.06
350.72	369.06
350.947	401.06
351.174	387.06
351.402	382.06
351.629	396.06
351.856	378.06
352.083	383.06
352.311	398.06
352.538	387.06
352.765	414.06
352.992	379.06
353.22	385.06
353.447	386.06
353.674	374.06
353.901	357.06
354.128	351.06
354.355	364.06
354.583	350.06
354.81	360.06
355.037	358.06
355.264	359.06
355.491	351.06
355.718	343.06
355.945	355.06
356.172	352.06
356.399	343.06
356.626	360.06
356.853	346.06
357.08	362.06
357.307	349.06
357.534	350.06
357.761	345.06
357.988	343.06
358.215	358.06
358.441	340.06
358.668	337.06
358.895	371.06
359.122	356.06
359.349	364.06
359.576	376.06
359.802	405.06
360.029	432.06
360.256	425.06
360.483	428.06
360.709	405.06
360.936	375.06
361.163	381.06
361.39	392.06
361.616	381.06
361.843	365.06
362.07	361.06
362.296	378.06
362.523	381.06
362.749	370.06
362.976	369.06
363.203	377.06
363.429	373.06
363.656	363.06
363.882	373.06
364.109	383.06
364.335	362.06
364.562	364.06
364.788	375.06
365.015	363.06
365.241	372.06
365.468	345.06
365.694	365.06
365.92	359.06
366.147	352.06
366.373	359.06
366.599	367.06
366.826	365.06
367.052	339.06
367.278	346.06
367.505	379.06
367.731	373.06
367.957	353.06
368.184	363.06
368.41	366.06
368.636	371.06
368.862	383.06
369.089	378.06
369.315	356.06
369.541	348.06
369.767	340.06
369.993	367.06
370.219	353.06
370.445	342.06
370.672	363.06
370.898	338.06
371.124	355.06
371.35	348.06
371.576	348.06
371.802	356.06
372.028	382.06
372.254	366.06
372.48	374.06
372.706	354.06
372.932	335.06
373.158	347.06
373.384	363.06
373.61	363.06
373.835	340.06
374.061	348.06
374.287	351.06
374.513	363.06
374.739	366.06
374.965	363.06
375.191	345.06
375.416	364.06
375.642	355.06
375.868	345.06
376.094	353.06
376.319	329.06
376.545	330.06
376.771	330.06
376.997	353.06
377.222	357.06
377.448	358.06
377.674	366.06
377.899	350.06
378.125	355.06
378.35	368.06
378.576	343.06
378.802	327.06
379.027	335.06
379.253	336.06
379.478	347.06
379.704	337.06
379.929	354.06
380.155	342.06
380.38	341.06
380.606	347.06
380.831	357.06
381.057	347.06
381.282	340.06
381.507	357.06
381.733	338.06
381.958	355.06
382.184	359.06
382.409	371.06
382.634	350.06
382.86	343.06
383.085	369.06
383.31	353.06
383.535	359.06
383.761	342.06
383.986	349.06
384.211	387.06
384.436	371.06
384.662	354.06
384.887	366.06
385.112	364.06
385.337	376.06
385.562	377.06
385.787	366.06
386.013	389.06
386.238	373.06
386.463	386.06
386.688	360.06
386.913	348.06
387.138	363.06
387.363	357.06
387.588	362.06
387.813	357.06
388.038	361.06
388.263	399.06
388.488	371.06
388.713	369.06
388.938	369.06
389.163	362.06
389.387	369.06
389.612	373.06
389.837	378.06
390.062	378.06
390.287	382.06
390.512	365.06
390.736	355.06
390.961	379.06
391.186	373.06
391.411	387.06
391.636	385.06
391.86	365.06
392.085	383.06
392.31	387.06
392.534	392.06
392.759	379.06
392.984	389.06
393.208	391.06
393.433	362.06
393.658	371.06
393.882	375.06
394.107	366.06
394.331	373.06
394.556	369.06
394.78	371.06
395.005	373.06
395.229	378.06
395.454	400.06
395.678	386.06
395.903	399.06
396.127	415.06
396.352	397.06
396.576	389.06
396.801	392.06
397.025	378.06
397.249	407.06
397.474	405.06
397.698	390.06
397.922	413.06
398.147	405.06
398.371	408.06
398.595	433.06
398.82	403.06
399.044	431.06
399.268	445.06
399.492	455.06
399.717	482.06
399.941	474.06
400.165	493.06
400.389	522.06
400.613	512.06
400.837	443.06
401.062	453.06
401.286	428.06
401.51	431.06
401.734	430.06
401.958	429.06
402.182	440.06
402.406	441.06
402.63	459.06
402.854	440.06
403.078	423.06
403.302	429.06
403.526	427.06
403.75	428.06
403.974	441.06
404.198	455.06
404.422	427.06
404.645	475.06
404.869	440.06
405.093	462.06
405.317	524.06
405.541	527.06
405.765	481.06
405.988	468.06
406.212	487.06
406.436	509.06
406.66	524.06
406.883	487.06
407.107	501.06
407.331	520.06
407.555	591.06
407.778	583.06
408.002	502.06
408.226	478.06
408.449	473.06
408.673	482.06
408.896	513.06
409.12	504.06
409.344	464.06
409.567	466.06
409.791	447.06
410.014	445.06
410.238	438.06
410.461	453.06
410.685	435.06
410.908	467.06
411.132	487.06
411.355	483.06
411.578	484.06
411.802	447.06
412.025	438.06
412.249	440.06
412.472	450.06
412.695	494.06
412.919	477.06
413.142	460.06
413.365	435.06
413.589	428.06
413.812	412.06
414.035	425.06
414.258	423.06
414.482	421.06
414.705	416.06
414.928	406.06
415.151	422.06
415.374	399.06
415.597	415.06
415.821	421.06
416.044	420.06
416.267	415.06
416.49	415.06
416.713	394.06
416.936	418.06
417.159	419.06
417.382	407.06
417.605	417.06
417.828	429.06
418.051	453.06
418.274	427.06
418.497	420.06
418.72	427.06
418.943	425.06
419.166	427.06
419.389	444.06
419.611	441.06
419.834	449.06
420.057	444.06
420.28	419.06
420.503	421.06
420.726	444.06
420.948	462.06
421.171	472.06
421.394	485.06
421.617	448.06
421.839	437.06
422.062	434.06
422.285	443.06
422.507	489.06
422.73	544.06
422.953	526.06
423.175	479.06
423.398	464.06
423.621	451.06
423.843	431.06
424.066	472.06
424.288	467.06
424.511	471.06
424.733	507.06
424.956	573.06
425.178	550.06
425.401	571.06
425.623	575.06
425.846	502.06
426.068	467.06
426.291	469.06
426.513	459.06
426.735	491.06
426.958	521.06
427.18	567.06
427.402	687.06
427.625	742.06
427.847	665.06
428.069	583.06
428.292	516.06
428.514	474.06
428.736	463.06
428.958	441.06
429.181	424.06
429.403	429.06
429.625	440.06
429.847	465.06
430.069	524.06
430.292	521.06
430.514	444.06
430.736	436.06
430.958	442.06
431.18	398.06
431.402	435.06
431.624	424.06
431.846	419.06
432.068	397.06
432.29	405.06
432.512	409.06
432.734	425.06
432.956	429.06
433.178	433.06
433.4	437.06
433.622	395.06
433.844	417.06
434.066	410.06
434.287	398.06
434.509	415.06
434.731	435.06
434.953	427.06
435.175	429.06
435.397	484.06
435.618	474.06
435.84	506.06
436.062	588.06
436.284	630.06
436.505	547.06
436.727	478.06
436.949	448.06
437.17	443.06
437.392	444.06
437.614	456.06
437.835	503.06
438.057	598.06
438.278	615.06
438.5	615.06
438.721	680.06
438.943	633.06
439.165	511.06
439.386	503.06
439.608	505.06
439.829	491.06
440.05	501.06
440.272	543.06
440.493	505.06
440.715	476.06
440.936	466.06
441.158	448.06
441.379	447.06
441.6	450.06
441.822	473.06
442.043	511.06
442.264	567.06
442.486	584.06
442.707	530.06
442.928	493.06
443.149	488.06
443.371	521.06
443.592	554.06
443.813	596.06
444.034	649.06
444.255	549.06
444.476	482.06
444.698	467.06
444.919	477.06
445.14	616.06
445.361	553.06
445.582	527.06
445.803	570.06
446.024	639.06
446.245	655.06
446.466	605.06
446.687	511.06
446.908	470.06
447.129	463.06
447.35	442.06
447.571	450.06
447.792	441.06
448.013	443.06
448.234	467.06
448.455	505.06
448.675	599.06
448.896	659.06
449.117	583.06
449.338	563.06
449.559	639.06
449.779	683.06
450	571.06
450.221	479.06
450.442	439.06
450.662	430.06
450.883	425.06
451.104	462.06
451.324	452.06
451.545	429.06
451.766	412.06
451.986	404.06
452.207	388.06
452.428	390.06
452.648	395.06
452.869	406.06
453.089	393.06
453.31	423.06
453.53	426.06
453.751	406.06
453.971	383.06
454.192	419.06
454.412	425.06
454.633	391.06
454.853	373.06
455.073	373.06
455.294	407.06
455.514	467.06
455.734	461.06
455.955	378.06
456.175	370.06
456.395	359.06
456.616	358.06
456.836	386.06
457.056	364.06
457.276	365.06
457.497	365.06
457.717	393.06
457.937	391.06
458.157	382.06
458.377	361.06
458.598	421.06
458.818	467.06
459.038	542.06
459.258	517.06
459.478	470.06
459.698	423.06
459.918	404.06
460.138	395.06
460.358	418.06
460.578	406.06
460.798	429.06
461.018	419.06
461.238	409.06
461.458	414.06
461.678	415.06
461.898	416.06
462.118	419.06
462.338	411.06
462.558	426.06
462.777	437.06
462.997	441.06
463.217	435.06
463.437	459.06
463.657	446.06
463.876	436.06
464.096	415.06
464.316	444.06
464.536	445.06
464.755	434.06
464.975	461.06
465.195	518.06
465.414	583.06
465.634	486.06
465.854	428.06
466.073	418.06
466.293	408.06
466.512	413.06
466.732	415.06
466.951	409.06
467.171	390.06
467.391	385.06
467.61	403.06
467.829	418.06
468.049	415.06
468.268	399.06
468.488	398.06
468.707	400.06
468.927	395.06
469.146	393.06
469.365	368.06
469.585	401.06
469.804	396.06
470.023	428.06
470.243	405.06
470.462	414.06
470.681	445.06
470.901	439.06
471.12	402.06
471.339	413.06
471.558	426.06
471.777	403.06
471.997	414.06
472.216	390.06
472.435	450.06
472.654	423.06
472.873	424.06
473.092	396.06
473.311	413.06
473.53	427.06
473.749	410.06
473.968	461.06
474.187	559.06
474.406	555.06
474.625	439.06
474.844	417.06
475.063	397.06
475.282	407.06
475.501	417.06
475.72	430.06
475.939	424.06
476.158	414.06
476.377	412.06
476.596	417.06
476.814	417.06
477.033	433.06
477.252	427.06
477.471	443.06
477.69	441.06
477.908	453.06
478.127	450.06
478.346	450.06
478.564	444.06
478.783	462.06
479.002	471.06
479.22	458.06
479.439	481.06
479.658	502.06
479.876	484.06
480.095	507.06
480.313	550.06
480.532	500.06
480.751	507.06
480.969	517.06
481.188	573.06
481.406	604.06
481.624	542.06
481.843	514.06
482.061	506.06
482.28	516.06
482.498	453.06
482.717	465.06
482.935	479.06
483.153	481.06
483.372	449.06
483.59	485.06
483.808	490.06
484.027	470.06
484.245	477.06
484.463	494.06
484.681	466.06
484.9	477.06
485.118	483.06
485.336	484.06
485.554	490.06
485.772	467.06
485.99	492.06
486.209	488.06
486.427	498.06
486.645	515.06
486.863	530.06
487.081	536.06
487.299	515.06
487.517	509.06
487.735	506.06
487.953	525.06
488.171	535.06
488.389	501.06
488.607	507.06
488.825	545.06
489.043	525.06
489.261	526.06
489.479	515.06
489.696	508.06
489.914	495.06
490.132	529.06
490.35	530.06
490.568	544.06
490.786	555.06
491.003	558.06
491.221	582.06
491.439	592.06
491.657	570.06
491.874	590.06
492.092	598.06
492.31	607.06
492.527	583.06
492.745	597.06
492.963	619.06
493.18	613.06
493.398	587.06
493.615	605.06
493.833	622.06
494.05	607.06
494.268	595.06
494.485	598.06
494.703	608.06
494.92	609.06
495.138	593.06
495.355	636.06
495.573	610.06
495.79	608.06
496.008	624.06
496.225	626.06
496.442	626.06
496.66	631.06
496.877	622.06
497.094	597.06
497.312	612.06
497.529	625.06
497.746	615.06
497.963	620.06
498.181	665.06
498.398	661.06
498.615	662.06
498.832	672.06
499.049	675.06
499.267	707.06
499.484	731.06
499.701	697.06
499.918	753.06
500.135	773.06
500.352	779.06
500.569	794.06
500.786	817.06
501.003	797.06
501.22	787.06
501.437	780.06
501.654	738.06
501.871	770.06
