Data from 1983.PennyLincolnUp.Lamp.En5.5.200Scan.071819.P1_HRD10591_16-53-51-966.txt Node
Date: Thu Jul 18 16:53:51 EDT 2019
User: cochatt
Spectrometer: HR+D1059
Trigger mode: 1
Integration Time (sec): 1.000000E-1
Scans to average: 1
Electric dark correction enabled: true
Nonlinearity correction enabled: false
Boxcar width: 0
XAxis mode: Wavelengths
Number of Pixels in Spectrum: 2048
>>>>>Begin Spectral Data<<<<<
223.165	-23.88
223.4	-23.88
223.635	-23.88
223.869	-7.88
224.104	-15.88
224.338	-15.88
224.573	-19.88
224.808	-17.88
225.042	4.12
225.277	-11.88
225.511	-10.88
225.746	12.12
225.98	9.12
226.215	-1.88
226.449	18.12
226.683	34.12
226.918	13.12
227.152	35.12
227.387	37.12
227.621	26.12
227.856	38.12
228.09	39.12
228.324	50.12
228.559	51.12
228.793	79.12
229.027	93.12
229.262	97.12
229.496	107.12
229.73	121.12
229.964	132.12
230.199	111.12
230.433	113.12
230.667	107.12
230.901	114.12
231.136	103.12
231.37	109.12
231.604	119.12
231.838	98.12
232.072	108.12
232.306	100.12
232.541	99.12
232.775	113.12
233.009	103.12
233.243	115.12
233.477	106.12
233.711	117.12
233.945	119.12
234.179	105.12
234.413	114.12
234.647	117.12
234.881	119.12
235.115	110.12
235.349	116.12
235.583	117.12
235.817	96.12
236.051	110.12
236.285	117.12
236.519	131.12
236.753	132.12
236.987	133.12
237.221	167.12
237.455	198.12
237.689	171.12
237.922	131.12
238.156	121.12
238.39	127.12
238.624	115.12
238.858	119.12
239.091	104.12
239.325	108.12
239.559	131.12
239.793	119.12
240.027	133.12
240.26	124.12
240.494	138.12
240.728	142.12
240.961	136.12
241.195	124.12
241.429	129.12
241.662	104.12
241.896	125.12
242.13	121.12
242.363	121.12
242.597	122.12
242.83	121.12
243.064	129.12
243.298	129.12
243.531	133.12
243.765	129.12
243.998	139.12
244.232	143.12
244.465	132.12
244.699	130.12
244.932	131.12
245.166	157.12
245.399	141.12
245.633	130.12
245.866	123.12
246.099	131.12
246.333	120.12
246.566	133.12
246.8	147.12
247.033	147.12
247.266	140.12
247.5	149.12
247.733	155.12
247.966	157.12
248.2	171.12
248.433	166.12
248.666	146.12
248.899	172.12
249.133	177.12
249.366	207.12
249.599	180.12
249.832	171.12
250.066	165.12
250.299	169.12
250.532	159.12
250.765	183.12
250.998	198.12
251.231	197.12
251.465	185.12
251.698	180.12
251.931	185.12
252.164	201.12
252.397	182.12
252.63	172.12
252.863	190.12
253.096	194.12
253.329	210.12
253.562	216.12
253.795	207.12
254.028	195.12
254.261	204.12
254.494	212.12
254.727	237.12
254.96	273.12
255.193	228.12
255.426	221.12
255.659	197.12
255.892	208.12
256.124	198.12
256.357	204.12
256.59	184.12
256.823	201.12
257.056	195.12
257.289	179.12
257.521	177.12
257.754	180.12
257.987	195.12
258.22	195.12
258.452	186.12
258.685	194.12
258.918	188.12
259.151	188.12
259.383	204.12
259.616	210.12
259.849	197.12
260.081	206.12
260.314	218.12
260.547	238.12
260.779	209.12
261.012	219.12
261.244	203.12
261.477	207.12
261.71	181.12
261.942	203.12
262.175	215.12
262.407	208.12
262.64	193.12
262.872	205.12
263.105	194.12
263.337	194.12
263.57	191.12
263.802	193.12
264.035	195.12
264.267	197.12
264.499	192.12
264.732	169.12
264.964	179.12
265.197	203.12
265.429	186.12
265.661	185.12
265.894	190.12
266.126	203.12
266.358	200.12
266.591	192.12
266.823	210.12
267.055	214.12
267.287	194.12
267.52	216.12
267.752	205.12
267.984	206.12
268.216	206.12
268.448	206.12
268.681	226.12
268.913	225.12
269.145	249.12
269.377	237.12
269.609	246.12
269.841	237.12
270.073	249.12
270.306	265.12
270.538	270.12
270.77	298.12
271.002	282.12
271.234	287.12
271.466	255.12
271.698	280.12
271.93	288.12
272.162	294.12
272.394	300.12
272.626	271.12
272.858	252.12
273.09	238.12
273.322	238.12
273.553	247.12
273.785	238.12
274.017	222.12
274.249	236.12
274.481	252.12
274.713	227.12
274.945	237.12
275.176	230.12
275.408	239.12
275.64	243.12
275.872	224.12
276.104	241.12
276.335	230.12
276.567	242.12
276.799	260.12
277.031	282.12
277.262	281.12
277.494	290.12
277.726	266.12
277.957	270.12
278.189	244.12
278.421	229.12
278.652	253.12
278.884	243.12
279.115	224.12
279.347	238.12
279.579	236.12
279.81	242.12
280.042	238.12
280.273	220.12
280.505	242.12
280.736	243.12
280.968	233.12
281.199	229.12
281.431	227.12
281.662	219.12
281.894	255.12
282.125	248.12
282.356	264.12
282.588	306.12
282.819	300.12
283.051	265.12
283.282	243.12
283.513	250.12
283.745	250.12
283.976	255.12
284.207	233.12
284.439	237.12
284.67	243.12
284.901	250.12
285.132	248.12
285.364	231.12
285.595	245.12
285.826	231.12
286.057	254.12
286.288	252.12
286.52	245.12
286.751	243.12
286.982	250.12
287.213	236.12
287.444	257.12
287.675	242.12
287.906	272.12
288.138	259.12
288.369	271.12
288.6	268.12
288.831	275.12
289.062	266.12
289.293	269.12
289.524	266.12
289.755	263.12
289.986	237.12
290.217	257.12
290.448	261.12
290.679	260.12
290.91	258.12
291.141	259.12
291.371	238.12
291.602	256.12
291.833	246.12
292.064	253.12
292.295	245.12
292.526	267.12
292.757	246.12
292.987	260.12
293.218	259.12
293.449	253.12
293.68	254.12
293.91	262.12
294.141	245.12
294.372	263.12
294.603	255.12
294.833	259.12
295.064	236.12
295.295	272.12
295.525	278.12
295.756	261.12
295.987	287.12
296.217	271.12
296.448	285.12
296.679	272.12
296.909	247.12
297.14	274.12
297.37	252.12
297.601	237.12
297.831	276.12
298.062	261.12
298.292	279.12
298.523	280.12
298.753	270.12
298.984	265.12
299.214	269.12
299.445	285.12
299.675	264.12
299.905	279.12
300.136	277.12
300.366	263.12
300.597	276.12
300.827	260.12
301.057	282.12
301.288	291.12
301.518	288.12
301.748	273.12
301.979	276.12
302.209	276.12
302.439	292.12
302.669	298.12
302.9	273.12
303.13	288.12
303.36	287.12
303.59	300.12
303.82	296.12
304.051	285.12
304.281	300.12
304.511	291.12
304.741	290.12
304.971	288.12
305.201	295.12
305.431	283.12
305.661	309.12
305.891	289.12
306.121	292.12
306.352	301.12
306.582	291.12
306.812	299.12
307.042	294.12
307.272	292.12
307.502	289.12
307.731	301.12
307.961	286.12
308.191	281.12
308.421	289.12
308.651	298.12
308.881	292.12
309.111	288.12
309.341	305.12
309.571	303.12
309.8	303.12
310.03	341.12
310.26	334.12
310.49	329.12
310.72	333.12
310.949	359.12
311.179	385.12
311.409	310.12
311.639	333.12
311.868	329.12
312.098	338.12
312.328	342.12
312.557	364.12
312.787	380.12
313.017	365.12
313.246	343.12
313.476	347.12
313.706	318.12
313.935	337.12
314.165	343.12
314.394	344.12
314.624	342.12
314.853	348.12
315.083	351.12
315.312	335.12
315.542	323.12
315.771	326.12
316.001	326.12
316.23	318.12
316.46	331.12
316.689	325.12
316.919	336.12
317.148	356.12
317.377	340.12
317.607	340.12
317.836	339.12
318.065	338.12
318.295	347.12
318.524	347.12
318.753	344.12
318.983	343.12
319.212	326.12
319.441	342.12
319.67	369.12
319.9	329.12
320.129	334.12
320.358	345.12
320.587	343.12
320.816	351.12
321.046	343.12
321.275	365.12
321.504	361.12
321.733	364.12
321.962	371.12
322.191	377.12
322.42	394.12
322.649	424.12
322.878	419.12
323.108	410.12
323.337	453.12
323.566	468.12
323.795	489.12
324.024	539.12
324.253	679.12
324.482	952.12
324.71	1446.12
324.939	1963.12
325.168	1603.12
325.397	858.12
325.626	619.12
325.855	516.12
326.084	467.12
326.313	474.12
326.542	468.12
326.77	494.12
326.999	613.12
327.228	869.12
327.457	1245.12
327.686	1460.12
327.914	986.12
328.143	641.12
328.372	589.12
328.6	542.12
328.829	528.12
329.058	527.12
329.287	547.12
329.515	494.12
329.744	439.12
329.972	422.12
330.201	457.12
330.43	512.12
330.658	526.12
330.887	568.12
331.115	543.12
331.344	469.12
331.572	457.12
331.801	454.12
332.03	439.12
332.258	414.12
332.486	403.12
332.715	411.12
332.943	388.12
333.172	405.12
333.4	393.12
333.629	410.12
333.857	409.12
334.085	402.12
334.314	411.12
334.542	440.12
334.771	454.12
334.999	413.12
335.227	413.12
335.455	389.12
335.684	385.12
335.912	380.12
336.14	389.12
336.369	389.12
336.597	411.12
336.825	389.12
337.053	372.12
337.281	392.12
337.51	383.12
337.738	369.12
337.966	367.12
338.194	385.12
338.422	400.12
338.65	380.12
338.878	368.12
339.106	378.12
339.334	367.12
339.562	365.12
339.79	366.12
340.018	369.12
340.246	381.12
340.474	383.12
340.702	358.12
340.93	383.12
341.158	370.12
341.386	387.12
341.614	364.12
341.842	380.12
342.07	373.12
342.298	381.12
342.526	370.12
342.754	367.12
342.981	373.12
343.209	341.12
343.437	364.12
343.665	373.12
343.893	372.12
344.12	383.12
344.348	396.12
344.576	373.12
344.804	386.12
345.031	392.12
345.259	410.12
345.487	407.12
345.714	356.12
345.942	391.12
346.17	377.12
346.397	379.12
346.625	366.12
346.853	366.12
347.08	376.12
347.308	364.12
347.535	380.12
347.763	381.12
347.99	378.12
348.218	383.12
348.445	391.12
348.673	389.12
348.9	363.12
349.128	373.12
349.355	369.12
349.583	359.12
349.81	356.12
350.037	340.12
350.265	348.12
350.492	354.12
350.72	358.12
350.947	338.12
351.174	364.12
351.402	373.12
351.629	371.12
351.856	365.12
352.083	371.12
352.311	375.12
352.538	401.12
352.765	409.12
352.992	381.12
353.22	371.12
353.447	362.12
353.674	349.12
353.901	324.12
354.128	354.12
354.355	358.12
354.583	325.12
354.81	352.12
355.037	341.12
355.264	334.12
355.491	340.12
355.718	326.12
355.945	334.12
356.172	318.12
356.399	328.12
356.626	341.12
356.853	339.12
357.08	337.12
357.307	343.12
357.534	325.12
357.761	335.12
357.988	332.12
358.215	338.12
358.441	332.12
358.668	342.12
358.895	326.12
359.122	339.12
359.349	353.12
359.576	359.12
359.802	381.12
360.029	415.12
360.256	424.12
360.483	400.12
360.709	376.12
360.936	355.12
361.163	359.12
361.39	381.12
361.616	375.12
361.843	344.12
362.07	378.12
362.296	359.12
362.523	367.12
362.749	362.12
362.976	356.12
363.203	356.12
363.429	354.12
363.656	329.12
363.882	358.12
364.109	330.12
364.335	332.12
364.562	326.12
364.788	352.12
365.015	343.12
365.241	356.12
365.468	382.12
365.694	355.12
365.92	365.12
366.147	357.12
366.373	345.12
366.599	333.12
366.826	338.12
367.052	329.12
367.278	327.12
367.505	334.12
367.731	351.12
367.957	358.12
368.184	355.12
368.41	350.12
368.636	346.12
368.862	347.12
369.089	336.12
369.315	347.12
369.541	319.12
369.767	341.12
369.993	346.12
370.219	344.12
370.445	354.12
370.672	361.12
370.898	327.12
371.124	336.12
371.35	328.12
371.576	358.12
371.802	334.12
372.028	346.12
372.254	339.12
372.48	325.12
372.706	354.12
372.932	338.12
373.158	345.12
373.384	340.12
373.61	341.12
373.835	348.12
374.061	357.12
374.287	342.12
374.513	319.12
374.739	347.12
374.965	336.12
375.191	342.12
375.416	352.12
375.642	345.12
375.868	331.12
376.094	332.12
376.319	337.12
376.545	346.12
376.771	346.12
376.997	324.12
377.222	321.12
377.448	358.12
377.674	335.12
377.899	330.12
378.125	337.12
378.35	335.12
378.576	327.12
378.802	359.12
379.027	339.12
379.253	324.12
379.478	330.12
379.704	341.12
379.929	343.12
380.155	329.12
380.38	355.12
380.606	335.12
380.831	351.12
381.057	338.12
381.282	361.12
381.507	335.12
381.733	336.12
381.958	331.12
382.184	331.12
382.409	334.12
382.634	343.12
382.86	334.12
383.085	339.12
383.31	339.12
383.535	350.12
383.761	346.12
383.986	331.12
384.211	342.12
384.436	350.12
384.662	342.12
384.887	362.12
385.112	348.12
385.337	371.12
385.562	341.12
385.787	375.12
386.013	385.12
386.238	363.12
386.463	367.12
386.688	357.12
386.913	348.12
387.138	373.12
387.363	365.12
387.588	362.12
387.813	359.12
388.038	365.12
388.263	386.12
388.488	371.12
388.713	370.12
388.938	369.12
389.163	354.12
389.387	347.12
389.612	360.12
389.837	358.12
390.062	350.12
390.287	351.12
390.512	363.12
390.736	351.12
390.961	353.12
391.186	358.12
391.411	370.12
391.636	370.12
391.86	364.12
392.085	355.12
392.31	367.12
392.534	369.12
392.759	357.12
392.984	347.12
393.208	358.12
393.433	346.12
393.658	347.12
393.882	357.12
394.107	355.12
394.331	360.12
394.556	348.12
394.78	362.12
395.005	370.12
395.229	362.12
395.454	355.12
395.678	360.12
395.903	372.12
396.127	380.12
396.352	390.12
396.576	376.12
396.801	385.12
397.025	373.12
397.249	363.12
397.474	377.12
397.698	380.12
397.922	397.12
398.147	408.12
398.371	418.12
398.595	382.12
398.82	390.12
399.044	416.12
399.268	435.12
399.492	443.12
399.717	439.12
399.941	474.12
400.165	506.12
400.389	494.12
400.613	474.12
400.837	425.12
401.062	405.12
401.286	417.12
401.51	407.12
401.734	401.12
401.958	399.12
402.182	425.12
402.406	420.12
402.63	421.12
402.854	423.12
403.078	419.12
403.302	434.12
403.526	430.12
403.75	431.12
403.974	427.12
404.198	400.12
404.422	404.12
404.645	439.12
404.869	445.12
405.093	431.12
405.317	458.12
405.541	464.12
405.765	457.12
405.988	437.12
406.212	485.12
406.436	491.12
406.66	474.12
406.883	461.12
407.107	470.12
407.331	510.12
407.555	546.12
407.778	551.12
408.002	521.12
408.226	463.12
408.449	466.12
408.673	476.12
408.896	500.12
409.12	518.12
409.344	472.12
409.567	435.12
409.791	425.12
410.014	453.12
410.238	396.12
410.461	418.12
410.685	421.12
410.908	421.12
411.132	460.12
411.355	483.12
411.578	475.12
411.802	430.12
412.025	419.12
412.249	446.12
412.472	416.12
412.695	438.12
412.919	446.12
413.142	418.12
413.365	422.12
413.589	412.12
413.812	396.12
414.035	413.12
414.258	399.12
414.482	403.12
414.705	398.12
414.928	400.12
415.151	383.12
415.374	392.12
415.597	397.12
415.821	393.12
416.044	394.12
416.267	403.12
416.49	388.12
416.713	381.12
416.936	383.12
417.159	396.12
417.382	409.12
417.605	389.12
417.828	398.12
418.051	428.12
418.274	411.12
418.497	382.12
418.72	405.12
418.943	391.12
419.166	413.12
419.389	416.12
419.611	407.12
419.834	414.12
420.057	426.12
420.28	398.12
420.503	411.12
420.726	427.12
420.948	454.12
421.171	466.12
421.394	475.12
421.617	437.12
421.839	405.12
422.062	417.12
422.285	429.12
422.507	484.12
422.73	525.12
422.953	487.12
423.175	439.12
423.398	451.12
423.621	440.12
423.843	471.12
424.066	450.12
424.288	445.12
424.511	452.12
424.733	495.12
424.956	558.12
425.178	543.12
425.401	534.12
425.623	541.12
425.846	473.12
426.068	464.12
426.291	466.12
426.513	456.12
426.735	467.12
426.958	483.12
427.18	545.12
427.402	636.12
427.625	725.12
427.847	654.12
428.069	556.12
428.292	490.12
428.514	439.12
428.736	448.12
428.958	433.12
429.181	403.12
429.403	407.12
429.625	425.12
429.847	451.12
430.069	501.12
430.292	492.12
430.514	418.12
430.736	418.12
430.958	395.12
431.18	401.12
431.402	406.12
431.624	391.12
431.846	394.12
432.068	403.12
432.29	406.12
432.512	391.12
432.734	412.12
432.956	409.12
433.178	412.12
433.4	392.12
433.622	394.12
433.844	400.12
434.066	403.12
434.287	394.12
434.509	387.12
434.731	424.12
434.953	394.12
435.175	411.12
435.397	450.12
435.618	445.12
435.84	478.12
436.062	543.12
436.284	578.12
436.505	496.12
436.727	477.12
436.949	438.12
437.17	422.12
437.392	400.12
437.614	438.12
437.835	471.12
438.057	551.12
438.278	594.12
438.5	601.12
438.721	636.12
438.943	606.12
439.165	516.12
439.386	462.12
439.608	464.12
439.829	481.12
440.05	482.12
440.272	542.12
440.493	483.12
440.715	448.12
440.936	429.12
441.158	428.12
441.379	428.12
441.6	451.12
441.822	438.12
442.043	513.12
442.264	533.12
442.486	556.12
442.707	487.12
442.928	481.12
443.149	482.12
443.371	495.12
443.592	531.12
443.813	572.12
444.034	620.12
444.255	523.12
444.476	482.12
444.698	470.12
444.919	474.12
445.14	540.12
445.361	502.12
445.582	469.12
445.803	545.12
446.024	627.12
446.245	619.12
446.466	552.12
446.687	495.12
446.908	441.12
447.129	433.12
447.35	423.12
447.571	427.12
447.792	411.12
448.013	411.12
448.234	428.12
448.455	484.12
448.675	563.12
448.896	635.12
449.117	567.12
449.338	549.12
449.559	617.12
449.779	690.12
450	552.12
450.221	470.12
450.442	441.12
450.662	415.12
450.883	421.12
451.104	442.12
451.324	436.12
451.545	409.12
451.766	413.12
451.986	378.12
452.207	362.12
452.428	367.12
452.648	374.12
452.869	383.12
453.089	374.12
453.31	388.12
453.53	379.12
453.751	387.12
453.971	391.12
454.192	424.12
454.412	420.12
454.633	395.12
454.853	369.12
455.073	369.12
455.294	393.12
455.514	462.12
455.734	444.12
455.955	390.12
456.175	366.12
456.395	356.12
456.616	338.12
456.836	352.12
457.056	370.12
457.276	339.12
457.497	372.12
457.717	335.12
457.937	370.12
458.157	380.12
458.377	375.12
458.598	383.12
458.818	453.12
459.038	517.12
459.258	518.12
459.478	441.12
459.698	413.12
459.918	408.12
460.138	408.12
460.358	377.12
460.578	399.12
460.798	413.12
461.018	417.12
461.238	406.12
461.458	403.12
461.678	404.12
461.898	410.12
462.118	382.12
462.338	384.12
462.558	401.12
462.777	394.12
462.997	426.12
463.217	435.12
463.437	437.12
463.657	407.12
463.876	420.12
464.096	408.12
464.316	438.12
464.536	448.12
464.755	429.12
464.975	445.12
465.195	501.12
465.414	554.12
465.634	468.12
465.854	438.12
466.073	422.12
466.293	405.12
466.512	383.12
466.732	395.12
466.951	392.12
467.171	390.12
467.391	382.12
467.61	407.12
467.829	424.12
468.049	392.12
468.268	378.12
468.488	390.12
468.707	373.12
468.927	365.12
469.146	385.12
469.365	385.12
469.585	375.12
469.804	394.12
470.023	406.12
470.243	390.12
470.462	384.12
470.681	418.12
470.901	411.12
471.12	393.12
471.339	391.12
471.558	389.12
471.777	411.12
471.997	400.12
472.216	394.12
472.435	421.12
472.654	407.12
472.873	388.12
473.092	389.12
473.311	394.12
473.53	371.12
473.749	396.12
473.968	430.12
474.187	527.12
474.406	525.12
474.625	419.12
474.844	403.12
475.063	402.12
475.282	372.12
475.501	401.12
475.72	397.12
475.939	397.12
476.158	405.12
476.377	391.12
476.596	379.12
476.814	410.12
477.033	443.12
477.252	420.12
477.471	443.12
477.69	405.12
477.908	410.12
478.127	433.12
478.346	409.12
478.564	417.12
478.783	446.12
479.002	445.12
479.22	436.12
479.439	463.12
479.658	462.12
479.876	484.12
480.095	497.12
480.313	506.12
480.532	483.12
480.751	463.12
480.969	469.12
481.188	497.12
481.406	517.12
481.624	477.12
481.843	479.12
482.061	464.12
482.28	453.12
482.498	457.12
482.717	440.12
482.935	440.12
483.153	464.12
483.372	464.12
483.59	475.12
483.808	459.12
484.027	455.12
484.245	456.12
484.463	471.12
484.681	453.12
484.9	467.12
485.118	474.12
485.336	479.12
485.554	469.12
485.772	470.12
485.99	454.12
486.209	455.12
486.427	468.12
486.645	484.12
486.863	505.12
487.081	498.12
487.299	484.12
487.517	483.12
487.735	488.12
487.953	482.12
488.171	478.12
488.389	488.12
488.607	494.12
488.825	473.12
489.043	478.12
489.261	498.12
489.479	488.12
489.696	483.12
489.914	492.12
490.132	503.12
490.35	507.12
490.568	513.12
490.786	524.12
491.003	537.12
491.221	532.12
491.439	558.12
491.657	563.12
491.874	539.12
492.092	557.12
492.31	575.12
492.527	554.12
492.745	565.12
492.963	553.12
493.18	561.12
493.398	571.12
493.615	579.12
493.833	585.12
494.05	576.12
494.268	592.12
494.485	566.12
494.703	586.12
494.92	549.12
495.138	581.12
495.355	582.12
495.573	606.12
495.79	578.12
496.008	601.12
496.225	610.12
496.442	588.12
496.66	569.12
496.877	571.12
497.094	584.12
497.312	573.12
497.529	596.12
497.746	599.12
497.963	591.12
498.181	611.12
498.398	624.12
498.615	618.12
498.832	646.12
499.049	659.12
499.267	654.12
499.484	665.12
499.701	678.12
499.918	703.12
500.135	724.12
500.352	721.12
500.569	788.12
500.786	777.12
501.003	756.12
501.22	757.12
501.437	741.12
501.654	724.12
501.871	703.12
502.088	695.12
