Data from 1983.PennyLincolnUp.Lamp.En5.5.200Scan.071819.P1_HRD10591_16-53-58-965.txt Node
Date: Thu Jul 18 16:53:58 EDT 2019
User: cochatt
Spectrometer: HR+D1059
Trigger mode: 1
Integration Time (sec): 1.000000E-1
Scans to average: 1
Electric dark correction enabled: true
Nonlinearity correction enabled: false
Boxcar width: 0
XAxis mode: Wavelengths
Number of Pixels in Spectrum: 2048
>>>>>Begin Spectral Data<<<<<
223.165	-18.06
223.4	-18.06
223.635	-18.06
223.869	-8.06
224.104	-36.06
224.338	-5.06
224.573	-19.06
224.808	-7.06
225.042	-23.06
225.277	1.94
225.511	-12.06
225.746	0.94
225.98	9.94
226.215	13.94
226.449	21.94
226.683	29.94
226.918	24.94
227.152	24.94
227.387	37.94
227.621	32.94
227.856	47.94
228.09	49.94
228.324	47.94
228.559	62.94
228.793	63.94
229.027	113.94
229.262	101.94
229.496	117.94
229.73	119.94
229.964	136.94
230.199	117.94
230.433	109.94
230.667	105.94
230.901	99.94
231.136	103.94
231.37	96.94
231.604	97.94
231.838	101.94
232.072	100.94
232.306	112.94
232.541	98.94
232.775	107.94
233.009	99.94
233.243	110.94
233.477	96.94
233.711	111.94
233.945	103.94
234.179	103.94
234.413	103.94
234.647	103.94
234.881	104.94
235.115	117.94
235.349	123.94
235.583	113.94
235.817	111.94
236.051	106.94
236.285	104.94
236.519	113.94
236.753	139.94
236.987	136.94
237.221	162.94
237.455	211.94
237.689	160.94
237.922	118.94
238.156	128.94
238.39	110.94
238.624	115.94
238.858	108.94
239.091	107.94
239.325	114.94
239.559	113.94
239.793	102.94
240.027	121.94
240.26	129.94
240.494	137.94
240.728	137.94
240.961	127.94
241.195	130.94
241.429	127.94
241.662	122.94
241.896	126.94
242.13	117.94
242.363	112.94
242.597	125.94
242.83	130.94
243.064	115.94
243.298	110.94
243.531	118.94
243.765	119.94
243.998	125.94
244.232	118.94
244.465	125.94
244.699	109.94
244.932	136.94
245.166	123.94
245.399	132.94
245.633	140.94
245.866	119.94
246.099	127.94
246.333	146.94
246.566	127.94
246.8	133.94
247.033	129.94
247.266	145.94
247.5	154.94
247.733	148.94
247.966	155.94
248.2	156.94
248.433	154.94
248.666	151.94
248.899	166.94
249.133	177.94
249.366	191.94
249.599	182.94
249.832	175.94
250.066	173.94
250.299	154.94
250.532	159.94
250.765	193.94
250.998	193.94
251.231	202.94
251.465	191.94
251.698	183.94
251.931	166.94
252.164	175.94
252.397	195.94
252.63	179.94
252.863	185.94
253.096	190.94
253.329	205.94
253.562	197.94
253.795	188.94
254.028	211.94
254.261	192.94
254.494	208.94
254.727	223.94
254.96	235.94
255.193	226.94
255.426	215.94
255.659	209.94
255.892	201.94
256.124	205.94
256.357	203.94
256.59	210.94
256.823	201.94
257.056	185.94
257.289	184.94
257.521	192.94
257.754	187.94
257.987	182.94
258.22	198.94
258.452	174.94
258.685	178.94
258.918	197.94
259.151	188.94
259.383	182.94
259.616	193.94
259.849	202.94
260.081	214.94
260.314	219.94
260.547	235.94
260.779	221.94
261.012	204.94
261.244	201.94
261.477	211.94
261.71	210.94
261.942	198.94
262.175	223.94
262.407	208.94
262.64	199.94
262.872	209.94
263.105	194.94
263.337	164.94
263.57	175.94
263.802	191.94
264.035	189.94
264.267	176.94
264.499	179.94
264.732	190.94
264.964	177.94
265.197	191.94
265.429	202.94
265.661	189.94
265.894	183.94
266.126	198.94
266.358	181.94
266.591	196.94
266.823	181.94
267.055	200.94
267.287	200.94
267.52	187.94
267.752	193.94
267.984	197.94
268.216	194.94
268.448	219.94
268.681	225.94
268.913	208.94
269.145	237.94
269.377	233.94
269.609	246.94
269.841	243.94
270.073	224.94
270.306	266.94
270.538	265.94
270.77	280.94
271.002	265.94
271.234	256.94
271.466	267.94
271.698	301.94
271.93	296.94
272.162	286.94
272.394	292.94
272.626	272.94
272.858	266.94
273.09	254.94
273.322	246.94
273.553	239.94
273.785	230.94
274.017	237.94
274.249	237.94
274.481	215.94
274.713	244.94
274.945	240.94
275.176	234.94
275.408	247.94
275.64	239.94
275.872	220.94
276.104	213.94
276.335	225.94
276.567	246.94
276.799	247.94
277.031	270.94
277.262	266.94
277.494	284.94
277.726	257.94
277.957	247.94
278.189	246.94
278.421	218.94
278.652	222.94
278.884	228.94
279.115	235.94
279.347	251.94
279.579	232.94
279.81	235.94
280.042	219.94
280.273	234.94
280.505	243.94
280.736	241.94
280.968	229.94
281.199	244.94
281.431	227.94
281.662	218.94
281.894	229.94
282.125	238.94
282.356	238.94
282.588	267.94
282.819	267.94
283.051	237.94
283.282	257.94
283.513	227.94
283.745	224.94
283.976	233.94
284.207	256.94
284.439	245.94
284.67	253.94
284.901	254.94
285.132	250.94
285.364	247.94
285.595	259.94
285.826	237.94
286.057	254.94
286.288	267.94
286.52	251.94
286.751	232.94
286.982	240.94
287.213	257.94
287.444	254.94
287.675	241.94
287.906	240.94
288.138	259.94
288.369	245.94
288.6	268.94
288.831	249.94
289.062	257.94
289.293	258.94
289.524	254.94
289.755	264.94
289.986	238.94
290.217	271.94
290.448	250.94
290.679	263.94
290.91	251.94
291.141	254.94
291.371	251.94
291.602	242.94
291.833	247.94
292.064	265.94
292.295	254.94
292.526	234.94
292.757	242.94
292.987	245.94
293.218	254.94
293.449	242.94
293.68	256.94
293.91	255.94
294.141	255.94
294.372	241.94
294.603	255.94
294.833	257.94
295.064	263.94
295.295	245.94
295.525	268.94
295.756	251.94
295.987	267.94
296.217	284.94
296.448	282.94
296.679	282.94
296.909	268.94
297.14	250.94
297.37	268.94
297.601	265.94
297.831	285.94
298.062	273.94
298.292	261.94
298.523	266.94
298.753	266.94
298.984	263.94
299.214	276.94
299.445	259.94
299.675	257.94
299.905	280.94
300.136	264.94
300.366	265.94
300.597	271.94
300.827	289.94
301.057	266.94
301.288	281.94
301.518	298.94
301.748	274.94
301.979	282.94
302.209	278.94
302.439	281.94
302.669	264.94
302.9	288.94
303.13	282.94
303.36	290.94
303.59	284.94
303.82	297.94
304.051	306.94
304.281	295.94
304.511	290.94
304.741	280.94
304.971	291.94
305.201	278.94
305.431	291.94
305.661	286.94
305.891	265.94
306.121	283.94
306.352	269.94
306.582	292.94
306.812	283.94
307.042	298.94
307.272	298.94
307.502	298.94
307.731	302.94
307.961	289.94
308.191	288.94
308.421	289.94
308.651	290.94
308.881	295.94
309.111	287.94
309.341	300.94
309.571	322.94
309.8	322.94
310.03	331.94
310.26	337.94
310.49	336.94
310.72	358.94
310.949	367.94
311.179	349.94
311.409	342.94
311.639	353.94
311.868	340.94
312.098	333.94
312.328	347.94
312.557	343.94
312.787	353.94
313.017	362.94
313.246	370.94
313.476	316.94
313.706	327.94
313.935	335.94
314.165	339.94
314.394	347.94
314.624	333.94
314.853	342.94
315.083	338.94
315.312	333.94
315.542	338.94
315.771	324.94
316.001	325.94
316.23	338.94
316.46	338.94
316.689	319.94
316.919	357.94
317.148	341.94
317.377	334.94
317.607	323.94
317.836	327.94
318.065	345.94
318.295	341.94
318.524	326.94
318.753	317.94
318.983	334.94
319.212	329.94
319.441	352.94
319.67	341.94
319.9	347.94
320.129	336.94
320.358	305.94
320.587	338.94
320.816	350.94
321.046	355.94
321.275	359.94
321.504	334.94
321.733	347.94
321.962	375.94
322.191	376.94
322.42	373.94
322.649	399.94
322.878	407.94
323.108	411.94
323.337	455.94
323.566	447.94
323.795	473.94
324.024	533.94
324.253	657.94
324.482	931.94
324.71	1455.94
324.939	1908.94
325.168	1602.94
325.397	865.94
325.626	600.94
325.855	514.94
326.084	463.94
326.313	454.94
326.542	480.94
326.77	524.94
326.999	609.94
327.228	867.94
327.457	1242.94
327.686	1403.94
327.914	963.94
328.143	650.94
328.372	568.94
328.6	523.94
328.829	514.94
329.058	526.94
329.287	542.94
329.515	507.94
329.744	470.94
329.972	446.94
330.201	461.94
330.43	494.94
330.658	541.94
330.887	565.94
331.115	525.94
331.344	447.94
331.572	429.94
331.801	454.94
332.03	431.94
332.258	408.94
332.486	405.94
332.715	391.94
332.943	390.94
333.172	399.94
333.4	405.94
333.629	407.94
333.857	413.94
334.085	409.94
334.314	434.94
334.542	453.94
334.771	438.94
334.999	404.94
335.227	395.94
335.455	394.94
335.684	409.94
335.912	384.94
336.14	389.94
336.369	386.94
336.597	379.94
336.825	396.94
337.053	392.94
337.281	403.94
337.51	377.94
337.738	361.94
337.966	385.94
338.194	376.94
338.422	389.94
338.65	377.94
338.878	371.94
339.106	372.94
339.334	375.94
339.562	367.94
339.79	373.94
340.018	387.94
340.246	378.94
340.474	390.94
340.702	377.94
340.93	358.94
341.158	373.94
341.386	367.94
341.614	386.94
341.842	375.94
342.07	366.94
342.298	374.94
342.526	366.94
342.754	360.94
342.981	362.94
343.209	365.94
343.437	367.94
343.665	361.94
343.893	383.94
344.12	371.94
344.348	369.94
344.576	372.94
344.804	385.94
345.031	401.94
345.259	387.94
345.487	392.94
345.714	391.94
345.942	361.94
346.17	368.94
346.397	359.94
346.625	369.94
346.853	375.94
347.08	373.94
347.308	375.94
347.535	359.94
347.763	377.94
347.99	356.94
348.218	382.94
348.445	372.94
348.673	365.94
348.9	347.94
349.128	360.94
349.355	355.94
349.583	345.94
349.81	365.94
350.037	360.94
350.265	344.94
350.492	348.94
350.72	349.94
350.947	362.94
351.174	354.94
351.402	357.94
351.629	373.94
351.856	367.94
352.083	381.94
352.311	368.94
352.538	396.94
352.765	363.94
352.992	379.94
353.22	358.94
353.447	361.94
353.674	365.94
353.901	346.94
354.128	335.94
354.355	360.94
354.583	327.94
354.81	346.94
355.037	349.94
355.264	321.94
355.491	318.94
355.718	329.94
355.945	339.94
356.172	336.94
356.399	349.94
356.626	330.94
356.853	330.94
357.08	322.94
357.307	346.94
357.534	324.94
357.761	324.94
357.988	332.94
358.215	345.94
358.441	336.94
358.668	333.94
358.895	339.94
359.122	354.94
359.349	342.94
359.576	375.94
359.802	384.94
360.029	403.94
360.256	432.94
360.483	403.94
360.709	374.94
360.936	352.94
361.163	358.94
361.39	377.94
361.616	361.94
361.843	358.94
362.07	359.94
362.296	354.94
362.523	351.94
362.749	358.94
362.976	377.94
363.203	360.94
363.429	340.94
363.656	349.94
363.882	335.94
364.109	334.94
364.335	351.94
364.562	339.94
364.788	336.94
365.015	348.94
365.241	336.94
365.468	334.94
365.694	349.94
365.92	354.94
366.147	346.94
366.373	353.94
366.599	331.94
366.826	351.94
367.052	334.94
367.278	332.94
367.505	337.94
367.731	342.94
367.957	338.94
368.184	354.94
368.41	352.94
368.636	360.94
368.862	371.94
369.089	352.94
369.315	325.94
369.541	336.94
369.767	346.94
369.993	323.94
370.219	347.94
370.445	350.94
370.672	323.94
370.898	327.94
371.124	323.94
371.35	328.94
371.576	327.94
371.802	344.94
372.028	334.94
372.254	336.94
372.48	338.94
372.706	325.94
372.932	345.94
373.158	335.94
373.384	349.94
373.61	322.94
373.835	330.94
374.061	323.94
374.287	324.94
374.513	328.94
374.739	338.94
374.965	345.94
375.191	344.94
375.416	355.94
375.642	340.94
375.868	343.94
376.094	327.94
376.319	330.94
376.545	332.94
376.771	325.94
376.997	321.94
377.222	339.94
377.448	331.94
377.674	330.94
377.899	323.94
378.125	321.94
378.35	332.94
378.576	329.94
378.802	332.94
379.027	321.94
379.253	328.94
379.478	345.94
379.704	318.94
379.929	342.94
380.155	332.94
380.38	344.94
380.606	336.94
380.831	354.94
381.057	334.94
381.282	350.94
381.507	322.94
381.733	346.94
381.958	325.94
382.184	325.94
382.409	355.94
382.634	356.94
382.86	334.94
383.085	329.94
383.31	338.94
383.535	358.94
383.761	343.94
383.986	347.94
384.211	329.94
384.436	339.94
384.662	329.94
384.887	362.94
385.112	345.94
385.337	343.94
385.562	352.94
385.787	369.94
386.013	380.94
386.238	387.94
386.463	373.94
386.688	366.94
386.913	351.94
387.138	356.94
387.363	358.94
387.588	355.94
387.813	349.94
388.038	344.94
388.263	360.94
388.488	351.94
388.713	360.94
388.938	344.94
389.163	377.94
389.387	366.94
389.612	347.94
389.837	345.94
390.062	337.94
390.287	369.94
390.512	346.94
390.736	359.94
390.961	353.94
391.186	356.94
391.411	366.94
391.636	354.94
391.86	369.94
392.085	365.94
392.31	385.94
392.534	376.94
392.759	383.94
392.984	360.94
393.208	335.94
393.433	343.94
393.658	374.94
393.882	354.94
394.107	353.94
394.331	350.94
394.556	354.94
394.78	362.94
395.005	368.94
395.229	373.94
395.454	357.94
395.678	346.94
395.903	376.94
396.127	412.94
396.352	394.94
396.576	357.94
396.801	357.94
397.025	350.94
397.249	377.94
397.474	394.94
397.698	375.94
397.922	386.94
398.147	397.94
398.371	381.94
398.595	399.94
398.82	391.94
399.044	402.94
399.268	411.94
399.492	432.94
399.717	450.94
399.941	471.94
400.165	470.94
400.389	520.94
400.613	453.94
400.837	445.94
401.062	429.94
401.286	411.94
401.51	399.94
401.734	408.94
401.958	409.94
402.182	410.94
402.406	414.94
402.63	438.94
402.854	403.94
403.078	398.94
403.302	439.94
403.526	433.94
403.75	414.94
403.974	415.94
404.198	411.94
404.422	422.94
404.645	413.94
404.869	395.94
405.093	426.94
405.317	470.94
405.541	491.94
405.765	463.94
405.988	440.94
406.212	450.94
406.436	473.94
406.66	465.94
406.883	453.94
407.107	466.94
407.331	499.94
407.555	545.94
407.778	534.94
408.002	511.94
408.226	456.94
408.449	484.94
408.673	438.94
408.896	457.94
409.12	472.94
409.344	484.94
409.567	446.94
409.791	425.94
410.014	429.94
410.238	419.94
410.461	408.94
410.685	426.94
410.908	425.94
411.132	443.94
411.355	464.94
411.578	438.94
411.802	439.94
412.025	417.94
412.249	426.94
412.472	438.94
412.695	456.94
412.919	447.94
413.142	412.94
413.365	401.94
413.589	387.94
413.812	386.94
414.035	391.94
414.258	390.94
414.482	377.94
414.705	404.94
414.928	373.94
415.151	395.94
415.374	383.94
415.597	377.94
415.821	394.94
416.044	407.94
416.267	395.94
416.49	421.94
416.713	388.94
416.936	381.94
417.159	393.94
417.382	390.94
417.605	402.94
417.828	426.94
418.051	435.94
418.274	403.94
418.497	384.94
418.72	397.94
418.943	408.94
419.166	417.94
419.389	445.94
419.611	409.94
419.834	426.94
420.057	421.94
420.28	435.94
420.503	410.94
420.726	423.94
420.948	416.94
421.171	465.94
421.394	460.94
421.617	402.94
421.839	403.94
422.062	406.94
422.285	433.94
422.507	473.94
422.73	510.94
422.953	493.94
423.175	434.94
423.398	423.94
423.621	435.94
423.843	449.94
424.066	459.94
424.288	443.94
424.511	448.94
424.733	481.94
424.956	561.94
425.178	571.94
425.401	519.94
425.623	537.94
425.846	486.94
426.068	461.94
426.291	442.94
426.513	436.94
426.735	442.94
426.958	493.94
427.18	558.94
427.402	634.94
427.625	703.94
427.847	637.94
428.069	550.94
428.292	499.94
428.514	450.94
428.736	445.94
428.958	427.94
429.181	413.94
429.403	417.94
429.625	449.94
429.847	448.94
430.069	503.94
430.292	479.94
430.514	410.94
430.736	404.94
430.958	414.94
431.18	396.94
431.402	387.94
431.624	381.94
431.846	393.94
432.068	394.94
432.29	389.94
432.512	396.94
432.734	416.94
432.956	398.94
433.178	402.94
433.4	408.94
433.622	395.94
433.844	399.94
434.066	394.94
434.287	377.94
434.509	397.94
434.731	387.94
434.953	433.94
435.175	418.94
435.397	451.94
435.618	437.94
435.84	466.94
436.062	570.94
436.284	596.94
436.505	520.94
436.727	471.94
436.949	426.94
437.17	418.94
437.392	418.94
437.614	445.94
437.835	480.94
438.057	530.94
438.278	589.94
438.5	641.94
438.721	633.94
438.943	621.94
439.165	498.94
439.386	465.94
439.608	467.94
439.829	457.94
440.05	482.94
440.272	512.94
440.493	478.94
440.715	450.94
440.936	407.94
441.158	431.94
441.379	417.94
441.6	445.94
441.822	444.94
442.043	482.94
442.264	555.94
442.486	574.94
442.707	482.94
442.928	489.94
443.149	457.94
443.371	471.94
443.592	515.94
443.813	583.94
444.034	613.94
444.255	513.94
444.476	449.94
444.698	463.94
444.919	450.94
445.14	548.94
445.361	531.94
445.582	485.94
445.803	550.94
446.024	610.94
446.245	610.94
446.466	579.94
446.687	465.94
446.908	467.94
447.129	433.94
447.35	414.94
447.571	422.94
447.792	424.94
448.013	435.94
448.234	438.94
448.455	473.94
448.675	551.94
448.896	649.94
449.117	541.94
449.338	511.94
449.559	602.94
449.779	656.94
450	536.94
450.221	462.94
450.442	437.94
450.662	404.94
450.883	431.94
451.104	447.94
451.324	441.94
451.545	406.94
451.766	385.94
451.986	377.94
452.207	390.94
452.428	374.94
452.648	384.94
452.869	401.94
453.089	386.94
453.31	391.94
453.53	393.94
453.751	373.94
453.971	375.94
454.192	393.94
454.412	393.94
454.633	387.94
454.853	388.94
455.073	392.94
455.294	390.94
455.514	441.94
455.734	413.94
455.955	379.94
456.175	363.94
456.395	359.94
456.616	344.94
456.836	347.94
457.056	360.94
457.276	349.94
457.497	348.94
457.717	357.94
457.937	372.94
458.157	368.94
458.377	357.94
458.598	371.94
458.818	438.94
459.038	491.94
459.258	483.94
459.478	425.94
459.698	407.94
459.918	412.94
460.138	401.94
460.358	393.94
460.578	370.94
460.798	388.94
461.018	418.94
461.238	394.94
461.458	404.94
461.678	399.94
461.898	390.94
462.118	393.94
462.338	412.94
462.558	403.94
462.777	413.94
462.997	432.94
463.217	419.94
463.437	430.94
463.657	401.94
463.876	404.94
464.096	423.94
464.316	421.94
464.536	437.94
464.755	408.94
464.975	432.94
465.195	489.94
465.414	538.94
465.634	482.94
465.854	429.94
466.073	395.94
466.293	417.94
466.512	369.94
466.732	387.94
466.951	383.94
467.171	391.94
467.391	392.94
467.61	400.94
467.829	390.94
468.049	375.94
468.268	365.94
468.488	413.94
468.707	363.94
468.927	360.94
469.146	375.94
469.365	394.94
469.585	368.94
469.804	387.94
470.023	387.94
470.243	389.94
470.462	393.94
470.681	407.94
470.901	423.94
471.12	401.94
471.339	392.94
471.558	380.94
471.777	393.94
471.997	391.94
472.216	382.94
472.435	423.94
472.654	400.94
472.873	369.94
473.092	392.94
473.311	371.94
473.53	390.94
473.749	405.94
473.968	431.94
474.187	506.94
474.406	487.94
474.625	434.94
474.844	393.94
475.063	384.94
475.282	388.94
475.501	380.94
475.72	391.94
475.939	417.94
476.158	390.94
476.377	379.94
476.596	408.94
476.814	413.94
477.033	407.94
477.252	414.94
477.471	402.94
477.69	429.94
477.908	435.94
478.127	441.94
478.346	426.94
478.564	438.94
478.783	429.94
479.002	416.94
479.22	419.94
479.439	442.94
479.658	465.94
479.876	476.94
480.095	463.94
480.313	490.94
480.532	486.94
480.751	475.94
480.969	467.94
481.188	497.94
481.406	526.94
481.624	497.94
481.843	443.94
482.061	458.94
482.28	456.94
482.498	441.94
482.717	440.94
482.935	458.94
483.153	470.94
483.372	457.94
483.59	450.94
483.808	446.94
484.027	465.94
484.245	451.94
484.463	458.94
484.681	475.94
484.9	465.94
485.118	459.94
485.336	452.94
485.554	463.94
485.772	463.94
485.99	457.94
486.209	471.94
486.427	478.94
486.645	482.94
486.863	497.94
487.081	483.94
487.299	475.94
487.517	480.94
487.735	464.94
487.953	480.94
488.171	486.94
488.389	500.94
488.607	484.94
488.825	486.94
489.043	488.94
489.261	506.94
489.479	497.94
489.696	495.94
489.914	498.94
490.132	513.94
490.35	496.94
490.568	507.94
490.786	527.94
491.003	527.94
491.221	559.94
491.439	539.94
491.657	550.94
491.874	567.94
492.092	550.94
492.31	561.94
492.527	580.94
492.745	574.94
492.963	567.94
493.18	561.94
493.398	573.94
493.615	585.94
493.833	568.94
494.05	555.94
494.268	566.94
494.485	565.94
494.703	572.94
494.92	564.94
495.138	562.94
495.355	566.94
495.573	578.94
495.79	561.94
496.008	578.94
496.225	587.94
496.442	579.94
496.66	582.94
496.877	579.94
497.094	586.94
497.312	593.94
497.529	577.94
497.746	605.94
497.963	597.94
498.181	610.94
498.398	616.94
498.615	631.94
498.832	635.94
499.049	649.94
499.267	635.94
499.484	669.94
499.701	703.94
499.918	697.94
500.135	724.94
500.352	785.94
500.569	753.94
500.786	762.94
501.003	757.94
501.22	741.94
501.437	711.94
501.654	700.94
501.871	715.94
502.088	687.94
