Data from 1983.PennyLincolnUp.Lamp.En5.5.200Scan.071819.P1_HRD10591_16-53-47-966.txt Node
Date: Thu Jul 18 16:53:47 EDT 2019
User: cochatt
Spectrometer: HR+D1059
Trigger mode: 1
Integration Time (sec): 1.000000E-1
Scans to average: 1
Electric dark correction enabled: true
Nonlinearity correction enabled: false
Boxcar width: 0
XAxis mode: Wavelengths
Number of Pixels in Spectrum: 2048
>>>>>Begin Spectral Data<<<<<
223.165	-1.06
223.4	-1.06
223.635	-1.06
223.869	-20.06
224.104	-15.06
224.338	-23.06
224.573	-26.06
224.808	-7.06
225.042	5.94
225.277	-12.06
225.511	-4.06
225.746	4.94
225.98	-0.06
226.215	10.94
226.449	27.94
226.683	11.94
226.918	11.94
227.152	34.94
227.387	29.94
227.621	26.94
227.856	41.94
228.09	37.94
228.324	58.94
228.559	52.94
228.793	66.94
229.027	92.94
229.262	102.94
229.496	96.94
229.73	116.94
229.964	144.94
230.199	119.94
230.433	122.94
230.667	99.94
230.901	86.94
231.136	112.94
231.37	104.94
231.604	98.94
231.838	107.94
232.072	98.94
232.306	101.94
232.541	102.94
232.775	110.94
233.009	106.94
233.243	111.94
233.477	110.94
233.711	118.94
233.945	115.94
234.179	113.94
234.413	114.94
234.647	116.94
234.881	110.94
235.115	114.94
235.349	115.94
235.583	120.94
235.817	118.94
236.051	119.94
236.285	115.94
236.519	122.94
236.753	114.94
236.987	128.94
237.221	174.94
237.455	207.94
237.689	177.94
237.922	132.94
238.156	117.94
238.39	127.94
238.624	115.94
238.858	114.94
239.091	118.94
239.325	104.94
239.559	124.94
239.793	133.94
240.027	129.94
240.26	134.94
240.494	152.94
240.728	146.94
240.961	141.94
241.195	108.94
241.429	114.94
241.662	122.94
241.896	125.94
242.13	132.94
242.363	121.94
242.597	132.94
242.83	122.94
243.064	131.94
243.298	138.94
243.531	140.94
243.765	126.94
243.998	134.94
244.232	130.94
244.465	131.94
244.699	132.94
244.932	133.94
245.166	130.94
245.399	134.94
245.633	123.94
245.866	135.94
246.099	160.94
246.333	143.94
246.566	152.94
246.8	138.94
247.033	142.94
247.266	138.94
247.5	144.94
247.733	161.94
247.966	176.94
248.2	154.94
248.433	163.94
248.666	162.94
248.899	164.94
249.133	186.94
249.366	185.94
249.599	166.94
249.832	176.94
250.066	159.94
250.299	158.94
250.532	178.94
250.765	183.94
250.998	190.94
251.231	185.94
251.465	176.94
251.698	174.94
251.931	175.94
252.164	174.94
252.397	181.94
252.63	179.94
252.863	204.94
253.096	208.94
253.329	208.94
253.562	214.94
253.795	208.94
254.028	204.94
254.261	201.94
254.494	209.94
254.727	255.94
254.96	253.94
255.193	258.94
255.426	226.94
255.659	195.94
255.892	199.94
256.124	210.94
256.357	203.94
256.59	202.94
256.823	192.94
257.056	196.94
257.289	175.94
257.521	188.94
257.754	184.94
257.987	190.94
258.22	188.94
258.452	181.94
258.685	183.94
258.918	204.94
259.151	196.94
259.383	201.94
259.616	197.94
259.849	209.94
260.081	213.94
260.314	232.94
260.547	238.94
260.779	210.94
261.012	207.94
261.244	209.94
261.477	185.94
261.71	200.94
261.942	192.94
262.175	202.94
262.407	198.94
262.64	210.94
262.872	206.94
263.105	179.94
263.337	190.94
263.57	188.94
263.802	192.94
264.035	185.94
264.267	184.94
264.499	192.94
264.732	187.94
264.964	202.94
265.197	198.94
265.429	178.94
265.661	199.94
265.894	185.94
266.126	206.94
266.358	195.94
266.591	209.94
266.823	191.94
267.055	186.94
267.287	210.94
267.52	218.94
267.752	227.94
267.984	216.94
268.216	210.94
268.448	213.94
268.681	215.94
268.913	225.94
269.145	236.94
269.377	238.94
269.609	231.94
269.841	237.94
270.073	254.94
270.306	278.94
270.538	270.94
270.77	281.94
271.002	266.94
271.234	273.94
271.466	270.94
271.698	302.94
271.93	287.94
272.162	300.94
272.394	295.94
272.626	258.94
272.858	244.94
273.09	254.94
273.322	275.94
273.553	241.94
273.785	219.94
274.017	243.94
274.249	245.94
274.481	251.94
274.713	219.94
274.945	238.94
275.176	237.94
275.408	219.94
275.64	231.94
275.872	222.94
276.104	214.94
276.335	262.94
276.567	245.94
276.799	265.94
277.031	288.94
277.262	299.94
277.494	276.94
277.726	265.94
277.957	265.94
278.189	242.94
278.421	246.94
278.652	228.94
278.884	258.94
279.115	251.94
279.347	251.94
279.579	233.94
279.81	228.94
280.042	248.94
280.273	229.94
280.505	245.94
280.736	248.94
280.968	234.94
281.199	254.94
281.431	248.94
281.662	260.94
281.894	250.94
282.125	230.94
282.356	266.94
282.588	268.94
282.819	280.94
283.051	250.94
283.282	248.94
283.513	247.94
283.745	244.94
283.976	247.94
284.207	244.94
284.439	240.94
284.67	252.94
284.901	265.94
285.132	263.94
285.364	250.94
285.595	247.94
285.826	227.94
286.057	260.94
286.288	233.94
286.52	257.94
286.751	244.94
286.982	264.94
287.213	246.94
287.444	251.94
287.675	266.94
287.906	270.94
288.138	274.94
288.369	270.94
288.6	254.94
288.831	262.94
289.062	246.94
289.293	267.94
289.524	242.94
289.755	268.94
289.986	260.94
290.217	275.94
290.448	262.94
290.679	253.94
290.91	259.94
291.141	271.94
291.371	273.94
291.602	254.94
291.833	260.94
292.064	251.94
292.295	244.94
292.526	270.94
292.757	260.94
292.987	263.94
293.218	247.94
293.449	268.94
293.68	273.94
293.91	260.94
294.141	278.94
294.372	262.94
294.603	272.94
294.833	263.94
295.064	256.94
295.295	258.94
295.525	274.94
295.756	267.94
295.987	273.94
296.217	300.94
296.448	307.94
296.679	276.94
296.909	265.94
297.14	260.94
297.37	256.94
297.601	289.94
297.831	278.94
298.062	276.94
298.292	275.94
298.523	274.94
298.753	250.94
298.984	283.94
299.214	262.94
299.445	265.94
299.675	276.94
299.905	268.94
300.136	281.94
300.366	272.94
300.597	277.94
300.827	291.94
301.057	310.94
301.288	284.94
301.518	274.94
301.748	297.94
301.979	305.94
302.209	304.94
302.439	314.94
302.669	300.94
302.9	306.94
303.13	288.94
303.36	296.94
303.59	292.94
303.82	323.94
304.051	320.94
304.281	290.94
304.511	291.94
304.741	298.94
304.971	276.94
305.201	286.94
305.431	290.94
305.661	290.94
305.891	271.94
306.121	291.94
306.352	300.94
306.582	304.94
306.812	301.94
307.042	289.94
307.272	300.94
307.502	298.94
307.731	312.94
307.961	292.94
308.191	290.94
308.421	282.94
308.651	319.94
308.881	300.94
309.111	290.94
309.341	309.94
309.571	325.94
309.8	327.94
310.03	339.94
310.26	345.94
310.49	352.94
310.72	334.94
310.949	335.94
311.179	344.94
311.409	344.94
311.639	335.94
311.868	344.94
312.098	364.94
312.328	362.94
312.557	369.94
312.787	382.94
313.017	366.94
313.246	354.94
313.476	354.94
313.706	339.94
313.935	346.94
314.165	371.94
314.394	346.94
314.624	353.94
314.853	344.94
315.083	345.94
315.312	354.94
315.542	346.94
315.771	330.94
316.001	339.94
316.23	356.94
316.46	335.94
316.689	350.94
316.919	352.94
317.148	330.94
317.377	361.94
317.607	343.94
317.836	342.94
318.065	353.94
318.295	307.94
318.524	332.94
318.753	335.94
318.983	352.94
319.212	342.94
319.441	359.94
319.67	359.94
319.9	345.94
320.129	356.94
320.358	359.94
320.587	367.94
320.816	348.94
321.046	360.94
321.275	380.94
321.504	382.94
321.733	372.94
321.962	376.94
322.191	391.94
322.42	395.94
322.649	425.94
322.878	412.94
323.108	436.94
323.337	459.94
323.566	479.94
323.795	499.94
324.024	544.94
324.253	682.94
324.482	944.94
324.71	1473.94
324.939	1960.94
325.168	1610.94
325.397	852.94
325.626	585.94
325.855	500.94
326.084	485.94
326.313	470.94
326.542	477.94
326.77	514.94
326.999	631.94
327.228	827.94
327.457	1284.94
327.686	1449.94
327.914	986.94
328.143	653.94
328.372	575.94
328.6	529.94
328.829	518.94
329.058	545.94
329.287	555.94
329.515	472.94
329.744	467.94
329.972	463.94
330.201	453.94
330.43	525.94
330.658	525.94
330.887	553.94
331.115	519.94
331.344	460.94
331.572	441.94
331.801	461.94
332.03	461.94
332.258	435.94
332.486	401.94
332.715	397.94
332.943	419.94
333.172	414.94
333.4	408.94
333.629	433.94
333.857	438.94
334.085	434.94
334.314	428.94
334.542	437.94
334.771	451.94
334.999	438.94
335.227	421.94
335.455	402.94
335.684	388.94
335.912	378.94
336.14	420.94
336.369	404.94
336.597	409.94
336.825	397.94
337.053	408.94
337.281	404.94
337.51	383.94
337.738	401.94
337.966	402.94
338.194	396.94
338.422	395.94
338.65	380.94
338.878	379.94
339.106	375.94
339.334	397.94
339.562	396.94
339.79	380.94
340.018	387.94
340.246	390.94
340.474	385.94
340.702	394.94
340.93	382.94
341.158	380.94
341.386	386.94
341.614	378.94
341.842	388.94
342.07	366.94
342.298	376.94
342.526	357.94
342.754	371.94
342.981	366.94
343.209	366.94
343.437	377.94
343.665	367.94
343.893	373.94
344.12	373.94
344.348	387.94
344.576	372.94
344.804	399.94
345.031	401.94
345.259	405.94
345.487	403.94
345.714	394.94
345.942	370.94
346.17	370.94
346.397	366.94
346.625	369.94
346.853	371.94
347.08	376.94
347.308	367.94
347.535	387.94
347.763	396.94
347.99	402.94
348.218	390.94
348.445	375.94
348.673	382.94
348.9	384.94
349.128	359.94
349.355	361.94
349.583	364.94
349.81	363.94
350.037	358.94
350.265	347.94
350.492	360.94
350.72	353.94
350.947	376.94
351.174	367.94
351.402	387.94
351.629	376.94
351.856	361.94
352.083	381.94
352.311	376.94
352.538	388.94
352.765	390.94
352.992	366.94
353.22	363.94
353.447	378.94
353.674	371.94
353.901	352.94
354.128	346.94
354.355	353.94
354.583	344.94
354.81	353.94
355.037	340.94
355.264	342.94
355.491	355.94
355.718	346.94
355.945	345.94
356.172	344.94
356.399	316.94
356.626	341.94
356.853	357.94
357.08	350.94
357.307	344.94
357.534	330.94
357.761	338.94
357.988	361.94
358.215	331.94
358.441	333.94
358.668	355.94
358.895	354.94
359.122	347.94
359.349	356.94
359.576	356.94
359.802	415.94
360.029	406.94
360.256	437.94
360.483	417.94
360.709	374.94
360.936	362.94
361.163	371.94
361.39	376.94
361.616	373.94
361.843	371.94
362.07	382.94
362.296	380.94
362.523	353.94
362.749	362.94
362.976	372.94
363.203	372.94
363.429	369.94
363.656	350.94
363.882	356.94
364.109	350.94
364.335	342.94
364.562	362.94
364.788	348.94
365.015	361.94
365.241	374.94
365.468	359.94
365.694	359.94
365.92	360.94
366.147	355.94
366.373	358.94
366.599	344.94
366.826	346.94
367.052	342.94
367.278	343.94
367.505	355.94
367.731	343.94
367.957	354.94
368.184	386.94
368.41	388.94
368.636	361.94
368.862	370.94
369.089	362.94
369.315	336.94
369.541	351.94
369.767	348.94
369.993	354.94
370.219	372.94
370.445	347.94
370.672	341.94
370.898	332.94
371.124	352.94
371.35	331.94
371.576	343.94
371.802	336.94
372.028	340.94
372.254	358.94
372.48	330.94
372.706	358.94
372.932	323.94
373.158	354.94
373.384	352.94
373.61	350.94
373.835	324.94
374.061	368.94
374.287	349.94
374.513	350.94
374.739	352.94
374.965	364.94
375.191	342.94
375.416	343.94
375.642	330.94
375.868	337.94
376.094	337.94
376.319	343.94
376.545	345.94
376.771	342.94
376.997	341.94
377.222	327.94
377.448	350.94
377.674	338.94
377.899	343.94
378.125	338.94
378.35	347.94
378.576	320.94
378.802	339.94
379.027	350.94
379.253	343.94
379.478	338.94
379.704	344.94
379.929	347.94
380.155	341.94
380.38	342.94
380.606	363.94
380.831	345.94
381.057	341.94
381.282	352.94
381.507	355.94
381.733	359.94
381.958	333.94
382.184	319.94
382.409	342.94
382.634	347.94
382.86	351.94
383.085	340.94
383.31	330.94
383.535	341.94
383.761	383.94
383.986	370.94
384.211	372.94
384.436	368.94
384.662	356.94
384.887	336.94
385.112	372.94
385.337	369.94
385.562	378.94
385.787	363.94
386.013	376.94
386.238	370.94
386.463	378.94
386.688	383.94
386.913	349.94
387.138	359.94
387.363	376.94
387.588	368.94
387.813	385.94
388.038	371.94
388.263	372.94
388.488	395.94
388.713	372.94
388.938	383.94
389.163	367.94
389.387	380.94
389.612	359.94
389.837	376.94
390.062	371.94
390.287	374.94
390.512	374.94
390.736	367.94
390.961	368.94
391.186	358.94
391.411	380.94
391.636	368.94
391.86	373.94
392.085	382.94
392.31	353.94
392.534	394.94
392.759	376.94
392.984	388.94
393.208	359.94
393.433	367.94
393.658	382.94
393.882	358.94
394.107	343.94
394.331	361.94
394.556	401.94
394.78	370.94
395.005	377.94
395.229	383.94
395.454	368.94
395.678	376.94
395.903	392.94
396.127	410.94
396.352	408.94
396.576	394.94
396.801	388.94
397.025	378.94
397.249	395.94
397.474	374.94
397.698	372.94
397.922	415.94
398.147	428.94
398.371	404.94
398.595	378.94
398.82	413.94
399.044	402.94
399.268	426.94
399.492	454.94
399.717	459.94
399.941	491.94
400.165	502.94
400.389	489.94
400.613	457.94
400.837	442.94
401.062	449.94
401.286	417.94
401.51	422.94
401.734	405.94
401.958	407.94
402.182	416.94
402.406	424.94
402.63	414.94
402.854	417.94
403.078	425.94
403.302	431.94
403.526	435.94
403.75	414.94
403.974	428.94
404.198	434.94
404.422	425.94
404.645	450.94
404.869	459.94
405.093	455.94
405.317	482.94
405.541	481.94
405.765	473.94
405.988	450.94
406.212	450.94
406.436	513.94
406.66	502.94
406.883	492.94
407.107	478.94
407.331	527.94
407.555	583.94
407.778	574.94
408.002	506.94
408.226	475.94
408.449	464.94
408.673	475.94
408.896	512.94
409.12	534.94
409.344	494.94
409.567	453.94
409.791	431.94
410.014	426.94
410.238	426.94
410.461	436.94
410.685	426.94
410.908	439.94
411.132	466.94
411.355	491.94
411.578	491.94
411.802	464.94
412.025	440.94
412.249	434.94
412.472	443.94
412.695	444.94
412.919	451.94
413.142	423.94
413.365	401.94
413.589	424.94
413.812	407.94
414.035	394.94
414.258	413.94
414.482	390.94
414.705	410.94
414.928	389.94
415.151	391.94
415.374	437.94
415.597	415.94
415.821	397.94
416.044	421.94
416.267	417.94
416.49	410.94
416.713	411.94
416.936	371.94
417.159	409.94
417.382	411.94
417.605	423.94
417.828	431.94
418.051	414.94
418.274	418.94
418.497	420.94
418.72	418.94
418.943	422.94
419.166	426.94
419.389	467.94
419.611	412.94
419.834	423.94
420.057	432.94
420.28	425.94
420.503	433.94
420.726	414.94
420.948	419.94
421.171	469.94
421.394	511.94
421.617	457.94
421.839	436.94
422.062	433.94
422.285	423.94
422.507	482.94
422.73	542.94
422.953	527.94
423.175	472.94
423.398	465.94
423.621	463.94
423.843	474.94
424.066	467.94
424.288	473.94
424.511	478.94
424.733	512.94
424.956	553.94
425.178	564.94
425.401	538.94
425.623	581.94
425.846	497.94
426.068	468.94
426.291	452.94
426.513	460.94
426.735	476.94
426.958	523.94
427.18	581.94
427.402	643.94
427.625	728.94
427.847	650.94
428.069	572.94
428.292	500.94
428.514	457.94
428.736	436.94
428.958	415.94
429.181	446.94
429.403	425.94
429.625	434.94
429.847	474.94
430.069	517.94
430.292	514.94
430.514	434.94
430.736	431.94
430.958	426.94
431.18	416.94
431.402	414.94
431.624	396.94
431.846	404.94
432.068	389.94
432.29	400.94
432.512	392.94
432.734	411.94
432.956	408.94
433.178	419.94
433.4	422.94
433.622	416.94
433.844	401.94
434.066	401.94
434.287	407.94
434.509	405.94
434.731	415.94
434.953	418.94
435.175	442.94
435.397	451.94
435.618	466.94
435.84	506.94
436.062	553.94
436.284	596.94
436.505	523.94
436.727	479.94
436.949	420.94
437.17	443.94
437.392	442.94
437.614	437.94
437.835	466.94
438.057	577.94
438.278	623.94
438.5	619.94
438.721	663.94
438.943	630.94
439.165	521.94
439.386	486.94
439.608	488.94
439.829	470.94
440.05	525.94
440.272	537.94
440.493	507.94
440.715	462.94
440.936	435.94
441.158	435.94
441.379	439.94
441.6	441.94
441.822	469.94
442.043	515.94
442.264	589.94
442.486	581.94
442.707	528.94
442.928	478.94
443.149	482.94
443.371	513.94
443.592	542.94
443.813	597.94
444.034	630.94
444.255	534.94
444.476	486.94
444.698	465.94
444.919	448.94
445.14	559.94
445.361	513.94
445.582	513.94
445.803	563.94
446.024	640.94
446.245	610.94
446.466	602.94
446.687	515.94
446.908	489.94
447.129	444.94
447.35	452.94
447.571	439.94
447.792	429.94
448.013	442.94
448.234	444.94
448.455	498.94
448.675	562.94
448.896	650.94
449.117	583.94
449.338	560.94
449.559	618.94
449.779	669.94
450	567.94
450.221	475.94
450.442	451.94
450.662	414.94
450.883	439.94
451.104	460.94
451.324	451.94
451.545	423.94
451.766	387.94
451.986	391.94
452.207	376.94
452.428	384.94
452.648	377.94
452.869	389.94
453.089	418.94
453.31	403.94
453.53	408.94
453.751	377.94
453.971	403.94
454.192	412.94
454.412	401.94
454.633	392.94
454.853	377.94
455.073	407.94
455.294	413.94
455.514	448.94
455.734	430.94
455.955	380.94
456.175	352.94
456.395	351.94
456.616	374.94
456.836	370.94
457.056	367.94
457.276	346.94
457.497	355.94
457.717	365.94
457.937	376.94
458.157	397.94
458.377	396.94
458.598	418.94
458.818	447.94
459.038	525.94
459.258	524.94
459.478	445.94
459.698	415.94
459.918	403.94
460.138	406.94
460.358	386.94
460.578	402.94
460.798	414.94
461.018	420.94
461.238	415.94
461.458	416.94
461.678	400.94
461.898	408.94
462.118	403.94
462.338	425.94
462.558	429.94
462.777	420.94
462.997	423.94
463.217	427.94
463.437	449.94
463.657	419.94
463.876	411.94
464.096	430.94
464.316	434.94
464.536	440.94
464.755	459.94
464.975	434.94
465.195	470.94
465.414	548.94
465.634	502.94
465.854	435.94
466.073	426.94
466.293	407.94
466.512	390.94
466.732	406.94
466.951	399.94
467.171	414.94
467.391	411.94
467.61	401.94
467.829	399.94
468.049	413.94
468.268	387.94
468.488	393.94
468.707	368.94
468.927	402.94
469.146	380.94
469.365	373.94
469.585	387.94
469.804	393.94
470.023	425.94
470.243	415.94
470.462	409.94
470.681	432.94
470.901	406.94
471.12	407.94
471.339	419.94
471.558	397.94
471.777	386.94
471.997	387.94
472.216	392.94
472.435	402.94
472.654	418.94
472.873	404.94
473.092	384.94
473.311	389.94
473.53	407.94
473.749	392.94
473.968	438.94
474.187	528.94
474.406	523.94
474.625	447.94
474.844	414.94
475.063	400.94
475.282	395.94
475.501	412.94
475.72	415.94
475.939	399.94
476.158	426.94
476.377	406.94
476.596	416.94
476.814	411.94
477.033	415.94
477.252	439.94
477.471	437.94
477.69	425.94
477.908	442.94
478.127	447.94
478.346	445.94
478.564	444.94
478.783	428.94
479.002	432.94
479.22	461.94
479.439	467.94
479.658	492.94
479.876	488.94
480.095	494.94
480.313	502.94
480.532	489.94
480.751	490.94
480.969	496.94
481.188	508.94
481.406	530.94
481.624	502.94
481.843	480.94
482.061	465.94
482.28	457.94
482.498	462.94
482.717	456.94
482.935	476.94
483.153	457.94
483.372	472.94
483.59	480.94
483.808	464.94
484.027	460.94
484.245	459.94
484.463	467.94
484.681	458.94
484.9	475.94
485.118	482.94
485.336	474.94
485.554	473.94
485.772	471.94
485.99	504.94
486.209	499.94
486.427	484.94
486.645	480.94
486.863	520.94
487.081	492.94
487.299	505.94
487.517	508.94
487.735	518.94
487.953	491.94
488.171	530.94
488.389	503.94
488.607	499.94
488.825	511.94
489.043	506.94
489.261	502.94
489.479	519.94
489.696	488.94
489.914	507.94
490.132	497.94
490.35	525.94
490.568	534.94
490.786	539.94
491.003	539.94
491.221	560.94
491.439	575.94
491.657	547.94
491.874	580.94
492.092	563.94
492.31	578.94
492.527	596.94
492.745	579.94
492.963	610.94
493.18	570.94
493.398	582.94
493.615	594.94
493.833	599.94
494.05	578.94
494.268	592.94
494.485	600.94
494.703	603.94
494.92	582.94
495.138	599.94
495.355	589.94
495.573	630.94
495.79	587.94
496.008	608.94
496.225	603.94
496.442	602.94
496.66	588.94
496.877	587.94
497.094	597.94
497.312	587.94
497.529	591.94
497.746	615.94
497.963	634.94
498.181	619.94
498.398	632.94
498.615	659.94
498.832	652.94
499.049	647.94
499.267	675.94
499.484	723.94
499.701	710.94
499.918	748.94
500.135	754.94
500.352	772.94
500.569	756.94
500.786	786.94
501.003	777.94
501.22	754.94
501.437	746.94
501.654	754.94
501.871	730.94
502.088	707.94
