Data from 1983.PennyLincolnUp.Lamp.En5.5.200Scan.071819.P1_HRD10591_16-54-12-965.txt Node
Date: Thu Jul 18 16:54:12 EDT 2019
User: cochatt
Spectrometer: HR+D1059
Trigger mode: 1
Integration Time (sec): 1.000000E-1
Scans to average: 1
Electric dark correction enabled: true
Nonlinearity correction enabled: false
Boxcar width: 0
XAxis mode: Wavelengths
Number of Pixels in Spectrum: 2048
>>>>>Begin Spectral Data<<<<<
223.165	-4.38
223.4	-4.38
223.635	-4.38
223.869	-16.38
224.104	-13.38
224.338	-16.38
224.573	-17.38
224.808	-20.38
225.042	13.62
225.277	-12.38
225.511	14.62
225.746	-5.38
225.98	1.62
226.215	15.62
226.449	3.62
226.683	17.62
226.918	13.62
227.152	25.62
227.387	44.62
227.621	37.62
227.856	31.62
228.09	48.62
228.324	55.62
228.559	70.62
228.793	81.62
229.027	79.62
229.262	105.62
229.496	103.62
229.73	137.62
229.964	144.62
230.199	131.62
230.433	122.62
230.667	120.62
230.901	101.62
231.136	99.62
231.37	120.62
231.604	106.62
231.838	114.62
232.072	119.62
232.306	129.62
232.541	104.62
232.775	109.62
233.009	122.62
233.243	129.62
233.477	99.62
233.711	113.62
233.945	103.62
234.179	124.62
234.413	127.62
234.647	123.62
234.881	123.62
235.115	121.62
235.349	105.62
235.583	111.62
235.817	137.62
236.051	120.62
236.285	130.62
236.519	125.62
236.753	133.62
236.987	134.62
237.221	176.62
237.455	215.62
237.689	171.62
237.922	148.62
238.156	128.62
238.39	125.62
238.624	131.62
238.858	119.62
239.091	127.62
239.325	108.62
239.559	124.62
239.793	123.62
240.027	131.62
240.26	132.62
240.494	153.62
240.728	144.62
240.961	139.62
241.195	138.62
241.429	147.62
241.662	130.62
241.896	127.62
242.13	138.62
242.363	131.62
242.597	143.62
242.83	145.62
243.064	141.62
243.298	141.62
243.531	152.62
243.765	125.62
243.998	117.62
244.232	134.62
244.465	132.62
244.699	153.62
244.932	134.62
245.166	135.62
245.399	143.62
245.633	124.62
245.866	129.62
246.099	157.62
246.333	121.62
246.566	143.62
246.8	142.62
247.033	150.62
247.266	157.62
247.5	144.62
247.733	171.62
247.966	163.62
248.2	150.62
248.433	166.62
248.666	161.62
248.899	172.62
249.133	195.62
249.366	183.62
249.599	190.62
249.832	164.62
250.066	165.62
250.299	163.62
250.532	175.62
250.765	192.62
250.998	203.62
251.231	216.62
251.465	213.62
251.698	175.62
251.931	193.62
252.164	178.62
252.397	183.62
252.63	187.62
252.863	185.62
253.096	187.62
253.329	216.62
253.562	206.62
253.795	220.62
254.028	217.62
254.261	209.62
254.494	211.62
254.727	227.62
254.96	247.62
255.193	238.62
255.426	213.62
255.659	218.62
255.892	217.62
256.124	211.62
256.357	222.62
256.59	210.62
256.823	196.62
257.056	199.62
257.289	195.62
257.521	189.62
257.754	209.62
257.987	200.62
258.22	203.62
258.452	182.62
258.685	189.62
258.918	188.62
259.151	202.62
259.383	200.62
259.616	205.62
259.849	204.62
260.081	220.62
260.314	235.62
260.547	237.62
260.779	235.62
261.012	217.62
261.244	197.62
261.477	204.62
261.71	207.62
261.942	227.62
262.175	234.62
262.407	214.62
262.64	191.62
262.872	187.62
263.105	189.62
263.337	202.62
263.57	210.62
263.802	191.62
264.035	201.62
264.267	199.62
264.499	193.62
264.732	198.62
264.964	202.62
265.197	190.62
265.429	209.62
265.661	201.62
265.894	185.62
266.126	203.62
266.358	206.62
266.591	202.62
266.823	217.62
267.055	215.62
267.287	204.62
267.52	192.62
267.752	219.62
267.984	218.62
268.216	207.62
268.448	214.62
268.681	246.62
268.913	219.62
269.145	257.62
269.377	268.62
269.609	248.62
269.841	220.62
270.073	231.62
270.306	249.62
270.538	273.62
270.77	269.62
271.002	276.62
271.234	265.62
271.466	281.62
271.698	280.62
271.93	291.62
272.162	284.62
272.394	282.62
272.626	274.62
272.858	254.62
273.09	260.62
273.322	250.62
273.553	238.62
273.785	238.62
274.017	241.62
274.249	246.62
274.481	266.62
274.713	254.62
274.945	255.62
275.176	242.62
275.408	231.62
275.64	251.62
275.872	253.62
276.104	243.62
276.335	249.62
276.567	261.62
276.799	247.62
277.031	284.62
277.262	274.62
277.494	285.62
277.726	272.62
277.957	269.62
278.189	263.62
278.421	240.62
278.652	218.62
278.884	257.62
279.115	254.62
279.347	251.62
279.579	256.62
279.81	246.62
280.042	224.62
280.273	235.62
280.505	248.62
280.736	231.62
280.968	241.62
281.199	257.62
281.431	249.62
281.662	259.62
281.894	247.62
282.125	252.62
282.356	277.62
282.588	291.62
282.819	280.62
283.051	271.62
283.282	256.62
283.513	253.62
283.745	236.62
283.976	249.62
284.207	263.62
284.439	242.62
284.67	255.62
284.901	252.62
285.132	253.62
285.364	245.62
285.595	263.62
285.826	238.62
286.057	272.62
286.288	246.62
286.52	269.62
286.751	245.62
286.982	263.62
287.213	255.62
287.444	262.62
287.675	276.62
287.906	288.62
288.138	283.62
288.369	296.62
288.6	291.62
288.831	277.62
289.062	292.62
289.293	255.62
289.524	260.62
289.755	273.62
289.986	268.62
290.217	263.62
290.448	270.62
290.679	262.62
290.91	254.62
291.141	263.62
291.371	268.62
291.602	263.62
291.833	270.62
292.064	252.62
292.295	268.62
292.526	271.62
292.757	260.62
292.987	267.62
293.218	261.62
293.449	272.62
293.68	256.62
293.91	253.62
294.141	248.62
294.372	266.62
294.603	259.62
294.833	270.62
295.064	266.62
295.295	280.62
295.525	277.62
295.756	284.62
295.987	267.62
296.217	301.62
296.448	321.62
296.679	293.62
296.909	277.62
297.14	279.62
297.37	287.62
297.601	277.62
297.831	275.62
298.062	274.62
298.292	297.62
298.523	297.62
298.753	286.62
298.984	293.62
299.214	273.62
299.445	274.62
299.675	283.62
299.905	279.62
300.136	282.62
300.366	275.62
300.597	268.62
300.827	279.62
301.057	287.62
301.288	287.62
301.518	285.62
301.748	294.62
301.979	308.62
302.209	306.62
302.439	311.62
302.669	314.62
302.9	303.62
303.13	296.62
303.36	303.62
303.59	315.62
303.82	317.62
304.051	319.62
304.281	320.62
304.511	318.62
304.741	315.62
304.971	297.62
305.201	289.62
305.431	289.62
305.661	275.62
305.891	296.62
306.121	286.62
306.352	317.62
306.582	329.62
306.812	306.62
307.042	305.62
307.272	306.62
307.502	292.62
307.731	310.62
307.961	299.62
308.191	322.62
308.421	309.62
308.651	304.62
308.881	306.62
309.111	331.62
309.341	327.62
309.571	318.62
309.8	329.62
310.03	330.62
310.26	347.62
310.49	341.62
310.72	359.62
310.949	375.62
311.179	378.62
311.409	355.62
311.639	336.62
311.868	328.62
312.098	350.62
312.328	353.62
312.557	378.62
312.787	373.62
313.017	376.62
313.246	360.62
313.476	340.62
313.706	339.62
313.935	371.62
314.165	360.62
314.394	386.62
314.624	374.62
314.853	350.62
315.083	352.62
315.312	337.62
315.542	340.62
315.771	333.62
316.001	360.62
316.23	347.62
316.46	333.62
316.689	354.62
316.919	353.62
317.148	342.62
317.377	368.62
317.607	355.62
317.836	339.62
318.065	343.62
318.295	350.62
318.524	353.62
318.753	337.62
318.983	351.62
319.212	351.62
319.441	376.62
319.67	373.62
319.9	354.62
320.129	345.62
320.358	338.62
320.587	377.62
320.816	354.62
321.046	368.62
321.275	382.62
321.504	356.62
321.733	381.62
321.962	378.62
322.191	390.62
322.42	406.62
322.649	400.62
322.878	414.62
323.108	429.62
323.337	458.62
323.566	471.62
323.795	498.62
324.024	562.62
324.253	709.62
324.482	1006.62
324.71	1493.62
324.939	1993.62
325.168	1659.62
325.397	900.62
325.626	614.62
325.855	504.62
326.084	482.62
326.313	455.62
326.542	470.62
326.77	534.62
326.999	645.62
327.228	889.62
327.457	1341.62
327.686	1491.62
327.914	992.62
328.143	695.62
328.372	597.62
328.6	568.62
328.829	501.62
329.058	545.62
329.287	560.62
329.515	540.62
329.744	482.62
329.972	478.62
330.201	515.62
330.43	514.62
330.658	553.62
330.887	598.62
331.115	549.62
331.344	492.62
331.572	437.62
331.801	445.62
332.03	447.62
332.258	431.62
332.486	414.62
332.715	413.62
332.943	424.62
333.172	404.62
333.4	413.62
333.629	419.62
333.857	459.62
334.085	422.62
334.314	422.62
334.542	464.62
334.771	488.62
334.999	450.62
335.227	427.62
335.455	418.62
335.684	410.62
335.912	424.62
336.14	401.62
336.369	399.62
336.597	410.62
336.825	410.62
337.053	407.62
337.281	396.62
337.51	404.62
337.738	393.62
337.966	395.62
338.194	426.62
338.422	416.62
338.65	389.62
338.878	388.62
339.106	380.62
339.334	397.62
339.562	393.62
339.79	387.62
340.018	391.62
340.246	384.62
340.474	393.62
340.702	400.62
340.93	398.62
341.158	391.62
341.386	397.62
341.614	387.62
341.842	403.62
342.07	385.62
342.298	381.62
342.526	369.62
342.754	366.62
342.981	397.62
343.209	381.62
343.437	381.62
343.665	375.62
343.893	373.62
344.12	390.62
344.348	394.62
344.576	386.62
344.804	398.62
345.031	425.62
345.259	412.62
345.487	400.62
345.714	382.62
345.942	373.62
346.17	366.62
346.397	361.62
346.625	373.62
346.853	369.62
347.08	379.62
347.308	383.62
347.535	391.62
347.763	419.62
347.99	400.62
348.218	408.62
348.445	410.62
348.673	386.62
348.9	365.62
349.128	360.62
349.355	359.62
349.583	358.62
349.81	360.62
350.037	356.62
350.265	378.62
350.492	333.62
350.72	361.62
350.947	376.62
351.174	401.62
351.402	399.62
351.629	399.62
351.856	382.62
352.083	396.62
352.311	399.62
352.538	397.62
352.765	392.62
352.992	395.62
353.22	377.62
353.447	385.62
353.674	375.62
353.901	369.62
354.128	364.62
354.355	361.62
354.583	348.62
354.81	358.62
355.037	339.62
355.264	342.62
355.491	339.62
355.718	352.62
355.945	367.62
356.172	359.62
356.399	328.62
356.626	361.62
356.853	363.62
357.08	358.62
357.307	345.62
357.534	344.62
357.761	339.62
357.988	336.62
358.215	377.62
358.441	345.62
358.668	352.62
358.895	381.62
359.122	374.62
359.349	366.62
359.576	389.62
359.802	412.62
360.029	439.62
360.256	446.62
360.483	419.62
360.709	391.62
360.936	378.62
361.163	378.62
361.39	380.62
361.616	344.62
361.843	369.62
362.07	378.62
362.296	376.62
362.523	368.62
362.749	385.62
362.976	351.62
363.203	358.62
363.429	361.62
363.656	361.62
363.882	358.62
364.109	347.62
364.335	335.62
364.562	354.62
364.788	361.62
365.015	344.62
365.241	361.62
365.468	359.62
365.694	370.62
365.92	350.62
366.147	342.62
366.373	368.62
366.599	359.62
366.826	349.62
367.052	351.62
367.278	352.62
367.505	345.62
367.731	359.62
367.957	374.62
368.184	355.62
368.41	354.62
368.636	366.62
368.862	361.62
369.089	359.62
369.315	361.62
369.541	366.62
369.767	349.62
369.993	361.62
370.219	352.62
370.445	353.62
370.672	350.62
370.898	346.62
371.124	340.62
371.35	362.62
371.576	364.62
371.802	350.62
372.028	353.62
372.254	339.62
372.48	354.62
372.706	357.62
372.932	343.62
373.158	351.62
373.384	367.62
373.61	345.62
373.835	358.62
374.061	351.62
374.287	363.62
374.513	350.62
374.739	343.62
374.965	350.62
375.191	357.62
375.416	357.62
375.642	368.62
375.868	370.62
376.094	364.62
376.319	339.62
376.545	343.62
376.771	354.62
376.997	318.62
377.222	329.62
377.448	338.62
377.674	348.62
377.899	349.62
378.125	363.62
378.35	351.62
378.576	360.62
378.802	347.62
379.027	364.62
379.253	338.62
379.478	341.62
379.704	341.62
379.929	339.62
380.155	325.62
380.38	350.62
380.606	350.62
380.831	340.62
381.057	348.62
381.282	333.62
381.507	336.62
381.733	327.62
381.958	332.62
382.184	329.62
382.409	344.62
382.634	349.62
382.86	349.62
383.085	362.62
383.31	370.62
383.535	361.62
383.761	375.62
383.986	364.62
384.211	373.62
384.436	378.62
384.662	363.62
384.887	357.62
385.112	370.62
385.337	371.62
385.562	383.62
385.787	379.62
386.013	377.62
386.238	369.62
386.463	387.62
386.688	360.62
386.913	361.62
387.138	366.62
387.363	370.62
387.588	367.62
387.813	374.62
388.038	369.62
388.263	356.62
388.488	379.62
388.713	377.62
388.938	357.62
389.163	362.62
389.387	385.62
389.612	399.62
389.837	369.62
390.062	375.62
390.287	383.62
390.512	381.62
390.736	367.62
390.961	375.62
391.186	363.62
391.411	376.62
391.636	345.62
391.86	377.62
392.085	379.62
392.31	385.62
392.534	385.62
392.759	388.62
392.984	377.62
393.208	379.62
393.433	380.62
393.658	365.62
393.882	366.62
394.107	382.62
394.331	366.62
394.556	360.62
394.78	371.62
395.005	378.62
395.229	362.62
395.454	379.62
395.678	387.62
395.903	385.62
396.127	393.62
396.352	421.62
396.576	392.62
396.801	380.62
397.025	377.62
397.249	395.62
397.474	390.62
397.698	381.62
397.922	408.62
398.147	405.62
398.371	421.62
398.595	406.62
398.82	403.62
399.044	411.62
399.268	421.62
399.492	472.62
399.717	473.62
399.941	478.62
400.165	520.62
400.389	515.62
400.613	458.62
400.837	430.62
401.062	422.62
401.286	431.62
401.51	432.62
401.734	419.62
401.958	417.62
402.182	417.62
402.406	433.62
402.63	441.62
402.854	441.62
403.078	421.62
403.302	431.62
403.526	416.62
403.75	422.62
403.974	451.62
404.198	445.62
404.422	429.62
404.645	442.62
404.869	455.62
405.093	462.62
405.317	490.62
405.541	501.62
405.765	485.62
405.988	465.62
406.212	476.62
406.436	498.62
406.66	515.62
406.883	492.62
407.107	493.62
407.331	528.62
407.555	573.62
407.778	554.62
408.002	514.62
408.226	481.62
408.449	490.62
408.673	471.62
408.896	477.62
409.12	494.62
409.344	490.62
409.567	462.62
409.791	446.62
410.014	446.62
410.238	427.62
410.461	441.62
410.685	422.62
410.908	441.62
411.132	484.62
411.355	522.62
411.578	488.62
411.802	448.62
412.025	422.62
412.249	451.62
412.472	442.62
412.695	451.62
412.919	474.62
413.142	418.62
413.365	429.62
413.589	423.62
413.812	417.62
414.035	419.62
414.258	418.62
414.482	407.62
414.705	417.62
414.928	412.62
415.151	402.62
415.374	399.62
415.597	404.62
415.821	415.62
416.044	408.62
416.267	406.62
416.49	413.62
416.713	405.62
416.936	406.62
417.159	406.62
417.382	401.62
417.605	429.62
417.828	421.62
418.051	433.62
418.274	416.62
418.497	410.62
418.72	413.62
418.943	391.62
419.166	412.62
419.389	446.62
419.611	446.62
419.834	414.62
420.057	429.62
420.28	439.62
420.503	423.62
420.726	418.62
420.948	454.62
421.171	479.62
421.394	491.62
421.617	453.62
421.839	434.62
422.062	437.62
422.285	434.62
422.507	479.62
422.73	536.62
422.953	529.62
423.175	453.62
423.398	445.62
423.621	443.62
423.843	464.62
424.066	451.62
424.288	464.62
424.511	494.62
424.733	518.62
424.956	573.62
425.178	576.62
425.401	548.62
425.623	597.62
425.846	486.62
426.068	485.62
426.291	456.62
426.513	470.62
426.735	476.62
426.958	510.62
427.18	561.62
427.402	660.62
427.625	717.62
427.847	661.62
428.069	552.62
428.292	495.62
428.514	453.62
428.736	451.62
428.958	419.62
429.181	445.62
429.403	440.62
429.625	425.62
429.847	454.62
430.069	509.62
430.292	514.62
430.514	442.62
430.736	443.62
430.958	423.62
431.18	393.62
431.402	414.62
431.624	404.62
431.846	419.62
432.068	414.62
432.29	393.62
432.512	404.62
432.734	415.62
432.956	424.62
433.178	423.62
433.4	415.62
433.622	425.62
433.844	415.62
434.066	395.62
434.287	396.62
434.509	439.62
434.731	415.62
434.953	438.62
435.175	435.62
435.397	450.62
435.618	466.62
435.84	522.62
436.062	560.62
436.284	598.62
436.505	521.62
436.727	475.62
436.949	440.62
437.17	441.62
437.392	435.62
437.614	437.62
437.835	482.62
438.057	552.62
438.278	635.62
438.5	627.62
438.721	669.62
438.943	628.62
439.165	514.62
439.386	478.62
439.608	471.62
439.829	490.62
440.05	498.62
440.272	521.62
440.493	493.62
440.715	469.62
440.936	467.62
441.158	449.62
441.379	446.62
441.6	437.62
441.822	459.62
442.043	510.62
442.264	557.62
442.486	561.62
442.707	514.62
442.928	480.62
443.149	487.62
443.371	499.62
443.592	523.62
443.813	613.62
444.034	624.62
444.255	535.62
444.476	485.62
444.698	459.62
444.919	463.62
445.14	551.62
445.361	521.62
445.582	503.62
445.803	568.62
446.024	636.62
446.245	633.62
446.466	585.62
446.687	511.62
446.908	472.62
447.129	451.62
447.35	429.62
447.571	439.62
447.792	433.62
448.013	449.62
448.234	465.62
448.455	524.62
448.675	591.62
448.896	652.62
449.117	555.62
449.338	571.62
449.559	625.62
449.779	672.62
450	548.62
450.221	488.62
450.442	443.62
450.662	435.62
450.883	449.62
451.104	447.62
451.324	453.62
451.545	405.62
451.766	418.62
451.986	413.62
452.207	388.62
452.428	393.62
452.648	399.62
452.869	394.62
453.089	395.62
453.31	412.62
453.53	383.62
453.751	384.62
453.971	391.62
454.192	429.62
454.412	402.62
454.633	407.62
454.853	395.62
455.073	396.62
455.294	419.62
455.514	467.62
455.734	459.62
455.955	397.62
456.175	370.62
456.395	360.62
456.616	362.62
456.836	360.62
457.056	375.62
457.276	367.62
457.497	346.62
457.717	363.62
457.937	366.62
458.157	390.62
458.377	387.62
458.598	416.62
458.818	468.62
459.038	536.62
459.258	521.62
459.478	444.62
459.698	417.62
459.918	405.62
460.138	406.62
460.358	401.62
460.578	399.62
460.798	424.62
461.018	428.62
461.238	410.62
461.458	401.62
461.678	403.62
461.898	405.62
462.118	409.62
462.338	417.62
462.558	419.62
462.777	409.62
462.997	434.62
463.217	439.62
463.437	457.62
463.657	429.62
463.876	424.62
464.096	419.62
464.316	453.62
464.536	447.62
464.755	456.62
464.975	463.62
465.195	496.62
465.414	569.62
465.634	487.62
465.854	426.62
466.073	423.62
466.293	439.62
466.512	408.62
466.732	384.62
466.951	394.62
467.171	404.62
467.391	399.62
467.61	407.62
467.829	389.62
468.049	406.62
468.268	389.62
468.488	387.62
468.707	395.62
468.927	386.62
469.146	377.62
469.365	381.62
469.585	408.62
469.804	392.62
470.023	413.62
470.243	421.62
470.462	401.62
470.681	432.62
470.901	408.62
471.12	423.62
471.339	406.62
471.558	404.62
471.777	411.62
471.997	404.62
472.216	393.62
472.435	441.62
472.654	429.62
472.873	392.62
473.092	388.62
473.311	384.62
473.53	426.62
473.749	423.62
473.968	462.62
474.187	543.62
474.406	537.62
474.625	461.62
474.844	441.62
475.063	425.62
475.282	395.62
475.501	398.62
475.72	419.62
475.939	414.62
476.158	410.62
476.377	421.62
476.596	405.62
476.814	421.62
477.033	445.62
477.252	429.62
477.471	425.62
477.69	433.62
477.908	423.62
478.127	432.62
478.346	440.62
478.564	446.62
478.783	437.62
479.002	451.62
479.22	481.62
479.439	472.62
479.658	481.62
479.876	481.62
480.095	479.62
480.313	506.62
480.532	501.62
480.751	491.62
480.969	487.62
481.188	527.62
481.406	567.62
481.624	497.62
481.843	491.62
482.061	487.62
482.28	465.62
482.498	453.62
482.717	454.62
482.935	463.62
483.153	473.62
483.372	449.62
483.59	459.62
483.808	483.62
484.027	451.62
484.245	467.62
484.463	464.62
484.681	506.62
484.9	447.62
485.118	465.62
485.336	469.62
485.554	485.62
485.772	478.62
485.99	470.62
486.209	483.62
486.427	477.62
486.645	494.62
486.863	513.62
487.081	515.62
487.299	511.62
487.517	491.62
487.735	501.62
487.953	517.62
488.171	508.62
488.389	506.62
488.607	497.62
488.825	491.62
489.043	521.62
489.261	515.62
489.479	505.62
489.696	517.62
489.914	503.62
490.132	508.62
490.35	528.62
490.568	523.62
490.786	542.62
491.003	555.62
491.221	547.62
491.439	583.62
491.657	561.62
491.874	562.62
492.092	597.62
492.31	577.62
492.527	603.62
492.745	587.62
492.963	605.62
493.18	594.62
493.398	573.62
493.615	592.62
493.833	595.62
494.05	605.62
494.268	599.62
494.485	590.62
494.703	597.62
494.92	588.62
495.138	623.62
495.355	599.62
495.573	611.62
495.79	604.62
496.008	602.62
496.225	592.62
496.442	603.62
496.66	618.62
496.877	610.62
497.094	575.62
497.312	597.62
497.529	615.62
497.746	609.62
497.963	610.62
498.181	647.62
498.398	629.62
498.615	668.62
498.832	681.62
499.049	666.62
499.267	683.62
499.484	722.62
499.701	718.62
499.918	727.62
500.135	749.62
500.352	768.62
500.569	764.62
500.786	775.62
501.003	756.62
501.22	762.62
501.437	757.62
501.654	720.62
501.871	752.62
502.088	718.62
