Data from 1983.PennyLincolnUp.Lamp.En5.5.200Scan.071819.P1_HRD10591_16-53-42-966.txt Node
Date: Thu Jul 18 16:53:42 EDT 2019
User: cochatt
Spectrometer: HR+D1059
Trigger mode: 1
Integration Time (sec): 1.000000E-1
Scans to average: 1
Electric dark correction enabled: true
Nonlinearity correction enabled: false
Boxcar width: 0
XAxis mode: Wavelengths
Number of Pixels in Spectrum: 2048
>>>>>Begin Spectral Data<<<<<
223.165	-7.19
223.4	-7.19
223.635	-7.19
223.869	-8.19
224.104	-9.19
224.338	-22.19
224.573	-26.19
224.808	-14.19
225.042	-5.19
225.277	-8.19
225.511	6.81
225.746	-4.19
225.98	5.81
226.215	6.81
226.449	21.81
226.683	13.81
226.918	9.81
227.152	39.81
227.387	34.81
227.621	39.81
227.856	55.81
228.09	47.81
228.324	46.81
228.559	43.81
228.793	64.81
229.027	95.81
229.262	101.81
229.496	97.81
229.73	123.81
229.964	139.81
230.199	121.81
230.433	102.81
230.667	113.81
230.901	111.81
231.136	108.81
231.37	123.81
231.604	112.81
231.838	121.81
232.072	121.81
232.306	106.81
232.541	108.81
232.775	110.81
233.009	113.81
233.243	108.81
233.477	107.81
233.711	104.81
233.945	97.81
234.179	107.81
234.413	118.81
234.647	111.81
234.881	112.81
235.115	121.81
235.349	124.81
235.583	122.81
235.817	116.81
236.051	120.81
236.285	123.81
236.519	116.81
236.753	125.81
236.987	133.81
237.221	166.81
237.455	198.81
237.689	181.81
237.922	126.81
238.156	142.81
238.39	126.81
238.624	125.81
238.858	110.81
239.091	112.81
239.325	128.81
239.559	124.81
239.793	113.81
240.027	118.81
240.26	127.81
240.494	153.81
240.728	120.81
240.961	132.81
241.195	142.81
241.429	131.81
241.662	131.81
241.896	123.81
242.13	131.81
242.363	118.81
242.597	135.81
242.83	130.81
243.064	131.81
243.298	135.81
243.531	129.81
243.765	128.81
243.998	126.81
244.232	127.81
244.465	135.81
244.699	122.81
244.932	129.81
245.166	141.81
245.399	141.81
245.633	125.81
245.866	149.81
246.099	129.81
246.333	137.81
246.566	138.81
246.8	155.81
247.033	144.81
247.266	128.81
247.5	147.81
247.733	161.81
247.966	166.81
248.2	158.81
248.433	158.81
248.666	163.81
248.899	160.81
249.133	176.81
249.366	181.81
249.599	173.81
249.832	169.81
250.066	158.81
250.299	178.81
250.532	174.81
250.765	185.81
250.998	203.81
251.231	197.81
251.465	210.81
251.698	193.81
251.931	187.81
252.164	187.81
252.397	178.81
252.63	205.81
252.863	197.81
253.096	191.81
253.329	206.81
253.562	203.81
253.795	183.81
254.028	201.81
254.261	210.81
254.494	211.81
254.727	227.81
254.96	245.81
255.193	247.81
255.426	221.81
255.659	215.81
255.892	221.81
256.124	211.81
256.357	213.81
256.59	202.81
256.823	196.81
257.056	200.81
257.289	182.81
257.521	191.81
257.754	187.81
257.987	189.81
258.22	194.81
258.452	196.81
258.685	189.81
258.918	186.81
259.151	203.81
259.383	209.81
259.616	202.81
259.849	212.81
260.081	195.81
260.314	232.81
260.547	230.81
260.779	227.81
261.012	222.81
261.244	207.81
261.477	212.81
261.71	199.81
261.942	195.81
262.175	216.81
262.407	220.81
262.64	197.81
262.872	195.81
263.105	202.81
263.337	195.81
263.57	201.81
263.802	202.81
264.035	197.81
264.267	207.81
264.499	215.81
264.732	191.81
264.964	202.81
265.197	206.81
265.429	196.81
265.661	179.81
265.894	192.81
266.126	217.81
266.358	195.81
266.591	214.81
266.823	207.81
267.055	221.81
267.287	204.81
267.52	205.81
267.752	205.81
267.984	213.81
268.216	209.81
268.448	211.81
268.681	220.81
268.913	214.81
269.145	240.81
269.377	233.81
269.609	241.81
269.841	247.81
270.073	273.81
270.306	260.81
270.538	295.81
270.77	298.81
271.002	290.81
271.234	263.81
271.466	283.81
271.698	282.81
271.93	282.81
272.162	292.81
272.394	292.81
272.626	260.81
272.858	265.81
273.09	243.81
273.322	245.81
273.553	246.81
273.785	228.81
274.017	228.81
274.249	245.81
274.481	239.81
274.713	251.81
274.945	259.81
275.176	233.81
275.408	238.81
275.64	239.81
275.872	226.81
276.104	254.81
276.335	250.81
276.567	247.81
276.799	253.81
277.031	296.81
277.262	286.81
277.494	285.81
277.726	274.81
277.957	253.81
278.189	253.81
278.421	248.81
278.652	252.81
278.884	260.81
279.115	255.81
279.347	241.81
279.579	235.81
279.81	239.81
280.042	263.81
280.273	248.81
280.505	259.81
280.736	236.81
280.968	247.81
281.199	251.81
281.431	247.81
281.662	232.81
281.894	231.81
282.125	244.81
282.356	259.81
282.588	295.81
282.819	269.81
283.051	250.81
283.282	235.81
283.513	255.81
283.745	227.81
283.976	250.81
284.207	259.81
284.439	245.81
284.67	265.81
284.901	247.81
285.132	263.81
285.364	262.81
285.595	242.81
285.826	241.81
286.057	254.81
286.288	238.81
286.52	261.81
286.751	273.81
286.982	248.81
287.213	253.81
287.444	259.81
287.675	262.81
287.906	263.81
288.138	276.81
288.369	278.81
288.6	293.81
288.831	252.81
289.062	276.81
289.293	263.81
289.524	266.81
289.755	259.81
289.986	269.81
290.217	276.81
290.448	252.81
290.679	229.81
290.91	251.81
291.141	247.81
291.371	263.81
291.602	260.81
291.833	265.81
292.064	265.81
292.295	252.81
292.526	257.81
292.757	272.81
292.987	259.81
293.218	262.81
293.449	268.81
293.68	260.81
293.91	257.81
294.141	255.81
294.372	254.81
294.603	265.81
294.833	277.81
295.064	270.81
295.295	275.81
295.525	269.81
295.756	261.81
295.987	274.81
296.217	302.81
296.448	309.81
296.679	298.81
296.909	259.81
297.14	278.81
297.37	287.81
297.601	286.81
297.831	278.81
298.062	269.81
298.292	276.81
298.523	272.81
298.753	282.81
298.984	288.81
299.214	279.81
299.445	279.81
299.675	281.81
299.905	309.81
300.136	274.81
300.366	275.81
300.597	277.81
300.827	285.81
301.057	297.81
301.288	297.81
301.518	299.81
301.748	296.81
301.979	295.81
302.209	273.81
302.439	274.81
302.669	287.81
302.9	289.81
303.13	290.81
303.36	293.81
303.59	300.81
303.82	301.81
304.051	315.81
304.281	305.81
304.511	275.81
304.741	273.81
304.971	294.81
305.201	282.81
305.431	307.81
305.661	301.81
305.891	288.81
306.121	299.81
306.352	311.81
306.582	296.81
306.812	309.81
307.042	288.81
307.272	308.81
307.502	304.81
307.731	305.81
307.961	292.81
308.191	298.81
308.421	318.81
308.651	313.81
308.881	318.81
309.111	309.81
309.341	323.81
309.571	324.81
309.8	323.81
310.03	321.81
310.26	338.81
310.49	344.81
310.72	335.81
310.949	361.81
311.179	362.81
311.409	345.81
311.639	345.81
311.868	350.81
312.098	348.81
312.328	353.81
312.557	343.81
312.787	363.81
313.017	372.81
313.246	364.81
313.476	342.81
313.706	340.81
313.935	361.81
314.165	341.81
314.394	357.81
314.624	363.81
314.853	354.81
315.083	332.81
315.312	346.81
315.542	344.81
315.771	341.81
316.001	334.81
316.23	348.81
316.46	318.81
316.689	348.81
316.919	345.81
317.148	350.81
317.377	356.81
317.607	346.81
317.836	341.81
318.065	345.81
318.295	346.81
318.524	336.81
318.753	339.81
318.983	338.81
319.212	342.81
319.441	363.81
319.67	356.81
319.9	358.81
320.129	339.81
320.358	356.81
320.587	353.81
320.816	339.81
321.046	369.81
321.275	372.81
321.504	375.81
321.733	378.81
321.962	351.81
322.191	381.81
322.42	402.81
322.649	394.81
322.878	404.81
323.108	422.81
323.337	452.81
323.566	481.81
323.795	475.81
324.024	552.81
324.253	665.81
324.482	991.81
324.71	1446.81
324.939	1949.81
325.168	1589.81
325.397	868.81
325.626	589.81
325.855	522.81
326.084	475.81
326.313	460.81
326.542	473.81
326.77	511.81
326.999	599.81
327.228	836.81
327.457	1252.81
327.686	1400.81
327.914	971.81
328.143	649.81
328.372	578.81
328.6	538.81
328.829	521.81
329.058	531.81
329.287	543.81
329.515	523.81
329.744	479.81
329.972	444.81
330.201	471.81
330.43	493.81
330.658	513.81
330.887	556.81
331.115	551.81
331.344	460.81
331.572	430.81
331.801	422.81
332.03	439.81
332.258	417.81
332.486	395.81
332.715	394.81
332.943	422.81
333.172	390.81
333.4	400.81
333.629	409.81
333.857	420.81
334.085	420.81
334.314	415.81
334.542	442.81
334.771	428.81
334.999	409.81
335.227	405.81
335.455	388.81
335.684	388.81
335.912	382.81
336.14	412.81
336.369	399.81
336.597	395.81
336.825	400.81
337.053	406.81
337.281	403.81
337.51	395.81
337.738	387.81
337.966	399.81
338.194	399.81
338.422	417.81
338.65	386.81
338.878	405.81
339.106	387.81
339.334	416.81
339.562	384.81
339.79	362.81
340.018	376.81
340.246	373.81
340.474	380.81
340.702	394.81
340.93	379.81
341.158	390.81
341.386	391.81
341.614	383.81
341.842	370.81
342.07	381.81
342.298	366.81
342.526	370.81
342.754	361.81
342.981	389.81
343.209	375.81
343.437	365.81
343.665	365.81
343.893	379.81
344.12	370.81
344.348	389.81
344.576	388.81
344.804	386.81
345.031	398.81
345.259	408.81
345.487	397.81
345.714	365.81
345.942	379.81
346.17	391.81
346.397	379.81
346.625	369.81
346.853	358.81
347.08	373.81
347.308	379.81
347.535	385.81
347.763	383.81
347.99	369.81
348.218	375.81
348.445	387.81
348.673	386.81
348.9	381.81
349.128	364.81
349.355	362.81
349.583	344.81
349.81	354.81
350.037	369.81
350.265	378.81
350.492	371.81
350.72	359.81
350.947	378.81
351.174	387.81
351.402	377.81
351.629	362.81
351.856	374.81
352.083	386.81
352.311	403.81
352.538	400.81
352.765	407.81
352.992	380.81
353.22	366.81
353.447	375.81
353.674	363.81
353.901	354.81
354.128	347.81
354.355	347.81
354.583	352.81
354.81	348.81
355.037	352.81
355.264	345.81
355.491	345.81
355.718	352.81
355.945	335.81
356.172	334.81
356.399	362.81
356.626	350.81
356.853	340.81
357.08	342.81
357.307	348.81
357.534	354.81
357.761	337.81
357.988	346.81
358.215	328.81
358.441	339.81
358.668	339.81
358.895	363.81
359.122	352.81
359.349	353.81
359.576	391.81
359.802	406.81
360.029	421.81
360.256	414.81
360.483	400.81
360.709	378.81
360.936	379.81
361.163	364.81
361.39	388.81
361.616	340.81
361.843	372.81
362.07	348.81
362.296	371.81
362.523	377.81
362.749	354.81
362.976	360.81
363.203	341.81
363.429	333.81
363.656	366.81
363.882	374.81
364.109	353.81
364.335	363.81
364.562	335.81
364.788	357.81
365.015	371.81
365.241	351.81
365.468	345.81
365.694	367.81
365.92	364.81
366.147	351.81
366.373	353.81
366.599	335.81
366.826	339.81
367.052	331.81
367.278	338.81
367.505	349.81
367.731	340.81
367.957	356.81
368.184	348.81
368.41	367.81
368.636	358.81
368.862	367.81
369.089	360.81
369.315	353.81
369.541	354.81
369.767	364.81
369.993	329.81
370.219	352.81
370.445	346.81
370.672	355.81
370.898	341.81
371.124	349.81
371.35	371.81
371.576	347.81
371.802	352.81
372.028	334.81
372.254	361.81
372.48	366.81
372.706	352.81
372.932	338.81
373.158	351.81
373.384	342.81
373.61	346.81
373.835	361.81
374.061	348.81
374.287	372.81
374.513	382.81
374.739	362.81
374.965	353.81
375.191	352.81
375.416	355.81
375.642	347.81
375.868	350.81
376.094	356.81
376.319	336.81
376.545	347.81
376.771	343.81
376.997	350.81
377.222	338.81
377.448	367.81
377.674	340.81
377.899	326.81
378.125	331.81
378.35	344.81
378.576	347.81
378.802	346.81
379.027	365.81
379.253	348.81
379.478	351.81
379.704	337.81
379.929	336.81
380.155	350.81
380.38	343.81
380.606	361.81
380.831	364.81
381.057	345.81
381.282	347.81
381.507	343.81
381.733	348.81
381.958	340.81
382.184	360.81
382.409	369.81
382.634	360.81
382.86	331.81
383.085	353.81
383.31	365.81
383.535	372.81
383.761	356.81
383.986	357.81
384.211	360.81
384.436	361.81
384.662	379.81
384.887	369.81
385.112	376.81
385.337	368.81
385.562	377.81
385.787	372.81
386.013	402.81
386.238	373.81
386.463	383.81
386.688	395.81
386.913	382.81
387.138	371.81
387.363	374.81
387.588	357.81
387.813	377.81
388.038	365.81
388.263	362.81
388.488	381.81
388.713	373.81
388.938	380.81
389.163	362.81
389.387	383.81
389.612	371.81
389.837	356.81
390.062	366.81
390.287	380.81
390.512	379.81
390.736	374.81
390.961	363.81
391.186	365.81
391.411	370.81
391.636	381.81
391.86	363.81
392.085	395.81
392.31	386.81
392.534	373.81
392.759	389.81
392.984	356.81
393.208	371.81
393.433	369.81
393.658	370.81
393.882	385.81
394.107	369.81
394.331	399.81
394.556	371.81
394.78	387.81
395.005	385.81
395.229	367.81
395.454	379.81
395.678	366.81
395.903	403.81
396.127	413.81
396.352	405.81
396.576	381.81
396.801	400.81
397.025	391.81
397.249	402.81
397.474	393.81
397.698	399.81
397.922	411.81
398.147	428.81
398.371	425.81
398.595	419.81
398.82	400.81
399.044	435.81
399.268	436.81
399.492	461.81
399.717	481.81
399.941	494.81
400.165	523.81
400.389	493.81
400.613	477.81
400.837	435.81
401.062	447.81
401.286	429.81
401.51	424.81
401.734	410.81
401.958	422.81
402.182	416.81
402.406	430.81
402.63	422.81
402.854	434.81
403.078	449.81
403.302	445.81
403.526	437.81
403.75	435.81
403.974	426.81
404.198	446.81
404.422	447.81
404.645	428.81
404.869	452.81
405.093	459.81
405.317	490.81
405.541	492.81
405.765	470.81
405.988	445.81
406.212	467.81
406.436	485.81
406.66	501.81
406.883	484.81
407.107	478.81
407.331	532.81
407.555	538.81
407.778	552.81
408.002	541.81
408.226	494.81
408.449	486.81
408.673	472.81
408.896	478.81
409.12	512.81
409.344	495.81
409.567	459.81
409.791	443.81
410.014	436.81
410.238	441.81
410.461	421.81
410.685	450.81
410.908	462.81
411.132	453.81
411.355	491.81
411.578	486.81
411.802	430.81
412.025	430.81
412.249	436.81
412.472	434.81
412.695	469.81
412.919	451.81
413.142	446.81
413.365	439.81
413.589	431.81
413.812	407.81
414.035	408.81
414.258	402.81
414.482	419.81
414.705	395.81
414.928	393.81
415.151	399.81
415.374	424.81
415.597	411.81
415.821	413.81
416.044	420.81
416.267	442.81
416.49	410.81
416.713	402.81
416.936	414.81
417.159	429.81
417.382	401.81
417.605	411.81
417.828	419.81
418.051	435.81
418.274	441.81
418.497	414.81
418.72	422.81
418.943	407.81
419.166	424.81
419.389	435.81
419.611	432.81
419.834	442.81
420.057	431.81
420.28	425.81
420.503	427.81
420.726	422.81
420.948	452.81
421.171	447.81
421.394	488.81
421.617	473.81
421.839	419.81
422.062	414.81
422.285	455.81
422.507	484.81
422.73	535.81
422.953	545.81
423.175	465.81
423.398	450.81
423.621	443.81
423.843	465.81
424.066	465.81
424.288	481.81
424.511	487.81
424.733	506.81
424.956	567.81
425.178	545.81
425.401	552.81
425.623	565.81
425.846	494.81
426.068	469.81
426.291	460.81
426.513	469.81
426.735	466.81
426.958	513.81
427.18	570.81
427.402	668.81
427.625	732.81
427.847	666.81
428.069	570.81
428.292	493.81
428.514	468.81
428.736	458.81
428.958	445.81
429.181	457.81
429.403	418.81
429.625	445.81
429.847	473.81
430.069	521.81
430.292	507.81
430.514	452.81
430.736	437.81
430.958	431.81
431.18	407.81
431.402	433.81
431.624	403.81
431.846	394.81
432.068	408.81
432.29	413.81
432.512	416.81
432.734	405.81
432.956	429.81
433.178	430.81
433.4	438.81
433.622	421.81
433.844	430.81
434.066	391.81
434.287	398.81
434.509	405.81
434.731	411.81
434.953	408.81
435.175	454.81
435.397	465.81
435.618	455.81
435.84	500.81
436.062	563.81
436.284	595.81
436.505	500.81
436.727	473.81
436.949	473.81
437.17	445.81
437.392	431.81
437.614	447.81
437.835	471.81
438.057	565.81
438.278	611.81
438.5	621.81
438.721	675.81
438.943	629.81
439.165	511.81
439.386	478.81
439.608	473.81
439.829	469.81
440.05	493.81
440.272	505.81
440.493	513.81
440.715	465.81
440.936	433.81
441.158	436.81
441.379	438.81
441.6	445.81
441.822	478.81
442.043	498.81
442.264	537.81
442.486	587.81
442.707	526.81
442.928	497.81
443.149	500.81
443.371	486.81
443.592	535.81
443.813	613.81
444.034	631.81
444.255	523.81
444.476	468.81
444.698	463.81
444.919	458.81
445.14	557.81
445.361	523.81
445.582	515.81
445.803	567.81
446.024	617.81
446.245	631.81
446.466	577.81
446.687	495.81
446.908	458.81
447.129	443.81
447.35	447.81
447.571	449.81
447.792	435.81
448.013	436.81
448.234	462.81
448.455	478.81
448.675	578.81
448.896	657.81
449.117	559.81
449.338	523.81
449.559	629.81
449.779	684.81
450	553.81
450.221	476.81
450.442	435.81
450.662	458.81
450.883	438.81
451.104	452.81
451.324	434.81
451.545	418.81
451.766	402.81
451.986	381.81
452.207	371.81
452.428	404.81
452.648	384.81
452.869	412.81
453.089	413.81
453.31	403.81
453.53	407.81
453.751	402.81
453.971	395.81
454.192	421.81
454.412	399.81
454.633	404.81
454.853	385.81
455.073	374.81
455.294	411.81
455.514	445.81
455.734	429.81
455.955	403.81
456.175	387.81
456.395	365.81
456.616	359.81
456.836	365.81
457.056	359.81
457.276	364.81
457.497	380.81
457.717	366.81
457.937	369.81
458.157	348.81
458.377	370.81
458.598	399.81
458.818	459.81
459.038	548.81
459.258	517.81
459.478	457.81
459.698	396.81
459.918	424.81
460.138	422.81
460.358	423.81
460.578	398.81
460.798	402.81
461.018	411.81
461.238	415.81
461.458	400.81
461.678	395.81
461.898	420.81
462.118	406.81
462.338	413.81
462.558	417.81
462.777	433.81
462.997	433.81
463.217	427.81
463.437	441.81
463.657	425.81
463.876	439.81
464.096	441.81
464.316	441.81
464.536	431.81
464.755	442.81
464.975	458.81
465.195	493.81
465.414	565.81
465.634	476.81
465.854	452.81
466.073	424.81
466.293	418.81
466.512	414.81
466.732	377.81
466.951	381.81
467.171	399.81
467.391	395.81
467.61	414.81
467.829	407.81
468.049	421.81
468.268	394.81
468.488	393.81
468.707	408.81
468.927	385.81
469.146	377.81
469.365	380.81
469.585	381.81
469.804	420.81
470.023	411.81
470.243	408.81
470.462	418.81
470.681	429.81
470.901	413.81
471.12	405.81
471.339	400.81
471.558	403.81
471.777	398.81
471.997	377.81
472.216	385.81
472.435	425.81
472.654	382.81
472.873	410.81
473.092	391.81
473.311	385.81
473.53	394.81
473.749	393.81
473.968	452.81
474.187	515.81
474.406	547.81
474.625	452.81
474.844	410.81
475.063	403.81
475.282	400.81
475.501	409.81
475.72	405.81
475.939	406.81
476.158	398.81
476.377	392.81
476.596	416.81
476.814	429.81
477.033	401.81
477.252	442.81
477.471	434.81
477.69	412.81
477.908	430.81
478.127	427.81
478.346	450.81
478.564	449.81
478.783	439.81
479.002	431.81
479.22	469.81
479.439	465.81
479.658	480.81
479.876	471.81
480.095	485.81
480.313	507.81
480.532	492.81
480.751	489.81
480.969	480.81
481.188	517.81
481.406	515.81
481.624	503.81
481.843	500.81
482.061	460.81
482.28	457.81
482.498	450.81
482.717	448.81
482.935	454.81
483.153	464.81
483.372	462.81
483.59	450.81
483.808	460.81
484.027	446.81
484.245	454.81
484.463	470.81
484.681	458.81
484.9	485.81
485.118	463.81
485.336	483.81
485.554	480.81
485.772	464.81
485.99	484.81
486.209	502.81
486.427	484.81
486.645	493.81
486.863	506.81
487.081	508.81
487.299	510.81
487.517	495.81
487.735	478.81
487.953	492.81
488.171	509.81
488.389	502.81
488.607	498.81
488.825	511.81
489.043	510.81
489.261	521.81
489.479	511.81
489.696	506.81
489.914	513.81
490.132	511.81
490.35	546.81
490.568	515.81
490.786	541.81
491.003	547.81
491.221	561.81
491.439	579.81
491.657	564.81
491.874	569.81
492.092	558.81
492.31	579.81
492.527	582.81
492.745	578.81
492.963	582.81
493.18	576.81
493.398	573.81
493.615	580.81
493.833	595.81
494.05	597.81
494.268	603.81
494.485	586.81
494.703	579.81
494.92	590.81
495.138	589.81
495.355	558.81
495.573	579.81
495.79	615.81
496.008	593.81
496.225	588.81
496.442	601.81
496.66	604.81
496.877	612.81
497.094	616.81
497.312	607.81
497.529	600.81
497.746	610.81
497.963	623.81
498.181	657.81
498.398	645.81
498.615	657.81
498.832	637.81
499.049	679.81
499.267	655.81
499.484	674.81
499.701	700.81
499.918	736.81
500.135	743.81
500.352	788.81
500.569	806.81
500.786	809.81
501.003	797.81
501.22	777.81
501.437	737.81
501.654	740.81
501.871	745.81
502.088	702.81
