Data from 1983.PennyLincolnUp.Lamp.En5.5.200Scan.071819.P1_HRD10591_16-54-00-966.txt Node
Date: Thu Jul 18 16:54:00 EDT 2019
User: cochatt
Spectrometer: HR+D1059
Trigger mode: 1
Integration Time (sec): 1.000000E-1
Scans to average: 1
Electric dark correction enabled: true
Nonlinearity correction enabled: false
Boxcar width: 0
XAxis mode: Wavelengths
Number of Pixels in Spectrum: 2048
>>>>>Begin Spectral Data<<<<<
223.165	-14.88
223.4	-14.88
223.635	-14.88
223.869	-16.88
224.104	-32.88
224.338	-7.88
224.573	-5.88
224.808	-13.88
225.042	-1.88
225.277	-8.88
225.511	-9.88
225.746	-0.88
225.98	6.12
226.215	11.12
226.449	20.12
226.683	23.12
226.918	20.12
227.152	33.12
227.387	26.12
227.621	45.12
227.856	43.12
228.09	40.12
228.324	36.12
228.559	62.12
228.793	51.12
229.027	90.12
229.262	111.12
229.496	99.12
229.73	116.12
229.964	150.12
230.199	125.12
230.433	115.12
230.667	106.12
230.901	101.12
231.136	100.12
231.37	126.12
231.604	84.12
231.838	107.12
232.072	119.12
232.306	96.12
232.541	104.12
232.775	100.12
233.009	110.12
233.243	103.12
233.477	114.12
233.711	92.12
233.945	117.12
234.179	110.12
234.413	114.12
234.647	102.12
234.881	111.12
235.115	97.12
235.349	117.12
235.583	110.12
235.817	115.12
236.051	115.12
236.285	111.12
236.519	111.12
236.753	113.12
236.987	135.12
237.221	171.12
237.455	210.12
237.689	162.12
237.922	146.12
238.156	122.12
238.39	100.12
238.624	126.12
238.858	117.12
239.091	110.12
239.325	116.12
239.559	135.12
239.793	116.12
240.027	137.12
240.26	143.12
240.494	126.12
240.728	134.12
240.961	140.12
241.195	123.12
241.429	140.12
241.662	119.12
241.896	129.12
242.13	116.12
242.363	126.12
242.597	122.12
242.83	134.12
243.064	131.12
243.298	125.12
243.531	126.12
243.765	131.12
243.998	114.12
244.232	128.12
244.465	113.12
244.699	134.12
244.932	128.12
245.166	134.12
245.399	132.12
245.633	155.12
245.866	128.12
246.099	130.12
246.333	134.12
246.566	128.12
246.8	132.12
247.033	138.12
247.266	137.12
247.5	150.12
247.733	168.12
247.966	159.12
248.2	161.12
248.433	153.12
248.666	154.12
248.899	171.12
249.133	183.12
249.366	199.12
249.599	192.12
249.832	161.12
250.066	176.12
250.299	166.12
250.532	174.12
250.765	179.12
250.998	194.12
251.231	187.12
251.465	179.12
251.698	172.12
251.931	180.12
252.164	185.12
252.397	188.12
252.63	169.12
252.863	163.12
253.096	184.12
253.329	194.12
253.562	182.12
253.795	188.12
254.028	198.12
254.261	196.12
254.494	222.12
254.727	227.12
254.96	243.12
255.193	231.12
255.426	218.12
255.659	204.12
255.892	209.12
256.124	214.12
256.357	202.12
256.59	196.12
256.823	191.12
257.056	198.12
257.289	191.12
257.521	183.12
257.754	187.12
257.987	184.12
258.22	188.12
258.452	183.12
258.685	190.12
258.918	194.12
259.151	187.12
259.383	184.12
259.616	199.12
259.849	196.12
260.081	205.12
260.314	222.12
260.547	240.12
260.779	228.12
261.012	227.12
261.244	202.12
261.477	206.12
261.71	198.12
261.942	198.12
262.175	226.12
262.407	209.12
262.64	192.12
262.872	199.12
263.105	191.12
263.337	211.12
263.57	184.12
263.802	184.12
264.035	187.12
264.267	200.12
264.499	182.12
264.732	188.12
264.964	186.12
265.197	195.12
265.429	174.12
265.661	188.12
265.894	208.12
266.126	199.12
266.358	200.12
266.591	194.12
266.823	193.12
267.055	202.12
267.287	201.12
267.52	199.12
267.752	217.12
267.984	202.12
268.216	191.12
268.448	206.12
268.681	208.12
268.913	225.12
269.145	234.12
269.377	238.12
269.609	249.12
269.841	235.12
270.073	246.12
270.306	266.12
270.538	263.12
270.77	278.12
271.002	264.12
271.234	276.12
271.466	255.12
271.698	265.12
271.93	275.12
272.162	297.12
272.394	277.12
272.626	271.12
272.858	259.12
273.09	250.12
273.322	238.12
273.553	241.12
273.785	216.12
274.017	227.12
274.249	232.12
274.481	226.12
274.713	247.12
274.945	244.12
275.176	238.12
275.408	252.12
275.64	227.12
275.872	226.12
276.104	225.12
276.335	223.12
276.567	241.12
276.799	262.12
277.031	270.12
277.262	296.12
277.494	281.12
277.726	266.12
277.957	243.12
278.189	240.12
278.421	239.12
278.652	226.12
278.884	234.12
279.115	224.12
279.347	237.12
279.579	229.12
279.81	236.12
280.042	240.12
280.273	230.12
280.505	244.12
280.736	242.12
280.968	228.12
281.199	236.12
281.431	247.12
281.662	226.12
281.894	241.12
282.125	250.12
282.356	253.12
282.588	253.12
282.819	262.12
283.051	229.12
283.282	214.12
283.513	227.12
283.745	254.12
283.976	247.12
284.207	225.12
284.439	240.12
284.67	249.12
284.901	251.12
285.132	241.12
285.364	256.12
285.595	238.12
285.826	242.12
286.057	252.12
286.288	262.12
286.52	249.12
286.751	227.12
286.982	240.12
287.213	234.12
287.444	252.12
287.675	268.12
287.906	268.12
288.138	264.12
288.369	267.12
288.6	275.12
288.831	257.12
289.062	274.12
289.293	262.12
289.524	247.12
289.755	238.12
289.986	255.12
290.217	258.12
290.448	246.12
290.679	258.12
290.91	264.12
291.141	259.12
291.371	246.12
291.602	250.12
291.833	242.12
292.064	250.12
292.295	254.12
292.526	263.12
292.757	238.12
292.987	248.12
293.218	246.12
293.449	254.12
293.68	264.12
293.91	257.12
294.141	248.12
294.372	257.12
294.603	258.12
294.833	236.12
295.064	262.12
295.295	249.12
295.525	259.12
295.756	268.12
295.987	271.12
296.217	289.12
296.448	308.12
296.679	268.12
296.909	252.12
297.14	256.12
297.37	264.12
297.601	242.12
297.831	251.12
298.062	287.12
298.292	268.12
298.523	259.12
298.753	269.12
298.984	269.12
299.214	275.12
299.445	269.12
299.675	264.12
299.905	284.12
300.136	275.12
300.366	260.12
300.597	274.12
300.827	274.12
301.057	281.12
301.288	278.12
301.518	280.12
301.748	290.12
301.979	291.12
302.209	272.12
302.439	303.12
302.669	282.12
302.9	278.12
303.13	274.12
303.36	284.12
303.59	293.12
303.82	294.12
304.051	307.12
304.281	282.12
304.511	297.12
304.741	278.12
304.971	289.12
305.201	275.12
305.431	298.12
305.661	294.12
305.891	282.12
306.121	297.12
306.352	299.12
306.582	302.12
306.812	286.12
307.042	284.12
307.272	302.12
307.502	293.12
307.731	302.12
307.961	297.12
308.191	283.12
308.421	286.12
308.651	280.12
308.881	305.12
309.111	328.12
309.341	287.12
309.571	304.12
309.8	318.12
310.03	321.12
310.26	328.12
310.49	336.12
310.72	340.12
310.949	367.12
311.179	357.12
311.409	345.12
311.639	325.12
311.868	352.12
312.098	336.12
312.328	347.12
312.557	371.12
312.787	375.12
313.017	387.12
313.246	348.12
313.476	337.12
313.706	330.12
313.935	354.12
314.165	363.12
314.394	374.12
314.624	359.12
314.853	346.12
315.083	332.12
315.312	343.12
315.542	352.12
315.771	339.12
316.001	329.12
316.23	322.12
316.46	329.12
316.689	323.12
316.919	339.12
317.148	343.12
317.377	339.12
317.607	342.12
317.836	338.12
318.065	345.12
318.295	315.12
318.524	323.12
318.753	324.12
318.983	338.12
319.212	336.12
319.441	355.12
319.67	340.12
319.9	319.12
320.129	338.12
320.358	333.12
320.587	338.12
320.816	350.12
321.046	358.12
321.275	345.12
321.504	349.12
321.733	375.12
321.962	358.12
322.191	380.12
322.42	393.12
322.649	400.12
322.878	400.12
323.108	447.12
323.337	444.12
323.566	442.12
323.795	496.12
324.024	530.12
324.253	668.12
324.482	976.12
324.71	1474.12
324.939	1997.12
325.168	1683.12
325.397	896.12
325.626	592.12
325.855	510.12
326.084	487.12
326.313	462.12
326.542	474.12
326.77	528.12
326.999	599.12
327.228	839.12
327.457	1273.12
327.686	1448.12
327.914	998.12
328.143	680.12
328.372	572.12
328.6	566.12
328.829	516.12
329.058	506.12
329.287	551.12
329.515	503.12
329.744	470.12
329.972	467.12
330.201	465.12
330.43	492.12
330.658	522.12
330.887	563.12
331.115	543.12
331.344	462.12
331.572	445.12
331.801	444.12
332.03	439.12
332.258	424.12
332.486	398.12
332.715	392.12
332.943	401.12
333.172	396.12
333.4	388.12
333.629	396.12
333.857	420.12
334.085	414.12
334.314	417.12
334.542	439.12
334.771	451.12
334.999	444.12
335.227	392.12
335.455	411.12
335.684	394.12
335.912	384.12
336.14	378.12
336.369	380.12
336.597	388.12
336.825	381.12
337.053	392.12
337.281	386.12
337.51	395.12
337.738	380.12
337.966	395.12
338.194	401.12
338.422	388.12
338.65	401.12
338.878	380.12
339.106	371.12
339.334	374.12
339.562	373.12
339.79	365.12
340.018	371.12
340.246	371.12
340.474	378.12
340.702	401.12
340.93	391.12
341.158	360.12
341.386	382.12
341.614	368.12
341.842	374.12
342.07	366.12
342.298	379.12
342.526	366.12
342.754	352.12
342.981	357.12
343.209	366.12
343.437	380.12
343.665	368.12
343.893	358.12
344.12	372.12
344.348	372.12
344.576	385.12
344.804	383.12
345.031	409.12
345.259	404.12
345.487	388.12
345.714	395.12
345.942	367.12
346.17	372.12
346.397	358.12
346.625	372.12
346.853	352.12
347.08	354.12
347.308	363.12
347.535	380.12
347.763	375.12
347.99	382.12
348.218	379.12
348.445	395.12
348.673	376.12
348.9	367.12
349.128	361.12
349.355	349.12
349.583	344.12
349.81	352.12
350.037	368.12
350.265	352.12
350.492	354.12
350.72	343.12
350.947	360.12
351.174	379.12
351.402	366.12
351.629	371.12
351.856	380.12
352.083	376.12
352.311	398.12
352.538	376.12
352.765	394.12
352.992	376.12
353.22	372.12
353.447	357.12
353.674	372.12
353.901	339.12
354.128	337.12
354.355	347.12
354.583	329.12
354.81	356.12
355.037	352.12
355.264	337.12
355.491	321.12
355.718	328.12
355.945	345.12
356.172	334.12
356.399	334.12
356.626	336.12
356.853	339.12
357.08	324.12
357.307	346.12
357.534	338.12
357.761	327.12
357.988	345.12
358.215	349.12
358.441	346.12
358.668	339.12
358.895	349.12
359.122	357.12
359.349	366.12
359.576	358.12
359.802	386.12
360.029	414.12
360.256	422.12
360.483	388.12
360.709	385.12
360.936	350.12
361.163	370.12
361.39	358.12
361.616	382.12
361.843	374.12
362.07	355.12
362.296	362.12
362.523	353.12
362.749	356.12
362.976	369.12
363.203	359.12
363.429	348.12
363.656	341.12
363.882	373.12
364.109	374.12
364.335	352.12
364.562	340.12
364.788	322.12
365.015	347.12
365.241	356.12
365.468	354.12
365.694	353.12
365.92	341.12
366.147	353.12
366.373	326.12
366.599	337.12
366.826	324.12
367.052	325.12
367.278	342.12
367.505	333.12
367.731	340.12
367.957	333.12
368.184	328.12
368.41	356.12
368.636	346.12
368.862	362.12
369.089	341.12
369.315	339.12
369.541	341.12
369.767	345.12
369.993	344.12
370.219	338.12
370.445	366.12
370.672	343.12
370.898	325.12
371.124	341.12
371.35	332.12
371.576	326.12
371.802	332.12
372.028	339.12
372.254	328.12
372.48	312.12
372.706	359.12
372.932	319.12
373.158	347.12
373.384	347.12
373.61	335.12
373.835	342.12
374.061	358.12
374.287	338.12
374.513	333.12
374.739	348.12
374.965	336.12
375.191	338.12
375.416	349.12
375.642	337.12
375.868	342.12
376.094	333.12
376.319	320.12
376.545	335.12
376.771	330.12
376.997	361.12
377.222	334.12
377.448	343.12
377.674	326.12
377.899	320.12
378.125	338.12
378.35	331.12
378.576	315.12
378.802	322.12
379.027	328.12
379.253	327.12
379.478	317.12
379.704	339.12
379.929	332.12
380.155	320.12
380.38	345.12
380.606	341.12
380.831	339.12
381.057	351.12
381.282	342.12
381.507	341.12
381.733	326.12
381.958	341.12
382.184	336.12
382.409	326.12
382.634	326.12
382.86	327.12
383.085	342.12
383.31	348.12
383.535	347.12
383.761	340.12
383.986	346.12
384.211	337.12
384.436	352.12
384.662	331.12
384.887	333.12
385.112	328.12
385.337	359.12
385.562	348.12
385.787	354.12
386.013	375.12
386.238	368.12
386.463	360.12
386.688	345.12
386.913	350.12
387.138	371.12
387.363	357.12
387.588	366.12
387.813	356.12
388.038	366.12
388.263	356.12
388.488	354.12
388.713	353.12
388.938	372.12
389.163	356.12
389.387	353.12
389.612	341.12
389.837	351.12
390.062	352.12
390.287	353.12
390.512	341.12
390.736	352.12
390.961	360.12
391.186	366.12
391.411	350.12
391.636	368.12
391.86	368.12
392.085	386.12
392.31	353.12
392.534	332.12
392.759	356.12
392.984	356.12
393.208	358.12
393.433	374.12
393.658	364.12
393.882	360.12
394.107	351.12
394.331	372.12
394.556	347.12
394.78	378.12
395.005	358.12
395.229	369.12
395.454	352.12
395.678	355.12
395.903	395.12
396.127	382.12
396.352	406.12
396.576	379.12
396.801	384.12
397.025	375.12
397.249	374.12
397.474	392.12
397.698	398.12
397.922	402.12
398.147	388.12
398.371	403.12
398.595	398.12
398.82	411.12
399.044	428.12
399.268	386.12
399.492	426.12
399.717	452.12
399.941	455.12
400.165	469.12
400.389	499.12
400.613	457.12
400.837	438.12
401.062	411.12
401.286	417.12
401.51	422.12
401.734	391.12
401.958	404.12
402.182	423.12
402.406	432.12
402.63	421.12
402.854	408.12
403.078	425.12
403.302	441.12
403.526	438.12
403.75	433.12
403.974	410.12
404.198	420.12
404.422	404.12
404.645	419.12
404.869	438.12
405.093	426.12
405.317	480.12
405.541	508.12
405.765	453.12
405.988	443.12
406.212	475.12
406.436	475.12
406.66	483.12
406.883	460.12
407.107	494.12
407.331	498.12
407.555	566.12
407.778	526.12
408.002	483.12
408.226	465.12
408.449	448.12
408.673	457.12
408.896	469.12
409.12	488.12
409.344	475.12
409.567	428.12
409.791	428.12
410.014	421.12
410.238	421.12
410.461	423.12
410.685	431.12
410.908	438.12
411.132	458.12
411.355	479.12
411.578	452.12
411.802	410.12
412.025	415.12
412.249	409.12
412.472	428.12
412.695	452.12
412.919	450.12
413.142	423.12
413.365	417.12
413.589	376.12
413.812	386.12
414.035	396.12
414.258	394.12
414.482	393.12
414.705	405.12
414.928	397.12
415.151	404.12
415.374	396.12
415.597	398.12
415.821	398.12
416.044	399.12
416.267	379.12
416.49	388.12
416.713	386.12
416.936	381.12
417.159	401.12
417.382	384.12
417.605	410.12
417.828	426.12
418.051	406.12
418.274	415.12
418.497	418.12
418.72	389.12
418.943	403.12
419.166	404.12
419.389	430.12
419.611	427.12
419.834	415.12
420.057	414.12
420.28	411.12
420.503	394.12
420.726	411.12
420.948	418.12
421.171	443.12
421.394	475.12
421.617	418.12
421.839	428.12
422.062	428.12
422.285	425.12
422.507	449.12
422.73	500.12
422.953	495.12
423.175	456.12
423.398	440.12
423.621	459.12
423.843	452.12
424.066	451.12
424.288	449.12
424.511	467.12
424.733	494.12
424.956	551.12
425.178	539.12
425.401	535.12
425.623	529.12
425.846	472.12
426.068	456.12
426.291	460.12
426.513	432.12
426.735	478.12
426.958	510.12
427.18	554.12
427.402	646.12
427.625	688.12
427.847	640.12
428.069	534.12
428.292	463.12
428.514	446.12
428.736	444.12
428.958	414.12
429.181	416.12
429.403	421.12
429.625	404.12
429.847	442.12
430.069	510.12
430.292	501.12
430.514	434.12
430.736	413.12
430.958	422.12
431.18	403.12
431.402	397.12
431.624	384.12
431.846	400.12
432.068	396.12
432.29	401.12
432.512	386.12
432.734	394.12
432.956	381.12
433.178	422.12
433.4	425.12
433.622	413.12
433.844	394.12
434.066	387.12
434.287	380.12
434.509	398.12
434.731	406.12
434.953	405.12
435.175	405.12
435.397	437.12
435.618	436.12
435.84	474.12
436.062	559.12
436.284	574.12
436.505	519.12
436.727	469.12
436.949	440.12
437.17	411.12
437.392	415.12
437.614	435.12
437.835	450.12
438.057	537.12
438.278	601.12
438.5	609.12
438.721	658.12
438.943	619.12
439.165	514.12
439.386	463.12
439.608	488.12
439.829	460.12
440.05	488.12
440.272	519.12
440.493	477.12
440.715	460.12
440.936	428.12
441.158	439.12
441.379	412.12
441.6	419.12
441.822	458.12
442.043	467.12
442.264	554.12
442.486	579.12
442.707	487.12
442.928	447.12
443.149	461.12
443.371	500.12
443.592	518.12
443.813	576.12
444.034	599.12
444.255	527.12
444.476	485.12
444.698	467.12
444.919	432.12
445.14	540.12
445.361	516.12
445.582	498.12
445.803	552.12
446.024	637.12
446.245	608.12
446.466	566.12
446.687	459.12
446.908	456.12
447.129	445.12
447.35	427.12
447.571	436.12
447.792	421.12
448.013	430.12
448.234	453.12
448.455	475.12
448.675	549.12
448.896	634.12
449.117	564.12
449.338	517.12
449.559	619.12
449.779	648.12
450	534.12
450.221	468.12
450.442	437.12
450.662	405.12
450.883	450.12
451.104	429.12
451.324	454.12
451.545	407.12
451.766	397.12
451.986	386.12
452.207	389.12
452.428	374.12
452.648	376.12
452.869	386.12
453.089	392.12
453.31	402.12
453.53	377.12
453.751	362.12
453.971	418.12
454.192	411.12
454.412	392.12
454.633	398.12
454.853	388.12
455.073	382.12
455.294	402.12
455.514	442.12
455.734	462.12
455.955	379.12
456.175	370.12
456.395	367.12
456.616	347.12
456.836	382.12
457.056	354.12
457.276	336.12
457.497	350.12
457.717	360.12
457.937	352.12
458.157	372.12
458.377	386.12
458.598	397.12
458.818	432.12
459.038	535.12
459.258	516.12
459.478	422.12
459.698	424.12
459.918	387.12
460.138	387.12
460.358	388.12
460.578	380.12
460.798	410.12
461.018	392.12
461.238	401.12
461.458	417.12
461.678	387.12
461.898	391.12
462.118	401.12
462.338	405.12
462.558	416.12
462.777	428.12
462.997	420.12
463.217	417.12
463.437	426.12
463.657	419.12
463.876	423.12
464.096	428.12
464.316	409.12
464.536	436.12
464.755	432.12
464.975	414.12
465.195	474.12
465.414	538.12
465.634	474.12
465.854	455.12
466.073	410.12
466.293	387.12
466.512	412.12
466.732	392.12
466.951	395.12
467.171	395.12
467.391	381.12
467.61	411.12
467.829	412.12
468.049	395.12
468.268	383.12
468.488	396.12
468.707	380.12
468.927	386.12
469.146	372.12
469.365	379.12
469.585	336.12
469.804	390.12
470.023	394.12
470.243	411.12
470.462	419.12
470.681	401.12
470.901	411.12
471.12	386.12
471.339	380.12
471.558	390.12
471.777	388.12
471.997	378.12
472.216	392.12
472.435	410.12
472.654	396.12
472.873	377.12
473.092	369.12
473.311	378.12
473.53	387.12
473.749	419.12
473.968	420.12
474.187	523.12
474.406	518.12
474.625	462.12
474.844	404.12
475.063	419.12
475.282	378.12
475.501	409.12
475.72	411.12
475.939	378.12
476.158	395.12
476.377	406.12
476.596	415.12
476.814	421.12
477.033	411.12
477.252	415.12
477.471	417.12
477.69	443.12
477.908	438.12
478.127	415.12
478.346	423.12
478.564	427.12
478.783	440.12
479.002	424.12
479.22	446.12
479.439	463.12
479.658	456.12
479.876	482.12
480.095	469.12
480.313	502.12
480.532	497.12
480.751	485.12
480.969	500.12
481.188	507.12
481.406	552.12
481.624	492.12
481.843	466.12
482.061	481.12
482.28	460.12
482.498	467.12
482.717	448.12
482.935	467.12
483.153	434.12
483.372	474.12
483.59	443.12
483.808	438.12
484.027	473.12
484.245	473.12
484.463	466.12
484.681	479.12
484.9	475.12
485.118	463.12
485.336	474.12
485.554	469.12
485.772	460.12
485.99	458.12
486.209	477.12
486.427	487.12
486.645	504.12
486.863	512.12
487.081	496.12
487.299	520.12
487.517	488.12
487.735	509.12
487.953	483.12
488.171	500.12
488.389	489.12
488.607	503.12
488.825	489.12
489.043	482.12
489.261	518.12
489.479	466.12
489.696	500.12
489.914	513.12
490.132	518.12
490.35	508.12
490.568	508.12
490.786	504.12
491.003	538.12
491.221	539.12
491.439	563.12
491.657	579.12
491.874	543.12
492.092	551.12
492.31	570.12
492.527	561.12
492.745	575.12
492.963	561.12
493.18	571.12
493.398	583.12
493.615	584.12
493.833	554.12
494.05	571.12
494.268	568.12
494.485	564.12
494.703	588.12
494.92	569.12
495.138	579.12
495.355	596.12
495.573	584.12
495.79	582.12
496.008	584.12
496.225	585.12
496.442	586.12
496.66	579.12
496.877	597.12
497.094	596.12
497.312	591.12
497.529	602.12
497.746	606.12
497.963	608.12
498.181	612.12
498.398	621.12
498.615	636.12
498.832	613.12
499.049	640.12
499.267	657.12
499.484	673.12
499.701	699.12
499.918	678.12
500.135	725.12
500.352	758.12
500.569	743.12
500.786	755.12
501.003	750.12
501.22	734.12
501.437	730.12
501.654	722.12
501.871	730.12
502.088	691.12
