Data from 1983.PennyLincolnUp.Lamp.En5.5.200Scan.071819.P1_HRD10591_16-53-44-965.txt Node
Date: Thu Jul 18 16:53:44 EDT 2019
User: cochatt
Spectrometer: HR+D1059
Trigger mode: 1
Integration Time (sec): 1.000000E-1
Scans to average: 1
Electric dark correction enabled: true
Nonlinearity correction enabled: false
Boxcar width: 0
XAxis mode: Wavelengths
Number of Pixels in Spectrum: 2048
>>>>>Begin Spectral Data<<<<<
223.165	-10.5
223.4	-10.5
223.635	-10.5
223.869	-19.5
224.104	-17.5
224.338	-6.5
224.573	-9.5
224.808	-14.5
225.042	-10.5
225.277	-0.5
225.511	4.5
225.746	2.5
225.98	1.5
226.215	20.5
226.449	14.5
226.683	15.5
226.918	11.5
227.152	18.5
227.387	30.5
227.621	44.5
227.856	48.5
228.09	36.5
228.324	52.5
228.559	59.5
228.793	64.5
229.027	93.5
229.262	94.5
229.496	118.5
229.73	127.5
229.964	132.5
230.199	125.5
230.433	132.5
230.667	115.5
230.901	110.5
231.136	95.5
231.37	94.5
231.604	105.5
231.838	108.5
232.072	80.5
232.306	104.5
232.541	124.5
232.775	101.5
233.009	110.5
233.243	110.5
233.477	119.5
233.711	96.5
233.945	106.5
234.179	117.5
234.413	105.5
234.647	100.5
234.881	106.5
235.115	110.5
235.349	120.5
235.583	124.5
235.817	114.5
236.051	124.5
236.285	122.5
236.519	116.5
236.753	129.5
236.987	129.5
237.221	175.5
237.455	220.5
237.689	173.5
237.922	123.5
238.156	125.5
238.39	133.5
238.624	126.5
238.858	131.5
239.091	109.5
239.325	113.5
239.559	123.5
239.793	117.5
240.027	131.5
240.26	125.5
240.494	137.5
240.728	121.5
240.961	134.5
241.195	146.5
241.429	123.5
241.662	127.5
241.896	136.5
242.13	127.5
242.363	128.5
242.597	131.5
242.83	134.5
243.064	137.5
243.298	119.5
243.531	125.5
243.765	128.5
243.998	130.5
244.232	131.5
244.465	132.5
244.699	134.5
244.932	141.5
245.166	139.5
245.399	120.5
245.633	134.5
245.866	143.5
246.099	135.5
246.333	151.5
246.566	146.5
246.8	129.5
247.033	135.5
247.266	140.5
247.5	137.5
247.733	177.5
247.966	148.5
248.2	143.5
248.433	155.5
248.666	172.5
248.899	169.5
249.133	184.5
249.366	200.5
249.599	189.5
249.832	157.5
250.066	169.5
250.299	166.5
250.532	183.5
250.765	186.5
250.998	197.5
251.231	195.5
251.465	210.5
251.698	195.5
251.931	195.5
252.164	188.5
252.397	182.5
252.63	185.5
252.863	183.5
253.096	191.5
253.329	217.5
253.562	209.5
253.795	197.5
254.028	212.5
254.261	193.5
254.494	216.5
254.727	223.5
254.96	264.5
255.193	241.5
255.426	211.5
255.659	231.5
255.892	190.5
256.124	183.5
256.357	190.5
256.59	209.5
256.823	191.5
257.056	204.5
257.289	171.5
257.521	195.5
257.754	189.5
257.987	185.5
258.22	182.5
258.452	192.5
258.685	198.5
258.918	193.5
259.151	197.5
259.383	199.5
259.616	196.5
259.849	195.5
260.081	216.5
260.314	212.5
260.547	228.5
260.779	201.5
261.012	213.5
261.244	198.5
261.477	208.5
261.71	203.5
261.942	217.5
262.175	234.5
262.407	210.5
262.64	211.5
262.872	203.5
263.105	199.5
263.337	188.5
263.57	198.5
263.802	205.5
264.035	199.5
264.267	194.5
264.499	194.5
264.732	211.5
264.964	201.5
265.197	196.5
265.429	181.5
265.661	182.5
265.894	198.5
266.126	202.5
266.358	202.5
266.591	196.5
266.823	203.5
267.055	222.5
267.287	204.5
267.52	181.5
267.752	206.5
267.984	217.5
268.216	195.5
268.448	207.5
268.681	220.5
268.913	251.5
269.145	226.5
269.377	239.5
269.609	247.5
269.841	238.5
270.073	250.5
270.306	280.5
270.538	279.5
270.77	276.5
271.002	267.5
271.234	270.5
271.466	280.5
271.698	289.5
271.93	294.5
272.162	285.5
272.394	284.5
272.626	279.5
272.858	262.5
273.09	244.5
273.322	235.5
273.553	241.5
273.785	230.5
274.017	236.5
274.249	237.5
274.481	227.5
274.713	249.5
274.945	239.5
275.176	245.5
275.408	225.5
275.64	241.5
275.872	241.5
276.104	228.5
276.335	236.5
276.567	235.5
276.799	263.5
277.031	295.5
277.262	290.5
277.494	277.5
277.726	260.5
277.957	262.5
278.189	262.5
278.421	246.5
278.652	252.5
278.884	235.5
279.115	228.5
279.347	232.5
279.579	227.5
279.81	222.5
280.042	234.5
280.273	257.5
280.505	245.5
280.736	237.5
280.968	243.5
281.199	259.5
281.431	255.5
281.662	249.5
281.894	249.5
282.125	243.5
282.356	269.5
282.588	285.5
282.819	273.5
283.051	241.5
283.282	242.5
283.513	253.5
283.745	257.5
283.976	257.5
284.207	262.5
284.439	245.5
284.67	257.5
284.901	242.5
285.132	246.5
285.364	233.5
285.595	253.5
285.826	258.5
286.057	242.5
286.288	243.5
286.52	259.5
286.751	247.5
286.982	248.5
287.213	241.5
287.444	261.5
287.675	257.5
287.906	272.5
288.138	282.5
288.369	269.5
288.6	283.5
288.831	281.5
289.062	255.5
289.293	261.5
289.524	253.5
289.755	247.5
289.986	267.5
290.217	258.5
290.448	254.5
290.679	266.5
290.91	242.5
291.141	248.5
291.371	255.5
291.602	243.5
291.833	239.5
292.064	265.5
292.295	249.5
292.526	257.5
292.757	262.5
292.987	257.5
293.218	262.5
293.449	259.5
293.68	258.5
293.91	234.5
294.141	254.5
294.372	255.5
294.603	254.5
294.833	274.5
295.064	257.5
295.295	262.5
295.525	269.5
295.756	260.5
295.987	283.5
296.217	302.5
296.448	300.5
296.679	290.5
296.909	265.5
297.14	256.5
297.37	259.5
297.601	269.5
297.831	266.5
298.062	266.5
298.292	289.5
298.523	269.5
298.753	280.5
298.984	260.5
299.214	296.5
299.445	271.5
299.675	268.5
299.905	286.5
300.136	285.5
300.366	279.5
300.597	285.5
300.827	301.5
301.057	289.5
301.288	299.5
301.518	298.5
301.748	282.5
301.979	293.5
302.209	309.5
302.439	290.5
302.669	305.5
302.9	282.5
303.13	296.5
303.36	299.5
303.59	300.5
303.82	283.5
304.051	309.5
304.281	303.5
304.511	277.5
304.741	300.5
304.971	293.5
305.201	298.5
305.431	291.5
305.661	299.5
305.891	290.5
306.121	289.5
306.352	304.5
306.582	313.5
306.812	311.5
307.042	304.5
307.272	285.5
307.502	302.5
307.731	302.5
307.961	307.5
308.191	296.5
308.421	295.5
308.651	283.5
308.881	301.5
309.111	313.5
309.341	320.5
309.571	313.5
309.8	322.5
310.03	332.5
310.26	341.5
310.49	326.5
310.72	354.5
310.949	369.5
311.179	369.5
311.409	333.5
311.639	344.5
311.868	343.5
312.098	346.5
312.328	345.5
312.557	364.5
312.787	364.5
313.017	373.5
313.246	355.5
313.476	328.5
313.706	343.5
313.935	351.5
314.165	355.5
314.394	381.5
314.624	375.5
314.853	350.5
315.083	366.5
315.312	345.5
315.542	330.5
315.771	328.5
316.001	330.5
316.23	347.5
316.46	355.5
316.689	329.5
316.919	344.5
317.148	342.5
317.377	355.5
317.607	348.5
317.836	353.5
318.065	358.5
318.295	341.5
318.524	330.5
318.753	331.5
318.983	338.5
319.212	352.5
319.441	366.5
319.67	383.5
319.9	353.5
320.129	347.5
320.358	343.5
320.587	339.5
320.816	358.5
321.046	350.5
321.275	362.5
321.504	354.5
321.733	368.5
321.962	373.5
322.191	383.5
322.42	382.5
322.649	405.5
322.878	391.5
323.108	443.5
323.337	443.5
323.566	472.5
323.795	490.5
324.024	542.5
324.253	675.5
324.482	1006.5
324.71	1494.5
324.939	2017.5
325.168	1655.5
325.397	893.5
325.626	600.5
325.855	522.5
326.084	476.5
326.313	473.5
326.542	460.5
326.77	518.5
326.999	622.5
327.228	870.5
327.457	1278.5
327.686	1473.5
327.914	947.5
328.143	659.5
328.372	588.5
328.6	539.5
328.829	542.5
329.058	533.5
329.287	519.5
329.515	513.5
329.744	440.5
329.972	438.5
330.201	449.5
330.43	476.5
330.658	537.5
330.887	559.5
331.115	560.5
331.344	483.5
331.572	439.5
331.801	460.5
332.03	446.5
332.258	431.5
332.486	399.5
332.715	413.5
332.943	382.5
333.172	394.5
333.4	379.5
333.629	389.5
333.857	413.5
334.085	424.5
334.314	423.5
334.542	439.5
334.771	427.5
334.999	415.5
335.227	422.5
335.455	431.5
335.684	365.5
335.912	390.5
336.14	377.5
336.369	391.5
336.597	396.5
336.825	398.5
337.053	410.5
337.281	383.5
337.51	397.5
337.738	378.5
337.966	407.5
338.194	407.5
338.422	402.5
338.65	413.5
338.878	381.5
339.106	381.5
339.334	379.5
339.562	386.5
339.79	378.5
340.018	390.5
340.246	382.5
340.474	388.5
340.702	389.5
340.93	395.5
341.158	366.5
341.386	379.5
341.614	399.5
341.842	386.5
342.07	399.5
342.298	377.5
342.526	371.5
342.754	363.5
342.981	383.5
343.209	358.5
343.437	363.5
343.665	363.5
343.893	384.5
344.12	388.5
344.348	381.5
344.576	389.5
344.804	393.5
345.031	377.5
345.259	404.5
345.487	385.5
345.714	389.5
345.942	394.5
346.17	377.5
346.397	385.5
346.625	358.5
346.853	381.5
347.08	379.5
347.308	391.5
347.535	382.5
347.763	373.5
347.99	384.5
348.218	397.5
348.445	390.5
348.673	362.5
348.9	364.5
349.128	353.5
349.355	335.5
349.583	351.5
349.81	351.5
350.037	359.5
350.265	349.5
350.492	343.5
350.72	350.5
350.947	352.5
351.174	381.5
351.402	389.5
351.629	376.5
351.856	374.5
352.083	379.5
352.311	377.5
352.538	386.5
352.765	391.5
352.992	391.5
353.22	392.5
353.447	373.5
353.674	359.5
353.901	365.5
354.128	358.5
354.355	332.5
354.583	342.5
354.81	352.5
355.037	351.5
355.264	339.5
355.491	334.5
355.718	329.5
355.945	327.5
356.172	341.5
356.399	329.5
356.626	351.5
356.853	317.5
357.08	335.5
357.307	353.5
357.534	349.5
357.761	322.5
357.988	361.5
358.215	349.5
358.441	340.5
358.668	327.5
358.895	361.5
359.122	350.5
359.349	362.5
359.576	355.5
359.802	370.5
360.029	435.5
360.256	428.5
360.483	406.5
360.709	381.5
360.936	391.5
361.163	372.5
361.39	369.5
361.616	378.5
361.843	379.5
362.07	384.5
362.296	372.5
362.523	365.5
362.749	367.5
362.976	371.5
363.203	347.5
363.429	345.5
363.656	339.5
363.882	348.5
364.109	350.5
364.335	359.5
364.562	344.5
364.788	325.5
365.015	346.5
365.241	355.5
365.468	358.5
365.694	357.5
365.92	356.5
366.147	347.5
366.373	351.5
366.599	360.5
366.826	341.5
367.052	349.5
367.278	347.5
367.505	361.5
367.731	364.5
367.957	339.5
368.184	351.5
368.41	361.5
368.636	368.5
368.862	371.5
369.089	353.5
369.315	353.5
369.541	350.5
369.767	349.5
369.993	346.5
370.219	346.5
370.445	336.5
370.672	345.5
370.898	358.5
371.124	362.5
371.35	338.5
371.576	332.5
371.802	340.5
372.028	342.5
372.254	346.5
372.48	339.5
372.706	327.5
372.932	327.5
373.158	347.5
373.384	351.5
373.61	348.5
373.835	334.5
374.061	365.5
374.287	354.5
374.513	349.5
374.739	337.5
374.965	334.5
375.191	330.5
375.416	344.5
375.642	330.5
375.868	347.5
376.094	354.5
376.319	348.5
376.545	345.5
376.771	343.5
376.997	349.5
377.222	336.5
377.448	338.5
377.674	329.5
377.899	345.5
378.125	341.5
378.35	332.5
378.576	350.5
378.802	339.5
379.027	341.5
379.253	354.5
379.478	350.5
379.704	349.5
379.929	334.5
380.155	354.5
380.38	346.5
380.606	350.5
380.831	344.5
381.057	336.5
381.282	327.5
381.507	323.5
381.733	340.5
381.958	344.5
382.184	341.5
382.409	350.5
382.634	370.5
382.86	344.5
383.085	356.5
383.31	340.5
383.535	343.5
383.761	345.5
383.986	363.5
384.211	365.5
384.436	356.5
384.662	368.5
384.887	371.5
385.112	367.5
385.337	351.5
385.562	341.5
385.787	356.5
386.013	381.5
386.238	374.5
386.463	361.5
386.688	367.5
386.913	363.5
387.138	380.5
387.363	354.5
387.588	373.5
387.813	372.5
388.038	351.5
388.263	369.5
388.488	371.5
388.713	372.5
388.938	369.5
389.163	371.5
389.387	372.5
389.612	350.5
389.837	358.5
390.062	362.5
390.287	356.5
390.512	350.5
390.736	360.5
390.961	358.5
391.186	378.5
391.411	359.5
391.636	348.5
391.86	356.5
392.085	374.5
392.31	397.5
392.534	379.5
392.759	359.5
392.984	383.5
393.208	363.5
393.433	372.5
393.658	377.5
393.882	370.5
394.107	360.5
394.331	366.5
394.556	356.5
394.78	375.5
395.005	382.5
395.229	365.5
395.454	377.5
395.678	357.5
395.903	377.5
396.127	395.5
396.352	393.5
396.576	381.5
396.801	395.5
397.025	365.5
397.249	378.5
397.474	381.5
397.698	390.5
397.922	391.5
398.147	425.5
398.371	410.5
398.595	409.5
398.82	397.5
399.044	425.5
399.268	410.5
399.492	455.5
399.717	462.5
399.941	483.5
400.165	490.5
400.389	491.5
400.613	454.5
400.837	425.5
401.062	437.5
401.286	409.5
401.51	433.5
401.734	400.5
401.958	427.5
402.182	431.5
402.406	436.5
402.63	432.5
402.854	427.5
403.078	436.5
403.302	415.5
403.526	411.5
403.75	427.5
403.974	448.5
404.198	418.5
404.422	437.5
404.645	422.5
404.869	450.5
405.093	441.5
405.317	454.5
405.541	482.5
405.765	463.5
405.988	431.5
406.212	433.5
406.436	475.5
406.66	505.5
406.883	467.5
407.107	475.5
407.331	533.5
407.555	542.5
407.778	555.5
408.002	509.5
408.226	485.5
408.449	474.5
408.673	467.5
408.896	475.5
409.12	523.5
409.344	483.5
409.567	443.5
409.791	445.5
410.014	433.5
410.238	430.5
410.461	420.5
410.685	428.5
410.908	456.5
411.132	481.5
411.355	494.5
411.578	494.5
411.802	466.5
412.025	417.5
412.249	427.5
412.472	437.5
412.695	463.5
412.919	439.5
413.142	419.5
413.365	421.5
413.589	411.5
413.812	397.5
414.035	437.5
414.258	396.5
414.482	383.5
414.705	395.5
414.928	407.5
415.151	403.5
415.374	402.5
415.597	391.5
415.821	392.5
416.044	404.5
416.267	408.5
416.49	419.5
416.713	411.5
416.936	400.5
417.159	412.5
417.382	421.5
417.605	398.5
417.828	412.5
418.051	419.5
418.274	414.5
418.497	411.5
418.72	405.5
418.943	387.5
419.166	420.5
419.389	415.5
419.611	434.5
419.834	420.5
420.057	453.5
420.28	436.5
420.503	425.5
420.726	424.5
420.948	448.5
421.171	463.5
421.394	480.5
421.617	447.5
421.839	421.5
422.062	419.5
422.285	443.5
422.507	486.5
422.73	547.5
422.953	504.5
423.175	471.5
423.398	454.5
423.621	447.5
423.843	446.5
424.066	461.5
424.288	470.5
424.511	461.5
424.733	489.5
424.956	565.5
425.178	567.5
425.401	535.5
425.623	565.5
425.846	493.5
426.068	465.5
426.291	447.5
426.513	441.5
426.735	474.5
426.958	520.5
427.18	573.5
427.402	634.5
427.625	723.5
427.847	633.5
428.069	549.5
428.292	500.5
428.514	451.5
428.736	456.5
428.958	446.5
429.181	411.5
429.403	418.5
429.625	415.5
429.847	454.5
430.069	507.5
430.292	496.5
430.514	425.5
430.736	435.5
430.958	417.5
431.18	397.5
431.402	408.5
431.624	397.5
431.846	401.5
432.068	389.5
432.29	413.5
432.512	387.5
432.734	425.5
432.956	400.5
433.178	413.5
433.4	418.5
433.622	409.5
433.844	411.5
434.066	404.5
434.287	409.5
434.509	406.5
434.731	426.5
434.953	418.5
435.175	416.5
435.397	447.5
435.618	451.5
435.84	494.5
436.062	561.5
436.284	585.5
436.505	524.5
436.727	468.5
436.949	441.5
437.17	438.5
437.392	430.5
437.614	460.5
437.835	483.5
438.057	546.5
438.278	612.5
438.5	626.5
438.721	680.5
438.943	648.5
439.165	512.5
439.386	468.5
439.608	487.5
439.829	454.5
440.05	512.5
440.272	518.5
440.493	491.5
440.715	465.5
440.936	443.5
441.158	434.5
441.379	426.5
441.6	450.5
441.822	455.5
442.043	489.5
442.264	542.5
442.486	588.5
442.707	490.5
442.928	486.5
443.149	503.5
443.371	518.5
443.592	531.5
443.813	600.5
444.034	617.5
444.255	535.5
444.476	500.5
444.698	476.5
444.919	473.5
445.14	573.5
445.361	537.5
445.582	522.5
445.803	531.5
446.024	611.5
446.245	618.5
446.466	581.5
446.687	519.5
446.908	463.5
447.129	420.5
447.35	436.5
447.571	453.5
447.792	413.5
448.013	421.5
448.234	450.5
448.455	479.5
448.675	566.5
448.896	647.5
449.117	539.5
449.338	531.5
449.559	599.5
449.779	678.5
450	542.5
450.221	471.5
450.442	429.5
450.662	434.5
450.883	443.5
451.104	447.5
451.324	444.5
451.545	397.5
451.766	391.5
451.986	386.5
452.207	381.5
452.428	385.5
452.648	370.5
452.869	369.5
453.089	393.5
453.31	395.5
453.53	406.5
453.751	402.5
453.971	378.5
454.192	420.5
454.412	400.5
454.633	391.5
454.853	389.5
455.073	388.5
455.294	389.5
455.514	462.5
455.734	451.5
455.955	371.5
456.175	361.5
456.395	361.5
456.616	349.5
456.836	363.5
457.056	345.5
457.276	341.5
457.497	375.5
457.717	379.5
457.937	360.5
458.157	393.5
458.377	390.5
458.598	407.5
458.818	470.5
459.038	526.5
459.258	523.5
459.478	436.5
459.698	412.5
459.918	396.5
460.138	414.5
460.358	399.5
460.578	415.5
460.798	407.5
461.018	416.5
461.238	399.5
461.458	402.5
461.678	393.5
461.898	409.5
462.118	400.5
462.338	415.5
462.558	413.5
462.777	427.5
462.997	429.5
463.217	427.5
463.437	441.5
463.657	411.5
463.876	406.5
464.096	428.5
464.316	436.5
464.536	441.5
464.755	434.5
464.975	453.5
465.195	478.5
465.414	547.5
465.634	492.5
465.854	421.5
466.073	420.5
466.293	400.5
466.512	385.5
466.732	387.5
466.951	375.5
467.171	381.5
467.391	396.5
467.61	399.5
467.829	422.5
468.049	409.5
468.268	383.5
468.488	389.5
468.707	376.5
468.927	378.5
469.146	403.5
469.365	378.5
469.585	381.5
469.804	403.5
470.023	393.5
470.243	393.5
470.462	411.5
470.681	429.5
470.901	426.5
471.12	392.5
471.339	409.5
471.558	402.5
471.777	390.5
471.997	386.5
472.216	369.5
472.435	410.5
472.654	414.5
472.873	393.5
473.092	381.5
473.311	396.5
473.53	380.5
473.749	414.5
473.968	429.5
474.187	526.5
474.406	540.5
474.625	443.5
474.844	417.5
475.063	405.5
475.282	384.5
475.501	402.5
475.72	437.5
475.939	413.5
476.158	420.5
476.377	399.5
476.596	425.5
476.814	422.5
477.033	424.5
477.252	418.5
477.471	438.5
477.69	439.5
477.908	446.5
478.127	428.5
478.346	417.5
478.564	438.5
478.783	437.5
479.002	455.5
479.22	449.5
479.439	474.5
479.658	499.5
479.876	463.5
480.095	493.5
480.313	494.5
480.532	498.5
480.751	479.5
480.969	476.5
481.188	494.5
481.406	526.5
481.624	477.5
481.843	467.5
482.061	469.5
482.28	467.5
482.498	455.5
482.717	460.5
482.935	469.5
483.153	446.5
483.372	452.5
483.59	466.5
483.808	457.5
484.027	467.5
484.245	461.5
484.463	468.5
484.681	488.5
484.9	485.5
485.118	469.5
485.336	460.5
485.554	469.5
485.772	471.5
485.99	475.5
486.209	467.5
486.427	482.5
486.645	497.5
486.863	516.5
487.081	493.5
487.299	513.5
487.517	505.5
487.735	519.5
487.953	494.5
488.171	499.5
488.389	501.5
488.607	498.5
488.825	500.5
489.043	489.5
489.261	503.5
489.479	514.5
489.696	489.5
489.914	509.5
490.132	529.5
490.35	515.5
490.568	526.5
490.786	521.5
491.003	531.5
491.221	555.5
491.439	549.5
491.657	556.5
491.874	565.5
492.092	556.5
492.31	566.5
492.527	577.5
492.745	568.5
492.963	573.5
493.18	569.5
493.398	565.5
493.615	590.5
493.833	593.5
494.05	579.5
494.268	574.5
494.485	586.5
494.703	591.5
494.92	606.5
495.138	598.5
495.355	605.5
495.573	577.5
495.79	582.5
496.008	580.5
496.225	605.5
496.442	616.5
496.66	591.5
496.877	583.5
497.094	577.5
497.312	613.5
497.529	601.5
497.746	607.5
497.963	601.5
498.181	628.5
498.398	611.5
498.615	634.5
498.832	653.5
499.049	655.5
499.267	665.5
499.484	675.5
499.701	717.5
499.918	708.5
500.135	723.5
500.352	732.5
500.569	769.5
500.786	784.5
501.003	789.5
501.22	767.5
501.437	747.5
501.654	718.5
501.871	737.5
502.088	703.5
502.305	676.5
502.522	633.5
502.739	631.5
502.956	611.5
503.172	609.5
503.389	610.5
503.606	633.5
503.823	617.5
504.04	603.5
504.256	597.5
504.473	587.5
504.69	565.5
504.907	585.5
505.123	563.5
505.34	565.5
505.557	570.5
505.773	566.5
505.99	564.5
506.207	572.5
506.423	565.5
506.64	562.5
506.856	543.5
507.073	549.5
507.289	541.5
507.506	539.5
507.722	574.5
507.939	575.5
508.155	562.5
508.372	542.5
508.588	552.5
508.805	541.5
509.021	547.5
509.238	577.5
509.454	543.5
509.67	549.5
509.887	538.5
510.103	563.5
510.319	581.5
510.536	674.5
510.752	1194.5
510.968	940.5
511.184	576.5
511.401	535.5
511.617	523.5
511.833	520.5
512.049	500.5
512.265	493.5
512.481	485.5
512.698	490.5
512.914	504.5
513.13	518.5
513.346	507.5
513.562	519.5
513.778	507.5
513.994	517.5
514.21	527.5
514.426	546.5
514.642	591.5
514.858	647.5
515.074	687.5
515.29	863.5
515.506	1334.5
515.721	1047.5
515.937	661.5
516.153	587.5
516.369	569.5
516.585	532.5
516.801	524.5
517.016	509.5
517.232	533.5
517.448	530.5
517.664	518.5
517.879	523.5
518.095	507.5
518.311	522.5
518.527	505.5
518.742	515.5
518.958	521.5
519.173	501.5
519.389	524.5
519.605	528.5
519.82	516.5
