Data from 1983.PennyLincolnUp.Lamp.En5.5.200Scan.071819.P1_HRD10591_16-54-49-966.txt Node
Date: Thu Jul 18 16:54:49 EDT 2019
User: cochatt
Spectrometer: HR+D1059
Trigger mode: 1
Integration Time (sec): 1.000000E-1
Scans to average: 1
Electric dark correction enabled: true
Nonlinearity correction enabled: false
Boxcar width: 0
XAxis mode: Wavelengths
Number of Pixels in Spectrum: 2048
>>>>>Begin Spectral Data<<<<<
223.165	-23.69
223.4	-23.69
223.635	-23.69
223.869	-12.69
224.104	-23.69
224.338	-23.69
224.573	-0.69
224.808	-19.69
225.042	-8.69
225.277	-6.69
225.511	5.31
225.746	12.31
225.98	9.31
226.215	19.31
226.449	11.31
226.683	25.31
226.918	9.31
227.152	27.31
227.387	40.31
227.621	46.31
227.856	40.31
228.09	51.31
228.324	54.31
228.559	53.31
228.793	65.31
229.027	93.31
229.262	101.31
229.496	119.31
229.73	119.31
229.964	153.31
230.199	126.31
230.433	120.31
230.667	108.31
230.901	128.31
231.136	121.31
231.37	110.31
231.604	102.31
231.838	101.31
232.072	115.31
232.306	109.31
232.541	117.31
232.775	110.31
233.009	101.31
233.243	113.31
233.477	115.31
233.711	120.31
233.945	110.31
234.179	119.31
234.413	125.31
234.647	111.31
234.881	117.31
235.115	115.31
235.349	112.31
235.583	124.31
235.817	109.31
236.051	129.31
236.285	127.31
236.519	117.31
236.753	115.31
236.987	130.31
237.221	169.31
237.455	216.31
237.689	164.31
237.922	143.31
238.156	137.31
238.39	136.31
238.624	131.31
238.858	121.31
239.091	109.31
239.325	126.31
239.559	117.31
239.793	129.31
240.027	129.31
240.26	136.31
240.494	150.31
240.728	136.31
240.961	129.31
241.195	134.31
241.429	139.31
241.662	122.31
241.896	133.31
242.13	118.31
242.363	137.31
242.597	121.31
242.83	124.31
243.064	126.31
243.298	145.31
243.531	125.31
243.765	126.31
243.998	134.31
244.232	134.31
244.465	146.31
244.699	125.31
244.932	133.31
245.166	133.31
245.399	143.31
245.633	139.31
245.866	149.31
246.099	135.31
246.333	132.31
246.566	137.31
246.8	150.31
247.033	151.31
247.266	146.31
247.5	162.31
247.733	149.31
247.966	161.31
248.2	146.31
248.433	168.31
248.666	172.31
248.899	172.31
249.133	183.31
249.366	201.31
249.599	200.31
249.832	168.31
250.066	177.31
250.299	172.31
250.532	199.31
250.765	206.31
250.998	221.31
251.231	224.31
251.465	206.31
251.698	200.31
251.931	186.31
252.164	204.31
252.397	195.31
252.63	202.31
252.863	187.31
253.096	204.31
253.329	212.31
253.562	203.31
253.795	202.31
254.028	206.31
254.261	206.31
254.494	224.31
254.727	262.31
254.96	279.31
255.193	246.31
255.426	212.31
255.659	216.31
255.892	207.31
256.124	211.31
256.357	231.31
256.59	228.31
256.823	211.31
257.056	204.31
257.289	211.31
257.521	194.31
257.754	197.31
257.987	195.31
258.22	210.31
258.452	187.31
258.685	204.31
258.918	202.31
259.151	190.31
259.383	205.31
259.616	221.31
259.849	210.31
260.081	243.31
260.314	229.31
260.547	236.31
260.779	233.31
261.012	227.31
261.244	210.31
261.477	220.31
261.71	207.31
261.942	211.31
262.175	228.31
262.407	220.31
262.64	212.31
262.872	195.31
263.105	185.31
263.337	205.31
263.57	197.31
263.802	207.31
264.035	200.31
264.267	211.31
264.499	201.31
264.732	214.31
264.964	228.31
265.197	217.31
265.429	200.31
265.661	192.31
265.894	213.31
266.126	198.31
266.358	193.31
266.591	222.31
266.823	213.31
267.055	207.31
267.287	211.31
267.52	220.31
267.752	231.31
267.984	205.31
268.216	212.31
268.448	206.31
268.681	228.31
268.913	227.31
269.145	251.31
269.377	266.31
269.609	261.31
269.841	251.31
270.073	257.31
270.306	281.31
270.538	295.31
270.77	300.31
271.002	283.31
271.234	275.31
271.466	274.31
271.698	295.31
271.93	283.31
272.162	281.31
272.394	297.31
272.626	287.31
272.858	265.31
273.09	269.31
273.322	260.31
273.553	247.31
273.785	258.31
274.017	265.31
274.249	236.31
274.481	241.31
274.713	255.31
274.945	260.31
275.176	268.31
275.408	250.31
275.64	240.31
275.872	247.31
276.104	250.31
276.335	256.31
276.567	265.31
276.799	276.31
277.031	288.31
277.262	294.31
277.494	302.31
277.726	286.31
277.957	267.31
278.189	253.31
278.421	234.31
278.652	214.31
278.884	247.31
279.115	255.31
279.347	250.31
279.579	241.31
279.81	248.31
280.042	240.31
280.273	249.31
280.505	262.31
280.736	276.31
280.968	259.31
281.199	243.31
281.431	249.31
281.662	248.31
281.894	247.31
282.125	259.31
282.356	263.31
282.588	260.31
282.819	294.31
283.051	263.31
283.282	260.31
283.513	263.31
283.745	250.31
283.976	254.31
284.207	259.31
284.439	268.31
284.67	257.31
284.901	270.31
285.132	247.31
285.364	255.31
285.595	252.31
285.826	255.31
286.057	258.31
286.288	268.31
286.52	253.31
286.751	262.31
286.982	234.31
287.213	270.31
287.444	270.31
287.675	274.31
287.906	275.31
288.138	287.31
288.369	284.31
288.6	289.31
288.831	295.31
289.062	277.31
289.293	286.31
289.524	272.31
289.755	252.31
289.986	257.31
290.217	275.31
290.448	274.31
290.679	262.31
290.91	267.31
291.141	278.31
291.371	264.31
291.602	275.31
291.833	268.31
292.064	268.31
292.295	279.31
292.526	275.31
292.757	283.31
292.987	281.31
293.218	253.31
293.449	265.31
293.68	279.31
293.91	254.31
294.141	273.31
294.372	249.31
294.603	247.31
294.833	277.31
295.064	267.31
295.295	278.31
295.525	277.31
295.756	268.31
295.987	291.31
296.217	325.31
296.448	327.31
296.679	290.31
296.909	269.31
297.14	255.31
297.37	278.31
297.601	276.31
297.831	266.31
298.062	283.31
298.292	270.31
298.523	274.31
298.753	270.31
298.984	279.31
299.214	297.31
299.445	293.31
299.675	301.31
299.905	308.31
300.136	303.31
300.366	297.31
300.597	319.31
300.827	310.31
301.057	302.31
301.288	314.31
301.518	305.31
301.748	303.31
301.979	309.31
302.209	305.31
302.439	307.31
302.669	308.31
302.9	322.31
303.13	302.31
303.36	315.31
303.59	321.31
303.82	306.31
304.051	325.31
304.281	305.31
304.511	294.31
304.741	298.31
304.971	301.31
305.201	297.31
305.431	311.31
305.661	293.31
305.891	290.31
306.121	327.31
306.352	308.31
306.582	324.31
306.812	319.31
307.042	307.31
307.272	318.31
307.502	301.31
307.731	322.31
307.961	334.31
308.191	322.31
308.421	324.31
308.651	328.31
308.881	323.31
309.111	311.31
309.341	329.31
309.571	347.31
309.8	347.31
310.03	337.31
310.26	360.31
310.49	359.31
310.72	348.31
310.949	369.31
311.179	369.31
311.409	344.31
311.639	353.31
311.868	353.31
312.098	377.31
312.328	371.31
312.557	386.31
312.787	406.31
313.017	375.31
313.246	381.31
313.476	349.31
313.706	357.31
313.935	358.31
314.165	371.31
314.394	377.31
314.624	368.31
314.853	360.31
315.083	357.31
315.312	347.31
315.542	350.31
315.771	357.31
316.001	342.31
316.23	349.31
316.46	347.31
316.689	347.31
316.919	353.31
317.148	376.31
317.377	359.31
317.607	355.31
317.836	375.31
318.065	337.31
318.295	348.31
318.524	341.31
318.753	347.31
318.983	365.31
319.212	364.31
319.441	367.31
319.67	374.31
319.9	353.31
320.129	371.31
320.358	387.31
320.587	361.31
320.816	373.31
321.046	396.31
321.275	385.31
321.504	379.31
321.733	390.31
321.962	411.31
322.191	389.31
322.42	430.31
322.649	444.31
322.878	457.31
323.108	440.31
323.337	452.31
323.566	501.31
323.795	519.31
324.024	570.31
324.253	735.31
324.482	1037.31
324.71	1547.31
324.939	2123.31
325.168	1727.31
325.397	918.31
325.626	645.31
325.855	535.31
326.084	492.31
326.313	484.31
326.542	485.31
326.77	544.31
326.999	656.31
327.228	890.31
327.457	1379.31
327.686	1567.31
327.914	1037.31
328.143	705.31
328.372	606.31
328.6	586.31
328.829	566.31
329.058	573.31
329.287	574.31
329.515	530.31
329.744	507.31
329.972	506.31
330.201	542.31
330.43	579.31
330.658	619.31
330.887	578.31
331.115	581.31
331.344	514.31
331.572	480.31
331.801	478.31
332.03	477.31
332.258	453.31
332.486	418.31
332.715	402.31
332.943	429.31
333.172	442.31
333.4	442.31
333.629	442.31
333.857	461.31
334.085	466.31
334.314	524.31
334.542	533.31
334.771	547.31
334.999	513.31
335.227	456.31
335.455	449.31
335.684	414.31
335.912	418.31
336.14	409.31
336.369	413.31
336.597	434.31
336.825	420.31
337.053	415.31
337.281	391.31
337.51	420.31
337.738	396.31
337.966	414.31
338.194	414.31
338.422	421.31
338.65	395.31
338.878	405.31
339.106	399.31
339.334	397.31
339.562	408.31
339.79	390.31
340.018	414.31
340.246	394.31
340.474	403.31
340.702	416.31
340.93	403.31
341.158	398.31
341.386	390.31
341.614	388.31
341.842	406.31
342.07	383.31
342.298	386.31
342.526	386.31
342.754	380.31
342.981	391.31
343.209	384.31
343.437	383.31
343.665	393.31
343.893	410.31
344.12	381.31
344.348	409.31
344.576	402.31
344.804	404.31
345.031	402.31
345.259	417.31
345.487	394.31
345.714	396.31
345.942	396.31
346.17	397.31
346.397	367.31
346.625	391.31
346.853	384.31
347.08	391.31
347.308	394.31
347.535	397.31
347.763	405.31
347.99	402.31
348.218	395.31
348.445	393.31
348.673	395.31
348.9	383.31
349.128	391.31
349.355	375.31
349.583	362.31
349.81	379.31
350.037	377.31
350.265	391.31
350.492	363.31
350.72	379.31
350.947	375.31
351.174	408.31
351.402	413.31
351.629	403.31
351.856	384.31
352.083	397.31
352.311	410.31
352.538	421.31
352.765	415.31
352.992	407.31
353.22	396.31
353.447	379.31
353.674	377.31
353.901	361.31
354.128	358.31
354.355	362.31
354.583	366.31
354.81	356.31
355.037	351.31
355.264	348.31
355.491	354.31
355.718	345.31
355.945	368.31
356.172	345.31
356.399	353.31
356.626	356.31
356.853	351.31
357.08	344.31
357.307	346.31
357.534	344.31
357.761	356.31
357.988	355.31
358.215	357.31
358.441	348.31
358.668	347.31
358.895	363.31
359.122	369.31
359.349	377.31
359.576	394.31
359.802	404.31
360.029	410.31
360.256	426.31
360.483	408.31
360.709	385.31
360.936	379.31
361.163	383.31
361.39	382.31
361.616	383.31
361.843	380.31
362.07	398.31
362.296	397.31
362.523	385.31
362.749	366.31
362.976	377.31
363.203	371.31
363.429	382.31
363.656	376.31
363.882	376.31
364.109	355.31
364.335	356.31
364.562	361.31
364.788	371.31
365.015	357.31
365.241	379.31
365.468	368.31
365.694	380.31
365.92	369.31
366.147	369.31
366.373	350.31
366.599	352.31
366.826	358.31
367.052	341.31
367.278	363.31
367.505	367.31
367.731	362.31
367.957	374.31
368.184	349.31
368.41	377.31
368.636	377.31
368.862	378.31
369.089	383.31
369.315	362.31
369.541	348.31
369.767	394.31
369.993	381.31
370.219	342.31
370.445	346.31
370.672	343.31
370.898	355.31
371.124	348.31
371.35	358.31
371.576	380.31
371.802	362.31
372.028	366.31
372.254	335.31
372.48	375.31
372.706	362.31
372.932	352.31
373.158	354.31
373.384	347.31
373.61	346.31
373.835	373.31
374.061	371.31
374.287	347.31
374.513	375.31
374.739	350.31
374.965	365.31
375.191	358.31
375.416	376.31
375.642	359.31
375.868	371.31
376.094	358.31
376.319	356.31
376.545	360.31
376.771	359.31
376.997	344.31
377.222	370.31
377.448	360.31
377.674	360.31
377.899	350.31
378.125	337.31
378.35	340.31
378.576	340.31
378.802	355.31
379.027	377.31
379.253	341.31
379.478	347.31
379.704	341.31
379.929	359.31
380.155	351.31
380.38	352.31
380.606	349.31
380.831	345.31
381.057	358.31
381.282	355.31
381.507	364.31
381.733	350.31
381.958	356.31
382.184	380.31
382.409	379.31
382.634	358.31
382.86	364.31
383.085	363.31
383.31	374.31
383.535	369.31
383.761	354.31
383.986	361.31
384.211	369.31
384.436	372.31
384.662	358.31
384.887	386.31
385.112	371.31
385.337	383.31
385.562	405.31
385.787	397.31
386.013	389.31
386.238	378.31
386.463	385.31
386.688	350.31
386.913	362.31
387.138	386.31
387.363	388.31
387.588	385.31
387.813	387.31
388.038	378.31
388.263	379.31
388.488	389.31
388.713	370.31
388.938	372.31
389.163	380.31
389.387	391.31
389.612	382.31
389.837	365.31
390.062	364.31
390.287	377.31
390.512	377.31
390.736	379.31
390.961	375.31
391.186	359.31
391.411	387.31
391.636	391.31
391.86	391.31
392.085	385.31
392.31	373.31
392.534	378.31
392.759	394.31
392.984	389.31
393.208	373.31
393.433	378.31
393.658	361.31
393.882	385.31
394.107	366.31
394.331	377.31
394.556	361.31
394.78	391.31
395.005	381.31
395.229	385.31
395.454	400.31
395.678	395.31
395.903	413.31
396.127	421.31
396.352	413.31
396.576	395.31
396.801	378.31
397.025	383.31
397.249	387.31
397.474	409.31
397.698	390.31
397.922	412.31
398.147	427.31
398.371	418.31
398.595	416.31
398.82	420.31
399.044	426.31
399.268	468.31
399.492	450.31
399.717	476.31
399.941	483.31
400.165	519.31
400.389	523.31
400.613	493.31
400.837	456.31
401.062	450.31
401.286	431.31
401.51	441.31
401.734	441.31
401.958	432.31
402.182	441.31
402.406	464.31
402.63	449.31
402.854	452.31
403.078	450.31
403.302	430.31
403.526	436.31
403.75	438.31
403.974	420.31
404.198	445.31
404.422	457.31
404.645	452.31
404.869	476.31
405.093	501.31
405.317	521.31
405.541	523.31
405.765	504.31
405.988	501.31
406.212	499.31
406.436	517.31
406.66	513.31
406.883	477.31
407.107	490.31
407.331	546.31
407.555	585.31
407.778	565.31
408.002	516.31
408.226	516.31
408.449	492.31
408.673	482.31
408.896	499.31
409.12	534.31
409.344	500.31
409.567	439.31
409.791	463.31
410.014	460.31
410.238	436.31
410.461	449.31
410.685	439.31
410.908	460.31
411.132	476.31
411.355	526.31
411.578	501.31
411.802	466.31
412.025	457.31
412.249	464.31
412.472	483.31
412.695	527.31
412.919	498.31
413.142	478.31
413.365	433.31
413.589	435.31
413.812	444.31
414.035	446.31
414.258	429.31
414.482	427.31
414.705	443.31
414.928	420.31
415.151	431.31
415.374	406.31
415.597	399.31
415.821	435.31
416.044	425.31
416.267	416.31
416.49	424.31
416.713	409.31
416.936	428.31
417.159	425.31
417.382	437.31
417.605	411.31
417.828	458.31
418.051	460.31
418.274	431.31
418.497	428.31
418.72	428.31
418.943	406.31
419.166	449.31
419.389	450.31
419.611	442.31
419.834	443.31
420.057	452.31
420.28	446.31
420.503	451.31
420.726	440.31
420.948	460.31
421.171	483.31
421.394	529.31
421.617	457.31
421.839	462.31
422.062	438.31
422.285	455.31
422.507	513.31
422.73	569.31
422.953	551.31
423.175	459.31
423.398	461.31
423.621	460.31
423.843	472.31
424.066	460.31
424.288	487.31
424.511	488.31
424.733	538.31
424.956	594.31
425.178	568.31
425.401	564.31
425.623	569.31
425.846	483.31
426.068	490.31
426.291	497.31
426.513	481.31
426.735	484.31
426.958	518.31
427.18	595.31
427.402	687.31
427.625	758.31
427.847	696.31
428.069	596.31
428.292	515.31
428.514	467.31
428.736	437.31
428.958	445.31
429.181	438.31
429.403	439.31
429.625	455.31
429.847	485.31
430.069	533.31
430.292	537.31
430.514	468.31
430.736	441.31
430.958	428.31
431.18	441.31
431.402	405.31
431.624	416.31
431.846	416.31
432.068	405.31
432.29	404.31
432.512	398.31
432.734	434.31
432.956	434.31
433.178	435.31
433.4	428.31
433.622	414.31
433.844	386.31
434.066	426.31
434.287	439.31
434.509	441.31
434.731	413.31
434.953	449.31
435.175	437.31
435.397	470.31
435.618	460.31
435.84	515.31
436.062	574.31
436.284	634.31
436.505	539.31
436.727	478.31
436.949	451.31
437.17	447.31
437.392	459.31
437.614	437.31
437.835	474.31
438.057	590.31
438.278	634.31
438.5	644.31
438.721	684.31
438.943	636.31
439.165	520.31
439.386	483.31
439.608	480.31
439.829	491.31
440.05	518.31
440.272	535.31
440.493	515.31
440.715	463.31
440.936	476.31
441.158	430.31
441.379	445.31
441.6	452.31
441.822	473.31
442.043	511.31
442.264	567.31
442.486	590.31
442.707	534.31
442.928	507.31
443.149	504.31
443.371	527.31
443.592	552.31
443.813	627.31
444.034	648.31
444.255	557.31
444.476	501.31
444.698	489.31
444.919	477.31
445.14	611.31
445.361	557.31
445.582	505.31
445.803	589.31
446.024	656.31
446.245	629.31
446.466	602.31
446.687	519.31
446.908	476.31
447.129	458.31
447.35	433.31
447.571	435.31
447.792	421.31
448.013	443.31
448.234	455.31
448.455	521.31
448.675	581.31
448.896	692.31
449.117	573.31
449.338	547.31
449.559	652.31
449.779	713.31
450	579.31
450.221	497.31
450.442	434.31
450.662	441.31
450.883	458.31
451.104	460.31
451.324	447.31
451.545	438.31
451.766	417.31
451.986	415.31
452.207	399.31
452.428	379.31
452.648	375.31
452.869	381.31
453.089	417.31
453.31	393.31
453.53	413.31
453.751	400.31
453.971	410.31
454.192	420.31
454.412	423.31
454.633	417.31
454.853	382.31
455.073	399.31
455.294	441.31
455.514	497.31
455.734	457.31
455.955	396.31
456.175	397.31
456.395	380.31
456.616	379.31
456.836	383.31
457.056	378.31
457.276	369.31
457.497	389.31
457.717	367.31
457.937	401.31
458.157	391.31
458.377	387.31
458.598	415.31
458.818	454.31
459.038	563.31
459.258	549.31
459.478	442.31
459.698	437.31
459.918	435.31
460.138	395.31
460.358	400.31
460.578	409.31
460.798	428.31
461.018	421.31
461.238	420.31
461.458	403.31
461.678	398.31
461.898	426.31
462.118	432.31
462.338	425.31
462.558	433.31
462.777	445.31
462.997	448.31
463.217	459.31
463.437	444.31
463.657	449.31
463.876	433.31
464.096	437.31
464.316	444.31
464.536	463.31
464.755	461.31
464.975	465.31
465.195	475.31
465.414	588.31
465.634	509.31
465.854	468.31
466.073	433.31
466.293	426.31
466.512	400.31
466.732	430.31
466.951	411.31
467.171	422.31
467.391	397.31
467.61	420.31
467.829	412.31
468.049	420.31
468.268	428.31
468.488	415.31
468.707	408.31
468.927	405.31
469.146	392.31
469.365	411.31
469.585	394.31
469.804	410.31
470.023	421.31
470.243	400.31
470.462	439.31
470.681	452.31
470.901	420.31
471.12	441.31
471.339	416.31
471.558	405.31
471.777	417.31
471.997	388.31
472.216	418.31
472.435	466.31
472.654	441.31
472.873	428.31
473.092	427.31
473.311	408.31
473.53	425.31
473.749	442.31
473.968	473.31
474.187	536.31
474.406	556.31
474.625	465.31
474.844	429.31
475.063	435.31
475.282	413.31
475.501	436.31
475.72	418.31
475.939	419.31
476.158	426.31
476.377	433.31
476.596	430.31
476.814	433.31
477.033	452.31
477.252	446.31
477.471	427.31
477.69	441.31
477.908	437.31
478.127	451.31
478.346	439.31
478.564	446.31
478.783	445.31
479.002	472.31
479.22	462.31
479.439	492.31
479.658	501.31
479.876	513.31
480.095	519.31
480.313	526.31
480.532	514.31
480.751	481.31
480.969	517.31
481.188	613.31
481.406	674.31
481.624	557.31
481.843	501.31
482.061	478.31
482.28	482.31
482.498	475.31
482.717	481.31
482.935	493.31
483.153	474.31
483.372	459.31
483.59	493.31
483.808	481.31
484.027	485.31
484.245	468.31
484.463	497.31
484.681	484.31
484.9	501.31
485.118	492.31
485.336	479.31
485.554	494.31
485.772	510.31
485.99	485.31
486.209	517.31
486.427	501.31
486.645	489.31
486.863	537.31
487.081	526.31
487.299	501.31
487.517	519.31
487.735	530.31
487.953	498.31
488.171	519.31
488.389	495.31
488.607	517.31
488.825	544.31
489.043	538.31
489.261	532.31
489.479	525.31
489.696	535.31
489.914	542.31
490.132	551.31
490.35	548.31
490.568	542.31
490.786	561.31
491.003	572.31
491.221	573.31
491.439	598.31
491.657	609.31
491.874	604.31
492.092	622.31
492.31	615.31
492.527	630.31
492.745	620.31
492.963	614.31
493.18	620.31
493.398	631.31
493.615	623.31
493.833	616.31
494.05	614.31
494.268	653.31
494.485	611.31
494.703	622.31
494.92	617.31
495.138	636.31
495.355	613.31
495.573	616.31
495.79	600.31
496.008	612.31
496.225	615.31
496.442	642.31
496.66	627.31
496.877	643.31
497.094	639.31
497.312	625.31
497.529	626.31
497.746	652.31
497.963	649.31
498.181	652.31
498.398	661.31
498.615	643.31
498.832	666.31
499.049	684.31
499.267	683.31
499.484	723.31
499.701	738.31
499.918	754.31
500.135	770.31
500.352	790.31
500.569	809.31
500.786	799.31
501.003	793.31
501.22	807.31
501.437	788.31
501.654	745.31
501.871	762.31
