Data from 1983.PennyLincolnUp.Lamp.En5.5.200Scan.071819.P1_HRD10591_16-55-01-966.txt Node
Date: Thu Jul 18 16:55:01 EDT 2019
User: cochatt
Spectrometer: HR+D1059
Trigger mode: 1
Integration Time (sec): 1.000000E-1
Scans to average: 1
Electric dark correction enabled: true
Nonlinearity correction enabled: false
Boxcar width: 0
XAxis mode: Wavelengths
Number of Pixels in Spectrum: 2048
>>>>>Begin Spectral Data<<<<<
223.165	-10.44
223.4	-10.44
223.635	-10.44
223.869	-14.44
224.104	-28.44
224.338	2.56
224.573	-15.44
224.808	-15.44
225.042	-4.44
225.277	-14.44
225.511	5.56
225.746	11.56
225.98	-12.44
226.215	1.56
226.449	26.56
226.683	11.56
226.918	23.56
227.152	32.56
227.387	22.56
227.621	34.56
227.856	48.56
228.09	48.56
228.324	49.56
228.559	52.56
228.793	61.56
229.027	98.56
229.262	95.56
229.496	92.56
229.73	135.56
229.964	149.56
230.199	122.56
230.433	117.56
230.667	111.56
230.901	111.56
231.136	118.56
231.37	96.56
231.604	113.56
231.838	103.56
232.072	104.56
232.306	100.56
232.541	105.56
232.775	107.56
233.009	110.56
233.243	114.56
233.477	112.56
233.711	120.56
233.945	102.56
234.179	101.56
234.413	107.56
234.647	128.56
234.881	116.56
235.115	100.56
235.349	99.56
235.583	115.56
235.817	104.56
236.051	106.56
236.285	113.56
236.519	83.56
236.753	128.56
236.987	128.56
237.221	167.56
237.455	211.56
237.689	167.56
237.922	136.56
238.156	129.56
238.39	124.56
238.624	118.56
238.858	104.56
239.091	116.56
239.325	113.56
239.559	131.56
239.793	106.56
240.027	106.56
240.26	122.56
240.494	156.56
240.728	134.56
240.961	123.56
241.195	132.56
241.429	127.56
241.662	124.56
241.896	120.56
242.13	129.56
242.363	126.56
242.597	134.56
242.83	125.56
243.064	139.56
243.298	126.56
243.531	118.56
243.765	123.56
243.998	119.56
244.232	123.56
244.465	126.56
244.699	131.56
244.932	140.56
245.166	136.56
245.399	125.56
245.633	124.56
245.866	140.56
246.099	128.56
246.333	132.56
246.566	132.56
246.8	124.56
247.033	130.56
247.266	143.56
247.5	137.56
247.733	162.56
247.966	159.56
248.2	152.56
248.433	162.56
248.666	143.56
248.899	163.56
249.133	199.56
249.366	181.56
249.599	167.56
249.832	161.56
250.066	162.56
250.299	174.56
250.532	178.56
250.765	190.56
250.998	193.56
251.231	199.56
251.465	197.56
251.698	181.56
251.931	167.56
252.164	174.56
252.397	190.56
252.63	164.56
252.863	188.56
253.096	197.56
253.329	199.56
253.562	203.56
253.795	207.56
254.028	195.56
254.261	203.56
254.494	211.56
254.727	220.56
254.96	269.56
255.193	260.56
255.426	208.56
255.659	200.56
255.892	206.56
256.124	226.56
256.357	223.56
256.59	236.56
256.823	210.56
257.056	216.56
257.289	204.56
257.521	199.56
257.754	187.56
257.987	219.56
258.22	210.56
258.452	193.56
258.685	199.56
258.918	176.56
259.151	199.56
259.383	193.56
259.616	201.56
259.849	209.56
260.081	213.56
260.314	222.56
260.547	236.56
260.779	224.56
261.012	206.56
261.244	207.56
261.477	204.56
261.71	206.56
261.942	208.56
262.175	198.56
262.407	196.56
262.64	197.56
262.872	191.56
263.105	188.56
263.337	218.56
263.57	187.56
263.802	184.56
264.035	186.56
264.267	199.56
264.499	179.56
264.732	208.56
264.964	190.56
265.197	197.56
265.429	214.56
265.661	195.56
265.894	203.56
266.126	198.56
266.358	183.56
266.591	205.56
266.823	204.56
267.055	212.56
267.287	208.56
267.52	223.56
267.752	180.56
267.984	201.56
268.216	195.56
268.448	207.56
268.681	213.56
268.913	223.56
269.145	233.56
269.377	248.56
269.609	247.56
269.841	259.56
270.073	251.56
270.306	276.56
270.538	294.56
270.77	294.56
271.002	286.56
271.234	261.56
271.466	268.56
271.698	275.56
271.93	278.56
272.162	282.56
272.394	278.56
272.626	266.56
272.858	257.56
273.09	258.56
273.322	239.56
273.553	233.56
273.785	249.56
274.017	221.56
274.249	238.56
274.481	260.56
274.713	240.56
274.945	251.56
275.176	258.56
275.408	235.56
275.64	260.56
275.872	229.56
276.104	245.56
276.335	231.56
276.567	250.56
276.799	257.56
277.031	264.56
277.262	280.56
277.494	279.56
277.726	287.56
277.957	287.56
278.189	246.56
278.421	250.56
278.652	242.56
278.884	228.56
279.115	255.56
279.347	228.56
279.579	237.56
279.81	226.56
280.042	250.56
280.273	233.56
280.505	249.56
280.736	243.56
280.968	244.56
281.199	254.56
281.431	247.56
281.662	232.56
281.894	241.56
282.125	247.56
282.356	273.56
282.588	295.56
282.819	270.56
283.051	255.56
283.282	254.56
283.513	244.56
283.745	249.56
283.976	250.56
284.207	232.56
284.439	244.56
284.67	247.56
284.901	239.56
285.132	258.56
285.364	238.56
285.595	246.56
285.826	252.56
286.057	255.56
286.288	254.56
286.52	250.56
286.751	252.56
286.982	251.56
287.213	244.56
287.444	266.56
287.675	256.56
287.906	266.56
288.138	274.56
288.369	279.56
288.6	288.56
288.831	275.56
289.062	268.56
289.293	251.56
289.524	236.56
289.755	255.56
289.986	263.56
290.217	259.56
290.448	268.56
290.679	252.56
290.91	252.56
291.141	247.56
291.371	251.56
291.602	260.56
291.833	245.56
292.064	273.56
292.295	253.56
292.526	239.56
292.757	259.56
292.987	264.56
293.218	260.56
293.449	254.56
293.68	242.56
293.91	255.56
294.141	252.56
294.372	269.56
294.603	267.56
294.833	266.56
295.064	256.56
295.295	274.56
295.525	243.56
295.756	267.56
295.987	287.56
296.217	283.56
296.448	300.56
296.679	270.56
296.909	254.56
297.14	261.56
297.37	268.56
297.601	267.56
297.831	263.56
298.062	264.56
298.292	240.56
298.523	267.56
298.753	256.56
298.984	279.56
299.214	297.56
299.445	286.56
299.675	273.56
299.905	296.56
300.136	283.56
300.366	263.56
300.597	280.56
300.827	284.56
301.057	292.56
301.288	307.56
301.518	287.56
301.748	302.56
301.979	277.56
302.209	274.56
302.439	292.56
302.669	309.56
302.9	291.56
303.13	286.56
303.36	306.56
303.59	294.56
303.82	311.56
304.051	295.56
304.281	299.56
304.511	305.56
304.741	275.56
304.971	299.56
305.201	281.56
305.431	287.56
305.661	296.56
305.891	303.56
306.121	303.56
306.352	290.56
306.582	297.56
306.812	302.56
307.042	315.56
307.272	311.56
307.502	292.56
307.731	300.56
307.961	322.56
308.191	291.56
308.421	300.56
308.651	306.56
308.881	291.56
309.111	296.56
309.341	312.56
309.571	311.56
309.8	322.56
310.03	328.56
310.26	340.56
310.49	351.56
310.72	351.56
310.949	342.56
311.179	346.56
311.409	362.56
311.639	334.56
311.868	336.56
312.098	339.56
312.328	363.56
312.557	344.56
312.787	374.56
313.017	389.56
313.246	358.56
313.476	358.56
313.706	341.56
313.935	338.56
314.165	374.56
314.394	361.56
314.624	355.56
314.853	363.56
315.083	350.56
315.312	347.56
315.542	366.56
315.771	328.56
316.001	329.56
316.23	328.56
316.46	339.56
316.689	339.56
316.919	348.56
317.148	347.56
317.377	340.56
317.607	348.56
317.836	343.56
318.065	347.56
318.295	338.56
318.524	311.56
318.753	325.56
318.983	340.56
319.212	344.56
319.441	347.56
319.67	360.56
319.9	358.56
320.129	330.56
320.358	348.56
320.587	351.56
320.816	371.56
321.046	354.56
321.275	375.56
321.504	360.56
321.733	361.56
321.962	378.56
322.191	396.56
322.42	372.56
322.649	406.56
322.878	400.56
323.108	433.56
323.337	442.56
323.566	469.56
323.795	502.56
324.024	544.56
324.253	697.56
324.482	986.56
324.71	1519.56
324.939	1987.56
325.168	1672.56
325.397	912.56
325.626	602.56
325.855	524.56
326.084	484.56
326.313	474.56
326.542	472.56
326.77	517.56
326.999	658.56
327.228	850.56
327.457	1284.56
327.686	1515.56
327.914	984.56
328.143	692.56
328.372	622.56
328.6	603.56
328.829	542.56
329.058	558.56
329.287	560.56
329.515	530.56
329.744	488.56
329.972	508.56
330.201	536.56
330.43	595.56
330.658	592.56
330.887	582.56
331.115	567.56
331.344	514.56
331.572	464.56
331.801	449.56
332.03	446.56
332.258	437.56
332.486	437.56
332.715	435.56
332.943	407.56
333.172	396.56
333.4	417.56
333.629	436.56
333.857	448.56
334.085	477.56
334.314	481.56
334.542	543.56
334.771	571.56
334.999	496.56
335.227	426.56
335.455	412.56
335.684	426.56
335.912	400.56
336.14	384.56
336.369	399.56
336.597	394.56
336.825	400.56
337.053	404.56
337.281	405.56
337.51	408.56
337.738	383.56
337.966	376.56
338.194	396.56
338.422	392.56
338.65	382.56
338.878	384.56
339.106	367.56
339.334	375.56
339.562	387.56
339.79	369.56
340.018	387.56
340.246	388.56
340.474	402.56
340.702	378.56
340.93	349.56
341.158	379.56
341.386	365.56
341.614	382.56
341.842	386.56
342.07	375.56
342.298	374.56
342.526	392.56
342.754	372.56
342.981	380.56
343.209	368.56
343.437	388.56
343.665	374.56
343.893	386.56
344.12	363.56
344.348	398.56
344.576	373.56
344.804	399.56
345.031	387.56
345.259	401.56
345.487	406.56
345.714	380.56
345.942	372.56
346.17	380.56
346.397	370.56
346.625	370.56
346.853	381.56
347.08	377.56
347.308	380.56
347.535	389.56
347.763	395.56
347.99	381.56
348.218	380.56
348.445	380.56
348.673	395.56
348.9	361.56
349.128	366.56
349.355	358.56
349.583	351.56
349.81	361.56
350.037	351.56
350.265	348.56
350.492	370.56
350.72	338.56
350.947	361.56
351.174	384.56
351.402	376.56
351.629	376.56
351.856	382.56
352.083	375.56
352.311	386.56
352.538	387.56
352.765	394.56
352.992	379.56
353.22	382.56
353.447	393.56
353.674	364.56
353.901	342.56
354.128	346.56
354.355	357.56
354.583	345.56
354.81	347.56
355.037	343.56
355.264	330.56
355.491	347.56
355.718	331.56
355.945	322.56
356.172	323.56
356.399	342.56
356.626	345.56
356.853	332.56
357.08	323.56
357.307	334.56
357.534	335.56
357.761	335.56
357.988	321.56
358.215	344.56
358.441	344.56
358.668	344.56
358.895	351.56
359.122	341.56
359.349	352.56
359.576	344.56
359.802	389.56
360.029	411.56
360.256	426.56
360.483	412.56
360.709	386.56
360.936	389.56
361.163	380.56
361.39	373.56
361.616	373.56
361.843	368.56
362.07	366.56
362.296	384.56
362.523	355.56
362.749	378.56
362.976	357.56
363.203	359.56
363.429	343.56
363.656	355.56
363.882	350.56
364.109	353.56
364.335	348.56
364.562	352.56
364.788	346.56
365.015	340.56
365.241	342.56
365.468	347.56
365.694	350.56
365.92	354.56
366.147	356.56
366.373	333.56
366.599	332.56
366.826	330.56
367.052	329.56
367.278	333.56
367.505	352.56
367.731	349.56
367.957	359.56
368.184	362.56
368.41	346.56
368.636	353.56
368.862	375.56
369.089	366.56
369.315	364.56
369.541	340.56
369.767	340.56
369.993	361.56
370.219	347.56
370.445	342.56
370.672	335.56
370.898	350.56
371.124	321.56
371.35	362.56
371.576	353.56
371.802	339.56
372.028	350.56
372.254	322.56
372.48	335.56
372.706	334.56
372.932	336.56
373.158	350.56
373.384	340.56
373.61	339.56
373.835	350.56
374.061	341.56
374.287	336.56
374.513	340.56
374.739	351.56
374.965	371.56
375.191	348.56
375.416	342.56
375.642	331.56
375.868	343.56
376.094	353.56
376.319	342.56
376.545	340.56
376.771	346.56
376.997	333.56
377.222	345.56
377.448	353.56
377.674	332.56
377.899	325.56
378.125	316.56
378.35	338.56
378.576	318.56
378.802	329.56
379.027	311.56
379.253	347.56
379.478	339.56
379.704	349.56
379.929	325.56
380.155	338.56
380.38	336.56
380.606	337.56
380.831	353.56
381.057	333.56
381.282	327.56
381.507	356.56
381.733	327.56
381.958	332.56
382.184	344.56
382.409	350.56
382.634	359.56
382.86	342.56
383.085	343.56
383.31	348.56
383.535	346.56
383.761	322.56
383.986	345.56
384.211	353.56
384.436	362.56
384.662	348.56
384.887	354.56
385.112	348.56
385.337	372.56
385.562	364.56
385.787	368.56
386.013	363.56
386.238	401.56
386.463	376.56
386.688	368.56
386.913	352.56
387.138	344.56
387.363	340.56
387.588	354.56
387.813	360.56
388.038	354.56
388.263	384.56
388.488	367.56
388.713	366.56
388.938	373.56
389.163	366.56
389.387	378.56
389.612	379.56
389.837	348.56
390.062	368.56
390.287	348.56
390.512	350.56
390.736	366.56
390.961	374.56
391.186	374.56
391.411	376.56
391.636	384.56
391.86	368.56
392.085	360.56
392.31	359.56
392.534	372.56
392.759	371.56
392.984	359.56
393.208	359.56
393.433	373.56
393.658	359.56
393.882	370.56
394.107	347.56
394.331	361.56
394.556	354.56
394.78	367.56
395.005	377.56
395.229	371.56
395.454	374.56
395.678	376.56
395.903	395.56
396.127	384.56
396.352	412.56
396.576	377.56
396.801	362.56
397.025	367.56
397.249	375.56
397.474	404.56
397.698	386.56
397.922	416.56
398.147	394.56
398.371	423.56
398.595	390.56
398.82	382.56
399.044	400.56
399.268	408.56
399.492	440.56
399.717	448.56
399.941	473.56
400.165	473.56
400.389	510.56
400.613	450.56
400.837	424.56
401.062	413.56
401.286	396.56
401.51	411.56
401.734	415.56
401.958	404.56
402.182	418.56
402.406	423.56
402.63	434.56
402.854	426.56
403.078	428.56
403.302	418.56
403.526	420.56
403.75	424.56
403.974	423.56
404.198	419.56
404.422	427.56
404.645	416.56
404.869	428.56
405.093	474.56
405.317	514.56
405.541	512.56
405.765	454.56
405.988	450.56
406.212	450.56
406.436	463.56
406.66	488.56
406.883	475.56
407.107	467.56
407.331	491.56
407.555	547.56
407.778	538.56
408.002	522.56
408.226	486.56
408.449	483.56
408.673	452.56
408.896	495.56
409.12	518.56
409.344	491.56
409.567	447.56
409.791	431.56
410.014	435.56
410.238	430.56
410.461	419.56
410.685	425.56
410.908	422.56
411.132	469.56
411.355	463.56
411.578	458.56
411.802	449.56
412.025	429.56
412.249	428.56
412.472	473.56
412.695	494.56
412.919	488.56
413.142	442.56
413.365	431.56
413.589	434.56
413.812	410.56
414.035	436.56
414.258	407.56
414.482	414.56
414.705	381.56
414.928	393.56
415.151	396.56
415.374	398.56
415.597	430.56
415.821	420.56
416.044	400.56
416.267	412.56
416.49	396.56
416.713	408.56
416.936	403.56
417.159	406.56
417.382	400.56
417.605	395.56
417.828	430.56
418.051	436.56
418.274	423.56
418.497	394.56
418.72	392.56
418.943	410.56
419.166	412.56
419.389	447.56
419.611	438.56
419.834	419.56
420.057	434.56
420.28	446.56
420.503	410.56
420.726	416.56
420.948	457.56
421.171	477.56
421.394	468.56
421.617	453.56
421.839	435.56
422.062	447.56
422.285	430.56
422.507	471.56
422.73	521.56
422.953	504.56
423.175	455.56
423.398	434.56
423.621	461.56
423.843	461.56
424.066	450.56
424.288	454.56
424.511	469.56
424.733	535.56
424.956	556.56
425.178	544.56
425.401	537.56
425.623	565.56
425.846	494.56
426.068	459.56
426.291	449.56
426.513	450.56
426.735	468.56
426.958	505.56
427.18	554.56
427.402	641.56
427.625	710.56
427.847	650.56
428.069	555.56
428.292	510.56
428.514	484.56
428.736	424.56
428.958	438.56
429.181	427.56
429.403	417.56
429.625	446.56
429.847	464.56
430.069	488.56
430.292	508.56
430.514	450.56
430.736	430.56
430.958	430.56
431.18	419.56
431.402	393.56
431.624	395.56
431.846	387.56
432.068	390.56
432.29	398.56
432.512	408.56
432.734	391.56
432.956	400.56
433.178	410.56
433.4	425.56
433.622	415.56
433.844	422.56
434.066	406.56
434.287	396.56
434.509	391.56
434.731	420.56
434.953	417.56
435.175	418.56
435.397	444.56
435.618	458.56
435.84	510.56
436.062	567.56
436.284	601.56
436.505	513.56
436.727	466.56
436.949	430.56
437.17	410.56
437.392	418.56
437.614	424.56
437.835	463.56
438.057	580.56
438.278	608.56
438.5	602.56
438.721	652.56
438.943	616.56
439.165	510.56
439.386	470.56
439.608	466.56
439.829	480.56
440.05	493.56
440.272	534.56
440.493	485.56
440.715	450.56
440.936	423.56
441.158	421.56
441.379	449.56
441.6	445.56
441.822	432.56
442.043	505.56
442.264	547.56
442.486	576.56
442.707	494.56
442.928	460.56
443.149	474.56
443.371	488.56
443.592	521.56
443.813	588.56
444.034	614.56
444.255	538.56
444.476	462.56
444.698	480.56
444.919	456.56
445.14	580.56
445.361	525.56
445.582	528.56
445.803	546.56
446.024	610.56
446.245	616.56
446.466	574.56
446.687	497.56
446.908	450.56
447.129	452.56
447.35	426.56
447.571	434.56
447.792	421.56
448.013	419.56
448.234	449.56
448.455	484.56
448.675	559.56
448.896	648.56
449.117	568.56
449.338	520.56
449.559	632.56
449.779	689.56
450	547.56
450.221	455.56
450.442	425.56
450.662	426.56
450.883	421.56
451.104	456.56
451.324	428.56
451.545	413.56
451.766	412.56
451.986	374.56
452.207	402.56
452.428	371.56
452.648	366.56
452.869	370.56
453.089	393.56
453.31	396.56
453.53	373.56
453.751	380.56
453.971	380.56
454.192	416.56
454.412	388.56
454.633	380.56
454.853	389.56
455.073	399.56
455.294	409.56
455.514	450.56
455.734	457.56
455.955	379.56
456.175	368.56
456.395	382.56
456.616	382.56
456.836	351.56
457.056	358.56
457.276	348.56
457.497	368.56
457.717	364.56
457.937	377.56
458.157	347.56
458.377	368.56
458.598	405.56
458.818	442.56
459.038	536.56
459.258	520.56
459.478	435.56
459.698	389.56
459.918	408.56
460.138	388.56
460.358	409.56
460.578	386.56
460.798	410.56
461.018	396.56
461.238	400.56
461.458	382.56
461.678	405.56
461.898	390.56
462.118	407.56
462.338	389.56
462.558	396.56
462.777	394.56
462.997	428.56
463.217	407.56
463.437	426.56
463.657	423.56
463.876	410.56
464.096	415.56
464.316	415.56
464.536	426.56
464.755	424.56
464.975	420.56
465.195	488.56
465.414	558.56
465.634	471.56
465.854	440.56
466.073	413.56
466.293	428.56
466.512	393.56
466.732	391.56
466.951	383.56
467.171	391.56
467.391	417.56
467.61	405.56
467.829	425.56
468.049	418.56
468.268	407.56
468.488	415.56
468.707	387.56
468.927	375.56
469.146	382.56
469.365	379.56
469.585	370.56
469.804	379.56
470.023	398.56
470.243	404.56
470.462	412.56
470.681	433.56
470.901	428.56
471.12	403.56
471.339	389.56
471.558	406.56
471.777	403.56
471.997	397.56
472.216	410.56
472.435	462.56
472.654	445.56
472.873	403.56
473.092	408.56
473.311	397.56
473.53	402.56
473.749	404.56
473.968	443.56
474.187	536.56
474.406	537.56
474.625	454.56
474.844	415.56
475.063	410.56
475.282	424.56
475.501	411.56
475.72	404.56
475.939	414.56
476.158	421.56
476.377	406.56
476.596	392.56
476.814	412.56
477.033	420.56
477.252	427.56
477.471	415.56
477.69	413.56
477.908	426.56
478.127	423.56
478.346	441.56
478.564	422.56
478.783	442.56
479.002	446.56
479.22	450.56
479.439	450.56
479.658	482.56
479.876	494.56
480.095	482.56
480.313	476.56
480.532	489.56
480.751	479.56
480.969	515.56
481.188	604.56
481.406	685.56
481.624	556.56
481.843	492.56
482.061	474.56
482.28	479.56
482.498	466.56
482.717	468.56
482.935	472.56
483.153	440.56
483.372	452.56
483.59	474.56
483.808	483.56
484.027	465.56
484.245	468.56
484.463	483.56
484.681	478.56
484.9	472.56
485.118	483.56
485.336	479.56
485.554	481.56
485.772	495.56
485.99	474.56
486.209	467.56
486.427	491.56
486.645	494.56
486.863	516.56
487.081	511.56
487.299	496.56
487.517	504.56
487.735	500.56
487.953	495.56
488.171	470.56
488.389	513.56
488.607	506.56
488.825	486.56
489.043	504.56
489.261	503.56
489.479	515.56
489.696	488.56
489.914	528.56
490.132	507.56
490.35	530.56
490.568	537.56
490.786	534.56
491.003	578.56
491.221	548.56
491.439	594.56
491.657	566.56
491.874	577.56
492.092	583.56
492.31	593.56
492.527	598.56
492.745	604.56
492.963	604.56
493.18	603.56
493.398	603.56
493.615	608.56
493.833	600.56
494.05	589.56
494.268	611.56
494.485	595.56
494.703	600.56
494.92	598.56
495.138	582.56
495.355	604.56
495.573	610.56
495.79	583.56
496.008	610.56
496.225	587.56
496.442	587.56
496.66	601.56
496.877	597.56
497.094	586.56
497.312	591.56
497.529	598.56
497.746	601.56
497.963	617.56
498.181	623.56
498.398	636.56
498.615	634.56
498.832	659.56
499.049	640.56
499.267	678.56
499.484	675.56
499.701	707.56
499.918	734.56
500.135	720.56
500.352	770.56
500.569	765.56
500.786	772.56
501.003	770.56
501.22	760.56
501.437	745.56
501.654	747.56
501.871	738.56
502.088	687.56
