Data from 1983.PennyLincolnUp.Lamp.En5.5.200Scan.071819.P1_HRD10591_16-52-40-965.txt Node
Date: Thu Jul 18 16:52:40 EDT 2019
User: cochatt
Spectrometer: HR+D1059
Trigger mode: 1
Integration Time (sec): 1.000000E-1
Scans to average: 1
Electric dark correction enabled: true
Nonlinearity correction enabled: false
Boxcar width: 0
XAxis mode: Wavelengths
Number of Pixels in Spectrum: 2048
>>>>>Begin Spectral Data<<<<<
223.165	-20.44
223.4	-20.44
223.635	-20.44
223.869	-27.44
224.104	-25.44
224.338	-15.44
224.573	-15.44
224.808	-1.44
225.042	-1.44
225.277	-4.44
225.511	12.56
225.746	-3.44
225.98	1.56
226.215	22.56
226.449	10.56
226.683	15.56
226.918	19.56
227.152	32.56
227.387	40.56
227.621	34.56
227.856	44.56
228.09	45.56
228.324	54.56
228.559	58.56
228.793	63.56
229.027	94.56
229.262	103.56
229.496	107.56
229.73	128.56
229.964	141.56
230.199	107.56
230.433	98.56
230.667	111.56
230.901	109.56
231.136	101.56
231.37	107.56
231.604	97.56
231.838	117.56
232.072	106.56
232.306	116.56
232.541	97.56
232.775	106.56
233.009	108.56
233.243	126.56
233.477	95.56
233.711	99.56
233.945	119.56
234.179	109.56
234.413	118.56
234.647	86.56
234.881	116.56
235.115	114.56
235.349	107.56
235.583	92.56
235.817	106.56
236.051	128.56
236.285	126.56
236.519	124.56
236.753	120.56
236.987	134.56
237.221	167.56
237.455	187.56
237.689	161.56
237.922	138.56
238.156	128.56
238.39	118.56
238.624	122.56
238.858	114.56
239.091	106.56
239.325	114.56
239.559	121.56
239.793	112.56
240.027	110.56
240.26	137.56
240.494	146.56
240.728	129.56
240.961	127.56
241.195	129.56
241.429	119.56
241.662	134.56
241.896	116.56
242.13	118.56
242.363	122.56
242.597	108.56
242.83	144.56
243.064	126.56
243.298	133.56
243.531	126.56
243.765	129.56
243.998	122.56
244.232	126.56
244.465	135.56
244.699	131.56
244.932	127.56
245.166	130.56
245.399	140.56
245.633	122.56
245.866	127.56
246.099	131.56
246.333	130.56
246.566	142.56
246.8	132.56
247.033	137.56
247.266	137.56
247.5	139.56
247.733	140.56
247.966	147.56
248.2	150.56
248.433	138.56
248.666	149.56
248.899	160.56
249.133	175.56
249.366	167.56
249.599	162.56
249.832	143.56
250.066	170.56
250.299	145.56
250.532	159.56
250.765	166.56
250.998	188.56
251.231	185.56
251.465	186.56
251.698	176.56
251.931	173.56
252.164	178.56
252.397	165.56
252.63	186.56
252.863	178.56
253.096	190.56
253.329	193.56
253.562	199.56
253.795	202.56
254.028	172.56
254.261	211.56
254.494	203.56
254.727	204.56
254.96	232.56
255.193	249.56
255.426	221.56
255.659	216.56
255.892	202.56
256.124	204.56
256.357	195.56
256.59	183.56
256.823	183.56
257.056	171.56
257.289	182.56
257.521	197.56
257.754	189.56
257.987	178.56
258.22	186.56
258.452	176.56
258.685	188.56
258.918	175.56
259.151	178.56
259.383	188.56
259.616	197.56
259.849	205.56
260.081	177.56
260.314	229.56
260.547	223.56
260.779	195.56
261.012	194.56
261.244	206.56
261.477	200.56
261.71	185.56
261.942	208.56
262.175	204.56
262.407	208.56
262.64	206.56
262.872	197.56
263.105	197.56
263.337	201.56
263.57	194.56
263.802	201.56
264.035	186.56
264.267	186.56
264.499	183.56
264.732	191.56
264.964	196.56
265.197	197.56
265.429	194.56
265.661	197.56
265.894	196.56
266.126	185.56
266.358	192.56
266.591	196.56
266.823	204.56
267.055	195.56
267.287	198.56
267.52	197.56
267.752	194.56
267.984	203.56
268.216	212.56
268.448	229.56
268.681	217.56
268.913	214.56
269.145	224.56
269.377	240.56
269.609	224.56
269.841	222.56
270.073	234.56
270.306	244.56
270.538	263.56
270.77	265.56
271.002	264.56
271.234	253.56
271.466	247.56
271.698	261.56
271.93	273.56
272.162	283.56
272.394	275.56
272.626	254.56
272.858	254.56
273.09	243.56
273.322	223.56
273.553	248.56
273.785	237.56
274.017	224.56
274.249	231.56
274.481	218.56
274.713	237.56
274.945	243.56
275.176	217.56
275.408	235.56
275.64	223.56
275.872	227.56
276.104	239.56
276.335	224.56
276.567	228.56
276.799	243.56
277.031	274.56
277.262	281.56
277.494	259.56
277.726	270.56
277.957	256.56
278.189	242.56
278.421	239.56
278.652	246.56
278.884	230.56
279.115	231.56
279.347	223.56
279.579	233.56
279.81	221.56
280.042	230.56
280.273	210.56
280.505	228.56
280.736	220.56
280.968	224.56
281.199	233.56
281.431	235.56
281.662	232.56
281.894	229.56
282.125	238.56
282.356	225.56
282.588	239.56
282.819	258.56
283.051	236.56
283.282	228.56
283.513	242.56
283.745	216.56
283.976	252.56
284.207	239.56
284.439	235.56
284.67	247.56
284.901	260.56
285.132	242.56
285.364	218.56
285.595	240.56
285.826	237.56
286.057	241.56
286.288	242.56
286.52	233.56
286.751	238.56
286.982	262.56
287.213	246.56
287.444	247.56
287.675	258.56
287.906	262.56
288.138	250.56
288.369	260.56
288.6	247.56
288.831	249.56
289.062	250.56
289.293	244.56
289.524	260.56
289.755	266.56
289.986	245.56
290.217	238.56
290.448	255.56
290.679	260.56
290.91	233.56
291.141	231.56
291.371	247.56
291.602	277.56
291.833	248.56
292.064	255.56
292.295	252.56
292.526	264.56
292.757	250.56
292.987	232.56
293.218	273.56
293.449	242.56
293.68	249.56
293.91	273.56
294.141	245.56
294.372	234.56
294.603	276.56
294.833	270.56
295.064	258.56
295.295	262.56
295.525	251.56
295.756	281.56
295.987	272.56
296.217	285.56
296.448	306.56
296.679	256.56
296.909	254.56
297.14	247.56
297.37	247.56
297.601	256.56
297.831	247.56
298.062	259.56
298.292	251.56
298.523	270.56
298.753	269.56
298.984	246.56
299.214	254.56
299.445	270.56
299.675	275.56
299.905	281.56
300.136	258.56
300.366	279.56
300.597	276.56
300.827	289.56
301.057	272.56
301.288	277.56
301.518	306.56
301.748	282.56
301.979	285.56
302.209	286.56
302.439	288.56
302.669	282.56
302.9	276.56
303.13	269.56
303.36	285.56
303.59	296.56
303.82	288.56
304.051	277.56
304.281	279.56
304.511	273.56
304.741	285.56
304.971	293.56
305.201	284.56
305.431	296.56
305.661	301.56
305.891	282.56
306.121	271.56
306.352	292.56
306.582	300.56
306.812	282.56
307.042	278.56
307.272	303.56
307.502	279.56
307.731	292.56
307.961	277.56
308.191	285.56
308.421	302.56
308.651	299.56
308.881	287.56
309.111	272.56
309.341	287.56
309.571	304.56
309.8	306.56
310.03	317.56
310.26	322.56
310.49	313.56
310.72	340.56
310.949	341.56
311.179	340.56
311.409	339.56
311.639	331.56
311.868	330.56
312.098	332.56
312.328	322.56
312.557	340.56
312.787	328.56
313.017	336.56
313.246	343.56
313.476	320.56
313.706	329.56
313.935	342.56
314.165	326.56
314.394	356.56
314.624	348.56
314.853	334.56
315.083	320.56
315.312	324.56
315.542	323.56
315.771	327.56
316.001	317.56
316.23	319.56
316.46	322.56
316.689	324.56
316.919	319.56
317.148	352.56
317.377	353.56
317.607	337.56
317.836	333.56
318.065	342.56
318.295	326.56
318.524	318.56
318.753	343.56
318.983	322.56
319.212	333.56
319.441	336.56
319.67	335.56
319.9	345.56
320.129	313.56
320.358	332.56
320.587	353.56
320.816	351.56
321.046	340.56
321.275	344.56
321.504	335.56
321.733	353.56
321.962	343.56
322.191	360.56
322.42	372.56
322.649	384.56
322.878	382.56
323.108	392.56
323.337	412.56
323.566	414.56
323.795	464.56
324.024	500.56
324.253	603.56
324.482	827.56
324.71	1208.56
324.939	1648.56
325.168	1394.56
325.397	761.56
325.626	534.56
325.855	470.56
326.084	424.56
326.313	422.56
326.542	418.56
326.77	459.56
326.999	540.56
327.228	729.56
327.457	1069.56
327.686	1209.56
327.914	833.56
328.143	564.56
328.372	518.56
328.6	474.56
328.829	460.56
329.058	478.56
329.287	484.56
329.515	444.56
329.744	422.56
329.972	423.56
330.201	401.56
330.43	446.56
330.658	467.56
330.887	498.56
331.115	488.56
331.344	440.56
331.572	406.56
331.801	397.56
332.03	379.56
332.258	396.56
332.486	381.56
332.715	371.56
332.943	395.56
333.172	365.56
333.4	381.56
333.629	369.56
333.857	398.56
334.085	401.56
334.314	386.56
334.542	405.56
334.771	386.56
334.999	400.56
335.227	388.56
335.455	395.56
335.684	381.56
335.912	374.56
336.14	378.56
336.369	364.56
336.597	376.56
336.825	388.56
337.053	375.56
337.281	370.56
337.51	355.56
337.738	368.56
337.966	387.56
338.194	378.56
338.422	390.56
338.65	373.56
338.878	379.56
339.106	367.56
339.334	378.56
339.562	349.56
339.79	372.56
340.018	379.56
340.246	374.56
340.474	357.56
340.702	382.56
340.93	344.56
341.158	378.56
341.386	361.56
341.614	351.56
341.842	374.56
342.07	340.56
342.298	335.56
342.526	353.56
342.754	347.56
342.981	366.56
343.209	343.56
343.437	357.56
343.665	353.56
343.893	352.56
344.12	377.56
344.348	374.56
344.576	372.56
344.804	373.56
345.031	386.56
345.259	397.56
345.487	382.56
345.714	336.56
345.942	345.56
346.17	364.56
346.397	359.56
346.625	350.56
346.853	350.56
347.08	346.56
347.308	361.56
347.535	374.56
347.763	382.56
347.99	357.56
348.218	372.56
348.445	367.56
348.673	368.56
348.9	338.56
349.128	366.56
349.355	346.56
349.583	346.56
349.81	358.56
350.037	351.56
350.265	335.56
350.492	351.56
350.72	335.56
350.947	332.56
351.174	359.56
351.402	364.56
351.629	373.56
351.856	374.56
352.083	355.56
352.311	367.56
352.538	379.56
352.765	381.56
352.992	373.56
353.22	351.56
353.447	360.56
353.674	359.56
353.901	352.56
354.128	357.56
354.355	338.56
354.583	333.56
354.81	326.56
355.037	337.56
355.264	326.56
355.491	320.56
355.718	319.56
355.945	331.56
356.172	334.56
356.399	325.56
356.626	353.56
356.853	340.56
357.08	331.56
357.307	340.56
357.534	330.56
357.761	322.56
357.988	339.56
358.215	335.56
358.441	338.56
358.668	329.56
358.895	335.56
359.122	336.56
359.349	352.56
359.576	352.56
359.802	381.56
360.029	400.56
360.256	389.56
360.483	397.56
360.709	359.56
360.936	372.56
361.163	345.56
361.39	347.56
361.616	364.56
361.843	357.56
362.07	332.56
362.296	381.56
362.523	351.56
362.749	347.56
362.976	355.56
363.203	338.56
363.429	330.56
363.656	349.56
363.882	337.56
364.109	343.56
364.335	325.56
364.562	353.56
364.788	330.56
365.015	335.56
365.241	338.56
365.468	357.56
365.694	343.56
365.92	348.56
366.147	351.56
366.373	324.56
366.599	328.56
366.826	332.56
367.052	334.56
367.278	335.56
367.505	348.56
367.731	341.56
367.957	341.56
368.184	335.56
368.41	347.56
368.636	350.56
368.862	342.56
369.089	356.56
369.315	354.56
369.541	364.56
369.767	327.56
369.993	338.56
370.219	320.56
370.445	331.56
370.672	330.56
370.898	348.56
371.124	339.56
371.35	358.56
371.576	327.56
371.802	313.56
372.028	329.56
372.254	342.56
372.48	348.56
372.706	340.56
372.932	321.56
373.158	351.56
373.384	335.56
373.61	317.56
373.835	341.56
374.061	337.56
374.287	343.56
374.513	336.56
374.739	337.56
374.965	335.56
375.191	352.56
375.416	327.56
375.642	363.56
375.868	361.56
376.094	350.56
376.319	350.56
376.545	344.56
376.771	332.56
376.997	328.56
377.222	340.56
377.448	347.56
377.674	348.56
377.899	324.56
378.125	344.56
378.35	332.56
378.576	343.56
378.802	315.56
379.027	335.56
379.253	333.56
379.478	337.56
379.704	338.56
379.929	349.56
380.155	322.56
380.38	345.56
380.606	345.56
380.831	357.56
381.057	346.56
381.282	340.56
381.507	327.56
381.733	338.56
381.958	333.56
382.184	359.56
382.409	355.56
382.634	362.56
382.86	358.56
383.085	343.56
383.31	336.56
383.535	343.56
383.761	337.56
383.986	343.56
384.211	336.56
384.436	347.56
384.662	357.56
384.887	351.56
385.112	344.56
385.337	347.56
385.562	346.56
385.787	363.56
386.013	381.56
386.238	374.56
386.463	372.56
386.688	334.56
386.913	368.56
387.138	356.56
387.363	349.56
387.588	353.56
387.813	363.56
388.038	367.56
388.263	356.56
388.488	356.56
388.713	362.56
388.938	360.56
389.163	370.56
389.387	362.56
389.612	342.56
389.837	357.56
390.062	348.56
390.287	365.56
390.512	368.56
390.736	340.56
390.961	358.56
391.186	378.56
391.411	386.56
391.636	362.56
391.86	366.56
392.085	383.56
392.31	385.56
392.534	368.56
392.759	369.56
392.984	344.56
393.208	367.56
393.433	371.56
393.658	380.56
393.882	358.56
394.107	338.56
394.331	351.56
394.556	350.56
394.78	346.56
395.005	366.56
395.229	349.56
395.454	377.56
395.678	366.56
395.903	363.56
396.127	380.56
396.352	400.56
396.576	384.56
396.801	355.56
397.025	370.56
397.249	375.56
397.474	385.56
397.698	405.56
397.922	386.56
398.147	390.56
398.371	409.56
398.595	397.56
398.82	401.56
399.044	391.56
399.268	420.56
399.492	456.56
399.717	462.56
399.941	495.56
400.165	499.56
400.389	471.56
400.613	464.56
400.837	434.56
401.062	415.56
401.286	434.56
401.51	404.56
401.734	409.56
401.958	394.56
402.182	411.56
402.406	415.56
402.63	426.56
402.854	429.56
403.078	419.56
403.302	418.56
403.526	435.56
403.75	412.56
403.974	422.56
404.198	416.56
404.422	411.56
404.645	435.56
404.869	419.56
405.093	437.56
405.317	431.56
405.541	464.56
405.765	448.56
405.988	448.56
406.212	451.56
406.436	476.56
406.66	486.56
406.883	492.56
407.107	479.56
407.331	505.56
407.555	529.56
407.778	540.56
408.002	507.56
408.226	460.56
408.449	454.56
408.673	467.56
408.896	477.56
409.12	502.56
409.344	479.56
409.567	426.56
409.791	425.56
410.014	428.56
410.238	410.56
410.461	418.56
410.685	431.56
410.908	443.56
411.132	449.56
411.355	482.56
411.578	470.56
411.802	440.56
412.025	398.56
412.249	406.56
412.472	435.56
412.695	431.56
412.919	398.56
413.142	408.56
413.365	401.56
413.589	413.56
413.812	405.56
414.035	390.56
414.258	400.56
414.482	403.56
414.705	403.56
414.928	412.56
415.151	393.56
415.374	385.56
415.597	397.56
415.821	382.56
416.044	408.56
416.267	415.56
416.49	409.56
416.713	400.56
416.936	382.56
417.159	388.56
417.382	405.56
417.605	394.56
417.828	390.56
418.051	415.56
418.274	403.56
418.497	416.56
418.72	384.56
418.943	386.56
419.166	408.56
419.389	430.56
419.611	443.56
419.834	419.56
420.057	411.56
420.28	391.56
420.503	394.56
420.726	424.56
420.948	411.56
421.171	456.56
421.394	468.56
421.617	429.56
421.839	414.56
422.062	422.56
422.285	435.56
422.507	478.56
422.73	516.56
422.953	485.56
423.175	439.56
423.398	434.56
423.621	440.56
423.843	427.56
424.066	442.56
424.288	440.56
424.511	454.56
424.733	503.56
424.956	558.56
425.178	545.56
425.401	518.56
425.623	533.56
425.846	469.56
426.068	446.56
426.291	432.56
426.513	465.56
426.735	452.56
426.958	502.56
427.18	548.56
427.402	611.56
427.625	675.56
427.847	598.56
428.069	518.56
428.292	477.56
428.514	412.56
428.736	413.56
428.958	420.56
429.181	412.56
429.403	405.56
429.625	420.56
429.847	442.56
430.069	506.56
430.292	504.56
430.514	424.56
430.736	396.56
430.958	408.56
431.18	401.56
431.402	398.56
431.624	393.56
431.846	390.56
432.068	383.56
432.29	380.56
432.512	390.56
432.734	383.56
432.956	403.56
433.178	419.56
433.4	400.56
433.622	404.56
433.844	400.56
434.066	404.56
434.287	393.56
434.509	384.56
434.731	398.56
434.953	432.56
435.175	409.56
435.397	420.56
435.618	459.56
435.84	460.56
436.062	534.56
436.284	568.56
436.505	489.56
436.727	448.56
436.949	408.56
437.17	414.56
437.392	399.56
437.614	414.56
437.835	440.56
438.057	527.56
438.278	598.56
438.5	584.56
438.721	670.56
438.943	631.56
439.165	498.56
439.386	468.56
439.608	451.56
439.829	465.56
440.05	474.56
440.272	484.56
440.493	464.56
440.715	428.56
440.936	425.56
441.158	410.56
441.379	415.56
441.6	418.56
441.822	439.56
442.043	471.56
442.264	516.56
442.486	569.56
442.707	514.56
442.928	481.56
443.149	465.56
443.371	465.56
443.592	502.56
443.813	591.56
444.034	594.56
444.255	514.56
444.476	467.56
444.698	464.56
444.919	451.56
445.14	554.56
445.361	518.56
445.582	470.56
445.803	540.56
446.024	585.56
446.245	593.56
446.466	544.56
446.687	473.56
446.908	443.56
447.129	441.56
447.35	431.56
447.571	413.56
447.792	404.56
448.013	416.56
448.234	435.56
448.455	481.56
448.675	575.56
448.896	637.56
449.117	550.56
449.338	508.56
449.559	628.56
449.779	648.56
450	545.56
450.221	450.56
450.442	437.56
450.662	408.56
450.883	436.56
451.104	428.56
451.324	403.56
451.545	410.56
451.766	394.56
451.986	386.56
452.207	358.56
452.428	386.56
452.648	382.56
452.869	382.56
453.089	395.56
453.31	389.56
453.53	396.56
453.751	365.56
453.971	378.56
454.192	388.56
454.412	410.56
454.633	374.56
454.853	386.56
455.073	384.56
455.294	389.56
455.514	450.56
455.734	409.56
455.955	355.56
456.175	360.56
456.395	358.56
456.616	372.56
456.836	361.56
457.056	363.56
457.276	345.56
457.497	373.56
457.717	340.56
457.937	346.56
458.157	355.56
458.377	373.56
458.598	370.56
458.818	431.56
459.038	503.56
459.258	495.56
459.478	423.56
459.698	390.56
459.918	406.56
460.138	395.56
460.358	390.56
460.578	408.56
460.798	411.56
461.018	403.56
461.238	385.56
461.458	396.56
461.678	396.56
461.898	427.56
462.118	398.56
462.338	397.56
462.558	399.56
462.777	401.56
462.997	434.56
463.217	430.56
463.437	426.56
463.657	419.56
463.876	429.56
464.096	410.56
464.316	424.56
464.536	420.56
464.755	430.56
464.975	455.56
465.195	459.56
465.414	510.56
465.634	457.56
465.854	421.56
466.073	400.56
466.293	401.56
466.512	383.56
466.732	395.56
466.951	392.56
467.171	383.56
467.391	396.56
467.61	372.56
467.829	358.56
468.049	384.56
468.268	388.56
468.488	382.56
468.707	364.56
468.927	394.56
469.146	386.56
469.365	387.56
469.585	360.56
469.804	380.56
470.023	401.56
470.243	388.56
470.462	384.56
470.681	414.56
470.901	422.56
471.12	394.56
471.339	384.56
471.558	381.56
471.777	406.56
471.997	393.56
472.216	411.56
472.435	385.56
472.654	372.56
472.873	388.56
473.092	394.56
473.311	384.56
473.53	380.56
473.749	390.56
473.968	444.56
474.187	508.56
474.406	506.56
474.625	413.56
474.844	394.56
475.063	394.56
475.282	401.56
475.501	395.56
475.72	404.56
475.939	383.56
476.158	407.56
476.377	419.56
476.596	381.56
476.814	405.56
477.033	419.56
477.252	407.56
477.471	407.56
477.69	420.56
477.908	426.56
478.127	431.56
478.346	438.56
478.564	422.56
478.783	432.56
479.002	454.56
479.22	445.56
479.439	441.56
479.658	445.56
479.876	462.56
480.095	450.56
480.313	490.56
480.532	495.56
480.751	474.56
480.969	469.56
481.188	472.56
481.406	459.56
481.624	455.56
481.843	443.56
482.061	460.56
482.28	445.56
482.498	444.56
482.717	425.56
482.935	448.56
483.153	459.56
483.372	466.56
483.59	444.56
483.808	444.56
484.027	460.56
484.245	446.56
484.463	458.56
484.681	445.56
484.9	459.56
485.118	460.56
485.336	450.56
485.554	453.56
485.772	468.56
485.99	466.56
486.209	451.56
486.427	465.56
486.645	478.56
486.863	480.56
487.081	479.56
487.299	451.56
487.517	489.56
487.735	515.56
487.953	475.56
488.171	468.56
488.389	477.56
488.607	479.56
488.825	509.56
489.043	477.56
489.261	485.56
489.479	475.56
489.696	482.56
489.914	493.56
490.132	498.56
490.35	495.56
490.568	495.56
490.786	523.56
491.003	515.56
491.221	511.56
491.439	521.56
491.657	543.56
491.874	536.56
492.092	538.56
492.31	554.56
492.527	524.56
492.745	536.56
492.963	564.56
493.18	540.56
493.398	550.56
493.615	563.56
493.833	567.56
494.05	555.56
494.268	550.56
494.485	561.56
494.703	550.56
494.92	535.56
495.138	550.56
495.355	529.56
495.573	557.56
495.79	572.56
496.008	585.56
496.225	576.56
496.442	560.56
496.66	561.56
496.877	556.56
497.094	581.56
497.312	571.56
497.529	552.56
497.746	566.56
497.963	584.56
498.181	576.56
498.398	599.56
498.615	605.56
498.832	632.56
499.049	641.56
499.267	640.56
499.484	674.56
499.701	676.56
499.918	683.56
500.135	721.56
500.352	750.56
500.569	788.56
500.786	772.56
501.003	772.56
501.22	759.56
501.437	739.56
501.654	711.56
501.871	692.56
502.088	708.56
