Data from 1983.PennyLincolnUp.Lamp.En5.5.200Scan.071819.P1_HRD10591_16-53-41-965.txt Node
Date: Thu Jul 18 16:53:41 EDT 2019
User: cochatt
Spectrometer: HR+D1059
Trigger mode: 1
Integration Time (sec): 1.000000E-1
Scans to average: 1
Electric dark correction enabled: true
Nonlinearity correction enabled: false
Boxcar width: 0
XAxis mode: Wavelengths
Number of Pixels in Spectrum: 2048
>>>>>Begin Spectral Data<<<<<
223.165	-14.31
223.4	-14.31
223.635	-14.31
223.869	-11.31
224.104	-22.31
224.338	9.69
224.573	-9.31
224.808	-5.31
225.042	-23.31
225.277	-19.31
225.511	-22.31
225.746	-15.31
225.98	12.69
226.215	10.69
226.449	25.69
226.683	20.69
226.918	35.69
227.152	27.69
227.387	25.69
227.621	32.69
227.856	36.69
228.09	49.69
228.324	49.69
228.559	52.69
228.793	68.69
229.027	94.69
229.262	103.69
229.496	107.69
229.73	123.69
229.964	140.69
230.199	128.69
230.433	113.69
230.667	114.69
230.901	125.69
231.136	107.69
231.37	114.69
231.604	108.69
231.838	112.69
232.072	112.69
232.306	112.69
232.541	117.69
232.775	103.69
233.009	116.69
233.243	99.69
233.477	122.69
233.711	126.69
233.945	124.69
234.179	121.69
234.413	123.69
234.647	102.69
234.881	115.69
235.115	110.69
235.349	113.69
235.583	117.69
235.817	120.69
236.051	125.69
236.285	122.69
236.519	109.69
236.753	113.69
236.987	142.69
237.221	170.69
237.455	213.69
237.689	161.69
237.922	142.69
238.156	136.69
238.39	126.69
238.624	118.69
238.858	112.69
239.091	123.69
239.325	126.69
239.559	133.69
239.793	123.69
240.027	127.69
240.26	145.69
240.494	142.69
240.728	150.69
240.961	152.69
241.195	130.69
241.429	134.69
241.662	136.69
241.896	125.69
242.13	127.69
242.363	118.69
242.597	124.69
242.83	136.69
243.064	128.69
243.298	128.69
243.531	139.69
243.765	128.69
243.998	136.69
244.232	126.69
244.465	123.69
244.699	140.69
244.932	137.69
245.166	131.69
245.399	129.69
245.633	140.69
245.866	137.69
246.099	168.69
246.333	150.69
246.566	144.69
246.8	147.69
247.033	135.69
247.266	142.69
247.5	140.69
247.733	169.69
247.966	180.69
248.2	170.69
248.433	171.69
248.666	161.69
248.899	182.69
249.133	186.69
249.366	209.69
249.599	174.69
249.832	182.69
250.066	171.69
250.299	171.69
250.532	164.69
250.765	174.69
250.998	197.69
251.231	196.69
251.465	202.69
251.698	205.69
251.931	174.69
252.164	169.69
252.397	193.69
252.63	186.69
252.863	214.69
253.096	202.69
253.329	214.69
253.562	208.69
253.795	192.69
254.028	198.69
254.261	201.69
254.494	208.69
254.727	224.69
254.96	254.69
255.193	243.69
255.426	221.69
255.659	197.69
255.892	210.69
256.124	206.69
256.357	220.69
256.59	189.69
256.823	187.69
257.056	176.69
257.289	201.69
257.521	207.69
257.754	216.69
257.987	208.69
258.22	188.69
258.452	191.69
258.685	193.69
258.918	194.69
259.151	209.69
259.383	190.69
259.616	199.69
259.849	219.69
260.081	223.69
260.314	245.69
260.547	231.69
260.779	231.69
261.012	237.69
261.244	213.69
261.477	230.69
261.71	215.69
261.942	196.69
262.175	222.69
262.407	223.69
262.64	218.69
262.872	197.69
263.105	210.69
263.337	200.69
263.57	199.69
263.802	196.69
264.035	208.69
264.267	200.69
264.499	199.69
264.732	181.69
264.964	203.69
265.197	176.69
265.429	202.69
265.661	189.69
265.894	192.69
266.126	206.69
266.358	204.69
266.591	192.69
266.823	217.69
267.055	212.69
267.287	231.69
267.52	207.69
267.752	221.69
267.984	207.69
268.216	225.69
268.448	210.69
268.681	215.69
268.913	221.69
269.145	250.69
269.377	265.69
269.609	248.69
269.841	254.69
270.073	244.69
270.306	268.69
270.538	285.69
270.77	304.69
271.002	290.69
271.234	266.69
271.466	283.69
271.698	270.69
271.93	298.69
272.162	296.69
272.394	310.69
272.626	288.69
272.858	257.69
273.09	248.69
273.322	253.69
273.553	246.69
273.785	248.69
274.017	236.69
274.249	241.69
274.481	250.69
274.713	239.69
274.945	257.69
275.176	236.69
275.408	219.69
275.64	226.69
275.872	232.69
276.104	242.69
276.335	247.69
276.567	244.69
276.799	267.69
277.031	287.69
277.262	298.69
277.494	286.69
277.726	285.69
277.957	261.69
278.189	272.69
278.421	274.69
278.652	267.69
278.884	233.69
279.115	242.69
279.347	240.69
279.579	266.69
279.81	240.69
280.042	237.69
280.273	234.69
280.505	252.69
280.736	249.69
280.968	245.69
281.199	238.69
281.431	261.69
281.662	236.69
281.894	244.69
282.125	240.69
282.356	265.69
282.588	290.69
282.819	278.69
283.051	245.69
283.282	238.69
283.513	249.69
283.745	245.69
283.976	256.69
284.207	264.69
284.439	269.69
284.67	264.69
284.901	262.69
285.132	237.69
285.364	254.69
285.595	256.69
285.826	268.69
286.057	255.69
286.288	251.69
286.52	249.69
286.751	250.69
286.982	253.69
287.213	229.69
287.444	251.69
287.675	264.69
287.906	283.69
288.138	290.69
288.369	282.69
288.6	265.69
288.831	285.69
289.062	267.69
289.293	268.69
289.524	265.69
289.755	274.69
289.986	246.69
290.217	261.69
290.448	281.69
290.679	258.69
290.91	270.69
291.141	248.69
291.371	257.69
291.602	253.69
291.833	271.69
292.064	260.69
292.295	249.69
292.526	278.69
292.757	264.69
292.987	280.69
293.218	271.69
293.449	276.69
293.68	248.69
293.91	278.69
294.141	268.69
294.372	263.69
294.603	260.69
294.833	265.69
295.064	288.69
295.295	278.69
295.525	278.69
295.756	278.69
295.987	274.69
296.217	314.69
296.448	310.69
296.679	285.69
296.909	254.69
297.14	268.69
297.37	299.69
297.601	281.69
297.831	278.69
298.062	284.69
298.292	267.69
298.523	290.69
298.753	277.69
298.984	260.69
299.214	279.69
299.445	295.69
299.675	292.69
299.905	293.69
300.136	281.69
300.366	271.69
300.597	288.69
300.827	284.69
301.057	299.69
301.288	296.69
301.518	302.69
301.748	303.69
301.979	301.69
302.209	292.69
302.439	306.69
302.669	316.69
302.9	293.69
303.13	279.69
303.36	300.69
303.59	296.69
303.82	306.69
304.051	309.69
304.281	302.69
304.511	290.69
304.741	279.69
304.971	292.69
305.201	300.69
305.431	300.69
305.661	304.69
305.891	300.69
306.121	286.69
306.352	296.69
306.582	302.69
306.812	303.69
307.042	315.69
307.272	302.69
307.502	305.69
307.731	317.69
307.961	304.69
308.191	291.69
308.421	305.69
308.651	308.69
308.881	314.69
309.111	308.69
309.341	311.69
309.571	321.69
309.8	326.69
310.03	344.69
310.26	337.69
310.49	342.69
310.72	365.69
310.949	378.69
311.179	377.69
311.409	347.69
311.639	336.69
311.868	361.69
312.098	360.69
312.328	346.69
312.557	364.69
312.787	365.69
313.017	381.69
313.246	371.69
313.476	360.69
313.706	348.69
313.935	360.69
314.165	345.69
314.394	381.69
314.624	378.69
314.853	360.69
315.083	359.69
315.312	336.69
315.542	336.69
315.771	331.69
316.001	338.69
316.23	343.69
316.46	360.69
316.689	357.69
316.919	340.69
317.148	374.69
317.377	360.69
317.607	331.69
317.836	344.69
318.065	340.69
318.295	349.69
318.524	344.69
318.753	348.69
318.983	359.69
319.212	325.69
319.441	357.69
319.67	340.69
319.9	354.69
320.129	374.69
320.358	345.69
320.587	360.69
320.816	358.69
321.046	375.69
321.275	379.69
321.504	353.69
321.733	374.69
321.962	374.69
322.191	391.69
322.42	385.69
322.649	408.69
322.878	436.69
323.108	435.69
323.337	457.69
323.566	483.69
323.795	520.69
324.024	555.69
324.253	688.69
324.482	1006.69
324.71	1449.69
324.939	1966.69
325.168	1591.69
325.397	876.69
325.626	596.69
325.855	529.69
326.084	486.69
326.313	464.69
326.542	458.69
326.77	533.69
326.999	625.69
327.228	852.69
327.457	1220.69
327.686	1437.69
327.914	974.69
328.143	672.69
328.372	597.69
328.6	545.69
328.829	536.69
329.058	546.69
329.287	525.69
329.515	494.69
329.744	470.69
329.972	452.69
330.201	467.69
330.43	474.69
330.658	530.69
330.887	573.69
331.115	550.69
331.344	480.69
331.572	447.69
331.801	432.69
332.03	441.69
332.258	430.69
332.486	415.69
332.715	422.69
332.943	407.69
333.172	407.69
333.4	431.69
333.629	407.69
333.857	425.69
334.085	424.69
334.314	454.69
334.542	450.69
334.771	456.69
334.999	433.69
335.227	415.69
335.455	405.69
335.684	396.69
335.912	387.69
336.14	395.69
336.369	407.69
336.597	429.69
336.825	409.69
337.053	407.69
337.281	389.69
337.51	388.69
337.738	410.69
337.966	396.69
338.194	394.69
338.422	406.69
338.65	386.69
338.878	383.69
339.106	390.69
339.334	386.69
339.562	367.69
339.79	394.69
340.018	403.69
340.246	400.69
340.474	394.69
340.702	383.69
340.93	391.69
341.158	386.69
341.386	382.69
341.614	367.69
341.842	392.69
342.07	380.69
342.298	397.69
342.526	379.69
342.754	357.69
342.981	386.69
343.209	376.69
343.437	377.69
343.665	377.69
343.893	374.69
344.12	411.69
344.348	397.69
344.576	390.69
344.804	374.69
345.031	402.69
345.259	409.69
345.487	378.69
345.714	381.69
345.942	373.69
346.17	384.69
346.397	380.69
346.625	384.69
346.853	373.69
347.08	390.69
347.308	388.69
347.535	393.69
347.763	394.69
347.99	372.69
348.218	397.69
348.445	397.69
348.673	388.69
348.9	366.69
349.128	382.69
349.355	384.69
349.583	364.69
349.81	377.69
350.037	348.69
350.265	359.69
350.492	358.69
350.72	342.69
350.947	366.69
351.174	378.69
351.402	404.69
351.629	396.69
351.856	390.69
352.083	389.69
352.311	390.69
352.538	380.69
352.765	394.69
352.992	388.69
353.22	385.69
353.447	380.69
353.674	368.69
353.901	376.69
354.128	341.69
354.355	354.69
354.583	353.69
354.81	376.69
355.037	344.69
355.264	342.69
355.491	358.69
355.718	345.69
355.945	352.69
356.172	330.69
356.399	340.69
356.626	356.69
356.853	354.69
357.08	336.69
357.307	355.69
357.534	331.69
357.761	346.69
357.988	340.69
358.215	348.69
358.441	363.69
358.668	359.69
358.895	354.69
359.122	369.69
359.349	377.69
359.576	372.69
359.802	398.69
360.029	424.69
360.256	441.69
360.483	429.69
360.709	386.69
360.936	369.69
361.163	372.69
361.39	371.69
361.616	361.69
361.843	365.69
362.07	350.69
362.296	376.69
362.523	380.69
362.749	383.69
362.976	373.69
363.203	367.69
363.429	362.69
363.656	365.69
363.882	363.69
364.109	369.69
364.335	373.69
364.562	363.69
364.788	343.69
365.015	388.69
365.241	350.69
365.468	362.69
365.694	366.69
365.92	377.69
366.147	362.69
366.373	350.69
366.599	340.69
366.826	343.69
367.052	357.69
367.278	353.69
367.505	346.69
367.731	359.69
367.957	342.69
368.184	365.69
368.41	376.69
368.636	372.69
368.862	361.69
369.089	348.69
369.315	344.69
369.541	363.69
369.767	349.69
369.993	352.69
370.219	365.69
370.445	365.69
370.672	331.69
370.898	334.69
371.124	342.69
371.35	347.69
371.576	362.69
371.802	364.69
372.028	355.69
372.254	348.69
372.48	362.69
372.706	346.69
372.932	355.69
373.158	346.69
373.384	360.69
373.61	348.69
373.835	356.69
374.061	370.69
374.287	364.69
374.513	349.69
374.739	366.69
374.965	347.69
375.191	335.69
375.416	365.69
375.642	381.69
375.868	360.69
376.094	357.69
376.319	354.69
376.545	333.69
376.771	349.69
376.997	345.69
377.222	357.69
377.448	325.69
377.674	365.69
377.899	330.69
378.125	342.69
378.35	349.69
378.576	348.69
378.802	346.69
379.027	343.69
379.253	375.69
379.478	372.69
379.704	358.69
379.929	350.69
380.155	340.69
380.38	345.69
380.606	374.69
380.831	351.69
381.057	361.69
381.282	359.69
381.507	358.69
381.733	342.69
381.958	345.69
382.184	345.69
382.409	375.69
382.634	346.69
382.86	355.69
383.085	364.69
383.31	362.69
383.535	345.69
383.761	359.69
383.986	363.69
384.211	366.69
384.436	373.69
384.662	370.69
384.887	364.69
385.112	370.69
385.337	370.69
385.562	364.69
385.787	374.69
386.013	385.69
386.238	390.69
386.463	398.69
386.688	374.69
386.913	358.69
387.138	359.69
387.363	357.69
387.588	379.69
387.813	376.69
388.038	393.69
388.263	380.69
388.488	376.69
388.713	384.69
388.938	390.69
389.163	366.69
389.387	380.69
389.612	375.69
389.837	369.69
390.062	386.69
390.287	362.69
390.512	376.69
390.736	353.69
390.961	378.69
391.186	376.69
391.411	381.69
391.636	383.69
391.86	380.69
392.085	379.69
392.31	385.69
392.534	388.69
392.759	379.69
392.984	376.69
393.208	378.69
393.433	379.69
393.658	377.69
393.882	395.69
394.107	389.69
394.331	369.69
394.556	349.69
394.78	358.69
395.005	386.69
395.229	380.69
395.454	378.69
395.678	378.69
395.903	400.69
396.127	400.69
396.352	407.69
396.576	390.69
396.801	392.69
397.025	401.69
397.249	385.69
397.474	382.69
397.698	393.69
397.922	398.69
398.147	442.69
398.371	394.69
398.595	428.69
398.82	424.69
399.044	433.69
399.268	429.69
399.492	454.69
399.717	472.69
399.941	471.69
400.165	502.69
400.389	503.69
400.613	468.69
400.837	441.69
401.062	440.69
401.286	431.69
401.51	430.69
401.734	442.69
401.958	428.69
402.182	414.69
402.406	437.69
402.63	432.69
402.854	443.69
403.078	432.69
403.302	428.69
403.526	443.69
403.75	426.69
403.974	448.69
404.198	425.69
404.422	455.69
404.645	434.69
404.869	457.69
405.093	459.69
405.317	491.69
405.541	486.69
405.765	455.69
405.988	459.69
406.212	458.69
406.436	477.69
406.66	510.69
406.883	495.69
407.107	500.69
407.331	521.69
407.555	576.69
407.778	570.69
408.002	538.69
408.226	481.69
408.449	479.69
408.673	464.69
408.896	473.69
409.12	526.69
409.344	510.69
409.567	462.69
409.791	465.69
410.014	443.69
410.238	452.69
410.461	453.69
410.685	437.69
410.908	450.69
411.132	447.69
411.355	502.69
411.578	481.69
411.802	436.69
412.025	421.69
412.249	436.69
412.472	436.69
412.695	478.69
412.919	467.69
413.142	429.69
413.365	422.69
413.589	429.69
413.812	429.69
414.035	418.69
414.258	411.69
414.482	413.69
414.705	433.69
414.928	431.69
415.151	400.69
415.374	415.69
415.597	378.69
415.821	399.69
416.044	413.69
416.267	415.69
416.49	414.69
416.713	406.69
416.936	412.69
417.159	422.69
417.382	424.69
417.605	413.69
417.828	428.69
418.051	452.69
418.274	441.69
418.497	408.69
418.72	420.69
418.943	405.69
419.166	422.69
419.389	447.69
419.611	424.69
419.834	440.69
420.057	437.69
420.28	439.69
420.503	428.69
420.726	462.69
420.948	462.69
421.171	476.69
421.394	504.69
421.617	471.69
421.839	436.69
422.062	413.69
422.285	433.69
422.507	508.69
422.73	560.69
422.953	549.69
423.175	468.69
423.398	456.69
423.621	449.69
423.843	454.69
424.066	479.69
424.288	460.69
424.511	472.69
424.733	508.69
424.956	567.69
425.178	552.69
425.401	573.69
425.623	574.69
425.846	511.69
426.068	467.69
426.291	469.69
426.513	442.69
426.735	469.69
426.958	510.69
427.18	572.69
427.402	649.69
427.625	718.69
427.847	639.69
428.069	555.69
428.292	508.69
428.514	464.69
428.736	441.69
428.958	445.69
429.181	421.69
429.403	443.69
429.625	453.69
429.847	449.69
430.069	533.69
430.292	514.69
430.514	452.69
430.736	460.69
430.958	426.69
431.18	441.69
431.402	414.69
431.624	413.69
431.846	422.69
432.068	395.69
432.29	393.69
432.512	412.69
432.734	408.69
432.956	404.69
433.178	407.69
433.4	426.69
433.622	427.69
433.844	431.69
434.066	421.69
434.287	420.69
434.509	404.69
434.731	445.69
434.953	432.69
435.175	451.69
435.397	442.69
435.618	475.69
435.84	495.69
436.062	557.69
436.284	617.69
436.505	498.69
436.727	476.69
436.949	458.69
437.17	433.69
437.392	436.69
437.614	446.69
437.835	465.69
438.057	557.69
438.278	637.69
438.5	632.69
438.721	677.69
438.943	645.69
439.165	541.69
439.386	494.69
439.608	464.69
439.829	480.69
440.05	498.69
440.272	515.69
440.493	486.69
440.715	454.69
440.936	440.69
441.158	446.69
441.379	449.69
441.6	454.69
441.822	468.69
442.043	500.69
442.264	566.69
442.486	601.69
442.707	512.69
442.928	456.69
443.149	495.69
443.371	497.69
443.592	535.69
443.813	610.69
444.034	637.69
444.255	548.69
444.476	501.69
444.698	472.69
444.919	462.69
445.14	574.69
445.361	546.69
445.582	508.69
445.803	547.69
446.024	633.69
446.245	650.69
446.466	580.69
446.687	500.69
446.908	478.69
447.129	431.69
447.35	424.69
447.571	428.69
447.792	447.69
448.013	442.69
448.234	459.69
448.455	485.69
448.675	594.69
448.896	646.69
449.117	594.69
449.338	537.69
449.559	605.69
449.779	670.69
450	565.69
450.221	484.69
450.442	450.69
450.662	450.69
450.883	441.69
451.104	438.69
451.324	439.69
451.545	428.69
451.766	420.69
451.986	381.69
452.207	381.69
452.428	391.69
452.648	393.69
452.869	410.69
453.089	415.69
453.31	422.69
453.53	386.69
453.751	397.69
453.971	385.69
454.192	418.69
454.412	421.69
454.633	394.69
454.853	401.69
455.073	390.69
455.294	427.69
455.514	456.69
455.734	450.69
455.955	388.69
456.175	378.69
456.395	359.69
456.616	369.69
456.836	350.69
457.056	372.69
457.276	372.69
457.497	401.69
457.717	351.69
457.937	390.69
458.157	376.69
458.377	393.69
458.598	396.69
458.818	469.69
459.038	544.69
459.258	538.69
459.478	450.69
459.698	409.69
459.918	421.69
460.138	425.69
460.358	422.69
460.578	422.69
460.798	405.69
461.018	413.69
461.238	413.69
461.458	408.69
461.678	416.69
461.898	432.69
462.118	421.69
462.338	400.69
462.558	423.69
462.777	421.69
462.997	461.69
463.217	431.69
463.437	453.69
463.657	437.69
463.876	442.69
464.096	447.69
464.316	436.69
464.536	446.69
464.755	452.69
464.975	452.69
465.195	498.69
465.414	575.69
465.634	493.69
465.854	466.69
466.073	431.69
466.293	385.69
466.512	411.69
466.732	406.69
466.951	410.69
467.171	407.69
467.391	391.69
467.61	405.69
467.829	398.69
468.049	417.69
468.268	407.69
468.488	394.69
468.707	396.69
468.927	375.69
469.146	377.69
469.365	406.69
469.585	388.69
469.804	405.69
470.023	412.69
470.243	396.69
470.462	437.69
470.681	425.69
470.901	425.69
471.12	409.69
471.339	399.69
471.558	394.69
471.777	420.69
471.997	398.69
472.216	386.69
472.435	425.69
472.654	397.69
472.873	395.69
473.092	426.69
473.311	424.69
473.53	414.69
473.749	422.69
473.968	459.69
474.187	529.69
474.406	540.69
474.625	451.69
474.844	424.69
475.063	421.69
475.282	426.69
475.501	417.69
475.72	429.69
475.939	409.69
476.158	431.69
476.377	428.69
476.596	431.69
476.814	429.69
477.033	415.69
477.252	435.69
477.471	429.69
477.69	415.69
477.908	431.69
478.127	450.69
478.346	439.69
478.564	442.69
478.783	452.69
479.002	446.69
479.22	462.69
479.439	475.69
479.658	495.69
479.876	490.69
480.095	506.69
480.313	515.69
480.532	508.69
480.751	497.69
480.969	516.69
481.188	495.69
481.406	508.69
481.624	484.69
481.843	471.69
482.061	470.69
482.28	464.69
482.498	475.69
482.717	470.69
482.935	473.69
483.153	479.69
483.372	467.69
483.59	482.69
483.808	464.69
484.027	454.69
484.245	470.69
484.463	488.69
484.681	476.69
484.9	454.69
485.118	490.69
485.336	468.69
485.554	465.69
485.772	467.69
485.99	482.69
486.209	471.69
486.427	486.69
486.645	498.69
486.863	532.69
487.081	502.69
487.299	495.69
487.517	510.69
487.735	504.69
487.953	516.69
488.171	509.69
488.389	528.69
488.607	499.69
488.825	498.69
489.043	509.69
489.261	512.69
489.479	521.69
489.696	500.69
489.914	508.69
490.132	545.69
490.35	524.69
490.568	489.69
490.786	524.69
491.003	553.69
491.221	548.69
491.439	548.69
491.657	560.69
491.874	567.69
492.092	557.69
492.31	586.69
492.527	556.69
492.745	587.69
492.963	590.69
493.18	594.69
493.398	601.69
493.615	615.69
493.833	602.69
494.05	609.69
494.268	580.69
494.485	576.69
494.703	591.69
494.92	604.69
495.138	600.69
495.355	615.69
495.573	601.69
495.79	582.69
496.008	602.69
496.225	590.69
496.442	580.69
496.66	599.69
496.877	606.69
497.094	608.69
497.312	602.69
497.529	619.69
497.746	623.69
497.963	619.69
498.181	652.69
498.398	640.69
498.615	650.69
498.832	648.69
499.049	672.69
499.267	674.69
499.484	709.69
499.701	724.69
499.918	711.69
500.135	739.69
500.352	791.69
500.569	791.69
500.786	812.69
501.003	773.69
501.22	777.69
501.437	729.69
501.654	715.69
501.871	753.69
