Data from 1983.PennyLincolnUp.Lamp.En5.5.200Scan.071819.P1_HRD10591_16-52-41-965.txt Node
Date: Thu Jul 18 16:52:41 EDT 2019
User: cochatt
Spectrometer: HR+D1059
Trigger mode: 1
Integration Time (sec): 1.000000E-1
Scans to average: 1
Electric dark correction enabled: true
Nonlinearity correction enabled: false
Boxcar width: 0
XAxis mode: Wavelengths
Number of Pixels in Spectrum: 2048
>>>>>Begin Spectral Data<<<<<
223.165	-22.38
223.4	-22.38
223.635	-22.38
223.869	-24.38
224.104	-3.38
224.338	-7.38
224.573	-12.38
224.808	-12.38
225.042	-20.38
225.277	-7.38
225.511	-4.38
225.746	5.62
225.98	7.62
226.215	7.62
226.449	23.62
226.683	18.62
226.918	22.62
227.152	28.62
227.387	35.62
227.621	38.62
227.856	41.62
228.09	45.62
228.324	46.62
228.559	56.62
228.793	69.62
229.027	79.62
229.262	104.62
229.496	94.62
229.73	95.62
229.964	131.62
230.199	116.62
230.433	103.62
230.667	107.62
230.901	107.62
231.136	94.62
231.37	98.62
231.604	115.62
231.838	94.62
232.072	92.62
232.306	108.62
232.541	109.62
232.775	110.62
233.009	99.62
233.243	109.62
233.477	92.62
233.711	112.62
233.945	95.62
234.179	99.62
234.413	86.62
234.647	104.62
234.881	94.62
235.115	114.62
235.349	89.62
235.583	106.62
235.817	104.62
236.051	137.62
236.285	105.62
236.519	114.62
236.753	115.62
236.987	141.62
237.221	158.62
237.455	189.62
237.689	169.62
237.922	127.62
238.156	113.62
238.39	104.62
238.624	115.62
238.858	110.62
239.091	114.62
239.325	107.62
239.559	103.62
239.793	117.62
240.027	125.62
240.26	124.62
240.494	142.62
240.728	150.62
240.961	131.62
241.195	118.62
241.429	123.62
241.662	118.62
241.896	125.62
242.13	130.62
242.363	117.62
242.597	131.62
242.83	124.62
243.064	132.62
243.298	121.62
243.531	121.62
243.765	107.62
243.998	129.62
244.232	119.62
244.465	131.62
244.699	135.62
244.932	133.62
245.166	135.62
245.399	131.62
245.633	137.62
245.866	114.62
246.099	140.62
246.333	137.62
246.566	127.62
246.8	158.62
247.033	141.62
247.266	142.62
247.5	141.62
247.733	125.62
247.966	146.62
248.2	155.62
248.433	154.62
248.666	153.62
248.899	153.62
249.133	181.62
249.366	186.62
249.599	170.62
249.832	154.62
250.066	172.62
250.299	181.62
250.532	161.62
250.765	159.62
250.998	194.62
251.231	199.62
251.465	186.62
251.698	182.62
251.931	165.62
252.164	173.62
252.397	172.62
252.63	179.62
252.863	180.62
253.096	192.62
253.329	208.62
253.562	196.62
253.795	189.62
254.028	186.62
254.261	197.62
254.494	217.62
254.727	224.62
254.96	235.62
255.193	227.62
255.426	208.62
255.659	201.62
255.892	207.62
256.124	197.62
256.357	180.62
256.59	175.62
256.823	171.62
257.056	185.62
257.289	185.62
257.521	190.62
257.754	159.62
257.987	183.62
258.22	181.62
258.452	170.62
258.685	197.62
258.918	181.62
259.151	185.62
259.383	195.62
259.616	203.62
259.849	201.62
260.081	196.62
260.314	212.62
260.547	226.62
260.779	207.62
261.012	199.62
261.244	204.62
261.477	210.62
261.71	204.62
261.942	190.62
262.175	197.62
262.407	205.62
262.64	193.62
262.872	188.62
263.105	180.62
263.337	191.62
263.57	190.62
263.802	178.62
264.035	180.62
264.267	185.62
264.499	175.62
264.732	202.62
264.964	197.62
265.197	193.62
265.429	207.62
265.661	191.62
265.894	200.62
266.126	189.62
266.358	189.62
266.591	195.62
266.823	195.62
267.055	198.62
267.287	193.62
267.52	207.62
267.752	183.62
267.984	193.62
268.216	192.62
268.448	197.62
268.681	207.62
268.913	219.62
269.145	218.62
269.377	243.62
269.609	215.62
269.841	239.62
270.073	235.62
270.306	242.62
270.538	261.62
270.77	271.62
271.002	271.62
271.234	225.62
271.466	253.62
271.698	245.62
271.93	270.62
272.162	261.62
272.394	270.62
272.626	262.62
272.858	251.62
273.09	229.62
273.322	248.62
273.553	241.62
273.785	243.62
274.017	238.62
274.249	228.62
274.481	230.62
274.713	227.62
274.945	251.62
275.176	230.62
275.408	222.62
275.64	230.62
275.872	235.62
276.104	248.62
276.335	232.62
276.567	230.62
276.799	273.62
277.031	255.62
277.262	260.62
277.494	274.62
277.726	252.62
277.957	257.62
278.189	236.62
278.421	250.62
278.652	253.62
278.884	244.62
279.115	227.62
279.347	227.62
279.579	221.62
279.81	219.62
280.042	243.62
280.273	240.62
280.505	237.62
280.736	230.62
280.968	229.62
281.199	233.62
281.431	228.62
281.662	220.62
281.894	242.62
282.125	234.62
282.356	261.62
282.588	246.62
282.819	268.62
283.051	220.62
283.282	242.62
283.513	244.62
283.745	235.62
283.976	232.62
284.207	244.62
284.439	229.62
284.67	244.62
284.901	240.62
285.132	231.62
285.364	231.62
285.595	239.62
285.826	236.62
286.057	243.62
286.288	236.62
286.52	249.62
286.751	243.62
286.982	259.62
287.213	244.62
287.444	246.62
287.675	261.62
287.906	259.62
288.138	257.62
288.369	271.62
288.6	247.62
288.831	235.62
289.062	243.62
289.293	263.62
289.524	245.62
289.755	260.62
289.986	247.62
290.217	249.62
290.448	238.62
290.679	233.62
290.91	238.62
291.141	241.62
291.371	237.62
291.602	244.62
291.833	253.62
292.064	242.62
292.295	239.62
292.526	237.62
292.757	245.62
292.987	250.62
293.218	267.62
293.449	260.62
293.68	261.62
293.91	233.62
294.141	248.62
294.372	233.62
294.603	265.62
294.833	245.62
295.064	253.62
295.295	270.62
295.525	258.62
295.756	265.62
295.987	270.62
296.217	267.62
296.448	287.62
296.679	258.62
296.909	227.62
297.14	251.62
297.37	257.62
297.601	259.62
297.831	261.62
298.062	255.62
298.292	260.62
298.523	281.62
298.753	266.62
298.984	260.62
299.214	265.62
299.445	272.62
299.675	264.62
299.905	274.62
300.136	263.62
300.366	271.62
300.597	274.62
300.827	275.62
301.057	258.62
301.288	299.62
301.518	279.62
301.748	263.62
301.979	271.62
302.209	286.62
302.439	284.62
302.669	282.62
302.9	267.62
303.13	277.62
303.36	278.62
303.59	285.62
303.82	289.62
304.051	268.62
304.281	275.62
304.511	285.62
304.741	275.62
304.971	282.62
305.201	277.62
305.431	279.62
305.661	277.62
305.891	270.62
306.121	270.62
306.352	300.62
306.582	298.62
306.812	284.62
307.042	292.62
307.272	286.62
307.502	302.62
307.731	287.62
307.961	294.62
308.191	279.62
308.421	265.62
308.651	272.62
308.881	301.62
309.111	296.62
309.341	296.62
309.571	292.62
309.8	302.62
310.03	312.62
310.26	313.62
310.49	326.62
310.72	317.62
310.949	324.62
311.179	321.62
311.409	329.62
311.639	345.62
311.868	338.62
312.098	315.62
312.328	333.62
312.557	329.62
312.787	337.62
313.017	354.62
313.246	341.62
313.476	322.62
313.706	330.62
313.935	324.62
314.165	321.62
314.394	352.62
314.624	342.62
314.853	330.62
315.083	338.62
315.312	326.62
315.542	307.62
315.771	322.62
316.001	329.62
316.23	328.62
316.46	317.62
316.689	319.62
316.919	334.62
317.148	340.62
317.377	333.62
317.607	314.62
317.836	345.62
318.065	330.62
318.295	311.62
318.524	306.62
318.753	340.62
318.983	333.62
319.212	329.62
319.441	335.62
319.67	342.62
319.9	330.62
320.129	318.62
320.358	342.62
320.587	334.62
320.816	340.62
321.046	354.62
321.275	334.62
321.504	332.62
321.733	369.62
321.962	333.62
322.191	335.62
322.42	373.62
322.649	369.62
322.878	402.62
323.108	411.62
323.337	402.62
323.566	413.62
323.795	442.62
324.024	501.62
324.253	601.62
324.482	814.62
324.71	1215.62
324.939	1692.62
325.168	1416.62
325.397	733.62
325.626	545.62
325.855	447.62
326.084	418.62
326.313	427.62
326.542	426.62
326.77	460.62
326.999	569.62
327.228	769.62
327.457	1101.62
327.686	1233.62
327.914	836.62
328.143	583.62
328.372	537.62
328.6	461.62
328.829	473.62
329.058	476.62
329.287	479.62
329.515	458.62
329.744	444.62
329.972	399.62
330.201	422.62
330.43	451.62
330.658	466.62
330.887	492.62
331.115	491.62
331.344	433.62
331.572	409.62
331.801	398.62
332.03	396.62
332.258	402.62
332.486	394.62
332.715	378.62
332.943	374.62
333.172	369.62
333.4	377.62
333.629	372.62
333.857	391.62
334.085	414.62
334.314	363.62
334.542	393.62
334.771	401.62
334.999	377.62
335.227	385.62
335.455	386.62
335.684	390.62
335.912	386.62
336.14	351.62
336.369	367.62
336.597	385.62
336.825	385.62
337.053	369.62
337.281	373.62
337.51	343.62
337.738	364.62
337.966	371.62
338.194	379.62
338.422	385.62
338.65	371.62
338.878	372.62
339.106	366.62
339.334	348.62
339.562	374.62
339.79	343.62
340.018	347.62
340.246	361.62
340.474	357.62
340.702	361.62
340.93	371.62
341.158	368.62
341.386	367.62
341.614	361.62
341.842	366.62
342.07	366.62
342.298	348.62
342.526	343.62
342.754	347.62
342.981	352.62
343.209	361.62
343.437	381.62
343.665	368.62
343.893	353.62
344.12	382.62
344.348	381.62
344.576	364.62
344.804	376.62
345.031	365.62
345.259	377.62
345.487	359.62
345.714	357.62
345.942	365.62
346.17	352.62
346.397	333.62
346.625	362.62
346.853	363.62
347.08	332.62
347.308	378.62
347.535	352.62
347.763	362.62
347.99	353.62
348.218	366.62
348.445	370.62
348.673	377.62
348.9	353.62
349.128	352.62
349.355	337.62
349.583	342.62
349.81	333.62
350.037	339.62
350.265	339.62
350.492	349.62
350.72	342.62
350.947	362.62
351.174	368.62
351.402	355.62
351.629	355.62
351.856	364.62
352.083	350.62
352.311	373.62
352.538	377.62
352.765	375.62
352.992	367.62
353.22	347.62
353.447	356.62
353.674	330.62
353.901	336.62
354.128	332.62
354.355	326.62
354.583	351.62
354.81	317.62
355.037	336.62
355.264	336.62
355.491	333.62
355.718	330.62
355.945	337.62
356.172	335.62
356.399	329.62
356.626	340.62
356.853	328.62
357.08	312.62
357.307	316.62
357.534	329.62
357.761	342.62
357.988	349.62
358.215	327.62
358.441	325.62
358.668	338.62
358.895	337.62
359.122	353.62
359.349	330.62
359.576	353.62
359.802	387.62
360.029	391.62
360.256	392.62
360.483	382.62
360.709	361.62
360.936	351.62
361.163	360.62
361.39	351.62
361.616	341.62
361.843	359.62
362.07	351.62
362.296	371.62
362.523	337.62
362.749	340.62
362.976	341.62
363.203	349.62
363.429	337.62
363.656	341.62
363.882	363.62
364.109	339.62
364.335	339.62
364.562	318.62
364.788	350.62
365.015	343.62
365.241	328.62
365.468	331.62
365.694	352.62
365.92	330.62
366.147	346.62
366.373	338.62
366.599	335.62
366.826	347.62
367.052	347.62
367.278	335.62
367.505	331.62
367.731	339.62
367.957	340.62
368.184	346.62
368.41	345.62
368.636	354.62
368.862	339.62
369.089	341.62
369.315	334.62
369.541	337.62
369.767	359.62
369.993	341.62
370.219	343.62
370.445	326.62
370.672	326.62
370.898	323.62
371.124	330.62
371.35	351.62
371.576	340.62
371.802	335.62
372.028	313.62
372.254	330.62
372.48	327.62
372.706	329.62
372.932	335.62
373.158	347.62
373.384	345.62
373.61	325.62
373.835	334.62
374.061	338.62
374.287	363.62
374.513	321.62
374.739	332.62
374.965	353.62
375.191	346.62
375.416	341.62
375.642	346.62
375.868	348.62
376.094	331.62
376.319	338.62
376.545	331.62
376.771	331.62
376.997	346.62
377.222	328.62
377.448	334.62
377.674	343.62
377.899	341.62
378.125	341.62
378.35	337.62
378.576	328.62
378.802	326.62
379.027	347.62
379.253	340.62
379.478	347.62
379.704	347.62
379.929	329.62
380.155	337.62
380.38	335.62
380.606	337.62
380.831	343.62
381.057	335.62
381.282	330.62
381.507	349.62
381.733	328.62
381.958	325.62
382.184	359.62
382.409	345.62
382.634	342.62
382.86	343.62
383.085	362.62
383.31	351.62
383.535	356.62
383.761	333.62
383.986	360.62
384.211	333.62
384.436	346.62
384.662	346.62
384.887	358.62
385.112	350.62
385.337	347.62
385.562	336.62
385.787	358.62
386.013	361.62
386.238	361.62
386.463	378.62
386.688	371.62
386.913	346.62
387.138	339.62
387.363	364.62
387.588	351.62
387.813	351.62
388.038	353.62
388.263	362.62
388.488	348.62
388.713	360.62
388.938	372.62
389.163	362.62
389.387	373.62
389.612	351.62
389.837	355.62
390.062	354.62
390.287	364.62
390.512	348.62
390.736	343.62
390.961	352.62
391.186	361.62
391.411	379.62
391.636	360.62
391.86	364.62
392.085	372.62
392.31	367.62
392.534	356.62
392.759	371.62
392.984	369.62
393.208	351.62
393.433	364.62
393.658	370.62
393.882	358.62
394.107	341.62
394.331	354.62
394.556	360.62
394.78	353.62
395.005	369.62
395.229	367.62
395.454	372.62
395.678	371.62
395.903	385.62
396.127	390.62
396.352	395.62
396.576	390.62
396.801	355.62
397.025	362.62
397.249	353.62
397.474	377.62
397.698	385.62
397.922	386.62
398.147	406.62
398.371	385.62
398.595	404.62
398.82	400.62
399.044	394.62
399.268	416.62
399.492	433.62
399.717	471.62
399.941	477.62
400.165	495.62
400.389	500.62
400.613	443.62
400.837	426.62
401.062	424.62
401.286	416.62
401.51	396.62
401.734	409.62
401.958	414.62
402.182	407.62
402.406	403.62
402.63	415.62
402.854	409.62
403.078	406.62
403.302	429.62
403.526	406.62
403.75	419.62
403.974	407.62
404.198	421.62
404.422	426.62
404.645	417.62
404.869	420.62
405.093	408.62
405.317	449.62
405.541	454.62
405.765	449.62
405.988	432.62
406.212	438.62
406.436	469.62
406.66	464.62
406.883	457.62
407.107	454.62
407.331	499.62
407.555	543.62
407.778	547.62
408.002	496.62
408.226	449.62
408.449	465.62
408.673	472.62
408.896	463.62
409.12	491.62
409.344	471.62
409.567	433.62
409.791	424.62
410.014	413.62
410.238	399.62
410.461	427.62
410.685	401.62
410.908	457.62
411.132	452.62
411.355	476.62
411.578	455.62
411.802	415.62
412.025	418.62
412.249	426.62
412.472	410.62
412.695	418.62
412.919	391.62
413.142	401.62
413.365	390.62
413.589	400.62
413.812	397.62
414.035	407.62
414.258	428.62
414.482	385.62
414.705	387.62
414.928	381.62
415.151	414.62
415.374	401.62
415.597	396.62
415.821	380.62
416.044	371.62
416.267	395.62
416.49	380.62
416.713	396.62
416.936	411.62
417.159	389.62
417.382	397.62
417.605	382.62
417.828	411.62
418.051	407.62
418.274	417.62
418.497	393.62
418.72	388.62
418.943	396.62
419.166	402.62
419.389	437.62
419.611	421.62
419.834	425.62
420.057	421.62
420.28	396.62
420.503	402.62
420.726	413.62
420.948	415.62
421.171	454.62
421.394	477.62
421.617	426.62
421.839	424.62
422.062	420.62
422.285	413.62
422.507	465.62
422.73	513.62
422.953	517.62
423.175	451.62
423.398	419.62
423.621	433.62
423.843	458.62
424.066	454.62
424.288	427.62
424.511	462.62
424.733	475.62
424.956	546.62
425.178	535.62
425.401	515.62
425.623	529.62
425.846	481.62
426.068	453.62
426.291	446.62
426.513	459.62
426.735	453.62
426.958	481.62
427.18	530.62
427.402	623.62
427.625	655.62
427.847	626.62
428.069	520.62
428.292	477.62
428.514	425.62
428.736	433.62
428.958	413.62
429.181	405.62
429.403	415.62
429.625	411.62
429.847	442.62
430.069	477.62
430.292	480.62
430.514	414.62
430.736	418.62
430.958	417.62
431.18	406.62
431.402	397.62
431.624	363.62
431.846	385.62
432.068	398.62
432.29	410.62
432.512	409.62
432.734	405.62
432.956	387.62
433.178	394.62
433.4	415.62
433.622	393.62
433.844	377.62
434.066	377.62
434.287	412.62
434.509	393.62
434.731	391.62
434.953	413.62
435.175	420.62
435.397	427.62
435.618	454.62
435.84	486.62
436.062	541.62
436.284	592.62
436.505	497.62
436.727	448.62
436.949	433.62
437.17	413.62
437.392	423.62
437.614	417.62
437.835	463.62
438.057	529.62
438.278	610.62
438.5	576.62
438.721	636.62
438.943	624.62
439.165	524.62
439.386	451.62
439.608	433.62
439.829	453.62
440.05	470.62
440.272	489.62
440.493	461.62
440.715	453.62
440.936	427.62
441.158	439.62
441.379	418.62
441.6	449.62
441.822	431.62
442.043	470.62
442.264	521.62
442.486	561.62
442.707	467.62
442.928	468.62
443.149	448.62
443.371	477.62
443.592	515.62
443.813	589.62
444.034	621.62
444.255	514.62
444.476	440.62
444.698	425.62
444.919	446.62
445.14	579.62
445.361	509.62
445.582	473.62
445.803	527.62
446.024	611.62
446.245	607.62
446.466	542.62
446.687	484.62
446.908	436.62
447.129	437.62
447.35	420.62
447.571	420.62
447.792	389.62
448.013	418.62
448.234	452.62
448.455	484.62
448.675	565.62
448.896	629.62
449.117	545.62
449.338	540.62
449.559	602.62
449.779	666.62
450	523.62
450.221	439.62
450.442	433.62
450.662	401.62
450.883	418.62
451.104	423.62
451.324	424.62
451.545	417.62
451.766	387.62
451.986	364.62
452.207	381.62
452.428	380.62
452.648	381.62
452.869	375.62
453.089	380.62
453.31	403.62
453.53	371.62
453.751	378.62
453.971	378.62
454.192	419.62
454.412	385.62
454.633	379.62
454.853	342.62
455.073	355.62
455.294	391.62
455.514	451.62
455.734	432.62
455.955	380.62
456.175	358.62
456.395	355.62
456.616	352.62
456.836	345.62
457.056	344.62
457.276	343.62
457.497	346.62
457.717	358.62
457.937	348.62
458.157	371.62
458.377	357.62
458.598	389.62
458.818	421.62
459.038	504.62
459.258	484.62
459.478	430.62
459.698	399.62
459.918	372.62
460.138	378.62
460.358	395.62
460.578	390.62
460.798	385.62
461.018	396.62
461.238	389.62
461.458	400.62
461.678	399.62
461.898	391.62
462.118	387.62
462.338	399.62
462.558	408.62
462.777	405.62
462.997	416.62
463.217	415.62
463.437	425.62
463.657	406.62
463.876	431.62
464.096	427.62
464.316	408.62
464.536	430.62
464.755	427.62
464.975	422.62
465.195	444.62
465.414	518.62
465.634	456.62
465.854	426.62
466.073	391.62
466.293	380.62
466.512	383.62
466.732	375.62
466.951	396.62
467.171	371.62
467.391	397.62
467.61	397.62
467.829	403.62
468.049	388.62
468.268	386.62
468.488	373.62
468.707	362.62
468.927	395.62
469.146	377.62
469.365	374.62
469.585	382.62
469.804	369.62
470.023	390.62
470.243	385.62
470.462	372.62
470.681	397.62
470.901	399.62
471.12	401.62
471.339	389.62
471.558	405.62
471.777	364.62
471.997	391.62
472.216	372.62
472.435	365.62
472.654	393.62
472.873	373.62
473.092	373.62
473.311	377.62
473.53	374.62
473.749	391.62
473.968	417.62
474.187	498.62
474.406	501.62
474.625	427.62
474.844	405.62
475.063	379.62
475.282	407.62
475.501	395.62
475.72	392.62
475.939	398.62
476.158	398.62
476.377	370.62
476.596	389.62
476.814	385.62
477.033	420.62
477.252	407.62
477.471	406.62
477.69	383.62
477.908	400.62
478.127	419.62
478.346	438.62
478.564	419.62
478.783	429.62
479.002	418.62
479.22	432.62
479.439	429.62
479.658	437.62
479.876	461.62
480.095	456.62
480.313	492.62
480.532	474.62
480.751	470.62
480.969	474.62
481.188	447.62
481.406	468.62
481.624	453.62
481.843	446.62
482.061	432.62
482.28	450.62
482.498	425.62
482.717	428.62
482.935	443.62
483.153	438.62
483.372	444.62
483.59	442.62
483.808	446.62
484.027	457.62
484.245	450.62
484.463	433.62
484.681	466.62
484.9	464.62
485.118	451.62
485.336	451.62
485.554	469.62
485.772	460.62
485.99	453.62
486.209	470.62
486.427	453.62
486.645	474.62
486.863	446.62
487.081	479.62
487.299	474.62
487.517	485.62
487.735	443.62
487.953	483.62
488.171	492.62
488.389	481.62
488.607	461.62
488.825	476.62
489.043	482.62
489.261	484.62
489.479	485.62
489.696	468.62
489.914	483.62
490.132	486.62
490.35	480.62
490.568	499.62
490.786	497.62
491.003	506.62
491.221	514.62
491.439	528.62
491.657	547.62
491.874	523.62
492.092	528.62
492.31	518.62
492.527	518.62
492.745	531.62
492.963	563.62
493.18	540.62
493.398	549.62
493.615	547.62
493.833	566.62
494.05	569.62
494.268	551.62
494.485	558.62
494.703	541.62
494.92	552.62
495.138	546.62
495.355	576.62
495.573	563.62
495.79	571.62
496.008	555.62
496.225	577.62
496.442	567.62
496.66	552.62
496.877	565.62
497.094	579.62
497.312	564.62
497.529	581.62
497.746	573.62
497.963	589.62
498.181	618.62
498.398	620.62
498.615	616.62
498.832	629.62
499.049	629.62
499.267	636.62
499.484	647.62
499.701	661.62
499.918	699.62
500.135	729.62
500.352	734.62
500.569	727.62
500.786	746.62
501.003	749.62
501.22	731.62
501.437	698.62
501.654	705.62
501.871	711.62
502.088	685.62
