Data from 1983.PennyLincolnUp.Lamp.En5.5.200Scan.071819.P1_HRD10591_16-53-59-965.txt Node
Date: Thu Jul 18 16:53:59 EDT 2019
User: cochatt
Spectrometer: HR+D1059
Trigger mode: 1
Integration Time (sec): 1.000000E-1
Scans to average: 1
Electric dark correction enabled: true
Nonlinearity correction enabled: false
Boxcar width: 0
XAxis mode: Wavelengths
Number of Pixels in Spectrum: 2048
>>>>>Begin Spectral Data<<<<<
223.165	-9.44
223.4	-9.44
223.635	-9.44
223.869	4.56
224.104	-19.44
224.338	-27.44
224.573	-5.44
224.808	-15.44
225.042	-23.44
225.277	9.56
225.511	-15.44
225.746	2.56
225.98	-4.44
226.215	4.56
226.449	21.56
226.683	10.56
226.918	26.56
227.152	40.56
227.387	40.56
227.621	39.56
227.856	49.56
228.09	51.56
228.324	43.56
228.559	55.56
228.793	86.56
229.027	83.56
229.262	102.56
229.496	114.56
229.73	125.56
229.964	137.56
230.199	118.56
230.433	106.56
230.667	107.56
230.901	107.56
231.136	116.56
231.37	105.56
231.604	100.56
231.838	102.56
232.072	105.56
232.306	110.56
232.541	105.56
232.775	107.56
233.009	117.56
233.243	120.56
233.477	118.56
233.711	118.56
233.945	111.56
234.179	111.56
234.413	117.56
234.647	100.56
234.881	127.56
235.115	120.56
235.349	116.56
235.583	121.56
235.817	118.56
236.051	129.56
236.285	126.56
236.519	101.56
236.753	109.56
236.987	146.56
237.221	174.56
237.455	207.56
237.689	171.56
237.922	140.56
238.156	139.56
238.39	114.56
238.624	99.56
238.858	102.56
239.091	122.56
239.325	122.56
239.559	126.56
239.793	116.56
240.027	134.56
240.26	134.56
240.494	144.56
240.728	132.56
240.961	128.56
241.195	138.56
241.429	131.56
241.662	118.56
241.896	130.56
242.13	121.56
242.363	124.56
242.597	119.56
242.83	142.56
243.064	135.56
243.298	134.56
243.531	134.56
243.765	128.56
243.998	141.56
244.232	144.56
244.465	138.56
244.699	145.56
244.932	132.56
245.166	131.56
245.399	124.56
245.633	143.56
245.866	117.56
246.099	127.56
246.333	151.56
246.566	134.56
246.8	148.56
247.033	150.56
247.266	154.56
247.5	154.56
247.733	149.56
247.966	143.56
248.2	146.56
248.433	162.56
248.666	167.56
248.899	166.56
249.133	180.56
249.366	188.56
249.599	175.56
249.832	169.56
250.066	154.56
250.299	169.56
250.532	175.56
250.765	175.56
250.998	203.56
251.231	208.56
251.465	186.56
251.698	183.56
251.931	180.56
252.164	175.56
252.397	159.56
252.63	191.56
252.863	201.56
253.096	209.56
253.329	195.56
253.562	193.56
253.795	186.56
254.028	213.56
254.261	187.56
254.494	217.56
254.727	205.56
254.96	250.56
255.193	242.56
255.426	212.56
255.659	208.56
255.892	194.56
256.124	188.56
256.357	198.56
256.59	208.56
256.823	201.56
257.056	186.56
257.289	179.56
257.521	199.56
257.754	212.56
257.987	179.56
258.22	215.56
258.452	187.56
258.685	195.56
258.918	182.56
259.151	187.56
259.383	187.56
259.616	191.56
259.849	204.56
260.081	194.56
260.314	226.56
260.547	222.56
260.779	198.56
261.012	210.56
261.244	198.56
261.477	195.56
261.71	226.56
261.942	211.56
262.175	206.56
262.407	198.56
262.64	190.56
262.872	209.56
263.105	216.56
263.337	203.56
263.57	197.56
263.802	205.56
264.035	187.56
264.267	184.56
264.499	198.56
264.732	177.56
264.964	207.56
265.197	196.56
265.429	187.56
265.661	197.56
265.894	172.56
266.126	182.56
266.358	194.56
266.591	191.56
266.823	197.56
267.055	199.56
267.287	190.56
267.52	203.56
267.752	205.56
267.984	189.56
268.216	197.56
268.448	198.56
268.681	228.56
268.913	233.56
269.145	243.56
269.377	255.56
269.609	237.56
269.841	249.56
270.073	230.56
270.306	264.56
270.538	250.56
270.77	282.56
271.002	255.56
271.234	259.56
271.466	265.56
271.698	290.56
271.93	276.56
272.162	268.56
272.394	276.56
272.626	281.56
272.858	262.56
273.09	267.56
273.322	229.56
273.553	230.56
273.785	229.56
274.017	250.56
274.249	234.56
274.481	238.56
274.713	227.56
274.945	254.56
275.176	234.56
275.408	215.56
275.64	239.56
275.872	229.56
276.104	233.56
276.335	234.56
276.567	237.56
276.799	260.56
277.031	276.56
277.262	269.56
277.494	268.56
277.726	266.56
277.957	265.56
278.189	260.56
278.421	243.56
278.652	237.56
278.884	228.56
279.115	235.56
279.347	232.56
279.579	223.56
279.81	252.56
280.042	234.56
280.273	240.56
280.505	226.56
280.736	235.56
280.968	245.56
281.199	242.56
281.431	256.56
281.662	238.56
281.894	233.56
282.125	254.56
282.356	263.56
282.588	247.56
282.819	276.56
283.051	251.56
283.282	237.56
283.513	256.56
283.745	246.56
283.976	232.56
284.207	246.56
284.439	239.56
284.67	245.56
284.901	238.56
285.132	251.56
285.364	255.56
285.595	235.56
285.826	254.56
286.057	271.56
286.288	261.56
286.52	242.56
286.751	255.56
286.982	250.56
287.213	244.56
287.444	258.56
287.675	258.56
287.906	259.56
288.138	277.56
288.369	285.56
288.6	272.56
288.831	251.56
289.062	262.56
289.293	229.56
289.524	235.56
289.755	254.56
289.986	260.56
290.217	246.56
290.448	256.56
290.679	246.56
290.91	262.56
291.141	264.56
291.371	269.56
291.602	265.56
291.833	236.56
292.064	254.56
292.295	258.56
292.526	251.56
292.757	256.56
292.987	259.56
293.218	252.56
293.449	263.56
293.68	261.56
293.91	268.56
294.141	245.56
294.372	256.56
294.603	248.56
294.833	261.56
295.064	255.56
295.295	259.56
295.525	264.56
295.756	267.56
295.987	275.56
296.217	286.56
296.448	299.56
296.679	265.56
296.909	258.56
297.14	266.56
297.37	276.56
297.601	260.56
297.831	260.56
298.062	254.56
298.292	270.56
298.523	258.56
298.753	276.56
298.984	272.56
299.214	268.56
299.445	255.56
299.675	256.56
299.905	274.56
300.136	278.56
300.366	287.56
300.597	279.56
300.827	270.56
301.057	282.56
301.288	281.56
301.518	280.56
301.748	283.56
301.979	285.56
302.209	297.56
302.439	272.56
302.669	287.56
302.9	292.56
303.13	302.56
303.36	293.56
303.59	298.56
303.82	299.56
304.051	309.56
304.281	281.56
304.511	284.56
304.741	287.56
304.971	272.56
305.201	279.56
305.431	280.56
305.661	280.56
305.891	283.56
306.121	281.56
306.352	277.56
306.582	309.56
306.812	286.56
307.042	272.56
307.272	295.56
307.502	291.56
307.731	301.56
307.961	276.56
308.191	289.56
308.421	284.56
308.651	310.56
308.881	318.56
309.111	288.56
309.341	298.56
309.571	320.56
309.8	329.56
310.03	333.56
310.26	351.56
310.49	332.56
310.72	341.56
310.949	345.56
311.179	373.56
311.409	342.56
311.639	328.56
311.868	338.56
312.098	320.56
312.328	344.56
312.557	351.56
312.787	362.56
313.017	336.56
313.246	349.56
313.476	325.56
313.706	353.56
313.935	351.56
314.165	352.56
314.394	334.56
314.624	344.56
314.853	332.56
315.083	343.56
315.312	327.56
315.542	323.56
315.771	333.56
316.001	323.56
316.23	340.56
316.46	342.56
316.689	347.56
316.919	340.56
317.148	356.56
317.377	347.56
317.607	360.56
317.836	324.56
318.065	322.56
318.295	335.56
318.524	339.56
318.753	314.56
318.983	346.56
319.212	341.56
319.441	352.56
319.67	329.56
319.9	361.56
320.129	344.56
320.358	357.56
320.587	347.56
320.816	363.56
321.046	370.56
321.275	367.56
321.504	367.56
321.733	340.56
321.962	359.56
322.191	391.56
322.42	375.56
322.649	388.56
322.878	420.56
323.108	407.56
323.337	426.56
323.566	452.56
323.795	494.56
324.024	530.56
324.253	657.56
324.482	984.56
324.71	1402.56
324.939	1892.56
325.168	1591.56
325.397	864.56
325.626	592.56
325.855	517.56
326.084	458.56
326.313	459.56
326.542	456.56
326.77	522.56
326.999	602.56
327.228	841.56
327.457	1222.56
327.686	1392.56
327.914	952.56
328.143	656.56
328.372	557.56
328.6	542.56
328.829	503.56
329.058	526.56
329.287	530.56
329.515	502.56
329.744	451.56
329.972	448.56
330.201	457.56
330.43	488.56
330.658	522.56
330.887	544.56
331.115	544.56
331.344	450.56
331.572	430.56
331.801	449.56
332.03	428.56
332.258	420.56
332.486	404.56
332.715	400.56
332.943	371.56
333.172	397.56
333.4	399.56
333.629	402.56
333.857	406.56
334.085	410.56
334.314	420.56
334.542	449.56
334.771	440.56
334.999	412.56
335.227	418.56
335.455	388.56
335.684	404.56
335.912	386.56
336.14	382.56
336.369	376.56
336.597	408.56
336.825	405.56
337.053	399.56
337.281	373.56
337.51	385.56
337.738	380.56
337.966	384.56
338.194	364.56
338.422	382.56
338.65	388.56
338.878	392.56
339.106	388.56
339.334	364.56
339.562	375.56
339.79	378.56
340.018	359.56
340.246	375.56
340.474	379.56
340.702	378.56
340.93	377.56
341.158	391.56
341.386	374.56
341.614	377.56
341.842	382.56
342.07	347.56
342.298	365.56
342.526	353.56
342.754	365.56
342.981	361.56
343.209	356.56
343.437	372.56
343.665	349.56
343.893	371.56
344.12	380.56
344.348	360.56
344.576	375.56
344.804	367.56
345.031	364.56
345.259	386.56
345.487	390.56
345.714	391.56
345.942	359.56
346.17	357.56
346.397	381.56
346.625	357.56
346.853	362.56
347.08	356.56
347.308	384.56
347.535	371.56
347.763	378.56
347.99	370.56
348.218	365.56
348.445	375.56
348.673	386.56
348.9	366.56
349.128	344.56
349.355	356.56
349.583	347.56
349.81	358.56
350.037	351.56
350.265	359.56
350.492	359.56
350.72	372.56
350.947	367.56
351.174	358.56
351.402	374.56
351.629	376.56
351.856	372.56
352.083	386.56
352.311	373.56
352.538	354.56
352.765	384.56
352.992	355.56
353.22	368.56
353.447	348.56
353.674	339.56
353.901	334.56
354.128	335.56
354.355	327.56
354.583	336.56
354.81	339.56
355.037	335.56
355.264	336.56
355.491	356.56
355.718	351.56
355.945	335.56
356.172	325.56
356.399	351.56
356.626	348.56
356.853	328.56
357.08	318.56
357.307	337.56
357.534	323.56
357.761	328.56
357.988	342.56
358.215	332.56
358.441	333.56
358.668	347.56
358.895	343.56
359.122	348.56
359.349	343.56
359.576	368.56
359.802	382.56
360.029	402.56
360.256	424.56
360.483	421.56
360.709	363.56
360.936	376.56
361.163	374.56
361.39	360.56
361.616	365.56
361.843	349.56
362.07	363.56
362.296	359.56
362.523	350.56
362.749	363.56
362.976	357.56
363.203	349.56
363.429	332.56
363.656	347.56
363.882	362.56
364.109	341.56
364.335	360.56
364.562	330.56
364.788	347.56
365.015	337.56
365.241	328.56
365.468	344.56
365.694	348.56
365.92	356.56
366.147	339.56
366.373	360.56
366.599	359.56
366.826	349.56
367.052	342.56
367.278	340.56
367.505	347.56
367.731	347.56
367.957	327.56
368.184	335.56
368.41	362.56
368.636	371.56
368.862	333.56
369.089	331.56
369.315	339.56
369.541	356.56
369.767	365.56
369.993	329.56
370.219	340.56
370.445	341.56
370.672	342.56
370.898	333.56
371.124	339.56
371.35	356.56
371.576	337.56
371.802	325.56
372.028	337.56
372.254	316.56
372.48	342.56
372.706	339.56
372.932	336.56
373.158	339.56
373.384	343.56
373.61	328.56
373.835	339.56
374.061	331.56
374.287	340.56
374.513	348.56
374.739	340.56
374.965	335.56
375.191	340.56
375.416	352.56
375.642	348.56
375.868	333.56
376.094	345.56
376.319	345.56
376.545	334.56
376.771	333.56
376.997	325.56
377.222	339.56
377.448	349.56
377.674	341.56
377.899	343.56
378.125	340.56
378.35	336.56
378.576	313.56
378.802	321.56
379.027	323.56
379.253	344.56
379.478	319.56
379.704	345.56
379.929	352.56
380.155	346.56
380.38	334.56
380.606	345.56
380.831	334.56
381.057	335.56
381.282	328.56
381.507	336.56
381.733	345.56
381.958	336.56
382.184	348.56
382.409	331.56
382.634	343.56
382.86	340.56
383.085	367.56
383.31	357.56
383.535	351.56
383.761	343.56
383.986	370.56
384.211	344.56
384.436	359.56
384.662	350.56
384.887	349.56
385.112	358.56
385.337	342.56
385.562	350.56
385.787	383.56
386.013	372.56
386.238	363.56
386.463	366.56
386.688	351.56
386.913	379.56
387.138	346.56
387.363	353.56
387.588	347.56
387.813	356.56
388.038	363.56
388.263	351.56
388.488	361.56
388.713	348.56
388.938	351.56
389.163	359.56
389.387	373.56
389.612	336.56
389.837	356.56
390.062	349.56
390.287	350.56
390.512	349.56
390.736	367.56
390.961	360.56
391.186	378.56
391.411	354.56
391.636	360.56
391.86	365.56
392.085	386.56
392.31	380.56
392.534	369.56
392.759	368.56
392.984	380.56
393.208	366.56
393.433	367.56
393.658	375.56
393.882	359.56
394.107	330.56
394.331	350.56
394.556	367.56
394.78	371.56
395.005	362.56
395.229	356.56
395.454	367.56
395.678	380.56
395.903	366.56
396.127	382.56
396.352	390.56
396.576	357.56
396.801	379.56
397.025	378.56
397.249	361.56
397.474	371.56
397.698	367.56
397.922	396.56
398.147	391.56
398.371	395.56
398.595	400.56
398.82	407.56
399.044	423.56
399.268	446.56
399.492	448.56
399.717	443.56
399.941	472.56
400.165	479.56
400.389	491.56
400.613	467.56
400.837	424.56
401.062	423.56
401.286	396.56
401.51	403.56
401.734	392.56
401.958	420.56
402.182	429.56
402.406	441.56
402.63	438.56
402.854	436.56
403.078	407.56
403.302	401.56
403.526	424.56
403.75	428.56
403.974	420.56
404.198	428.56
404.422	414.56
404.645	421.56
404.869	421.56
405.093	438.56
405.317	472.56
405.541	487.56
405.765	467.56
405.988	429.56
406.212	468.56
406.436	453.56
406.66	483.56
406.883	440.56
407.107	461.56
407.331	486.56
407.555	560.56
407.778	534.56
408.002	481.56
408.226	451.56
408.449	457.56
408.673	448.56
408.896	470.56
409.12	500.56
409.344	471.56
409.567	442.56
409.791	436.56
410.014	436.56
410.238	438.56
410.461	421.56
410.685	422.56
410.908	441.56
411.132	448.56
411.355	479.56
411.578	444.56
411.802	423.56
412.025	425.56
412.249	434.56
412.472	420.56
412.695	462.56
412.919	417.56
413.142	424.56
413.365	422.56
413.589	420.56
413.812	406.56
414.035	398.56
414.258	403.56
414.482	396.56
414.705	384.56
414.928	401.56
415.151	400.56
415.374	382.56
415.597	397.56
415.821	410.56
416.044	394.56
416.267	403.56
416.49	387.56
416.713	402.56
416.936	411.56
417.159	404.56
417.382	406.56
417.605	410.56
417.828	423.56
418.051	438.56
418.274	403.56
418.497	396.56
418.72	405.56
418.943	408.56
419.166	417.56
419.389	414.56
419.611	417.56
419.834	419.56
420.057	423.56
420.28	410.56
420.503	416.56
420.726	411.56
420.948	436.56
421.171	450.56
421.394	482.56
421.617	430.56
421.839	421.56
422.062	413.56
422.285	430.56
422.507	478.56
422.73	505.56
422.953	508.56
423.175	443.56
423.398	414.56
423.621	439.56
423.843	464.56
424.066	445.56
424.288	429.56
424.511	461.56
424.733	500.56
424.956	546.56
425.178	536.56
425.401	523.56
425.623	549.56
425.846	471.56
426.068	453.56
426.291	461.56
426.513	430.56
426.735	449.56
426.958	491.56
427.18	535.56
427.402	632.56
427.625	679.56
427.847	653.56
428.069	564.56
428.292	477.56
428.514	450.56
428.736	426.56
428.958	431.56
429.181	401.56
429.403	399.56
429.625	415.56
429.847	469.56
430.069	501.56
430.292	479.56
430.514	434.56
430.736	394.56
430.958	424.56
431.18	398.56
431.402	397.56
431.624	407.56
431.846	391.56
432.068	387.56
432.29	382.56
432.512	401.56
432.734	394.56
432.956	386.56
433.178	409.56
433.4	408.56
433.622	402.56
433.844	393.56
434.066	409.56
434.287	413.56
434.509	401.56
434.731	394.56
434.953	402.56
435.175	422.56
435.397	424.56
435.618	437.56
435.84	489.56
436.062	524.56
436.284	585.56
436.505	494.56
436.727	460.56
436.949	439.56
437.17	413.56
437.392	413.56
437.614	452.56
437.835	461.56
438.057	531.56
438.278	619.56
438.5	607.56
438.721	654.56
438.943	611.56
439.165	499.56
439.386	474.56
439.608	460.56
439.829	458.56
440.05	462.56
440.272	495.56
440.493	483.56
440.715	444.56
440.936	408.56
441.158	420.56
441.379	434.56
441.6	430.56
441.822	440.56
442.043	483.56
442.264	539.56
442.486	565.56
442.707	516.56
442.928	441.56
443.149	466.56
443.371	500.56
443.592	523.56
443.813	578.56
444.034	610.56
444.255	528.56
444.476	477.56
444.698	454.56
444.919	441.56
445.14	550.56
445.361	501.56
445.582	489.56
445.803	538.56
446.024	585.56
446.245	604.56
446.466	553.56
446.687	500.56
446.908	438.56
447.129	435.56
447.35	421.56
447.571	414.56
447.792	429.56
448.013	424.56
448.234	444.56
448.455	477.56
448.675	570.56
448.896	632.56
449.117	550.56
449.338	542.56
449.559	602.56
449.779	638.56
450	523.56
450.221	459.56
450.442	428.56
450.662	406.56
450.883	437.56
451.104	453.56
451.324	439.56
451.545	392.56
451.766	393.56
451.986	363.56
452.207	395.56
452.428	373.56
452.648	390.56
452.869	390.56
453.089	383.56
453.31	402.56
453.53	378.56
453.751	399.56
453.971	392.56
454.192	422.56
454.412	387.56
454.633	384.56
454.853	374.56
455.073	351.56
455.294	407.56
455.514	418.56
455.734	434.56
455.955	378.56
456.175	357.56
456.395	363.56
456.616	363.56
456.836	346.56
457.056	371.56
457.276	344.56
457.497	368.56
457.717	363.56
457.937	361.56
458.157	359.56
458.377	356.56
458.598	395.56
458.818	458.56
459.038	518.56
459.258	517.56
459.478	429.56
459.698	410.56
459.918	380.56
460.138	392.56
460.358	381.56
460.578	396.56
460.798	392.56
461.018	395.56
461.238	394.56
461.458	414.56
461.678	415.56
461.898	397.56
462.118	397.56
462.338	416.56
462.558	413.56
462.777	416.56
462.997	410.56
463.217	444.56
463.437	412.56
463.657	392.56
463.876	415.56
464.096	421.56
464.316	422.56
464.536	424.56
464.755	424.56
464.975	424.56
465.195	478.56
465.414	548.56
465.634	463.56
465.854	436.56
466.073	418.56
466.293	389.56
466.512	375.56
466.732	400.56
466.951	370.56
467.171	370.56
467.391	383.56
467.61	406.56
467.829	420.56
468.049	390.56
468.268	376.56
468.488	371.56
468.707	360.56
468.927	361.56
469.146	379.56
469.365	354.56
469.585	380.56
469.804	392.56
470.023	410.56
470.243	395.56
470.462	397.56
470.681	409.56
470.901	406.56
471.12	383.56
471.339	386.56
471.558	388.56
471.777	378.56
471.997	395.56
472.216	404.56
472.435	406.56
472.654	404.56
472.873	389.56
473.092	394.56
473.311	364.56
473.53	368.56
473.749	386.56
473.968	424.56
474.187	501.56
474.406	506.56
474.625	444.56
474.844	423.56
475.063	406.56
475.282	393.56
475.501	382.56
475.72	399.56
475.939	398.56
476.158	401.56
476.377	408.56
476.596	395.56
476.814	416.56
477.033	419.56
477.252	413.56
477.471	422.56
477.69	411.56
477.908	418.56
478.127	416.56
478.346	416.56
478.564	431.56
478.783	437.56
479.002	444.56
479.22	421.56
479.439	422.56
479.658	490.56
479.876	467.56
480.095	458.56
480.313	512.56
480.532	475.56
480.751	460.56
480.969	468.56
481.188	501.56
481.406	538.56
481.624	489.56
481.843	476.56
482.061	447.56
482.28	460.56
482.498	448.56
482.717	474.56
482.935	451.56
483.153	436.56
483.372	430.56
483.59	463.56
483.808	451.56
484.027	440.56
484.245	440.56
484.463	449.56
484.681	447.56
484.9	471.56
485.118	480.56
485.336	459.56
485.554	471.56
485.772	460.56
485.99	467.56
486.209	453.56
486.427	477.56
486.645	493.56
486.863	494.56
487.081	474.56
487.299	495.56
487.517	475.56
487.735	500.56
487.953	506.56
488.171	493.56
488.389	473.56
488.607	504.56
488.825	504.56
489.043	494.56
489.261	477.56
489.479	491.56
489.696	494.56
489.914	484.56
490.132	483.56
490.35	492.56
490.568	496.56
490.786	525.56
491.003	533.56
491.221	529.56
491.439	558.56
491.657	561.56
491.874	539.56
492.092	558.56
492.31	562.56
492.527	541.56
492.745	584.56
492.963	581.56
493.18	575.56
493.398	551.56
493.615	587.56
493.833	572.56
494.05	565.56
494.268	595.56
494.485	561.56
494.703	570.56
494.92	576.56
495.138	563.56
495.355	566.56
495.573	568.56
495.79	570.56
496.008	579.56
496.225	576.56
496.442	573.56
496.66	613.56
496.877	558.56
497.094	573.56
497.312	592.56
497.529	561.56
497.746	615.56
497.963	602.56
498.181	622.56
498.398	614.56
498.615	622.56
498.832	636.56
499.049	615.56
499.267	660.56
499.484	676.56
499.701	687.56
499.918	720.56
500.135	699.56
500.352	727.56
500.569	751.56
500.786	759.56
501.003	723.56
501.22	726.56
501.437	732.56
501.654	715.56
501.871	724.56
502.088	690.56
