Data from 1983.PennyLincolnUp.Lamp.En5.5.200Scan.071819.P1_HRD10591_16-54-29-966.txt Node
Date: Thu Jul 18 16:54:29 EDT 2019
User: cochatt
Spectrometer: HR+D1059
Trigger mode: 1
Integration Time (sec): 1.000000E-1
Scans to average: 1
Electric dark correction enabled: true
Nonlinearity correction enabled: false
Boxcar width: 0
XAxis mode: Wavelengths
Number of Pixels in Spectrum: 2048
>>>>>Begin Spectral Data<<<<<
223.165	-31.62
223.4	-31.62
223.635	-31.62
223.869	-19.62
224.104	-13.62
224.338	-9.62
224.573	-14.62
224.808	-11.62
225.042	-16.62
225.277	-5.62
225.511	-3.62
225.746	0.38
225.98	11.38
226.215	18.38
226.449	12.38
226.683	27.38
226.918	18.38
227.152	38.38
227.387	40.38
227.621	36.38
227.856	37.38
228.09	32.38
228.324	44.38
228.559	45.38
228.793	66.38
229.027	91.38
229.262	95.38
229.496	114.38
229.73	116.38
229.964	145.38
230.199	125.38
230.433	106.38
230.667	106.38
230.901	100.38
231.136	112.38
231.37	100.38
231.604	102.38
231.838	110.38
232.072	114.38
232.306	118.38
232.541	106.38
232.775	100.38
233.009	115.38
233.243	112.38
233.477	114.38
233.711	110.38
233.945	103.38
234.179	102.38
234.413	113.38
234.647	126.38
234.881	114.38
235.115	100.38
235.349	117.38
235.583	107.38
235.817	111.38
236.051	122.38
236.285	128.38
236.519	108.38
236.753	118.38
236.987	139.38
237.221	166.38
237.455	213.38
237.689	168.38
237.922	145.38
238.156	112.38
238.39	132.38
238.624	125.38
238.858	125.38
239.091	111.38
239.325	122.38
239.559	111.38
239.793	129.38
240.027	134.38
240.26	128.38
240.494	154.38
240.728	132.38
240.961	146.38
241.195	129.38
241.429	135.38
241.662	132.38
241.896	119.38
242.13	128.38
242.363	125.38
242.597	114.38
242.83	127.38
243.064	126.38
243.298	133.38
243.531	134.38
243.765	145.38
243.998	148.38
244.232	130.38
244.465	136.38
244.699	154.38
244.932	131.38
245.166	119.38
245.399	138.38
245.633	129.38
245.866	131.38
246.099	120.38
246.333	142.38
246.566	154.38
246.8	158.38
247.033	152.38
247.266	153.38
247.5	144.38
247.733	156.38
247.966	170.38
248.2	156.38
248.433	168.38
248.666	174.38
248.899	182.38
249.133	190.38
249.366	204.38
249.599	190.38
249.832	170.38
250.066	169.38
250.299	185.38
250.532	171.38
250.765	208.38
250.998	211.38
251.231	193.38
251.465	204.38
251.698	182.38
251.931	184.38
252.164	178.38
252.397	178.38
252.63	192.38
252.863	192.38
253.096	194.38
253.329	211.38
253.562	203.38
253.795	190.38
254.028	190.38
254.261	207.38
254.494	215.38
254.727	231.38
254.96	259.38
255.193	240.38
255.426	240.38
255.659	205.38
255.892	211.38
256.124	210.38
256.357	229.38
256.59	207.38
256.823	200.38
257.056	208.38
257.289	190.38
257.521	198.38
257.754	190.38
257.987	188.38
258.22	197.38
258.452	205.38
258.685	204.38
258.918	194.38
259.151	211.38
259.383	214.38
259.616	204.38
259.849	215.38
260.081	221.38
260.314	228.38
260.547	234.38
260.779	218.38
261.012	221.38
261.244	220.38
261.477	207.38
261.71	212.38
261.942	214.38
262.175	215.38
262.407	230.38
262.64	194.38
262.872	210.38
263.105	189.38
263.337	210.38
263.57	191.38
263.802	200.38
264.035	182.38
264.267	199.38
264.499	207.38
264.732	207.38
264.964	203.38
265.197	199.38
265.429	186.38
265.661	201.38
265.894	203.38
266.126	207.38
266.358	190.38
266.591	207.38
266.823	203.38
267.055	201.38
267.287	207.38
267.52	217.38
267.752	211.38
267.984	202.38
268.216	219.38
268.448	223.38
268.681	225.38
268.913	216.38
269.145	245.38
269.377	242.38
269.609	243.38
269.841	247.38
270.073	276.38
270.306	269.38
270.538	285.38
270.77	291.38
271.002	292.38
271.234	263.38
271.466	276.38
271.698	275.38
271.93	300.38
272.162	290.38
272.394	288.38
272.626	273.38
272.858	266.38
273.09	261.38
273.322	266.38
273.553	246.38
273.785	232.38
274.017	266.38
274.249	264.38
274.481	261.38
274.713	248.38
274.945	237.38
275.176	245.38
275.408	246.38
275.64	250.38
275.872	247.38
276.104	239.38
276.335	244.38
276.567	260.38
276.799	268.38
277.031	310.38
277.262	298.38
277.494	288.38
277.726	294.38
277.957	271.38
278.189	264.38
278.421	251.38
278.652	248.38
278.884	258.38
279.115	235.38
279.347	244.38
279.579	250.38
279.81	247.38
280.042	264.38
280.273	256.38
280.505	254.38
280.736	250.38
280.968	246.38
281.199	241.38
281.431	247.38
281.662	231.38
281.894	245.38
282.125	260.38
282.356	258.38
282.588	307.38
282.819	290.38
283.051	246.38
283.282	242.38
283.513	259.38
283.745	267.38
283.976	259.38
284.207	276.38
284.439	242.38
284.67	257.38
284.901	228.38
285.132	258.38
285.364	266.38
285.595	247.38
285.826	252.38
286.057	262.38
286.288	240.38
286.52	260.38
286.751	249.38
286.982	262.38
287.213	251.38
287.444	283.38
287.675	267.38
287.906	251.38
288.138	277.38
288.369	278.38
288.6	275.38
288.831	267.38
289.062	273.38
289.293	277.38
289.524	267.38
289.755	267.38
289.986	255.38
290.217	256.38
290.448	256.38
290.679	263.38
290.91	262.38
291.141	247.38
291.371	264.38
291.602	271.38
291.833	252.38
292.064	243.38
292.295	260.38
292.526	261.38
292.757	266.38
292.987	267.38
293.218	271.38
293.449	261.38
293.68	270.38
293.91	261.38
294.141	245.38
294.372	286.38
294.603	271.38
294.833	273.38
295.064	269.38
295.295	272.38
295.525	271.38
295.756	280.38
295.987	273.38
296.217	306.38
296.448	320.38
296.679	284.38
296.909	266.38
297.14	268.38
297.37	281.38
297.601	279.38
297.831	266.38
298.062	272.38
298.292	269.38
298.523	261.38
298.753	292.38
298.984	292.38
299.214	277.38
299.445	270.38
299.675	270.38
299.905	266.38
300.136	281.38
300.366	280.38
300.597	301.38
300.827	294.38
301.057	284.38
301.288	301.38
301.518	306.38
301.748	290.38
301.979	308.38
302.209	310.38
302.439	327.38
302.669	291.38
302.9	279.38
303.13	298.38
303.36	309.38
303.59	310.38
303.82	306.38
304.051	326.38
304.281	276.38
304.511	289.38
304.741	290.38
304.971	284.38
305.201	301.38
305.431	297.38
305.661	291.38
305.891	297.38
306.121	301.38
306.352	313.38
306.582	317.38
306.812	316.38
307.042	303.38
307.272	299.38
307.502	276.38
307.731	318.38
307.961	307.38
308.191	300.38
308.421	307.38
308.651	294.38
308.881	312.38
309.111	314.38
309.341	330.38
309.571	309.38
309.8	325.38
310.03	358.38
310.26	363.38
310.49	360.38
310.72	380.38
310.949	372.38
311.179	375.38
311.409	361.38
311.639	349.38
311.868	340.38
312.098	355.38
312.328	347.38
312.557	374.38
312.787	395.38
313.017	356.38
313.246	375.38
313.476	357.38
313.706	347.38
313.935	356.38
314.165	365.38
314.394	372.38
314.624	358.38
314.853	362.38
315.083	341.38
315.312	350.38
315.542	352.38
315.771	342.38
316.001	358.38
316.23	355.38
316.46	332.38
316.689	335.38
316.919	349.38
317.148	345.38
317.377	353.38
317.607	348.38
317.836	358.38
318.065	344.38
318.295	323.38
318.524	352.38
318.753	345.38
318.983	352.38
319.212	350.38
319.441	362.38
319.67	360.38
319.9	358.38
320.129	348.38
320.358	342.38
320.587	363.38
320.816	367.38
321.046	379.38
321.275	380.38
321.504	392.38
321.733	363.38
321.962	386.38
322.191	376.38
322.42	407.38
322.649	423.38
322.878	442.38
323.108	459.38
323.337	465.38
323.566	470.38
323.795	523.38
324.024	554.38
324.253	713.38
324.482	1004.38
324.71	1552.38
324.939	2121.38
325.168	1755.38
325.397	914.38
325.626	636.38
325.855	539.38
326.084	489.38
326.313	481.38
326.542	490.38
326.77	507.38
326.999	651.38
327.228	915.38
327.457	1322.38
327.686	1518.38
327.914	1039.38
328.143	689.38
328.372	640.38
328.6	588.38
328.829	550.38
329.058	582.38
329.287	585.38
329.515	552.38
329.744	496.38
329.972	480.38
330.201	491.38
330.43	536.38
330.658	564.38
330.887	606.38
331.115	579.38
331.344	490.38
331.572	454.38
331.801	468.38
332.03	460.38
332.258	444.38
332.486	419.38
332.715	410.38
332.943	422.38
333.172	420.38
333.4	432.38
333.629	430.38
333.857	440.38
334.085	459.38
334.314	475.38
334.542	497.38
334.771	518.38
334.999	465.38
335.227	436.38
335.455	422.38
335.684	422.38
335.912	401.38
336.14	406.38
336.369	404.38
336.597	399.38
336.825	406.38
337.053	401.38
337.281	377.38
337.51	388.38
337.738	402.38
337.966	398.38
338.194	422.38
338.422	411.38
338.65	401.38
338.878	388.38
339.106	384.38
339.334	397.38
339.562	409.38
339.79	386.38
340.018	413.38
340.246	392.38
340.474	380.38
340.702	391.38
340.93	366.38
341.158	378.38
341.386	372.38
341.614	388.38
341.842	409.38
342.07	394.38
342.298	392.38
342.526	374.38
342.754	378.38
342.981	380.38
343.209	361.38
343.437	384.38
343.665	376.38
343.893	400.38
344.12	400.38
344.348	404.38
344.576	382.38
344.804	393.38
345.031	391.38
345.259	408.38
345.487	418.38
345.714	382.38
345.942	394.38
346.17	379.38
346.397	376.38
346.625	375.38
346.853	369.38
347.08	372.38
347.308	404.38
347.535	377.38
347.763	391.38
347.99	390.38
348.218	382.38
348.445	395.38
348.673	358.38
348.9	375.38
349.128	374.38
349.355	371.38
349.583	374.38
349.81	365.38
350.037	377.38
350.265	345.38
350.492	344.38
350.72	365.38
350.947	396.38
351.174	373.38
351.402	358.38
351.629	380.38
351.856	392.38
352.083	378.38
352.311	396.38
352.538	413.38
352.765	400.38
352.992	392.38
353.22	386.38
353.447	374.38
353.674	364.38
353.901	355.38
354.128	350.38
354.355	364.38
354.583	360.38
354.81	348.38
355.037	348.38
355.264	352.38
355.491	340.38
355.718	333.38
355.945	338.38
356.172	356.38
356.399	335.38
356.626	341.38
356.853	330.38
357.08	333.38
357.307	340.38
357.534	327.38
357.761	332.38
357.988	357.38
358.215	344.38
358.441	354.38
358.668	354.38
358.895	360.38
359.122	356.38
359.349	350.38
359.576	382.38
359.802	399.38
360.029	432.38
360.256	460.38
360.483	416.38
360.709	402.38
360.936	378.38
361.163	373.38
361.39	378.38
361.616	379.38
361.843	376.38
362.07	376.38
362.296	387.38
362.523	404.38
362.749	384.38
362.976	387.38
363.203	375.38
363.429	367.38
363.656	364.38
363.882	373.38
364.109	372.38
364.335	361.38
364.562	364.38
364.788	373.38
365.015	360.38
365.241	359.38
365.468	380.38
365.694	364.38
365.92	362.38
366.147	351.38
366.373	363.38
366.599	328.38
366.826	346.38
367.052	346.38
367.278	337.38
367.505	369.38
367.731	372.38
367.957	343.38
368.184	358.38
368.41	357.38
368.636	371.38
368.862	365.38
369.089	382.38
369.315	360.38
369.541	350.38
369.767	346.38
369.993	328.38
370.219	347.38
370.445	362.38
370.672	361.38
370.898	348.38
371.124	358.38
371.35	342.38
371.576	349.38
371.802	353.38
372.028	330.38
372.254	351.38
372.48	352.38
372.706	353.38
372.932	342.38
373.158	353.38
373.384	352.38
373.61	340.38
373.835	353.38
374.061	334.38
374.287	357.38
374.513	354.38
374.739	358.38
374.965	345.38
375.191	352.38
375.416	364.38
375.642	339.38
375.868	365.38
376.094	360.38
376.319	340.38
376.545	354.38
376.771	356.38
376.997	346.38
377.222	359.38
377.448	371.38
377.674	351.38
377.899	333.38
378.125	330.38
378.35	335.38
378.576	344.38
378.802	335.38
379.027	326.38
379.253	344.38
379.478	360.38
379.704	352.38
379.929	356.38
380.155	340.38
380.38	335.38
380.606	342.38
380.831	358.38
381.057	372.38
381.282	363.38
381.507	336.38
381.733	353.38
381.958	368.38
382.184	343.38
382.409	372.38
382.634	344.38
382.86	363.38
383.085	348.38
383.31	364.38
383.535	362.38
383.761	354.38
383.986	364.38
384.211	354.38
384.436	365.38
384.662	374.38
384.887	374.38
385.112	371.38
385.337	364.38
385.562	369.38
385.787	374.38
386.013	381.38
386.238	371.38
386.463	374.38
386.688	367.38
386.913	379.38
387.138	378.38
387.363	370.38
387.588	375.38
387.813	360.38
388.038	362.38
388.263	386.38
388.488	375.38
388.713	375.38
388.938	400.38
389.163	377.38
389.387	356.38
389.612	364.38
389.837	360.38
390.062	357.38
390.287	339.38
390.512	372.38
390.736	366.38
390.961	377.38
391.186	375.38
391.411	372.38
391.636	381.38
391.86	373.38
392.085	384.38
392.31	374.38
392.534	397.38
392.759	377.38
392.984	367.38
393.208	374.38
393.433	363.38
393.658	373.38
393.882	366.38
394.107	380.38
394.331	368.38
394.556	368.38
394.78	370.38
395.005	390.38
395.229	385.38
395.454	380.38
395.678	382.38
395.903	387.38
396.127	406.38
396.352	415.38
396.576	386.38
396.801	381.38
397.025	386.38
397.249	386.38
397.474	397.38
397.698	404.38
397.922	388.38
398.147	401.38
398.371	427.38
398.595	416.38
398.82	380.38
399.044	435.38
399.268	423.38
399.492	439.38
399.717	475.38
399.941	483.38
400.165	506.38
400.389	521.38
400.613	469.38
400.837	421.38
401.062	430.38
401.286	437.38
401.51	419.38
401.734	423.38
401.958	421.38
402.182	416.38
402.406	461.38
402.63	458.38
402.854	426.38
403.078	436.38
403.302	417.38
403.526	442.38
403.75	441.38
403.974	428.38
404.198	397.38
404.422	451.38
404.645	447.38
404.869	441.38
405.093	447.38
405.317	491.38
405.541	511.38
405.765	470.38
405.988	458.38
406.212	488.38
406.436	491.38
406.66	486.38
406.883	490.38
407.107	484.38
407.331	515.38
407.555	575.38
407.778	572.38
408.002	520.38
408.226	479.38
408.449	471.38
408.673	496.38
408.896	495.38
409.12	522.38
409.344	504.38
409.567	454.38
409.791	444.38
410.014	438.38
410.238	444.38
410.461	434.38
410.685	439.38
410.908	445.38
411.132	482.38
411.355	479.38
411.578	482.38
411.802	447.38
412.025	456.38
412.249	452.38
412.472	459.38
412.695	477.38
412.919	474.38
413.142	446.38
413.365	414.38
413.589	413.38
413.812	424.38
414.035	443.38
414.258	430.38
414.482	398.38
414.705	408.38
414.928	398.38
415.151	400.38
415.374	413.38
415.597	410.38
415.821	396.38
416.044	417.38
416.267	413.38
416.49	403.38
416.713	411.38
416.936	399.38
417.159	415.38
417.382	396.38
417.605	428.38
417.828	431.38
418.051	427.38
418.274	421.38
418.497	416.38
418.72	413.38
418.943	411.38
419.166	431.38
419.389	445.38
419.611	434.38
419.834	443.38
420.057	437.38
420.28	427.38
420.503	435.38
420.726	442.38
420.948	450.38
421.171	485.38
421.394	476.38
421.617	439.38
421.839	440.38
422.062	443.38
422.285	441.38
422.507	500.38
422.73	550.38
422.953	523.38
423.175	456.38
423.398	455.38
423.621	462.38
423.843	491.38
424.066	457.38
424.288	458.38
424.511	486.38
424.733	508.38
424.956	589.38
425.178	542.38
425.401	552.38
425.623	583.38
425.846	506.38
426.068	470.38
426.291	480.38
426.513	455.38
426.735	458.38
426.958	496.38
427.18	577.38
427.402	688.38
427.625	740.38
427.847	664.38
428.069	583.38
428.292	528.38
428.514	484.38
428.736	463.38
428.958	432.38
429.181	418.38
429.403	419.38
429.625	458.38
429.847	448.38
430.069	512.38
430.292	506.38
430.514	450.38
430.736	440.38
430.958	420.38
431.18	434.38
431.402	422.38
431.624	387.38
431.846	408.38
432.068	404.38
432.29	399.38
432.512	406.38
432.734	430.38
432.956	401.38
433.178	441.38
433.4	429.38
433.622	417.38
433.844	412.38
434.066	410.38
434.287	416.38
434.509	396.38
434.731	417.38
434.953	423.38
435.175	428.38
435.397	463.38
435.618	470.38
435.84	508.38
436.062	585.38
436.284	602.38
436.505	501.38
436.727	477.38
436.949	450.38
437.17	444.38
437.392	432.38
437.614	446.38
437.835	495.38
438.057	553.38
438.278	635.38
438.5	612.38
438.721	692.38
438.943	662.38
439.165	522.38
439.386	488.38
439.608	475.38
439.829	510.38
440.05	497.38
440.272	531.38
440.493	505.38
440.715	465.38
440.936	441.38
441.158	434.38
441.379	412.38
441.6	447.38
441.822	488.38
442.043	515.38
442.264	586.38
442.486	626.38
442.707	535.38
442.928	476.38
443.149	479.38
443.371	529.38
443.592	544.38
443.813	619.38
444.034	636.38
444.255	542.38
444.476	482.38
444.698	455.38
444.919	446.38
445.14	593.38
445.361	548.38
445.582	525.38
445.803	545.38
446.024	632.38
446.245	673.38
446.466	585.38
446.687	511.38
446.908	450.38
447.129	444.38
447.35	457.38
447.571	446.38
447.792	429.38
448.013	434.38
448.234	471.38
448.455	524.38
448.675	586.38
448.896	640.38
449.117	575.38
449.338	548.38
449.559	611.38
449.779	685.38
450	574.38
450.221	482.38
450.442	468.38
450.662	435.38
450.883	445.38
451.104	459.38
451.324	461.38
451.545	413.38
451.766	409.38
451.986	380.38
452.207	407.38
452.428	395.38
452.648	382.38
452.869	398.38
453.089	405.38
453.31	414.38
453.53	417.38
453.751	384.38
453.971	396.38
454.192	418.38
454.412	386.38
454.633	400.38
454.853	400.38
455.073	399.38
455.294	435.38
455.514	477.38
455.734	452.38
455.955	415.38
456.175	375.38
456.395	354.38
456.616	392.38
456.836	390.38
457.056	391.38
457.276	365.38
457.497	354.38
457.717	372.38
457.937	386.38
458.157	378.38
458.377	391.38
458.598	402.38
458.818	474.38
459.038	543.38
459.258	514.38
459.478	454.38
459.698	411.38
459.918	404.38
460.138	414.38
460.358	411.38
460.578	410.38
460.798	408.38
461.018	404.38
461.238	406.38
461.458	409.38
461.678	393.38
461.898	404.38
462.118	412.38
462.338	421.38
462.558	411.38
462.777	413.38
462.997	412.38
463.217	424.38
463.437	430.38
463.657	435.38
463.876	442.38
464.096	432.38
464.316	448.38
464.536	420.38
464.755	440.38
464.975	456.38
465.195	494.38
465.414	584.38
465.634	518.38
465.854	464.38
466.073	432.38
466.293	414.38
466.512	412.38
466.732	388.38
466.951	399.38
467.171	395.38
467.391	386.38
467.61	402.38
467.829	419.38
468.049	412.38
468.268	418.38
468.488	421.38
468.707	408.38
468.927	397.38
469.146	385.38
469.365	389.38
469.585	394.38
469.804	392.38
470.023	414.38
470.243	416.38
470.462	418.38
470.681	440.38
470.901	426.38
471.12	401.38
471.339	399.38
471.558	421.38
471.777	413.38
471.997	405.38
472.216	384.38
472.435	466.38
472.654	440.38
472.873	397.38
473.092	400.38
473.311	397.38
473.53	386.38
473.749	409.38
473.968	461.38
474.187	526.38
474.406	540.38
474.625	454.38
474.844	422.38
475.063	422.38
475.282	410.38
475.501	392.38
475.72	421.38
475.939	412.38
476.158	422.38
476.377	410.38
476.596	388.38
476.814	414.38
477.033	429.38
477.252	425.38
477.471	427.38
477.69	420.38
477.908	412.38
478.127	414.38
478.346	437.38
478.564	435.38
478.783	454.38
479.002	458.38
479.22	470.38
479.439	470.38
479.658	472.38
479.876	485.38
480.095	514.38
480.313	507.38
480.532	503.38
480.751	486.38
480.969	491.38
481.188	564.38
481.406	585.38
481.624	514.38
481.843	491.38
482.061	473.38
482.28	495.38
482.498	479.38
482.717	472.38
482.935	480.38
483.153	466.38
483.372	484.38
483.59	471.38
483.808	462.38
484.027	463.38
484.245	466.38
484.463	487.38
484.681	481.38
484.9	463.38
485.118	486.38
485.336	456.38
485.554	486.38
485.772	483.38
485.99	472.38
486.209	484.38
486.427	493.38
486.645	512.38
486.863	545.38
487.081	535.38
487.299	509.38
487.517	516.38
487.735	487.38
487.953	503.38
488.171	522.38
488.389	496.38
488.607	519.38
488.825	522.38
489.043	534.38
489.261	520.38
489.479	519.38
489.696	502.38
489.914	518.38
490.132	525.38
490.35	541.38
490.568	545.38
490.786	558.38
491.003	546.38
491.221	575.38
491.439	573.38
491.657	577.38
491.874	601.38
492.092	609.38
492.31	612.38
492.527	611.38
492.745	580.38
492.963	582.38
493.18	599.38
493.398	599.38
493.615	605.38
493.833	611.38
494.05	631.38
494.268	593.38
494.485	599.38
494.703	606.38
494.92	599.38
495.138	616.38
495.355	583.38
495.573	610.38
495.79	611.38
496.008	606.38
496.225	611.38
496.442	625.38
496.66	596.38
496.877	570.38
497.094	599.38
497.312	621.38
497.529	620.38
497.746	635.38
497.963	632.38
498.181	659.38
498.398	632.38
498.615	647.38
498.832	664.38
499.049	660.38
499.267	685.38
499.484	710.38
499.701	717.38
499.918	713.38
500.135	773.38
500.352	783.38
500.569	789.38
500.786	790.38
501.003	806.38
501.22	756.38
501.437	724.38
501.654	765.38
501.871	732.38
