Data from 1983.PennyLincolnUp.Lamp.En5.5.200Scan.071819.P1_HRD10591_16-54-17-967.txt Node
Date: Thu Jul 18 16:54:17 EDT 2019
User: cochatt
Spectrometer: HR+D1059
Trigger mode: 1
Integration Time (sec): 1.000000E-1
Scans to average: 1
Electric dark correction enabled: true
Nonlinearity correction enabled: false
Boxcar width: 0
XAxis mode: Wavelengths
Number of Pixels in Spectrum: 2048
>>>>>Begin Spectral Data<<<<<
223.165	-4.38
223.4	-4.38
223.635	-4.38
223.869	-11.38
224.104	-9.38
224.338	-22.38
224.573	-6.38
224.808	-13.38
225.042	-10.38
225.277	-7.38
225.511	-3.38
225.746	-7.38
225.98	9.62
226.215	-9.38
226.449	13.62
226.683	19.62
226.918	21.62
227.152	40.62
227.387	43.62
227.621	36.62
227.856	54.62
228.09	48.62
228.324	48.62
228.559	69.62
228.793	66.62
229.027	87.62
229.262	112.62
229.496	121.62
229.73	126.62
229.964	151.62
230.199	121.62
230.433	104.62
230.667	113.62
230.901	109.62
231.136	116.62
231.37	109.62
231.604	105.62
231.838	103.62
232.072	116.62
232.306	114.62
232.541	118.62
232.775	101.62
233.009	108.62
233.243	120.62
233.477	122.62
233.711	125.62
233.945	124.62
234.179	126.62
234.413	120.62
234.647	134.62
234.881	134.62
235.115	122.62
235.349	120.62
235.583	108.62
235.817	122.62
236.051	112.62
236.285	124.62
236.519	124.62
236.753	124.62
236.987	135.62
237.221	173.62
237.455	211.62
237.689	164.62
237.922	160.62
238.156	147.62
238.39	126.62
238.624	119.62
238.858	144.62
239.091	122.62
239.325	121.62
239.559	112.62
239.793	134.62
240.027	130.62
240.26	137.62
240.494	154.62
240.728	150.62
240.961	143.62
241.195	144.62
241.429	134.62
241.662	129.62
241.896	138.62
242.13	126.62
242.363	123.62
242.597	136.62
242.83	152.62
243.064	132.62
243.298	128.62
243.531	143.62
243.765	120.62
243.998	145.62
244.232	137.62
244.465	128.62
244.699	139.62
244.932	158.62
245.166	136.62
245.399	150.62
245.633	138.62
245.866	135.62
246.099	147.62
246.333	142.62
246.566	150.62
246.8	145.62
247.033	127.62
247.266	153.62
247.5	146.62
247.733	166.62
247.966	162.62
248.2	153.62
248.433	157.62
248.666	161.62
248.899	168.62
249.133	190.62
249.366	195.62
249.599	181.62
249.832	181.62
250.066	165.62
250.299	173.62
250.532	180.62
250.765	199.62
250.998	206.62
251.231	213.62
251.465	203.62
251.698	192.62
251.931	171.62
252.164	186.62
252.397	186.62
252.63	196.62
252.863	193.62
253.096	204.62
253.329	206.62
253.562	218.62
253.795	214.62
254.028	229.62
254.261	197.62
254.494	203.62
254.727	241.62
254.96	258.62
255.193	263.62
255.426	230.62
255.659	204.62
255.892	222.62
256.124	211.62
256.357	188.62
256.59	204.62
256.823	201.62
257.056	203.62
257.289	204.62
257.521	192.62
257.754	176.62
257.987	189.62
258.22	195.62
258.452	210.62
258.685	194.62
258.918	196.62
259.151	167.62
259.383	206.62
259.616	197.62
259.849	183.62
260.081	225.62
260.314	224.62
260.547	226.62
260.779	237.62
261.012	234.62
261.244	205.62
261.477	214.62
261.71	203.62
261.942	192.62
262.175	221.62
262.407	217.62
262.64	202.62
262.872	198.62
263.105	182.62
263.337	213.62
263.57	185.62
263.802	201.62
264.035	190.62
264.267	226.62
264.499	198.62
264.732	199.62
264.964	209.62
265.197	204.62
265.429	205.62
265.661	193.62
265.894	198.62
266.126	187.62
266.358	201.62
266.591	208.62
266.823	215.62
267.055	200.62
267.287	202.62
267.52	210.62
267.752	209.62
267.984	218.62
268.216	217.62
268.448	210.62
268.681	210.62
268.913	223.62
269.145	253.62
269.377	271.62
269.609	250.62
269.841	230.62
270.073	255.62
270.306	268.62
270.538	304.62
270.77	293.62
271.002	282.62
271.234	255.62
271.466	264.62
271.698	278.62
271.93	296.62
272.162	282.62
272.394	294.62
272.626	269.62
272.858	263.62
273.09	263.62
273.322	252.62
273.553	244.62
273.785	258.62
274.017	247.62
274.249	246.62
274.481	261.62
274.713	238.62
274.945	234.62
275.176	258.62
275.408	264.62
275.64	233.62
275.872	240.62
276.104	248.62
276.335	240.62
276.567	251.62
276.799	265.62
277.031	296.62
277.262	301.62
277.494	288.62
277.726	266.62
277.957	264.62
278.189	258.62
278.421	239.62
278.652	249.62
278.884	238.62
279.115	256.62
279.347	238.62
279.579	249.62
279.81	246.62
280.042	246.62
280.273	231.62
280.505	236.62
280.736	241.62
280.968	249.62
281.199	242.62
281.431	260.62
281.662	260.62
281.894	240.62
282.125	248.62
282.356	261.62
282.588	280.62
282.819	280.62
283.051	253.62
283.282	242.62
283.513	244.62
283.745	262.62
283.976	241.62
284.207	248.62
284.439	256.62
284.67	257.62
284.901	265.62
285.132	247.62
285.364	246.62
285.595	248.62
285.826	237.62
286.057	253.62
286.288	261.62
286.52	258.62
286.751	247.62
286.982	246.62
287.213	239.62
287.444	249.62
287.675	264.62
287.906	284.62
288.138	274.62
288.369	271.62
288.6	270.62
288.831	260.62
289.062	271.62
289.293	301.62
289.524	263.62
289.755	266.62
289.986	252.62
290.217	266.62
290.448	254.62
290.679	252.62
290.91	253.62
291.141	256.62
291.371	268.62
291.602	285.62
291.833	262.62
292.064	266.62
292.295	245.62
292.526	260.62
292.757	250.62
292.987	263.62
293.218	261.62
293.449	257.62
293.68	261.62
293.91	271.62
294.141	248.62
294.372	252.62
294.603	263.62
294.833	276.62
295.064	254.62
295.295	263.62
295.525	272.62
295.756	282.62
295.987	277.62
296.217	280.62
296.448	314.62
296.679	275.62
296.909	269.62
297.14	270.62
297.37	270.62
297.601	261.62
297.831	270.62
298.062	274.62
298.292	270.62
298.523	282.62
298.753	283.62
298.984	279.62
299.214	271.62
299.445	286.62
299.675	284.62
299.905	297.62
300.136	288.62
300.366	284.62
300.597	282.62
300.827	276.62
301.057	284.62
301.288	311.62
301.518	304.62
301.748	276.62
301.979	272.62
302.209	302.62
302.439	318.62
302.669	313.62
302.9	272.62
303.13	295.62
303.36	308.62
303.59	310.62
303.82	306.62
304.051	288.62
304.281	286.62
304.511	300.62
304.741	286.62
304.971	280.62
305.201	298.62
305.431	295.62
305.661	299.62
305.891	300.62
306.121	312.62
306.352	305.62
306.582	308.62
306.812	294.62
307.042	292.62
307.272	301.62
307.502	305.62
307.731	299.62
307.961	313.62
308.191	302.62
308.421	298.62
308.651	298.62
308.881	317.62
309.111	309.62
309.341	316.62
309.571	305.62
309.8	333.62
310.03	326.62
310.26	359.62
310.49	376.62
310.72	342.62
310.949	365.62
311.179	362.62
311.409	357.62
311.639	352.62
311.868	352.62
312.098	341.62
312.328	372.62
312.557	365.62
312.787	392.62
313.017	378.62
313.246	355.62
313.476	347.62
313.706	349.62
313.935	357.62
314.165	355.62
314.394	360.62
314.624	348.62
314.853	349.62
315.083	338.62
315.312	337.62
315.542	356.62
315.771	344.62
316.001	335.62
316.23	329.62
316.46	324.62
316.689	337.62
316.919	358.62
317.148	352.62
317.377	341.62
317.607	350.62
317.836	347.62
318.065	344.62
318.295	320.62
318.524	324.62
318.753	329.62
318.983	353.62
319.212	343.62
319.441	359.62
319.67	361.62
319.9	344.62
320.129	323.62
320.358	334.62
320.587	362.62
320.816	369.62
321.046	393.62
321.275	354.62
321.504	367.62
321.733	347.62
321.962	388.62
322.191	402.62
322.42	402.62
322.649	418.62
322.878	424.62
323.108	448.62
323.337	461.62
323.566	495.62
323.795	500.62
324.024	576.62
324.253	719.62
324.482	1012.62
324.71	1560.62
324.939	2009.62
325.168	1707.62
325.397	942.62
325.626	615.62
325.855	522.62
326.084	476.62
326.313	466.62
326.542	496.62
326.77	523.62
326.999	665.62
327.228	890.62
327.457	1305.62
327.686	1497.62
327.914	1012.62
328.143	698.62
328.372	593.62
328.6	568.62
328.829	545.62
329.058	540.62
329.287	556.62
329.515	509.62
329.744	473.62
329.972	477.62
330.201	492.62
330.43	536.62
330.658	545.62
330.887	602.62
331.115	557.62
331.344	500.62
331.572	488.62
331.801	459.62
332.03	453.62
332.258	436.62
332.486	394.62
332.715	388.62
332.943	396.62
333.172	403.62
333.4	424.62
333.629	432.62
333.857	438.62
334.085	440.62
334.314	465.62
334.542	454.62
334.771	473.62
334.999	450.62
335.227	424.62
335.455	422.62
335.684	389.62
335.912	412.62
336.14	394.62
336.369	391.62
336.597	398.62
336.825	416.62
337.053	398.62
337.281	405.62
337.51	401.62
337.738	385.62
337.966	414.62
338.194	379.62
338.422	394.62
338.65	400.62
338.878	390.62
339.106	372.62
339.334	391.62
339.562	391.62
339.79	381.62
340.018	406.62
340.246	396.62
340.474	388.62
340.702	386.62
340.93	374.62
341.158	382.62
341.386	376.62
341.614	374.62
341.842	377.62
342.07	382.62
342.298	373.62
342.526	369.62
342.754	370.62
342.981	364.62
343.209	379.62
343.437	374.62
343.665	381.62
343.893	352.62
344.12	372.62
344.348	388.62
344.576	384.62
344.804	380.62
345.031	404.62
345.259	415.62
345.487	402.62
345.714	394.62
345.942	378.62
346.17	381.62
346.397	360.62
346.625	380.62
346.853	375.62
347.08	367.62
347.308	371.62
347.535	382.62
347.763	395.62
347.99	393.62
348.218	381.62
348.445	397.62
348.673	419.62
348.9	388.62
349.128	367.62
349.355	377.62
349.583	378.62
349.81	378.62
350.037	363.62
350.265	375.62
350.492	350.62
350.72	366.62
350.947	387.62
351.174	393.62
351.402	382.62
351.629	380.62
351.856	376.62
352.083	379.62
352.311	376.62
352.538	398.62
352.765	384.62
352.992	379.62
353.22	367.62
353.447	383.62
353.674	369.62
353.901	362.62
354.128	333.62
354.355	354.62
354.583	354.62
354.81	335.62
355.037	360.62
355.264	334.62
355.491	352.62
355.718	328.62
355.945	339.62
356.172	328.62
356.399	347.62
356.626	358.62
356.853	358.62
357.08	351.62
357.307	344.62
357.534	350.62
357.761	327.62
357.988	344.62
358.215	357.62
358.441	346.62
358.668	351.62
358.895	357.62
359.122	357.62
359.349	358.62
359.576	393.62
359.802	396.62
360.029	425.62
360.256	438.62
360.483	411.62
360.709	378.62
360.936	395.62
361.163	370.62
361.39	390.62
361.616	380.62
361.843	368.62
362.07	382.62
362.296	386.62
362.523	344.62
362.749	359.62
362.976	362.62
363.203	362.62
363.429	364.62
363.656	355.62
363.882	338.62
364.109	354.62
364.335	348.62
364.562	350.62
364.788	360.62
365.015	339.62
365.241	365.62
365.468	361.62
365.694	366.62
365.92	369.62
366.147	341.62
366.373	359.62
366.599	344.62
366.826	356.62
367.052	343.62
367.278	342.62
367.505	362.62
367.731	337.62
367.957	351.62
368.184	372.62
368.41	368.62
368.636	358.62
368.862	378.62
369.089	350.62
369.315	351.62
369.541	359.62
369.767	345.62
369.993	335.62
370.219	345.62
370.445	335.62
370.672	348.62
370.898	363.62
371.124	344.62
371.35	351.62
371.576	328.62
371.802	344.62
372.028	336.62
372.254	360.62
372.48	352.62
372.706	350.62
372.932	350.62
373.158	341.62
373.384	347.62
373.61	352.62
373.835	374.62
374.061	346.62
374.287	353.62
374.513	358.62
374.739	350.62
374.965	352.62
375.191	358.62
375.416	347.62
375.642	357.62
375.868	348.62
376.094	357.62
376.319	345.62
376.545	341.62
376.771	338.62
376.997	341.62
377.222	324.62
377.448	332.62
377.674	341.62
377.899	344.62
378.125	367.62
378.35	334.62
378.576	333.62
378.802	342.62
379.027	359.62
379.253	346.62
379.478	327.62
379.704	318.62
379.929	328.62
380.155	337.62
380.38	353.62
380.606	363.62
380.831	342.62
381.057	353.62
381.282	338.62
381.507	330.62
381.733	342.62
381.958	362.62
382.184	329.62
382.409	351.62
382.634	342.62
382.86	369.62
383.085	361.62
383.31	338.62
383.535	337.62
383.761	331.62
383.986	347.62
384.211	373.62
384.436	372.62
384.662	367.62
384.887	348.62
385.112	358.62
385.337	354.62
385.562	362.62
385.787	370.62
386.013	377.62
386.238	384.62
386.463	366.62
386.688	365.62
386.913	371.62
387.138	345.62
387.363	376.62
387.588	374.62
387.813	377.62
388.038	370.62
388.263	362.62
388.488	376.62
388.713	362.62
388.938	358.62
389.163	375.62
389.387	359.62
389.612	367.62
389.837	376.62
390.062	375.62
390.287	364.62
390.512	361.62
390.736	369.62
390.961	363.62
391.186	360.62
391.411	366.62
391.636	378.62
391.86	378.62
392.085	357.62
392.31	388.62
392.534	356.62
392.759	375.62
392.984	372.62
393.208	362.62
393.433	367.62
393.658	368.62
393.882	361.62
394.107	369.62
394.331	349.62
394.556	378.62
394.78	366.62
395.005	362.62
395.229	369.62
395.454	368.62
395.678	384.62
395.903	397.62
396.127	406.62
396.352	396.62
396.576	396.62
396.801	375.62
397.025	377.62
397.249	374.62
397.474	405.62
397.698	387.62
397.922	397.62
398.147	400.62
398.371	398.62
398.595	416.62
398.82	412.62
399.044	404.62
399.268	426.62
399.492	455.62
399.717	476.62
399.941	478.62
400.165	488.62
400.389	508.62
400.613	469.62
400.837	441.62
401.062	439.62
401.286	425.62
401.51	426.62
401.734	421.62
401.958	417.62
402.182	426.62
402.406	432.62
402.63	422.62
402.854	442.62
403.078	420.62
403.302	422.62
403.526	424.62
403.75	448.62
403.974	424.62
404.198	434.62
404.422	431.62
404.645	427.62
404.869	446.62
405.093	448.62
405.317	492.62
405.541	519.62
405.765	479.62
405.988	464.62
406.212	471.62
406.436	473.62
406.66	508.62
406.883	476.62
407.107	492.62
407.331	502.62
407.555	542.62
407.778	570.62
408.002	510.62
408.226	460.62
408.449	477.62
408.673	464.62
408.896	472.62
409.12	517.62
409.344	508.62
409.567	443.62
409.791	415.62
410.014	428.62
410.238	420.62
410.461	436.62
410.685	447.62
410.908	433.62
411.132	458.62
411.355	486.62
411.578	464.62
411.802	443.62
412.025	440.62
412.249	428.62
412.472	445.62
412.695	478.62
412.919	453.62
413.142	441.62
413.365	423.62
413.589	417.62
413.812	425.62
414.035	414.62
414.258	427.62
414.482	398.62
414.705	398.62
414.928	389.62
415.151	394.62
415.374	412.62
415.597	394.62
415.821	388.62
416.044	382.62
416.267	399.62
416.49	381.62
416.713	397.62
416.936	398.62
417.159	399.62
417.382	389.62
417.605	410.62
417.828	423.62
418.051	437.62
418.274	423.62
418.497	399.62
418.72	406.62
418.943	390.62
419.166	403.62
419.389	436.62
419.611	437.62
419.834	420.62
420.057	411.62
420.28	425.62
420.503	414.62
420.726	417.62
420.948	439.62
421.171	457.62
421.394	466.62
421.617	441.62
421.839	425.62
422.062	429.62
422.285	430.62
422.507	470.62
422.73	495.62
422.953	514.62
423.175	458.62
423.398	465.62
423.621	436.62
423.843	453.62
424.066	463.62
424.288	458.62
424.511	468.62
424.733	502.62
424.956	565.62
425.178	562.62
425.401	566.62
425.623	549.62
425.846	506.62
426.068	458.62
426.291	452.62
426.513	464.62
426.735	458.62
426.958	503.62
427.18	563.62
427.402	641.62
427.625	718.62
427.847	657.62
428.069	565.62
428.292	481.62
428.514	470.62
428.736	442.62
428.958	445.62
429.181	408.62
429.403	415.62
429.625	444.62
429.847	485.62
430.069	481.62
430.292	505.62
430.514	463.62
430.736	416.62
430.958	393.62
431.18	394.62
431.402	403.62
431.624	413.62
431.846	391.62
432.068	386.62
432.29	412.62
432.512	402.62
432.734	406.62
432.956	417.62
433.178	403.62
433.4	416.62
433.622	390.62
433.844	390.62
434.066	401.62
434.287	392.62
434.509	403.62
434.731	390.62
434.953	422.62
435.175	413.62
435.397	448.62
435.618	441.62
435.84	489.62
436.062	583.62
436.284	602.62
436.505	514.62
436.727	453.62
436.949	434.62
437.17	438.62
437.392	434.62
437.614	467.62
437.835	478.62
438.057	541.62
438.278	616.62
438.5	613.62
438.721	671.62
438.943	633.62
439.165	493.62
439.386	471.62
439.608	494.62
439.829	479.62
440.05	514.62
440.272	541.62
440.493	509.62
440.715	463.62
440.936	444.62
441.158	453.62
441.379	431.62
441.6	431.62
441.822	470.62
442.043	488.62
442.264	543.62
442.486	583.62
442.707	525.62
442.928	464.62
443.149	479.62
443.371	512.62
443.592	551.62
443.813	645.62
444.034	649.62
444.255	537.62
444.476	485.62
444.698	446.62
444.919	459.62
445.14	602.62
445.361	541.62
445.582	492.62
445.803	587.62
446.024	635.62
446.245	647.62
446.466	584.62
446.687	490.62
446.908	478.62
447.129	461.62
447.35	437.62
447.571	432.62
447.792	426.62
448.013	444.62
448.234	449.62
448.455	484.62
448.675	574.62
448.896	651.62
449.117	554.62
449.338	543.62
449.559	609.62
449.779	679.62
450	568.62
450.221	492.62
450.442	450.62
450.662	460.62
450.883	441.62
451.104	433.62
451.324	446.62
451.545	430.62
451.766	409.62
451.986	401.62
452.207	391.62
452.428	386.62
452.648	406.62
452.869	399.62
453.089	414.62
453.31	412.62
453.53	373.62
453.751	388.62
453.971	390.62
454.192	397.62
454.412	416.62
454.633	393.62
454.853	398.62
455.073	377.62
455.294	402.62
455.514	480.62
455.734	460.62
455.955	406.62
456.175	365.62
456.395	388.62
456.616	351.62
456.836	365.62
457.056	365.62
457.276	375.62
457.497	365.62
457.717	356.62
457.937	348.62
458.157	369.62
458.377	397.62
458.598	424.62
458.818	481.62
459.038	541.62
459.258	526.62
459.478	445.62
459.698	384.62
459.918	403.62
460.138	393.62
460.358	401.62
460.578	401.62
460.798	412.62
461.018	428.62
461.238	406.62
461.458	419.62
461.678	385.62
461.898	396.62
462.118	408.62
462.338	428.62
462.558	391.62
462.777	383.62
462.997	431.62
463.217	425.62
463.437	424.62
463.657	449.62
463.876	420.62
464.096	408.62
464.316	425.62
464.536	430.62
464.755	436.62
464.975	439.62
465.195	497.62
465.414	586.62
465.634	497.62
465.854	458.62
466.073	431.62
466.293	404.62
466.512	388.62
466.732	399.62
466.951	388.62
467.171	386.62
467.391	416.62
467.61	424.62
467.829	410.62
468.049	425.62
468.268	401.62
468.488	385.62
468.707	388.62
468.927	404.62
469.146	382.62
469.365	386.62
469.585	382.62
469.804	384.62
470.023	401.62
470.243	427.62
470.462	397.62
470.681	450.62
470.901	428.62
471.12	413.62
471.339	398.62
471.558	392.62
471.777	394.62
471.997	394.62
472.216	417.62
472.435	427.62
472.654	417.62
472.873	402.62
473.092	405.62
473.311	383.62
473.53	377.62
473.749	382.62
473.968	441.62
474.187	536.62
474.406	541.62
474.625	466.62
474.844	418.62
475.063	407.62
475.282	397.62
475.501	389.62
475.72	417.62
475.939	412.62
476.158	422.62
476.377	429.62
476.596	421.62
476.814	432.62
477.033	411.62
477.252	446.62
477.471	428.62
477.69	442.62
477.908	435.62
478.127	436.62
478.346	423.62
478.564	456.62
478.783	433.62
479.002	454.62
479.22	455.62
479.439	441.62
479.658	478.62
479.876	464.62
480.095	478.62
480.313	491.62
480.532	502.62
480.751	473.62
480.969	484.62
481.188	549.62
481.406	577.62
481.624	528.62
481.843	477.62
482.061	457.62
482.28	467.62
482.498	454.62
482.717	471.62
482.935	458.62
483.153	463.62
483.372	471.62
483.59	465.62
483.808	466.62
484.027	467.62
484.245	468.62
484.463	476.62
484.681	477.62
484.9	474.62
485.118	460.62
485.336	462.62
485.554	483.62
485.772	463.62
485.99	462.62
486.209	466.62
486.427	469.62
486.645	497.62
486.863	514.62
487.081	501.62
487.299	520.62
487.517	500.62
487.735	492.62
487.953	487.62
488.171	492.62
488.389	493.62
488.607	483.62
488.825	486.62
489.043	501.62
489.261	491.62
489.479	477.62
489.696	500.62
489.914	518.62
490.132	511.62
490.35	526.62
490.568	508.62
490.786	514.62
491.003	552.62
491.221	534.62
491.439	561.62
491.657	561.62
491.874	567.62
492.092	596.62
492.31	597.62
492.527	598.62
492.745	581.62
492.963	584.62
493.18	601.62
493.398	602.62
493.615	597.62
493.833	599.62
494.05	591.62
494.268	594.62
494.485	595.62
494.703	576.62
494.92	604.62
495.138	601.62
495.355	582.62
495.573	582.62
495.79	617.62
496.008	622.62
496.225	591.62
496.442	604.62
496.66	594.62
496.877	591.62
497.094	604.62
497.312	589.62
497.529	607.62
497.746	599.62
497.963	615.62
498.181	628.62
498.398	636.62
498.615	647.62
498.832	631.62
499.049	652.62
499.267	665.62
499.484	682.62
499.701	701.62
499.918	726.62
500.135	743.62
500.352	738.62
500.569	759.62
500.786	788.62
501.003	765.62
501.22	776.62
501.437	720.62
501.654	729.62
501.871	735.62
