Data from 1983.PennyLincolnUp.Lamp.En5.5.200Scan.071819.P1_HRD10591_16-52-44-965.txt Node
Date: Thu Jul 18 16:52:44 EDT 2019
User: cochatt
Spectrometer: HR+D1059
Trigger mode: 1
Integration Time (sec): 1.000000E-1
Scans to average: 1
Electric dark correction enabled: true
Nonlinearity correction enabled: false
Boxcar width: 0
XAxis mode: Wavelengths
Number of Pixels in Spectrum: 2048
>>>>>Begin Spectral Data<<<<<
223.165	-29.56
223.4	-29.56
223.635	-29.56
223.869	-19.56
224.104	-26.56
224.338	-11.56
224.573	-9.56
224.808	-19.56
225.042	1.44
225.277	-0.56
225.511	-4.56
225.746	5.44
225.98	2.44
226.215	24.44
226.449	12.44
226.683	11.44
226.918	32.44
227.152	31.44
227.387	32.44
227.621	25.44
227.856	41.44
228.09	31.44
228.324	41.44
228.559	43.44
228.793	51.44
229.027	88.44
229.262	81.44
229.496	83.44
229.73	129.44
229.964	128.44
230.199	117.44
230.433	100.44
230.667	94.44
230.901	97.44
231.136	103.44
231.37	113.44
231.604	101.44
231.838	99.44
232.072	96.44
232.306	95.44
232.541	105.44
232.775	96.44
233.009	118.44
233.243	111.44
233.477	114.44
233.711	114.44
233.945	104.44
234.179	114.44
234.413	99.44
234.647	103.44
234.881	98.44
235.115	120.44
235.349	112.44
235.583	102.44
235.817	111.44
236.051	111.44
236.285	112.44
236.519	119.44
236.753	126.44
236.987	138.44
237.221	168.44
237.455	193.44
237.689	174.44
237.922	137.44
238.156	118.44
238.39	124.44
238.624	116.44
238.858	118.44
239.091	113.44
239.325	103.44
239.559	114.44
239.793	121.44
240.027	130.44
240.26	137.44
240.494	151.44
240.728	152.44
240.961	121.44
241.195	121.44
241.429	121.44
241.662	126.44
241.896	119.44
242.13	116.44
242.363	119.44
242.597	117.44
242.83	112.44
243.064	130.44
243.298	122.44
243.531	129.44
243.765	118.44
243.998	125.44
244.232	117.44
244.465	121.44
244.699	100.44
244.932	120.44
245.166	126.44
245.399	128.44
245.633	104.44
245.866	139.44
246.099	138.44
246.333	126.44
246.566	139.44
246.8	152.44
247.033	128.44
247.266	132.44
247.5	145.44
247.733	146.44
247.966	162.44
248.2	157.44
248.433	166.44
248.666	150.44
248.899	165.44
249.133	170.44
249.366	180.44
249.599	182.44
249.832	172.44
250.066	148.44
250.299	148.44
250.532	164.44
250.765	185.44
250.998	182.44
251.231	187.44
251.465	170.44
251.698	179.44
251.931	158.44
252.164	178.44
252.397	167.44
252.63	163.44
252.863	194.44
253.096	182.44
253.329	193.44
253.562	178.44
253.795	194.44
254.028	199.44
254.261	196.44
254.494	196.44
254.727	226.44
254.96	237.44
255.193	222.44
255.426	199.44
255.659	187.44
255.892	186.44
256.124	183.44
256.357	192.44
256.59	182.44
256.823	184.44
257.056	179.44
257.289	181.44
257.521	182.44
257.754	174.44
257.987	188.44
258.22	179.44
258.452	186.44
258.685	179.44
258.918	178.44
259.151	207.44
259.383	205.44
259.616	212.44
259.849	209.44
260.081	214.44
260.314	200.44
260.547	229.44
260.779	209.44
261.012	212.44
261.244	208.44
261.477	201.44
261.71	203.44
261.942	207.44
262.175	203.44
262.407	199.44
262.64	195.44
262.872	192.44
263.105	189.44
263.337	192.44
263.57	177.44
263.802	195.44
264.035	182.44
264.267	174.44
264.499	197.44
264.732	183.44
264.964	165.44
265.197	188.44
265.429	190.44
265.661	177.44
265.894	190.44
266.126	190.44
266.358	207.44
266.591	201.44
266.823	202.44
267.055	210.44
267.287	206.44
267.52	203.44
267.752	214.44
267.984	196.44
268.216	200.44
268.448	190.44
268.681	198.44
268.913	228.44
269.145	241.44
269.377	264.44
269.609	216.44
269.841	227.44
270.073	238.44
270.306	283.44
270.538	295.44
270.77	283.44
271.002	274.44
271.234	257.44
271.466	286.44
271.698	269.44
271.93	300.44
272.162	290.44
272.394	272.44
272.626	248.44
272.858	267.44
273.09	255.44
273.322	239.44
273.553	240.44
273.785	225.44
274.017	238.44
274.249	214.44
274.481	218.44
274.713	239.44
274.945	235.44
275.176	222.44
275.408	231.44
275.64	227.44
275.872	231.44
276.104	221.44
276.335	234.44
276.567	243.44
276.799	260.44
277.031	258.44
277.262	280.44
277.494	267.44
277.726	241.44
277.957	250.44
278.189	217.44
278.421	230.44
278.652	231.44
278.884	230.44
279.115	221.44
279.347	232.44
279.579	242.44
279.81	228.44
280.042	248.44
280.273	214.44
280.505	235.44
280.736	222.44
280.968	236.44
281.199	227.44
281.431	240.44
281.662	228.44
281.894	225.44
282.125	215.44
282.356	231.44
282.588	243.44
282.819	263.44
283.051	251.44
283.282	246.44
283.513	235.44
283.745	255.44
283.976	267.44
284.207	231.44
284.439	255.44
284.67	249.44
284.901	235.44
285.132	247.44
285.364	250.44
285.595	234.44
285.826	225.44
286.057	234.44
286.288	257.44
286.52	251.44
286.751	256.44
286.982	242.44
287.213	229.44
287.444	244.44
287.675	262.44
287.906	259.44
288.138	259.44
288.369	257.44
288.6	256.44
288.831	242.44
289.062	266.44
289.293	267.44
289.524	254.44
289.755	251.44
289.986	257.44
290.217	243.44
290.448	255.44
290.679	261.44
290.91	254.44
291.141	247.44
291.371	246.44
291.602	240.44
291.833	257.44
292.064	247.44
292.295	238.44
292.526	253.44
292.757	246.44
292.987	257.44
293.218	254.44
293.449	262.44
293.68	246.44
293.91	272.44
294.141	244.44
294.372	251.44
294.603	262.44
294.833	248.44
295.064	252.44
295.295	249.44
295.525	267.44
295.756	278.44
295.987	275.44
296.217	292.44
296.448	287.44
296.679	273.44
296.909	256.44
297.14	248.44
297.37	259.44
297.601	272.44
297.831	241.44
298.062	267.44
298.292	273.44
298.523	254.44
298.753	275.44
298.984	279.44
299.214	267.44
299.445	271.44
299.675	283.44
299.905	284.44
300.136	261.44
300.366	268.44
300.597	268.44
300.827	280.44
301.057	287.44
301.288	289.44
301.518	281.44
301.748	283.44
301.979	273.44
302.209	295.44
302.439	277.44
302.669	281.44
302.9	283.44
303.13	286.44
303.36	288.44
303.59	285.44
303.82	287.44
304.051	288.44
304.281	277.44
304.511	268.44
304.741	272.44
304.971	302.44
305.201	263.44
305.431	290.44
305.661	289.44
305.891	270.44
306.121	299.44
306.352	292.44
306.582	309.44
306.812	299.44
307.042	282.44
307.272	281.44
307.502	289.44
307.731	301.44
307.961	263.44
308.191	296.44
308.421	298.44
308.651	307.44
308.881	305.44
309.111	295.44
309.341	296.44
309.571	306.44
309.8	302.44
310.03	304.44
310.26	343.44
310.49	317.44
310.72	344.44
310.949	330.44
311.179	339.44
311.409	328.44
311.639	342.44
311.868	316.44
312.098	345.44
312.328	341.44
312.557	346.44
312.787	355.44
313.017	354.44
313.246	334.44
313.476	330.44
313.706	341.44
313.935	339.44
314.165	339.44
314.394	335.44
314.624	340.44
314.853	345.44
315.083	333.44
315.312	319.44
315.542	325.44
315.771	336.44
316.001	303.44
316.23	323.44
316.46	342.44
316.689	322.44
316.919	346.44
317.148	339.44
317.377	356.44
317.607	348.44
317.836	335.44
318.065	331.44
318.295	310.44
318.524	337.44
318.753	322.44
318.983	333.44
319.212	331.44
319.441	319.44
319.67	342.44
319.9	325.44
320.129	317.44
320.358	340.44
320.587	345.44
320.816	347.44
321.046	353.44
321.275	356.44
321.504	339.44
321.733	356.44
321.962	368.44
322.191	354.44
322.42	378.44
322.649	388.44
322.878	404.44
323.108	422.44
323.337	436.44
323.566	433.44
323.795	467.44
324.024	500.44
324.253	615.44
324.482	888.44
324.71	1337.44
324.939	1761.44
325.168	1462.44
325.397	816.44
325.626	556.44
325.855	466.44
326.084	440.44
326.313	448.44
326.542	444.44
326.77	472.44
326.999	572.44
327.228	784.44
327.457	1136.44
327.686	1313.44
327.914	866.44
328.143	594.44
328.372	539.44
328.6	494.44
328.829	491.44
329.058	479.44
329.287	498.44
329.515	452.44
329.744	427.44
329.972	414.44
330.201	432.44
330.43	433.44
330.658	473.44
330.887	523.44
331.115	500.44
331.344	454.44
331.572	414.44
331.801	413.44
332.03	426.44
332.258	387.44
332.486	385.44
332.715	388.44
332.943	389.44
333.172	367.44
333.4	398.44
333.629	386.44
333.857	385.44
334.085	406.44
334.314	390.44
334.542	383.44
334.771	396.44
334.999	394.44
335.227	383.44
335.455	382.44
335.684	376.44
335.912	377.44
336.14	375.44
336.369	389.44
336.597	383.44
336.825	390.44
337.053	372.44
337.281	380.44
337.51	384.44
337.738	368.44
337.966	375.44
338.194	376.44
338.422	383.44
338.65	370.44
338.878	368.44
339.106	372.44
339.334	352.44
339.562	373.44
339.79	374.44
340.018	351.44
340.246	385.44
340.474	386.44
340.702	378.44
340.93	390.44
341.158	380.44
341.386	377.44
341.614	379.44
341.842	370.44
342.07	372.44
342.298	373.44
342.526	361.44
342.754	356.44
342.981	368.44
343.209	349.44
343.437	370.44
343.665	353.44
343.893	384.44
344.12	386.44
344.348	359.44
344.576	375.44
344.804	384.44
345.031	391.44
345.259	377.44
345.487	386.44
345.714	378.44
345.942	366.44
346.17	362.44
346.397	360.44
346.625	345.44
346.853	376.44
347.08	338.44
347.308	356.44
347.535	379.44
347.763	386.44
347.99	384.44
348.218	371.44
348.445	383.44
348.673	371.44
348.9	354.44
349.128	361.44
349.355	347.44
349.583	332.44
349.81	351.44
350.037	349.44
350.265	333.44
350.492	350.44
350.72	349.44
350.947	355.44
351.174	360.44
351.402	362.44
351.629	362.44
351.856	356.44
352.083	375.44
352.311	372.44
352.538	378.44
352.765	364.44
352.992	362.44
353.22	374.44
353.447	342.44
353.674	346.44
353.901	348.44
354.128	354.44
354.355	360.44
354.583	326.44
354.81	347.44
355.037	360.44
355.264	325.44
355.491	331.44
355.718	336.44
355.945	320.44
356.172	339.44
356.399	330.44
356.626	329.44
356.853	327.44
357.08	352.44
357.307	328.44
357.534	337.44
357.761	324.44
357.988	338.44
358.215	343.44
358.441	331.44
358.668	334.44
358.895	333.44
359.122	355.44
359.349	345.44
359.576	338.44
359.802	359.44
360.029	400.44
360.256	427.44
360.483	382.44
360.709	352.44
360.936	348.44
361.163	353.44
361.39	340.44
361.616	374.44
361.843	347.44
362.07	351.44
362.296	363.44
362.523	368.44
362.749	356.44
362.976	351.44
363.203	350.44
363.429	347.44
363.656	340.44
363.882	341.44
364.109	340.44
364.335	343.44
364.562	341.44
364.788	341.44
365.015	326.44
365.241	356.44
365.468	336.44
365.694	344.44
365.92	346.44
366.147	358.44
366.373	355.44
366.599	338.44
366.826	343.44
367.052	321.44
367.278	332.44
367.505	336.44
367.731	330.44
367.957	338.44
368.184	339.44
368.41	324.44
368.636	362.44
368.862	358.44
369.089	353.44
369.315	340.44
369.541	330.44
369.767	355.44
369.993	342.44
370.219	350.44
370.445	363.44
370.672	337.44
370.898	349.44
371.124	337.44
371.35	332.44
371.576	350.44
371.802	332.44
372.028	338.44
372.254	340.44
372.48	321.44
372.706	330.44
372.932	344.44
373.158	342.44
373.384	332.44
373.61	340.44
373.835	331.44
374.061	349.44
374.287	336.44
374.513	343.44
374.739	343.44
374.965	371.44
375.191	341.44
375.416	350.44
375.642	347.44
375.868	356.44
376.094	327.44
376.319	346.44
376.545	368.44
376.771	347.44
376.997	333.44
377.222	329.44
377.448	333.44
377.674	343.44
377.899	325.44
378.125	320.44
378.35	337.44
378.576	335.44
378.802	367.44
379.027	338.44
379.253	336.44
379.478	331.44
379.704	314.44
379.929	337.44
380.155	324.44
380.38	347.44
380.606	335.44
380.831	331.44
381.057	328.44
381.282	330.44
381.507	351.44
381.733	351.44
381.958	333.44
382.184	324.44
382.409	335.44
382.634	356.44
382.86	350.44
383.085	345.44
383.31	331.44
383.535	333.44
383.761	334.44
383.986	336.44
384.211	353.44
384.436	356.44
384.662	352.44
384.887	351.44
385.112	366.44
385.337	372.44
385.562	360.44
385.787	370.44
386.013	385.44
386.238	378.44
386.463	383.44
386.688	357.44
386.913	355.44
387.138	361.44
387.363	356.44
387.588	376.44
387.813	374.44
388.038	369.44
388.263	370.44
388.488	361.44
388.713	358.44
388.938	351.44
389.163	374.44
389.387	372.44
389.612	367.44
389.837	361.44
390.062	382.44
390.287	361.44
390.512	355.44
390.736	355.44
390.961	345.44
391.186	366.44
391.411	372.44
391.636	369.44
391.86	371.44
392.085	377.44
392.31	372.44
392.534	383.44
392.759	380.44
392.984	385.44
393.208	380.44
393.433	365.44
393.658	370.44
393.882	355.44
394.107	371.44
394.331	366.44
394.556	362.44
394.78	362.44
395.005	383.44
395.229	360.44
395.454	374.44
395.678	354.44
395.903	373.44
396.127	390.44
396.352	424.44
396.576	391.44
396.801	368.44
397.025	363.44
397.249	390.44
397.474	391.44
397.698	406.44
397.922	376.44
398.147	402.44
398.371	423.44
398.595	397.44
398.82	397.44
399.044	432.44
399.268	414.44
399.492	456.44
399.717	478.44
399.941	471.44
400.165	488.44
400.389	482.44
400.613	460.44
400.837	422.44
401.062	404.44
401.286	412.44
401.51	399.44
401.734	404.44
401.958	427.44
402.182	440.44
402.406	406.44
402.63	408.44
402.854	409.44
403.078	402.44
403.302	423.44
403.526	450.44
403.75	409.44
403.974	415.44
404.198	418.44
404.422	425.44
404.645	405.44
404.869	437.44
405.093	440.44
405.317	475.44
405.541	457.44
405.765	443.44
405.988	431.44
406.212	442.44
406.436	486.44
406.66	477.44
406.883	474.44
407.107	471.44
407.331	496.44
407.555	546.44
407.778	556.44
408.002	539.44
408.226	478.44
408.449	459.44
408.673	451.44
408.896	496.44
409.12	502.44
409.344	487.44
409.567	442.44
409.791	433.44
410.014	435.44
410.238	431.44
410.461	423.44
410.685	417.44
410.908	456.44
411.132	470.44
411.355	472.44
411.578	454.44
411.802	428.44
412.025	409.44
412.249	415.44
412.472	434.44
412.695	425.44
412.919	423.44
413.142	396.44
413.365	404.44
413.589	410.44
413.812	394.44
414.035	414.44
414.258	405.44
414.482	400.44
414.705	385.44
414.928	386.44
415.151	414.44
415.374	397.44
415.597	392.44
415.821	386.44
416.044	401.44
416.267	402.44
416.49	401.44
416.713	391.44
416.936	406.44
417.159	393.44
417.382	409.44
417.605	401.44
417.828	416.44
418.051	428.44
418.274	418.44
418.497	411.44
418.72	414.44
418.943	385.44
419.166	406.44
419.389	444.44
419.611	424.44
419.834	430.44
420.057	415.44
420.28	441.44
420.503	405.44
420.726	403.44
420.948	444.44
421.171	466.44
421.394	469.44
421.617	441.44
421.839	415.44
422.062	421.44
422.285	439.44
422.507	482.44
422.73	535.44
422.953	498.44
423.175	448.44
423.398	449.44
423.621	461.44
423.843	470.44
424.066	453.44
424.288	459.44
424.511	449.44
424.733	503.44
424.956	556.44
425.178	564.44
425.401	530.44
425.623	547.44
425.846	463.44
426.068	451.44
426.291	452.44
426.513	447.44
426.735	467.44
426.958	486.44
427.18	534.44
427.402	650.44
427.625	712.44
427.847	597.44
428.069	514.44
428.292	470.44
428.514	448.44
428.736	428.44
428.958	421.44
429.181	432.44
429.403	417.44
429.625	446.44
429.847	452.44
430.069	510.44
430.292	491.44
430.514	451.44
430.736	431.44
430.958	396.44
431.18	386.44
431.402	402.44
431.624	388.44
431.846	394.44
432.068	392.44
432.29	397.44
432.512	404.44
432.734	389.44
432.956	390.44
433.178	401.44
433.4	420.44
433.622	419.44
433.844	390.44
434.066	390.44
434.287	403.44
434.509	388.44
434.731	407.44
434.953	413.44
435.175	431.44
435.397	439.44
435.618	444.44
435.84	492.44
436.062	548.44
436.284	577.44
436.505	512.44
436.727	487.44
436.949	447.44
437.17	420.44
437.392	412.44
437.614	438.44
437.835	462.44
438.057	523.44
438.278	596.44
438.5	600.44
438.721	654.44
438.943	616.44
439.165	504.44
439.386	475.44
439.608	474.44
439.829	463.44
440.05	491.44
440.272	510.44
440.493	483.44
440.715	455.44
440.936	443.44
441.158	436.44
441.379	427.44
441.6	448.44
441.822	456.44
442.043	489.44
442.264	557.44
442.486	589.44
442.707	483.44
442.928	451.44
443.149	456.44
443.371	513.44
443.592	542.44
443.813	586.44
444.034	659.44
444.255	560.44
444.476	463.44
444.698	454.44
444.919	472.44
445.14	565.44
445.361	508.44
445.582	489.44
445.803	535.44
446.024	646.44
446.245	622.44
446.466	568.44
446.687	463.44
446.908	466.44
447.129	431.44
447.35	436.44
447.571	417.44
447.792	416.44
448.013	434.44
448.234	434.44
448.455	483.44
448.675	572.44
448.896	646.44
449.117	538.44
449.338	531.44
449.559	606.44
449.779	663.44
450	568.44
450.221	477.44
450.442	434.44
450.662	423.44
450.883	428.44
451.104	432.44
451.324	438.44
451.545	407.44
451.766	394.44
451.986	380.44
452.207	389.44
452.428	385.44
452.648	404.44
452.869	381.44
453.089	372.44
453.31	386.44
453.53	399.44
453.751	393.44
453.971	375.44
454.192	395.44
454.412	408.44
454.633	378.44
454.853	381.44
455.073	389.44
455.294	392.44
455.514	456.44
455.734	438.44
455.955	368.44
456.175	366.44
456.395	360.44
456.616	346.44
456.836	351.44
457.056	355.44
457.276	329.44
457.497	344.44
457.717	350.44
457.937	368.44
458.157	371.44
458.377	387.44
458.598	400.44
458.818	437.44
459.038	498.44
459.258	498.44
459.478	433.44
459.698	406.44
459.918	382.44
460.138	389.44
460.358	389.44
460.578	399.44
460.798	421.44
461.018	414.44
461.238	380.44
461.458	392.44
461.678	399.44
461.898	422.44
462.118	412.44
462.338	416.44
462.558	406.44
462.777	396.44
462.997	436.44
463.217	418.44
463.437	448.44
463.657	428.44
463.876	428.44
464.096	420.44
464.316	444.44
464.536	450.44
464.755	443.44
464.975	426.44
465.195	478.44
465.414	544.44
465.634	457.44
465.854	449.44
466.073	404.44
466.293	387.44
466.512	402.44
466.732	370.44
466.951	375.44
467.171	391.44
467.391	386.44
467.61	390.44
467.829	409.44
468.049	388.44
468.268	355.44
468.488	398.44
468.707	359.44
468.927	371.44
469.146	366.44
469.365	367.44
469.585	380.44
469.804	385.44
470.023	399.44
470.243	411.44
470.462	393.44
470.681	418.44
470.901	402.44
471.12	382.44
471.339	396.44
471.558	376.44
471.777	380.44
471.997	372.44
472.216	378.44
472.435	384.44
472.654	376.44
472.873	381.44
473.092	368.44
473.311	390.44
473.53	363.44
473.749	402.44
473.968	425.44
474.187	510.44
474.406	491.44
474.625	435.44
474.844	403.44
475.063	382.44
475.282	397.44
475.501	400.44
475.72	385.44
475.939	386.44
476.158	395.44
476.377	391.44
476.596	389.44
476.814	397.44
477.033	419.44
477.252	423.44
477.471	409.44
477.69	425.44
477.908	424.44
478.127	430.44
478.346	409.44
478.564	427.44
478.783	398.44
479.002	428.44
479.22	445.44
479.439	455.44
479.658	455.44
479.876	464.44
480.095	471.44
480.313	497.44
480.532	481.44
480.751	472.44
480.969	470.44
481.188	491.44
481.406	491.44
481.624	471.44
481.843	455.44
482.061	453.44
482.28	455.44
482.498	472.44
482.717	459.44
482.935	431.44
483.153	447.44
483.372	456.44
483.59	455.44
483.808	418.44
484.027	460.44
484.245	455.44
484.463	461.44
484.681	446.44
484.9	485.44
485.118	468.44
485.336	454.44
485.554	465.44
485.772	466.44
485.99	447.44
486.209	479.44
486.427	463.44
486.645	467.44
486.863	503.44
487.081	496.44
487.299	496.44
487.517	508.44
487.735	474.44
487.953	508.44
488.171	482.44
488.389	510.44
488.607	500.44
488.825	480.44
489.043	478.44
489.261	491.44
489.479	492.44
489.696	483.44
489.914	495.44
490.132	501.44
490.35	518.44
490.568	491.44
490.786	528.44
491.003	526.44
491.221	533.44
491.439	543.44
491.657	552.44
491.874	548.44
492.092	556.44
492.31	555.44
492.527	572.44
492.745	535.44
492.963	544.44
493.18	578.44
493.398	574.44
493.615	579.44
493.833	579.44
494.05	561.44
494.268	576.44
494.485	565.44
494.703	572.44
494.92	570.44
495.138	580.44
495.355	593.44
495.573	571.44
495.79	569.44
496.008	577.44
496.225	583.44
496.442	584.44
496.66	575.44
496.877	566.44
497.094	602.44
497.312	579.44
497.529	584.44
497.746	628.44
497.963	610.44
498.181	622.44
498.398	630.44
498.615	635.44
498.832	658.44
499.049	662.44
499.267	662.44
499.484	700.44
499.701	679.44
499.918	725.44
500.135	739.44
500.352	760.44
500.569	779.44
500.786	769.44
501.003	756.44
501.22	739.44
501.437	733.44
501.654	727.44
501.871	716.44
502.088	703.44
