Data from 1983.PennyLincolnUp.Lamp.En5.5.200Scan.071819.P1_HRD10591_16-52-33-965.txt Node
Date: Thu Jul 18 16:52:33 EDT 2019
User: cochatt
Spectrometer: HR+D1059
Trigger mode: 1
Integration Time (sec): 1.000000E-1
Scans to average: 1
Electric dark correction enabled: true
Nonlinearity correction enabled: false
Boxcar width: 0
XAxis mode: Wavelengths
Number of Pixels in Spectrum: 2048
>>>>>Begin Spectral Data<<<<<
223.165	-16.56
223.4	-16.56
223.635	-16.56
223.869	-3.56
224.104	-24.56
224.338	-0.56
224.573	-11.56
224.808	-29.56
225.042	-11.56
225.277	-9.56
225.511	-4.56
225.746	1.44
225.98	3.44
226.215	13.44
226.449	12.44
226.683	21.44
226.918	27.44
227.152	32.44
227.387	28.44
227.621	35.44
227.856	35.44
228.09	55.44
228.324	48.44
228.559	45.44
228.793	73.44
229.027	77.44
229.262	77.44
229.496	106.44
229.73	116.44
229.964	136.44
230.199	123.44
230.433	108.44
230.667	111.44
230.901	118.44
231.136	105.44
231.37	106.44
231.604	107.44
231.838	105.44
232.072	120.44
232.306	120.44
232.541	101.44
232.775	109.44
233.009	122.44
233.243	104.44
233.477	108.44
233.711	117.44
233.945	98.44
234.179	101.44
234.413	112.44
234.647	108.44
234.881	89.44
235.115	120.44
235.349	105.44
235.583	97.44
235.817	115.44
236.051	109.44
236.285	115.44
236.519	117.44
236.753	121.44
236.987	126.44
237.221	152.44
237.455	182.44
237.689	160.44
237.922	116.44
238.156	106.44
238.39	122.44
238.624	112.44
238.858	127.44
239.091	122.44
239.325	100.44
239.559	114.44
239.793	108.44
240.027	118.44
240.26	136.44
240.494	139.44
240.728	142.44
240.961	115.44
241.195	119.44
241.429	122.44
241.662	116.44
241.896	108.44
242.13	118.44
242.363	129.44
242.597	110.44
242.83	118.44
243.064	119.44
243.298	115.44
243.531	125.44
243.765	123.44
243.998	120.44
244.232	126.44
244.465	117.44
244.699	141.44
244.932	135.44
245.166	126.44
245.399	133.44
245.633	126.44
245.866	122.44
246.099	133.44
246.333	132.44
246.566	134.44
246.8	135.44
247.033	137.44
247.266	134.44
247.5	146.44
247.733	150.44
247.966	135.44
248.2	150.44
248.433	165.44
248.666	154.44
248.899	162.44
249.133	171.44
249.366	162.44
249.599	168.44
249.832	160.44
250.066	154.44
250.299	161.44
250.532	154.44
250.765	173.44
250.998	194.44
251.231	189.44
251.465	178.44
251.698	192.44
251.931	177.44
252.164	174.44
252.397	159.44
252.63	176.44
252.863	169.44
253.096	181.44
253.329	194.44
253.562	186.44
253.795	188.44
254.028	176.44
254.261	192.44
254.494	215.44
254.727	218.44
254.96	235.44
255.193	238.44
255.426	194.44
255.659	203.44
255.892	188.44
256.124	194.44
256.357	187.44
256.59	189.44
256.823	170.44
257.056	176.44
257.289	182.44
257.521	173.44
257.754	180.44
257.987	170.44
258.22	197.44
258.452	172.44
258.685	197.44
258.918	190.44
259.151	172.44
259.383	182.44
259.616	212.44
259.849	192.44
260.081	185.44
260.314	216.44
260.547	229.44
260.779	212.44
261.012	205.44
261.244	192.44
261.477	212.44
261.71	190.44
261.942	200.44
262.175	193.44
262.407	191.44
262.64	186.44
262.872	187.44
263.105	199.44
263.337	197.44
263.57	172.44
263.802	180.44
264.035	190.44
264.267	195.44
264.499	179.44
264.732	177.44
264.964	185.44
265.197	173.44
265.429	176.44
265.661	187.44
265.894	196.44
266.126	198.44
266.358	195.44
266.591	198.44
266.823	190.44
267.055	186.44
267.287	201.44
267.52	184.44
267.752	211.44
267.984	200.44
268.216	206.44
268.448	191.44
268.681	198.44
268.913	204.44
269.145	222.44
269.377	239.44
269.609	220.44
269.841	221.44
270.073	223.44
270.306	237.44
270.538	266.44
270.77	262.44
271.002	263.44
271.234	254.44
271.466	256.44
271.698	256.44
271.93	264.44
272.162	268.44
272.394	273.44
272.626	267.44
272.858	251.44
273.09	214.44
273.322	224.44
273.553	214.44
273.785	221.44
274.017	232.44
274.249	246.44
274.481	238.44
274.713	235.44
274.945	235.44
275.176	236.44
275.408	227.44
275.64	207.44
275.872	236.44
276.104	235.44
276.335	229.44
276.567	239.44
276.799	236.44
277.031	256.44
277.262	259.44
277.494	272.44
277.726	252.44
277.957	228.44
278.189	226.44
278.421	237.44
278.652	232.44
278.884	233.44
279.115	242.44
279.347	213.44
279.579	249.44
279.81	240.44
280.042	221.44
280.273	237.44
280.505	216.44
280.736	236.44
280.968	240.44
281.199	242.44
281.431	234.44
281.662	240.44
281.894	224.44
282.125	246.44
282.356	236.44
282.588	259.44
282.819	265.44
283.051	242.44
283.282	219.44
283.513	244.44
283.745	232.44
283.976	248.44
284.207	261.44
284.439	258.44
284.67	249.44
284.901	228.44
285.132	228.44
285.364	257.44
285.595	247.44
285.826	256.44
286.057	243.44
286.288	244.44
286.52	261.44
286.751	238.44
286.982	236.44
287.213	252.44
287.444	252.44
287.675	249.44
287.906	253.44
288.138	255.44
288.369	256.44
288.6	273.44
288.831	257.44
289.062	234.44
289.293	257.44
289.524	251.44
289.755	256.44
289.986	245.44
290.217	259.44
290.448	237.44
290.679	254.44
290.91	259.44
291.141	259.44
291.371	247.44
291.602	244.44
291.833	260.44
292.064	253.44
292.295	242.44
292.526	243.44
292.757	250.44
292.987	249.44
293.218	259.44
293.449	258.44
293.68	252.44
293.91	248.44
294.141	221.44
294.372	253.44
294.603	251.44
294.833	248.44
295.064	247.44
295.295	248.44
295.525	256.44
295.756	259.44
295.987	262.44
296.217	262.44
296.448	281.44
296.679	276.44
296.909	258.44
297.14	266.44
297.37	275.44
297.601	244.44
297.831	263.44
298.062	269.44
298.292	267.44
298.523	260.44
298.753	245.44
298.984	274.44
299.214	254.44
299.445	281.44
299.675	272.44
299.905	291.44
300.136	271.44
300.366	277.44
300.597	273.44
300.827	284.44
301.057	276.44
301.288	281.44
301.518	282.44
301.748	277.44
301.979	286.44
302.209	299.44
302.439	282.44
302.669	293.44
302.9	283.44
303.13	289.44
303.36	292.44
303.59	271.44
303.82	280.44
304.051	284.44
304.281	279.44
304.511	300.44
304.741	304.44
304.971	284.44
305.201	280.44
305.431	285.44
305.661	284.44
305.891	294.44
306.121	280.44
306.352	311.44
306.582	294.44
306.812	286.44
307.042	286.44
307.272	283.44
307.502	294.44
307.731	299.44
307.961	298.44
308.191	294.44
308.421	297.44
308.651	286.44
308.881	284.44
309.111	301.44
309.341	288.44
309.571	309.44
309.8	324.44
310.03	316.44
310.26	320.44
310.49	318.44
310.72	340.44
310.949	328.44
311.179	334.44
311.409	345.44
311.639	341.44
311.868	327.44
312.098	320.44
312.328	344.44
312.557	325.44
312.787	348.44
313.017	334.44
313.246	342.44
313.476	323.44
313.706	320.44
313.935	327.44
314.165	320.44
314.394	339.44
314.624	334.44
314.853	339.44
315.083	328.44
315.312	330.44
315.542	329.44
315.771	338.44
316.001	321.44
316.23	311.44
316.46	317.44
316.689	331.44
316.919	319.44
317.148	327.44
317.377	328.44
317.607	346.44
317.836	333.44
318.065	330.44
318.295	316.44
318.524	305.44
318.753	290.44
318.983	329.44
319.212	323.44
319.441	339.44
319.67	325.44
319.9	327.44
320.129	328.44
320.358	346.44
320.587	329.44
320.816	325.44
321.046	324.44
321.275	356.44
321.504	338.44
321.733	353.44
321.962	338.44
322.191	367.44
322.42	388.44
322.649	364.44
322.878	369.44
323.108	380.44
323.337	428.44
323.566	418.44
323.795	448.44
324.024	485.44
324.253	576.44
324.482	823.44
324.71	1182.44
324.939	1611.44
325.168	1360.44
325.397	724.44
325.626	524.44
325.855	459.44
326.084	440.44
326.313	416.44
326.542	404.44
326.77	467.44
326.999	542.44
327.228	728.44
327.457	1052.44
327.686	1183.44
327.914	822.44
328.143	543.44
328.372	500.44
328.6	484.44
328.829	464.44
329.058	491.44
329.287	482.44
329.515	446.44
329.744	418.44
329.972	396.44
330.201	413.44
330.43	435.44
330.658	472.44
330.887	516.44
331.115	461.44
331.344	445.44
331.572	428.44
331.801	407.44
332.03	397.44
332.258	388.44
332.486	386.44
332.715	373.44
332.943	368.44
333.172	373.44
333.4	384.44
333.629	376.44
333.857	380.44
334.085	393.44
334.314	412.44
334.542	393.44
334.771	382.44
334.999	388.44
335.227	386.44
335.455	382.44
335.684	392.44
335.912	392.44
336.14	393.44
336.369	378.44
336.597	365.44
336.825	376.44
337.053	382.44
337.281	368.44
337.51	380.44
337.738	362.44
337.966	378.44
338.194	390.44
338.422	390.44
338.65	374.44
338.878	363.44
339.106	372.44
339.334	370.44
339.562	363.44
339.79	352.44
340.018	368.44
340.246	362.44
340.474	356.44
340.702	358.44
340.93	355.44
341.158	362.44
341.386	356.44
341.614	373.44
341.842	364.44
342.07	382.44
342.298	369.44
342.526	344.44
342.754	344.44
342.981	345.44
343.209	371.44
343.437	350.44
343.665	363.44
343.893	367.44
344.12	372.44
344.348	378.44
344.576	370.44
344.804	383.44
345.031	389.44
345.259	369.44
345.487	370.44
345.714	349.44
345.942	348.44
346.17	365.44
346.397	352.44
346.625	379.44
346.853	354.44
347.08	355.44
347.308	369.44
347.535	363.44
347.763	358.44
347.99	384.44
348.218	380.44
348.445	362.44
348.673	370.44
348.9	360.44
349.128	352.44
349.355	371.44
349.583	356.44
349.81	323.44
350.037	350.44
350.265	348.44
350.492	328.44
350.72	340.44
350.947	339.44
351.174	330.44
351.402	355.44
351.629	368.44
351.856	358.44
352.083	361.44
352.311	370.44
352.538	374.44
352.765	382.44
352.992	374.44
353.22	362.44
353.447	345.44
353.674	337.44
353.901	360.44
354.128	339.44
354.355	326.44
354.583	334.44
354.81	335.44
355.037	357.44
355.264	331.44
355.491	346.44
355.718	328.44
355.945	341.44
356.172	328.44
356.399	327.44
356.626	340.44
356.853	330.44
357.08	337.44
357.307	344.44
357.534	332.44
357.761	353.44
357.988	332.44
358.215	320.44
358.441	346.44
358.668	333.44
358.895	331.44
359.122	333.44
359.349	355.44
359.576	336.44
359.802	371.44
360.029	378.44
360.256	380.44
360.483	372.44
360.709	340.44
360.936	361.44
361.163	346.44
361.39	357.44
361.616	346.44
361.843	346.44
362.07	349.44
362.296	383.44
362.523	359.44
362.749	344.44
362.976	333.44
363.203	336.44
363.429	343.44
363.656	345.44
363.882	354.44
364.109	347.44
364.335	353.44
364.562	331.44
364.788	328.44
365.015	343.44
365.241	345.44
365.468	347.44
365.694	356.44
365.92	350.44
366.147	359.44
366.373	340.44
366.599	344.44
366.826	337.44
367.052	323.44
367.278	338.44
367.505	327.44
367.731	342.44
367.957	337.44
368.184	340.44
368.41	360.44
368.636	342.44
368.862	360.44
369.089	341.44
369.315	342.44
369.541	327.44
369.767	334.44
369.993	345.44
370.219	334.44
370.445	343.44
370.672	344.44
370.898	344.44
371.124	333.44
371.35	325.44
371.576	356.44
371.802	333.44
372.028	330.44
372.254	314.44
372.48	351.44
372.706	326.44
372.932	357.44
373.158	356.44
373.384	344.44
373.61	333.44
373.835	329.44
374.061	332.44
374.287	346.44
374.513	326.44
374.739	368.44
374.965	351.44
375.191	349.44
375.416	347.44
375.642	328.44
375.868	334.44
376.094	330.44
376.319	327.44
376.545	335.44
376.771	332.44
376.997	354.44
377.222	329.44
377.448	343.44
377.674	334.44
377.899	347.44
378.125	328.44
378.35	322.44
378.576	349.44
378.802	341.44
379.027	320.44
379.253	327.44
379.478	337.44
379.704	340.44
379.929	333.44
380.155	340.44
380.38	342.44
380.606	341.44
380.831	334.44
381.057	348.44
381.282	334.44
381.507	357.44
381.733	351.44
381.958	354.44
382.184	336.44
382.409	338.44
382.634	357.44
382.86	337.44
383.085	349.44
383.31	333.44
383.535	357.44
383.761	351.44
383.986	352.44
384.211	351.44
384.436	349.44
384.662	358.44
384.887	361.44
385.112	357.44
385.337	372.44
385.562	353.44
385.787	372.44
386.013	372.44
386.238	367.44
386.463	373.44
386.688	360.44
386.913	352.44
387.138	348.44
387.363	375.44
387.588	358.44
387.813	370.44
388.038	357.44
388.263	365.44
388.488	380.44
388.713	354.44
388.938	360.44
389.163	359.44
389.387	355.44
389.612	337.44
389.837	364.44
390.062	381.44
390.287	356.44
390.512	361.44
390.736	354.44
390.961	371.44
391.186	361.44
391.411	363.44
391.636	351.44
391.86	360.44
392.085	388.44
392.31	364.44
392.534	374.44
392.759	370.44
392.984	368.44
393.208	377.44
393.433	348.44
393.658	357.44
393.882	370.44
394.107	374.44
394.331	362.44
394.556	363.44
394.78	371.44
395.005	348.44
395.229	357.44
395.454	377.44
395.678	360.44
395.903	412.44
396.127	402.44
396.352	394.44
396.576	391.44
396.801	376.44
397.025	377.44
397.249	408.44
397.474	386.44
397.698	392.44
397.922	396.44
398.147	405.44
398.371	386.44
398.595	409.44
398.82	388.44
399.044	418.44
399.268	427.44
399.492	453.44
399.717	462.44
399.941	462.44
400.165	515.44
400.389	491.44
400.613	449.44
400.837	425.44
401.062	437.44
401.286	413.44
401.51	409.44
401.734	410.44
401.958	429.44
402.182	405.44
402.406	420.44
402.63	406.44
402.854	419.44
403.078	426.44
403.302	420.44
403.526	426.44
403.75	434.44
403.974	433.44
404.198	417.44
404.422	424.44
404.645	417.44
404.869	426.44
405.093	439.44
405.317	462.44
405.541	478.44
405.765	454.44
405.988	448.44
406.212	446.44
406.436	451.44
406.66	471.44
406.883	480.44
407.107	501.44
407.331	504.44
407.555	540.44
407.778	534.44
408.002	519.44
408.226	484.44
408.449	509.44
408.673	475.44
408.896	493.44
409.12	515.44
409.344	462.44
409.567	428.44
409.791	413.44
410.014	432.44
410.238	426.44
410.461	423.44
410.685	428.44
410.908	442.44
411.132	433.44
411.355	471.44
411.578	461.44
411.802	418.44
412.025	410.44
412.249	419.44
412.472	425.44
412.695	430.44
412.919	411.44
413.142	402.44
413.365	407.44
413.589	391.44
413.812	405.44
414.035	403.44
414.258	415.44
414.482	402.44
414.705	421.44
414.928	405.44
415.151	400.44
415.374	389.44
415.597	377.44
415.821	400.44
416.044	381.44
416.267	406.44
416.49	408.44
416.713	403.44
416.936	409.44
417.159	389.44
417.382	401.44
417.605	376.44
417.828	387.44
418.051	413.44
418.274	416.44
418.497	414.44
418.72	404.44
418.943	380.44
419.166	386.44
419.389	423.44
419.611	405.44
419.834	420.44
420.057	402.44
420.28	411.44
420.503	397.44
420.726	417.44
420.948	422.44
421.171	454.44
421.394	477.44
421.617	427.44
421.839	410.44
422.062	419.44
422.285	403.44
422.507	468.44
422.73	535.44
422.953	504.44
423.175	458.44
423.398	422.44
423.621	439.44
423.843	452.44
424.066	438.44
424.288	447.44
424.511	439.44
424.733	510.44
424.956	542.44
425.178	525.44
425.401	516.44
425.623	552.44
425.846	487.44
426.068	451.44
426.291	444.44
426.513	445.44
426.735	455.44
426.958	484.44
427.18	557.44
427.402	632.44
427.625	677.44
427.847	605.44
428.069	516.44
428.292	475.44
428.514	446.44
428.736	443.44
428.958	417.44
429.181	398.44
429.403	423.44
429.625	420.44
429.847	450.44
430.069	490.44
430.292	490.44
430.514	419.44
430.736	411.44
430.958	412.44
431.18	381.44
431.402	393.44
431.624	390.44
431.846	382.44
432.068	404.44
432.29	393.44
432.512	405.44
432.734	390.44
432.956	412.44
433.178	410.44
433.4	415.44
433.622	413.44
433.844	411.44
434.066	393.44
434.287	392.44
434.509	392.44
434.731	398.44
434.953	401.44
435.175	425.44
435.397	428.44
435.618	435.44
435.84	490.44
436.062	542.44
436.284	586.44
436.505	476.44
436.727	443.44
436.949	432.44
437.17	408.44
437.392	409.44
437.614	414.44
437.835	452.44
438.057	498.44
438.278	593.44
438.5	604.44
438.721	638.44
438.943	612.44
439.165	494.44
439.386	461.44
439.608	452.44
439.829	452.44
440.05	484.44
440.272	534.44
440.493	457.44
440.715	453.44
440.936	429.44
441.158	391.44
441.379	420.44
441.6	438.44
441.822	441.44
442.043	507.44
442.264	551.44
442.486	561.44
442.707	491.44
442.928	476.44
443.149	448.44
443.371	468.44
443.592	514.44
443.813	564.44
444.034	615.44
444.255	529.44
444.476	473.44
444.698	448.44
444.919	458.44
445.14	569.44
445.361	497.44
445.582	462.44
445.803	520.44
446.024	592.44
446.245	596.44
446.466	542.44
446.687	456.44
446.908	442.44
447.129	438.44
447.35	399.44
447.571	413.44
447.792	403.44
448.013	409.44
448.234	431.44
448.455	476.44
448.675	554.44
448.896	645.44
449.117	540.44
449.338	517.44
449.559	584.44
449.779	642.44
450	535.44
450.221	466.44
450.442	427.44
450.662	418.44
450.883	437.44
451.104	421.44
451.324	416.44
451.545	409.44
451.766	387.44
451.986	381.44
452.207	368.44
452.428	370.44
452.648	389.44
452.869	364.44
453.089	386.44
453.31	392.44
453.53	368.44
453.751	381.44
453.971	372.44
454.192	377.44
454.412	384.44
454.633	384.44
454.853	380.44
455.073	371.44
455.294	402.44
455.514	442.44
455.734	410.44
455.955	372.44
456.175	374.44
456.395	360.44
456.616	357.44
456.836	378.44
457.056	348.44
457.276	350.44
457.497	360.44
457.717	353.44
457.937	374.44
458.157	353.44
458.377	372.44
458.598	386.44
458.818	449.44
459.038	491.44
459.258	491.44
459.478	424.44
459.698	403.44
459.918	373.44
460.138	390.44
460.358	388.44
460.578	394.44
460.798	406.44
461.018	404.44
461.238	401.44
461.458	387.44
461.678	403.44
461.898	391.44
462.118	390.44
462.338	400.44
462.558	413.44
462.777	399.44
462.997	424.44
463.217	424.44
463.437	433.44
463.657	402.44
463.876	424.44
464.096	411.44
464.316	419.44
464.536	434.44
464.755	439.44
464.975	444.44
465.195	462.44
465.414	535.44
465.634	473.44
465.854	403.44
466.073	393.44
466.293	386.44
466.512	374.44
466.732	401.44
466.951	372.44
467.171	396.44
467.391	399.44
467.61	386.44
467.829	410.44
468.049	376.44
468.268	371.44
468.488	360.44
468.707	364.44
468.927	373.44
469.146	350.44
469.365	372.44
469.585	376.44
469.804	374.44
470.023	398.44
470.243	390.44
470.462	385.44
470.681	408.44
470.901	420.44
471.12	398.44
471.339	374.44
471.558	391.44
471.777	375.44
471.997	370.44
472.216	374.44
472.435	400.44
472.654	358.44
472.873	369.44
473.092	388.44
473.311	390.44
473.53	377.44
473.749	397.44
473.968	442.44
474.187	509.44
474.406	507.44
474.625	430.44
474.844	396.44
475.063	386.44
475.282	397.44
475.501	395.44
475.72	388.44
475.939	395.44
476.158	393.44
476.377	410.44
476.596	413.44
476.814	389.44
477.033	408.44
477.252	406.44
477.471	416.44
477.69	425.44
477.908	428.44
478.127	426.44
478.346	425.44
478.564	426.44
478.783	425.44
479.002	396.44
479.22	440.44
479.439	449.44
479.658	469.44
479.876	462.44
480.095	466.44
480.313	485.44
480.532	457.44
480.751	452.44
480.969	442.44
481.188	462.44
481.406	468.44
481.624	458.44
481.843	454.44
482.061	443.44
482.28	449.44
482.498	448.44
482.717	447.44
482.935	449.44
483.153	430.44
483.372	451.44
483.59	436.44
483.808	446.44
484.027	450.44
484.245	442.44
484.463	435.44
484.681	450.44
484.9	444.44
485.118	460.44
485.336	468.44
485.554	465.44
485.772	453.44
485.99	472.44
486.209	456.44
486.427	456.44
486.645	474.44
486.863	490.44
487.081	475.44
487.299	477.44
487.517	486.44
487.735	484.44
487.953	477.44
488.171	474.44
488.389	476.44
488.607	465.44
488.825	476.44
489.043	486.44
489.261	474.44
489.479	497.44
489.696	478.44
489.914	481.44
490.132	483.44
490.35	488.44
490.568	498.44
490.786	508.44
491.003	495.44
491.221	496.44
491.439	524.44
491.657	510.44
491.874	553.44
492.092	536.44
492.31	525.44
492.527	554.44
492.745	550.44
492.963	547.44
493.18	556.44
493.398	562.44
493.615	540.44
493.833	564.44
494.05	564.44
494.268	574.44
494.485	566.44
494.703	566.44
494.92	560.44
495.138	553.44
495.355	574.44
495.573	555.44
495.79	552.44
496.008	553.44
496.225	584.44
496.442	574.44
496.66	560.44
496.877	579.44
497.094	576.44
497.312	560.44
497.529	576.44
497.746	585.44
497.963	590.44
498.181	624.44
498.398	600.44
498.615	615.44
498.832	621.44
499.049	635.44
499.267	650.44
499.484	650.44
499.701	698.44
499.918	720.44
500.135	704.44
500.352	772.44
500.569	800.44
500.786	759.44
501.003	748.44
501.22	746.44
501.437	729.44
501.654	725.44
501.871	715.44
502.088	664.44
