Data from 1983.PennyLincolnUp.Lamp.En5.5.200Scan.071819.P1_HRD10591_16-53-11-965.txt Node
Date: Thu Jul 18 16:53:11 EDT 2019
User: cochatt
Spectrometer: HR+D1059
Trigger mode: 1
Integration Time (sec): 1.000000E-1
Scans to average: 1
Electric dark correction enabled: true
Nonlinearity correction enabled: false
Boxcar width: 0
XAxis mode: Wavelengths
Number of Pixels in Spectrum: 2048
>>>>>Begin Spectral Data<<<<<
223.165	-6.38
223.4	-6.38
223.635	-6.38
223.869	-9.38
224.104	-20.38
224.338	-7.38
224.573	-24.38
224.808	-25.38
225.042	-9.38
225.277	-2.38
225.511	-4.38
225.746	4.62
225.98	11.62
226.215	10.62
226.449	7.62
226.683	20.62
226.918	22.62
227.152	31.62
227.387	26.62
227.621	23.62
227.856	47.62
228.09	44.62
228.324	37.62
228.559	71.62
228.793	68.62
229.027	89.62
229.262	99.62
229.496	111.62
229.73	133.62
229.964	149.62
230.199	119.62
230.433	100.62
230.667	103.62
230.901	94.62
231.136	98.62
231.37	105.62
231.604	102.62
231.838	107.62
232.072	99.62
232.306	115.62
232.541	113.62
232.775	109.62
233.009	97.62
233.243	101.62
233.477	111.62
233.711	101.62
233.945	110.62
234.179	117.62
234.413	97.62
234.647	114.62
234.881	109.62
235.115	113.62
235.349	115.62
235.583	113.62
235.817	97.62
236.051	125.62
236.285	119.62
236.519	121.62
236.753	117.62
236.987	131.62
237.221	165.62
237.455	213.62
237.689	173.62
237.922	133.62
238.156	118.62
238.39	107.62
238.624	118.62
238.858	111.62
239.091	121.62
239.325	113.62
239.559	118.62
239.793	118.62
240.027	130.62
240.26	150.62
240.494	156.62
240.728	135.62
240.961	141.62
241.195	137.62
241.429	126.62
241.662	105.62
241.896	121.62
242.13	137.62
242.363	122.62
242.597	109.62
242.83	126.62
243.064	133.62
243.298	121.62
243.531	118.62
243.765	137.62
243.998	129.62
244.232	147.62
244.465	128.62
244.699	139.62
244.932	135.62
245.166	138.62
245.399	143.62
245.633	126.62
245.866	135.62
246.099	133.62
246.333	131.62
246.566	138.62
246.8	135.62
247.033	148.62
247.266	142.62
247.5	153.62
247.733	154.62
247.966	169.62
248.2	157.62
248.433	166.62
248.666	164.62
248.899	171.62
249.133	176.62
249.366	196.62
249.599	174.62
249.832	165.62
250.066	188.62
250.299	158.62
250.532	170.62
250.765	182.62
250.998	176.62
251.231	190.62
251.465	202.62
251.698	177.62
251.931	166.62
252.164	179.62
252.397	171.62
252.63	188.62
252.863	197.62
253.096	192.62
253.329	201.62
253.562	205.62
253.795	186.62
254.028	202.62
254.261	209.62
254.494	228.62
254.727	234.62
254.96	260.62
255.193	240.62
255.426	230.62
255.659	217.62
255.892	213.62
256.124	182.62
256.357	191.62
256.59	202.62
256.823	198.62
257.056	183.62
257.289	187.62
257.521	178.62
257.754	198.62
257.987	178.62
258.22	181.62
258.452	184.62
258.685	172.62
258.918	207.62
259.151	190.62
259.383	193.62
259.616	218.62
259.849	223.62
260.081	218.62
260.314	222.62
260.547	213.62
260.779	221.62
261.012	207.62
261.244	200.62
261.477	190.62
261.71	198.62
261.942	210.62
262.175	203.62
262.407	211.62
262.64	209.62
262.872	179.62
263.105	197.62
263.337	196.62
263.57	182.62
263.802	190.62
264.035	182.62
264.267	197.62
264.499	193.62
264.732	191.62
264.964	191.62
265.197	189.62
265.429	198.62
265.661	206.62
265.894	179.62
266.126	174.62
266.358	199.62
266.591	201.62
266.823	198.62
267.055	222.62
267.287	230.62
267.52	183.62
267.752	203.62
267.984	205.62
268.216	216.62
268.448	206.62
268.681	223.62
268.913	220.62
269.145	229.62
269.377	240.62
269.609	249.62
269.841	235.62
270.073	254.62
270.306	269.62
270.538	283.62
270.77	274.62
271.002	295.62
271.234	271.62
271.466	265.62
271.698	293.62
271.93	286.62
272.162	283.62
272.394	280.62
272.626	271.62
272.858	267.62
273.09	249.62
273.322	231.62
273.553	229.62
273.785	221.62
274.017	223.62
274.249	242.62
274.481	238.62
274.713	259.62
274.945	241.62
275.176	220.62
275.408	239.62
275.64	228.62
275.872	217.62
276.104	241.62
276.335	230.62
276.567	249.62
276.799	259.62
277.031	281.62
277.262	279.62
277.494	283.62
277.726	264.62
277.957	256.62
278.189	250.62
278.421	249.62
278.652	250.62
278.884	229.62
279.115	247.62
279.347	251.62
279.579	234.62
279.81	228.62
280.042	245.62
280.273	237.62
280.505	233.62
280.736	237.62
280.968	227.62
281.199	232.62
281.431	238.62
281.662	241.62
281.894	229.62
282.125	246.62
282.356	261.62
282.588	283.62
282.819	273.62
283.051	237.62
283.282	227.62
283.513	245.62
283.745	250.62
283.976	256.62
284.207	253.62
284.439	236.62
284.67	239.62
284.901	245.62
285.132	250.62
285.364	259.62
285.595	263.62
285.826	228.62
286.057	237.62
286.288	255.62
286.52	229.62
286.751	255.62
286.982	247.62
287.213	235.62
287.444	254.62
287.675	253.62
287.906	260.62
288.138	277.62
288.369	286.62
288.6	258.62
288.831	245.62
289.062	270.62
289.293	242.62
289.524	247.62
289.755	253.62
289.986	266.62
290.217	269.62
290.448	259.62
290.679	262.62
290.91	257.62
291.141	246.62
291.371	259.62
291.602	244.62
291.833	247.62
292.064	263.62
292.295	277.62
292.526	261.62
292.757	280.62
292.987	238.62
293.218	245.62
293.449	282.62
293.68	249.62
293.91	260.62
294.141	263.62
294.372	254.62
294.603	264.62
294.833	237.62
295.064	257.62
295.295	252.62
295.525	241.62
295.756	268.62
295.987	257.62
296.217	277.62
296.448	296.62
296.679	276.62
296.909	266.62
297.14	258.62
297.37	300.62
297.601	282.62
297.831	267.62
298.062	271.62
298.292	278.62
298.523	271.62
298.753	270.62
298.984	266.62
299.214	275.62
299.445	274.62
299.675	277.62
299.905	282.62
300.136	274.62
300.366	281.62
300.597	279.62
300.827	282.62
301.057	290.62
301.288	288.62
301.518	290.62
301.748	284.62
301.979	309.62
302.209	300.62
302.439	281.62
302.669	273.62
302.9	285.62
303.13	290.62
303.36	302.62
303.59	301.62
303.82	307.62
304.051	302.62
304.281	295.62
304.511	301.62
304.741	309.62
304.971	288.62
305.201	280.62
305.431	274.62
305.661	284.62
305.891	306.62
306.121	289.62
306.352	291.62
306.582	309.62
306.812	283.62
307.042	294.62
307.272	269.62
307.502	294.62
307.731	314.62
307.961	286.62
308.191	330.62
308.421	294.62
308.651	294.62
308.881	298.62
309.111	301.62
309.341	307.62
309.571	323.62
309.8	326.62
310.03	325.62
310.26	309.62
310.49	358.62
310.72	341.62
310.949	344.62
311.179	361.62
311.409	354.62
311.639	340.62
311.868	334.62
312.098	332.62
312.328	349.62
312.557	363.62
312.787	370.62
313.017	343.62
313.246	343.62
313.476	341.62
313.706	341.62
313.935	326.62
314.165	362.62
314.394	356.62
314.624	345.62
314.853	337.62
315.083	328.62
315.312	345.62
315.542	332.62
315.771	334.62
316.001	355.62
316.23	308.62
316.46	339.62
316.689	336.62
316.919	350.62
317.148	369.62
317.377	331.62
317.607	332.62
317.836	360.62
318.065	348.62
318.295	326.62
318.524	341.62
318.753	336.62
318.983	343.62
319.212	342.62
319.441	328.62
319.67	343.62
319.9	319.62
320.129	336.62
320.358	359.62
320.587	374.62
320.816	363.62
321.046	343.62
321.275	366.62
321.504	349.62
321.733	371.62
321.962	357.62
322.191	375.62
322.42	379.62
322.649	411.62
322.878	394.62
323.108	427.62
323.337	439.62
323.566	455.62
323.795	483.62
324.024	522.62
324.253	641.62
324.482	932.62
324.71	1409.62
324.939	1889.62
325.168	1551.62
325.397	839.62
325.626	573.62
325.855	485.62
326.084	461.62
326.313	466.62
326.542	456.62
326.77	486.62
326.999	619.62
327.228	819.62
327.457	1187.62
327.686	1391.62
327.914	941.62
328.143	622.62
328.372	571.62
328.6	520.62
328.829	489.62
329.058	495.62
329.287	514.62
329.515	499.62
329.744	451.62
329.972	417.62
330.201	452.62
330.43	479.62
330.658	471.62
330.887	556.62
331.115	541.62
331.344	457.62
331.572	443.62
331.801	441.62
332.03	438.62
332.258	429.62
332.486	391.62
332.715	399.62
332.943	407.62
333.172	410.62
333.4	366.62
333.629	405.62
333.857	389.62
334.085	411.62
334.314	416.62
334.542	396.62
334.771	411.62
334.999	405.62
335.227	410.62
335.455	390.62
335.684	409.62
335.912	384.62
336.14	382.62
336.369	391.62
336.597	388.62
336.825	405.62
337.053	399.62
337.281	388.62
337.51	380.62
337.738	388.62
337.966	379.62
338.194	395.62
338.422	396.62
338.65	383.62
338.878	395.62
339.106	372.62
339.334	379.62
339.562	385.62
339.79	384.62
340.018	386.62
340.246	377.62
340.474	420.62
340.702	397.62
340.93	359.62
341.158	378.62
341.386	377.62
341.614	344.62
341.842	395.62
342.07	393.62
342.298	375.62
342.526	356.62
342.754	391.62
342.981	372.62
343.209	356.62
343.437	374.62
343.665	380.62
343.893	350.62
344.12	385.62
344.348	396.62
344.576	417.62
344.804	371.62
345.031	404.62
345.259	404.62
345.487	412.62
345.714	390.62
345.942	383.62
346.17	362.62
346.397	373.62
346.625	379.62
346.853	370.62
347.08	354.62
347.308	374.62
347.535	383.62
347.763	386.62
347.99	387.62
348.218	389.62
348.445	376.62
348.673	379.62
348.9	359.62
349.128	378.62
349.355	366.62
349.583	345.62
349.81	358.62
350.037	363.62
350.265	348.62
350.492	372.62
350.72	363.62
350.947	366.62
351.174	368.62
351.402	372.62
351.629	362.62
351.856	355.62
352.083	378.62
352.311	375.62
352.538	386.62
352.765	395.62
352.992	365.62
353.22	361.62
353.447	364.62
353.674	358.62
353.901	348.62
354.128	353.62
354.355	352.62
354.583	340.62
354.81	331.62
355.037	351.62
355.264	322.62
355.491	342.62
355.718	324.62
355.945	344.62
356.172	321.62
356.399	326.62
356.626	334.62
356.853	336.62
357.08	342.62
357.307	331.62
357.534	348.62
357.761	333.62
357.988	353.62
358.215	341.62
358.441	366.62
358.668	352.62
358.895	332.62
359.122	360.62
359.349	366.62
359.576	381.62
359.802	393.62
360.029	376.62
360.256	417.62
360.483	396.62
360.709	383.62
360.936	372.62
361.163	375.62
361.39	392.62
361.616	378.62
361.843	346.62
362.07	358.62
362.296	381.62
362.523	346.62
362.749	365.62
362.976	365.62
363.203	340.62
363.429	351.62
363.656	365.62
363.882	350.62
364.109	357.62
364.335	358.62
364.562	326.62
364.788	345.62
365.015	362.62
365.241	350.62
365.468	340.62
365.694	352.62
365.92	373.62
366.147	364.62
366.373	326.62
366.599	328.62
366.826	355.62
367.052	349.62
367.278	359.62
367.505	353.62
367.731	341.62
367.957	334.62
368.184	360.62
368.41	358.62
368.636	353.62
368.862	357.62
369.089	349.62
369.315	349.62
369.541	353.62
369.767	343.62
369.993	341.62
370.219	364.62
370.445	343.62
370.672	329.62
370.898	333.62
371.124	358.62
371.35	355.62
371.576	340.62
371.802	355.62
372.028	349.62
372.254	330.62
372.48	347.62
372.706	353.62
372.932	343.62
373.158	348.62
373.384	350.62
373.61	359.62
373.835	323.62
374.061	349.62
374.287	353.62
374.513	366.62
374.739	339.62
374.965	348.62
375.191	329.62
375.416	339.62
375.642	334.62
375.868	354.62
376.094	351.62
376.319	364.62
376.545	330.62
376.771	355.62
376.997	334.62
377.222	334.62
377.448	330.62
377.674	328.62
377.899	357.62
378.125	334.62
378.35	339.62
378.576	341.62
378.802	324.62
379.027	329.62
379.253	339.62
379.478	345.62
379.704	322.62
379.929	341.62
380.155	337.62
380.38	345.62
380.606	354.62
380.831	345.62
381.057	358.62
381.282	349.62
381.507	338.62
381.733	343.62
381.958	340.62
382.184	341.62
382.409	343.62
382.634	320.62
382.86	336.62
383.085	365.62
383.31	340.62
383.535	356.62
383.761	356.62
383.986	358.62
384.211	354.62
384.436	365.62
384.662	356.62
384.887	354.62
385.112	375.62
385.337	367.62
385.562	359.62
385.787	381.62
386.013	369.62
386.238	375.62
386.463	387.62
386.688	370.62
386.913	376.62
387.138	357.62
387.363	357.62
387.588	378.62
387.813	364.62
388.038	369.62
388.263	348.62
388.488	364.62
388.713	376.62
388.938	364.62
389.163	342.62
389.387	359.62
389.612	330.62
389.837	361.62
390.062	378.62
390.287	366.62
390.512	386.62
390.736	361.62
390.961	363.62
391.186	344.62
391.411	358.62
391.636	375.62
391.86	391.62
392.085	391.62
392.31	383.62
392.534	384.62
392.759	376.62
392.984	379.62
393.208	373.62
393.433	365.62
393.658	364.62
393.882	359.62
394.107	367.62
394.331	376.62
394.556	361.62
394.78	360.62
395.005	363.62
395.229	380.62
395.454	381.62
395.678	385.62
395.903	400.62
396.127	387.62
396.352	412.62
396.576	391.62
396.801	379.62
397.025	370.62
397.249	366.62
397.474	389.62
397.698	381.62
397.922	421.62
398.147	422.62
398.371	407.62
398.595	396.62
398.82	395.62
399.044	435.62
399.268	437.62
399.492	423.62
399.717	453.62
399.941	487.62
400.165	500.62
400.389	507.62
400.613	457.62
400.837	413.62
401.062	431.62
401.286	428.62
401.51	405.62
401.734	407.62
401.958	431.62
402.182	413.62
402.406	407.62
402.63	422.62
402.854	415.62
403.078	422.62
403.302	427.62
403.526	437.62
403.75	425.62
403.974	417.62
404.198	429.62
404.422	429.62
404.645	406.62
404.869	421.62
405.093	447.62
405.317	452.62
405.541	478.62
405.765	455.62
405.988	441.62
406.212	458.62
406.436	476.62
406.66	464.62
406.883	484.62
407.107	472.62
407.331	499.62
407.555	556.62
407.778	564.62
408.002	498.62
408.226	488.62
408.449	483.62
408.673	484.62
408.896	489.62
409.12	524.62
409.344	499.62
409.567	439.62
409.791	441.62
410.014	441.62
410.238	402.62
410.461	430.62
410.685	427.62
410.908	456.62
411.132	468.62
411.355	473.62
411.578	461.62
411.802	456.62
412.025	413.62
412.249	435.62
412.472	419.62
412.695	426.62
412.919	440.62
413.142	437.62
413.365	390.62
413.589	396.62
413.812	403.62
414.035	413.62
414.258	411.62
414.482	388.62
414.705	398.62
414.928	386.62
415.151	386.62
415.374	399.62
415.597	378.62
415.821	381.62
416.044	388.62
416.267	385.62
416.49	414.62
416.713	396.62
416.936	384.62
417.159	389.62
417.382	413.62
417.605	388.62
417.828	421.62
418.051	423.62
418.274	419.62
418.497	412.62
418.72	399.62
418.943	409.62
419.166	399.62
419.389	423.62
419.611	419.62
419.834	425.62
420.057	421.62
420.28	440.62
420.503	408.62
420.726	407.62
420.948	413.62
421.171	464.62
421.394	483.62
421.617	445.62
421.839	430.62
422.062	425.62
422.285	441.62
422.507	476.62
422.73	510.62
422.953	508.62
423.175	468.62
423.398	452.62
423.621	459.62
423.843	460.62
424.066	466.62
424.288	452.62
424.511	477.62
424.733	491.62
424.956	563.62
425.178	545.62
425.401	566.62
425.623	563.62
425.846	482.62
426.068	453.62
426.291	453.62
426.513	453.62
426.735	472.62
426.958	506.62
427.18	545.62
427.402	669.62
427.625	712.62
427.847	637.62
428.069	540.62
428.292	494.62
428.514	461.62
428.736	425.62
428.958	452.62
429.181	428.62
429.403	434.62
429.625	428.62
429.847	454.62
430.069	505.62
430.292	482.62
430.514	454.62
430.736	414.62
430.958	411.62
431.18	414.62
431.402	416.62
431.624	391.62
431.846	390.62
432.068	400.62
432.29	412.62
432.512	405.62
432.734	411.62
432.956	383.62
433.178	423.62
433.4	406.62
433.622	411.62
433.844	405.62
434.066	415.62
434.287	396.62
434.509	383.62
434.731	414.62
434.953	422.62
435.175	414.62
435.397	453.62
435.618	446.62
435.84	500.62
436.062	587.62
436.284	620.62
436.505	528.62
436.727	457.62
436.949	451.62
437.17	445.62
437.392	424.62
437.614	428.62
437.835	463.62
438.057	564.62
438.278	634.62
438.5	610.62
438.721	630.62
438.943	630.62
439.165	514.62
439.386	468.62
439.608	477.62
439.829	475.62
440.05	498.62
440.272	509.62
440.493	483.62
440.715	467.62
440.936	448.62
441.158	426.62
441.379	417.62
441.6	459.62
441.822	460.62
442.043	486.62
442.264	556.62
442.486	585.62
442.707	499.62
442.928	477.62
443.149	471.62
443.371	483.62
443.592	530.62
443.813	587.62
444.034	635.62
444.255	529.62
444.476	471.62
444.698	460.62
444.919	467.62
445.14	582.62
445.361	519.62
445.582	510.62
445.803	557.62
446.024	604.62
446.245	633.62
446.466	580.62
446.687	492.62
446.908	477.62
447.129	418.62
447.35	431.62
447.571	436.62
447.792	446.62
448.013	399.62
448.234	462.62
448.455	498.62
448.675	583.62
448.896	648.62
449.117	562.62
449.338	537.62
449.559	638.62
449.779	671.62
450	549.62
450.221	470.62
450.442	430.62
450.662	423.62
450.883	440.62
451.104	437.62
451.324	441.62
451.545	395.62
451.766	400.62
451.986	381.62
452.207	381.62
452.428	382.62
452.648	381.62
452.869	389.62
453.089	403.62
453.31	422.62
453.53	389.62
453.751	369.62
453.971	394.62
454.192	416.62
454.412	395.62
454.633	391.62
454.853	399.62
455.073	360.62
455.294	407.62
455.514	456.62
455.734	437.62
455.955	374.62
456.175	387.62
456.395	374.62
456.616	367.62
456.836	345.62
457.056	344.62
457.276	354.62
457.497	384.62
457.717	362.62
457.937	372.62
458.157	375.62
458.377	379.62
458.598	405.62
458.818	447.62
459.038	516.62
459.258	514.62
459.478	449.62
459.698	415.62
459.918	403.62
460.138	404.62
460.358	420.62
460.578	395.62
460.798	395.62
461.018	399.62
461.238	382.62
461.458	407.62
461.678	399.62
461.898	403.62
462.118	405.62
462.338	427.62
462.558	400.62
462.777	410.62
462.997	424.62
463.217	420.62
463.437	449.62
463.657	442.62
463.876	406.62
464.096	428.62
464.316	433.62
464.536	454.62
464.755	434.62
464.975	458.62
465.195	479.62
465.414	557.62
465.634	478.62
465.854	432.62
466.073	409.62
466.293	405.62
466.512	399.62
466.732	387.62
466.951	386.62
467.171	396.62
467.391	406.62
467.61	397.62
467.829	414.62
468.049	403.62
468.268	393.62
468.488	391.62
468.707	373.62
468.927	383.62
469.146	385.62
469.365	400.62
469.585	381.62
469.804	376.62
470.023	387.62
470.243	382.62
470.462	410.62
470.681	423.62
470.901	428.62
471.12	395.62
471.339	389.62
471.558	389.62
471.777	399.62
471.997	364.62
472.216	391.62
472.435	399.62
472.654	399.62
472.873	374.62
473.092	389.62
473.311	385.62
473.53	392.62
473.749	405.62
473.968	420.62
474.187	531.62
474.406	533.62
474.625	454.62
474.844	404.62
475.063	404.62
475.282	386.62
475.501	422.62
475.72	405.62
475.939	403.62
476.158	403.62
476.377	395.62
476.596	405.62
476.814	413.62
477.033	436.62
477.252	429.62
477.471	409.62
477.69	420.62
477.908	400.62
478.127	423.62
478.346	414.62
478.564	438.62
478.783	439.62
479.002	460.62
479.22	447.62
479.439	468.62
479.658	460.62
479.876	479.62
480.095	479.62
480.313	488.62
480.532	478.62
480.751	459.62
480.969	473.62
481.188	508.62
481.406	492.62
481.624	475.62
481.843	468.62
482.061	471.62
482.28	450.62
482.498	470.62
482.717	455.62
482.935	449.62
483.153	437.62
483.372	455.62
483.59	443.62
483.808	465.62
484.027	471.62
484.245	466.62
484.463	463.62
484.681	487.62
484.9	478.62
485.118	481.62
485.336	461.62
485.554	467.62
485.772	472.62
485.99	462.62
486.209	485.62
486.427	476.62
486.645	481.62
486.863	516.62
487.081	511.62
487.299	478.62
487.517	505.62
487.735	464.62
487.953	481.62
488.171	486.62
488.389	507.62
488.607	519.62
488.825	503.62
489.043	495.62
489.261	513.62
489.479	523.62
489.696	519.62
489.914	514.62
490.132	491.62
490.35	514.62
490.568	529.62
490.786	524.62
491.003	523.62
491.221	536.62
491.439	551.62
491.657	541.62
491.874	561.62
492.092	560.62
492.31	566.62
492.527	572.62
492.745	561.62
492.963	563.62
493.18	554.62
493.398	561.62
493.615	571.62
493.833	555.62
494.05	567.62
494.268	580.62
494.485	597.62
494.703	580.62
494.92	578.62
495.138	578.62
495.355	567.62
495.573	587.62
495.79	589.62
496.008	597.62
496.225	575.62
496.442	566.62
496.66	588.62
496.877	587.62
497.094	595.62
497.312	596.62
497.529	570.62
497.746	613.62
497.963	610.62
498.181	633.62
498.398	625.62
498.615	653.62
498.832	634.62
499.049	649.62
499.267	676.62
499.484	680.62
499.701	710.62
499.918	723.62
500.135	743.62
500.352	757.62
500.569	763.62
500.786	773.62
501.003	781.62
501.22	750.62
501.437	714.62
501.654	722.62
501.871	722.62
502.088	721.62
