Data from 1983.PennyLincolnUp.Lamp.En5.5.200Scan.071819.P1_HRD10591_16-54-20-966.txt Node
Date: Thu Jul 18 16:54:20 EDT 2019
User: cochatt
Spectrometer: HR+D1059
Trigger mode: 1
Integration Time (sec): 1.000000E-1
Scans to average: 1
Electric dark correction enabled: true
Nonlinearity correction enabled: false
Boxcar width: 0
XAxis mode: Wavelengths
Number of Pixels in Spectrum: 2048
>>>>>Begin Spectral Data<<<<<
223.165	0.5
223.4	0.5
223.635	0.5
223.869	-21.5
224.104	-20.5
224.338	-21.5
224.573	-19.5
224.808	-6.5
225.042	-3.5
225.277	-4.5
225.511	5.5
225.746	12.5
225.98	-8.5
226.215	13.5
226.449	12.5
226.683	14.5
226.918	19.5
227.152	27.5
227.387	37.5
227.621	36.5
227.856	56.5
228.09	39.5
228.324	27.5
228.559	51.5
228.793	75.5
229.027	102.5
229.262	109.5
229.496	118.5
229.73	134.5
229.964	159.5
230.199	132.5
230.433	106.5
230.667	123.5
230.901	104.5
231.136	105.5
231.37	108.5
231.604	112.5
231.838	103.5
232.072	105.5
232.306	134.5
232.541	113.5
232.775	104.5
233.009	122.5
233.243	100.5
233.477	112.5
233.711	125.5
233.945	126.5
234.179	108.5
234.413	126.5
234.647	100.5
234.881	129.5
235.115	113.5
235.349	119.5
235.583	89.5
235.817	115.5
236.051	116.5
236.285	133.5
236.519	116.5
236.753	117.5
236.987	133.5
237.221	184.5
237.455	213.5
237.689	173.5
237.922	148.5
238.156	118.5
238.39	131.5
238.624	120.5
238.858	123.5
239.091	129.5
239.325	119.5
239.559	124.5
239.793	129.5
240.027	131.5
240.26	145.5
240.494	145.5
240.728	143.5
240.961	144.5
241.195	134.5
241.429	136.5
241.662	128.5
241.896	133.5
242.13	105.5
242.363	127.5
242.597	128.5
242.83	140.5
243.064	131.5
243.298	130.5
243.531	126.5
243.765	140.5
243.998	144.5
244.232	133.5
244.465	138.5
244.699	131.5
244.932	127.5
245.166	131.5
245.399	143.5
245.633	139.5
245.866	129.5
246.099	131.5
246.333	139.5
246.566	135.5
246.8	152.5
247.033	136.5
247.266	159.5
247.5	135.5
247.733	162.5
247.966	170.5
248.2	173.5
248.433	168.5
248.666	167.5
248.899	172.5
249.133	172.5
249.366	187.5
249.599	184.5
249.832	168.5
250.066	164.5
250.299	175.5
250.532	181.5
250.765	203.5
250.998	217.5
251.231	207.5
251.465	190.5
251.698	189.5
251.931	174.5
252.164	187.5
252.397	175.5
252.63	189.5
252.863	204.5
253.096	195.5
253.329	218.5
253.562	215.5
253.795	190.5
254.028	218.5
254.261	202.5
254.494	206.5
254.727	251.5
254.96	239.5
255.193	252.5
255.426	233.5
255.659	211.5
255.892	218.5
256.124	205.5
256.357	207.5
256.59	216.5
256.823	192.5
257.056	201.5
257.289	195.5
257.521	192.5
257.754	191.5
257.987	189.5
258.22	193.5
258.452	209.5
258.685	189.5
258.918	196.5
259.151	192.5
259.383	203.5
259.616	201.5
259.849	217.5
260.081	220.5
260.314	236.5
260.547	234.5
260.779	234.5
261.012	204.5
261.244	220.5
261.477	192.5
261.71	209.5
261.942	213.5
262.175	215.5
262.407	212.5
262.64	201.5
262.872	198.5
263.105	191.5
263.337	197.5
263.57	191.5
263.802	213.5
264.035	200.5
264.267	193.5
264.499	187.5
264.732	187.5
264.964	203.5
265.197	204.5
265.429	211.5
265.661	191.5
265.894	211.5
266.126	191.5
266.358	200.5
266.591	220.5
266.823	210.5
267.055	217.5
267.287	203.5
267.52	205.5
267.752	212.5
267.984	208.5
268.216	201.5
268.448	205.5
268.681	231.5
268.913	224.5
269.145	250.5
269.377	249.5
269.609	272.5
269.841	226.5
270.073	255.5
270.306	269.5
270.538	292.5
270.77	311.5
271.002	269.5
271.234	269.5
271.466	292.5
271.698	291.5
271.93	302.5
272.162	288.5
272.394	306.5
272.626	287.5
272.858	247.5
273.09	266.5
273.322	256.5
273.553	249.5
273.785	240.5
274.017	249.5
274.249	252.5
274.481	244.5
274.713	235.5
274.945	256.5
275.176	234.5
275.408	253.5
275.64	234.5
275.872	251.5
276.104	251.5
276.335	256.5
276.567	263.5
276.799	251.5
277.031	283.5
277.262	291.5
277.494	301.5
277.726	287.5
277.957	279.5
278.189	255.5
278.421	257.5
278.652	248.5
278.884	251.5
279.115	234.5
279.347	238.5
279.579	228.5
279.81	248.5
280.042	232.5
280.273	247.5
280.505	242.5
280.736	248.5
280.968	243.5
281.199	245.5
281.431	247.5
281.662	261.5
281.894	255.5
282.125	255.5
282.356	272.5
282.588	295.5
282.819	295.5
283.051	263.5
283.282	255.5
283.513	250.5
283.745	265.5
283.976	261.5
284.207	232.5
284.439	256.5
284.67	251.5
284.901	241.5
285.132	276.5
285.364	263.5
285.595	259.5
285.826	257.5
286.057	268.5
286.288	251.5
286.52	255.5
286.751	273.5
286.982	256.5
287.213	269.5
287.444	260.5
287.675	270.5
287.906	281.5
288.138	284.5
288.369	271.5
288.6	281.5
288.831	272.5
289.062	260.5
289.293	257.5
289.524	279.5
289.755	234.5
289.986	274.5
290.217	267.5
290.448	269.5
290.679	263.5
290.91	252.5
291.141	282.5
291.371	266.5
291.602	262.5
291.833	262.5
292.064	264.5
292.295	278.5
292.526	275.5
292.757	269.5
292.987	253.5
293.218	247.5
293.449	250.5
293.68	265.5
293.91	275.5
294.141	260.5
294.372	274.5
294.603	280.5
294.833	250.5
295.064	265.5
295.295	267.5
295.525	269.5
295.756	254.5
295.987	273.5
296.217	304.5
296.448	310.5
296.679	283.5
296.909	261.5
297.14	273.5
297.37	293.5
297.601	271.5
297.831	265.5
298.062	243.5
298.292	268.5
298.523	267.5
298.753	294.5
298.984	254.5
299.214	279.5
299.445	268.5
299.675	277.5
299.905	291.5
300.136	292.5
300.366	291.5
300.597	286.5
300.827	287.5
301.057	281.5
301.288	307.5
301.518	305.5
301.748	293.5
301.979	282.5
302.209	305.5
302.439	295.5
302.669	288.5
302.9	291.5
303.13	300.5
303.36	297.5
303.59	303.5
303.82	308.5
304.051	292.5
304.281	274.5
304.511	311.5
304.741	303.5
304.971	300.5
305.201	285.5
305.431	318.5
305.661	301.5
305.891	307.5
306.121	292.5
306.352	315.5
306.582	309.5
306.812	301.5
307.042	306.5
307.272	289.5
307.502	311.5
307.731	300.5
307.961	300.5
308.191	308.5
308.421	300.5
308.651	311.5
308.881	313.5
309.111	324.5
309.341	320.5
309.571	326.5
309.8	337.5
310.03	343.5
310.26	351.5
310.49	371.5
310.72	365.5
310.949	359.5
311.179	363.5
311.409	346.5
311.639	340.5
311.868	352.5
312.098	353.5
312.328	349.5
312.557	358.5
312.787	378.5
313.017	383.5
313.246	343.5
313.476	342.5
313.706	347.5
313.935	343.5
314.165	366.5
314.394	365.5
314.624	351.5
314.853	350.5
315.083	356.5
315.312	344.5
315.542	323.5
315.771	330.5
316.001	333.5
316.23	348.5
316.46	334.5
316.689	347.5
316.919	363.5
317.148	364.5
317.377	375.5
317.607	327.5
317.836	369.5
318.065	340.5
318.295	340.5
318.524	336.5
318.753	356.5
318.983	347.5
319.212	350.5
319.441	356.5
319.67	360.5
319.9	334.5
320.129	341.5
320.358	354.5
320.587	335.5
320.816	351.5
321.046	359.5
321.275	383.5
321.504	373.5
321.733	359.5
321.962	376.5
322.191	387.5
322.42	397.5
322.649	413.5
322.878	432.5
323.108	434.5
323.337	454.5
323.566	487.5
323.795	492.5
324.024	549.5
324.253	691.5
324.482	1023.5
324.71	1535.5
324.939	2032.5
325.168	1698.5
325.397	926.5
325.626	634.5
325.855	520.5
326.084	480.5
326.313	481.5
326.542	492.5
326.77	548.5
326.999	660.5
327.228	887.5
327.457	1339.5
327.686	1543.5
327.914	1017.5
328.143	702.5
328.372	599.5
328.6	554.5
328.829	557.5
329.058	572.5
329.287	559.5
329.515	516.5
329.744	483.5
329.972	481.5
330.201	485.5
330.43	520.5
330.658	579.5
330.887	583.5
331.115	563.5
331.344	474.5
331.572	444.5
331.801	446.5
332.03	445.5
332.258	423.5
332.486	397.5
332.715	404.5
332.943	423.5
333.172	403.5
333.4	413.5
333.629	418.5
333.857	435.5
334.085	440.5
334.314	439.5
334.542	468.5
334.771	490.5
334.999	454.5
335.227	440.5
335.455	426.5
335.684	418.5
335.912	407.5
336.14	411.5
336.369	398.5
336.597	423.5
336.825	392.5
337.053	401.5
337.281	395.5
337.51	392.5
337.738	399.5
337.966	401.5
338.194	399.5
338.422	404.5
338.65	363.5
338.878	395.5
339.106	383.5
339.334	385.5
339.562	390.5
339.79	401.5
340.018	381.5
340.246	404.5
340.474	367.5
340.702	393.5
340.93	385.5
341.158	383.5
341.386	386.5
341.614	393.5
341.842	393.5
342.07	374.5
342.298	373.5
342.526	393.5
342.754	383.5
342.981	378.5
343.209	366.5
343.437	363.5
343.665	367.5
343.893	389.5
344.12	387.5
344.348	392.5
344.576	391.5
344.804	425.5
345.031	409.5
345.259	416.5
345.487	407.5
345.714	381.5
345.942	389.5
346.17	389.5
346.397	375.5
346.625	376.5
346.853	357.5
347.08	381.5
347.308	387.5
347.535	399.5
347.763	390.5
347.99	384.5
348.218	387.5
348.445	409.5
348.673	373.5
348.9	386.5
349.128	369.5
349.355	352.5
349.583	350.5
349.81	367.5
350.037	333.5
350.265	351.5
350.492	345.5
350.72	355.5
350.947	379.5
351.174	397.5
351.402	388.5
351.629	374.5
351.856	380.5
352.083	388.5
352.311	406.5
352.538	394.5
352.765	415.5
352.992	391.5
353.22	377.5
353.447	382.5
353.674	376.5
353.901	359.5
354.128	351.5
354.355	351.5
354.583	359.5
354.81	357.5
355.037	359.5
355.264	359.5
355.491	356.5
355.718	347.5
355.945	347.5
356.172	343.5
356.399	345.5
356.626	329.5
356.853	342.5
357.08	334.5
357.307	324.5
357.534	360.5
357.761	345.5
357.988	334.5
358.215	338.5
358.441	346.5
358.668	352.5
358.895	351.5
359.122	363.5
359.349	362.5
359.576	391.5
359.802	397.5
360.029	436.5
360.256	421.5
360.483	404.5
360.709	385.5
360.936	361.5
361.163	357.5
361.39	357.5
361.616	393.5
361.843	382.5
362.07	367.5
362.296	351.5
362.523	389.5
362.749	373.5
362.976	368.5
363.203	350.5
363.429	350.5
363.656	351.5
363.882	343.5
364.109	349.5
364.335	355.5
364.562	347.5
364.788	363.5
365.015	354.5
365.241	358.5
365.468	364.5
365.694	376.5
365.92	366.5
366.147	349.5
366.373	360.5
366.599	327.5
366.826	361.5
367.052	334.5
367.278	350.5
367.505	354.5
367.731	341.5
367.957	344.5
368.184	365.5
368.41	370.5
368.636	379.5
368.862	384.5
369.089	357.5
369.315	360.5
369.541	350.5
369.767	335.5
369.993	353.5
370.219	355.5
370.445	363.5
370.672	337.5
370.898	351.5
371.124	347.5
371.35	348.5
371.576	343.5
371.802	343.5
372.028	355.5
372.254	333.5
372.48	335.5
372.706	358.5
372.932	336.5
373.158	359.5
373.384	361.5
373.61	363.5
373.835	347.5
374.061	336.5
374.287	346.5
374.513	368.5
374.739	375.5
374.965	359.5
375.191	341.5
375.416	362.5
375.642	355.5
375.868	359.5
376.094	355.5
376.319	344.5
376.545	323.5
376.771	345.5
376.997	356.5
377.222	352.5
377.448	348.5
377.674	340.5
377.899	328.5
378.125	336.5
378.35	336.5
378.576	332.5
378.802	341.5
379.027	347.5
379.253	350.5
379.478	349.5
379.704	358.5
379.929	352.5
380.155	335.5
380.38	358.5
380.606	360.5
380.831	358.5
381.057	347.5
381.282	350.5
381.507	352.5
381.733	336.5
381.958	348.5
382.184	344.5
382.409	353.5
382.634	352.5
382.86	348.5
383.085	366.5
383.31	354.5
383.535	361.5
383.761	339.5
383.986	357.5
384.211	372.5
384.436	335.5
384.662	339.5
384.887	365.5
385.112	365.5
385.337	361.5
385.562	373.5
385.787	367.5
386.013	368.5
386.238	394.5
386.463	374.5
386.688	360.5
386.913	354.5
387.138	370.5
387.363	361.5
387.588	379.5
387.813	382.5
388.038	369.5
388.263	379.5
388.488	357.5
388.713	365.5
388.938	384.5
389.163	372.5
389.387	377.5
389.612	372.5
389.837	360.5
390.062	369.5
390.287	354.5
390.512	350.5
390.736	356.5
390.961	359.5
391.186	377.5
391.411	363.5
391.636	381.5
391.86	380.5
392.085	391.5
392.31	373.5
392.534	368.5
392.759	379.5
392.984	366.5
393.208	353.5
393.433	377.5
393.658	378.5
393.882	374.5
394.107	365.5
394.331	347.5
394.556	371.5
394.78	376.5
395.005	378.5
395.229	365.5
395.454	396.5
395.678	390.5
395.903	388.5
396.127	393.5
396.352	399.5
396.576	391.5
396.801	392.5
397.025	388.5
397.249	374.5
397.474	399.5
397.698	382.5
397.922	400.5
398.147	403.5
398.371	429.5
398.595	408.5
398.82	404.5
399.044	422.5
399.268	422.5
399.492	449.5
399.717	447.5
399.941	484.5
400.165	509.5
400.389	487.5
400.613	474.5
400.837	440.5
401.062	443.5
401.286	398.5
401.51	410.5
401.734	415.5
401.958	434.5
402.182	433.5
402.406	435.5
402.63	441.5
402.854	432.5
403.078	447.5
403.302	427.5
403.526	432.5
403.75	425.5
403.974	428.5
404.198	443.5
404.422	428.5
404.645	443.5
404.869	455.5
405.093	477.5
405.317	518.5
405.541	513.5
405.765	480.5
405.988	439.5
406.212	491.5
406.436	485.5
406.66	493.5
406.883	460.5
407.107	480.5
407.331	534.5
407.555	551.5
407.778	564.5
408.002	503.5
408.226	474.5
408.449	474.5
408.673	468.5
408.896	478.5
409.12	512.5
409.344	505.5
409.567	463.5
409.791	447.5
410.014	428.5
410.238	431.5
410.461	430.5
410.685	422.5
410.908	454.5
411.132	474.5
411.355	487.5
411.578	473.5
411.802	437.5
412.025	428.5
412.249	439.5
412.472	469.5
412.695	480.5
412.919	473.5
413.142	438.5
413.365	402.5
413.589	413.5
413.812	428.5
414.035	437.5
414.258	439.5
414.482	411.5
414.705	406.5
414.928	419.5
415.151	419.5
415.374	404.5
415.597	413.5
415.821	407.5
416.044	413.5
416.267	393.5
416.49	391.5
416.713	408.5
416.936	404.5
417.159	394.5
417.382	398.5
417.605	416.5
417.828	420.5
418.051	426.5
418.274	423.5
418.497	408.5
418.72	424.5
418.943	384.5
419.166	398.5
419.389	441.5
419.611	435.5
419.834	428.5
420.057	435.5
420.28	437.5
420.503	412.5
420.726	436.5
420.948	453.5
421.171	483.5
421.394	491.5
421.617	448.5
421.839	441.5
422.062	422.5
422.285	447.5
422.507	467.5
422.73	534.5
422.953	520.5
423.175	473.5
423.398	439.5
423.621	427.5
423.843	462.5
424.066	469.5
424.288	456.5
424.511	483.5
424.733	513.5
424.956	580.5
425.178	566.5
425.401	554.5
425.623	559.5
425.846	508.5
426.068	484.5
426.291	464.5
426.513	457.5
426.735	473.5
426.958	504.5
427.18	548.5
427.402	649.5
427.625	744.5
427.847	654.5
428.069	553.5
428.292	510.5
428.514	485.5
428.736	461.5
428.958	426.5
429.181	443.5
429.403	429.5
429.625	432.5
429.847	469.5
430.069	517.5
430.292	514.5
430.514	414.5
430.736	448.5
430.958	432.5
431.18	400.5
431.402	404.5
431.624	391.5
431.846	408.5
432.068	395.5
432.29	427.5
432.512	414.5
432.734	413.5
432.956	416.5
433.178	432.5
433.4	425.5
433.622	418.5
433.844	411.5
434.066	408.5
434.287	420.5
434.509	415.5
434.731	420.5
434.953	417.5
435.175	439.5
435.397	441.5
435.618	465.5
435.84	490.5
436.062	556.5
436.284	590.5
436.505	520.5
436.727	478.5
436.949	449.5
437.17	442.5
437.392	421.5
437.614	443.5
437.835	456.5
438.057	555.5
438.278	624.5
438.5	629.5
438.721	664.5
438.943	627.5
439.165	511.5
439.386	496.5
439.608	463.5
439.829	476.5
440.05	507.5
440.272	521.5
440.493	504.5
440.715	480.5
440.936	445.5
441.158	433.5
441.379	457.5
441.6	458.5
441.822	475.5
442.043	477.5
442.264	568.5
442.486	596.5
442.707	485.5
442.928	495.5
443.149	493.5
443.371	517.5
443.592	522.5
443.813	597.5
444.034	645.5
444.255	539.5
444.476	464.5
444.698	461.5
444.919	459.5
445.14	599.5
445.361	548.5
445.582	523.5
445.803	559.5
446.024	650.5
446.245	651.5
446.466	565.5
446.687	481.5
446.908	473.5
447.129	461.5
447.35	431.5
447.571	443.5
447.792	451.5
448.013	434.5
448.234	472.5
448.455	501.5
448.675	589.5
448.896	679.5
449.117	583.5
449.338	549.5
449.559	624.5
449.779	696.5
450	575.5
450.221	465.5
450.442	431.5
450.662	408.5
450.883	432.5
451.104	447.5
451.324	451.5
451.545	427.5
451.766	414.5
451.986	385.5
452.207	383.5
452.428	363.5
452.648	397.5
452.869	394.5
453.089	402.5
453.31	408.5
453.53	399.5
453.751	379.5
453.971	393.5
454.192	419.5
454.412	383.5
454.633	395.5
454.853	407.5
455.073	383.5
455.294	412.5
455.514	471.5
455.734	452.5
455.955	402.5
456.175	387.5
456.395	378.5
456.616	382.5
456.836	368.5
457.056	358.5
457.276	336.5
457.497	374.5
457.717	345.5
457.937	371.5
458.157	389.5
458.377	368.5
458.598	407.5
458.818	467.5
459.038	541.5
459.258	529.5
459.478	465.5
459.698	406.5
459.918	403.5
460.138	418.5
460.358	405.5
460.578	428.5
460.798	426.5
461.018	409.5
461.238	416.5
461.458	380.5
461.678	396.5
461.898	406.5
462.118	417.5
462.338	421.5
462.558	414.5
462.777	423.5
462.997	431.5
463.217	428.5
463.437	447.5
463.657	424.5
463.876	418.5
464.096	431.5
464.316	447.5
464.536	439.5
464.755	454.5
464.975	477.5
465.195	496.5
465.414	579.5
465.634	490.5
465.854	445.5
466.073	419.5
466.293	427.5
466.512	406.5
466.732	389.5
466.951	383.5
467.171	405.5
467.391	393.5
467.61	423.5
467.829	411.5
468.049	425.5
468.268	404.5
468.488	390.5
468.707	373.5
468.927	390.5
469.146	384.5
469.365	383.5
469.585	385.5
469.804	396.5
470.023	420.5
470.243	391.5
470.462	431.5
470.681	447.5
470.901	421.5
471.12	376.5
471.339	415.5
471.558	413.5
471.777	408.5
471.997	401.5
472.216	419.5
472.435	440.5
472.654	423.5
472.873	408.5
473.092	397.5
473.311	385.5
473.53	383.5
473.749	398.5
473.968	440.5
474.187	543.5
474.406	531.5
474.625	453.5
474.844	419.5
475.063	425.5
475.282	391.5
475.501	389.5
475.72	410.5
475.939	412.5
476.158	404.5
476.377	406.5
476.596	394.5
476.814	424.5
477.033	437.5
477.252	425.5
477.471	439.5
477.69	440.5
477.908	419.5
478.127	413.5
478.346	438.5
478.564	439.5
478.783	447.5
479.002	440.5
479.22	467.5
479.439	476.5
479.658	478.5
479.876	499.5
480.095	475.5
480.313	485.5
480.532	496.5
480.751	496.5
480.969	482.5
481.188	553.5
481.406	578.5
481.624	480.5
481.843	487.5
482.061	479.5
482.28	454.5
482.498	459.5
482.717	472.5
482.935	472.5
483.153	475.5
483.372	469.5
483.59	462.5
483.808	450.5
484.027	457.5
484.245	475.5
484.463	470.5
484.681	496.5
484.9	457.5
485.118	488.5
485.336	470.5
485.554	472.5
485.772	488.5
485.99	503.5
486.209	465.5
486.427	489.5
486.645	499.5
486.863	511.5
487.081	526.5
487.299	510.5
487.517	500.5
487.735	519.5
487.953	501.5
488.171	496.5
488.389	529.5
488.607	519.5
488.825	481.5
489.043	496.5
489.261	517.5
489.479	498.5
489.696	527.5
489.914	530.5
490.132	527.5
490.35	522.5
490.568	529.5
490.786	548.5
491.003	533.5
491.221	571.5
491.439	584.5
491.657	592.5
491.874	596.5
492.092	609.5
492.31	581.5
492.527	576.5
492.745	574.5
492.963	586.5
493.18	596.5
493.398	607.5
493.615	592.5
493.833	611.5
494.05	588.5
494.268	592.5
494.485	620.5
494.703	608.5
494.92	599.5
495.138	599.5
495.355	613.5
495.573	595.5
495.79	614.5
496.008	611.5
496.225	592.5
496.442	595.5
496.66	605.5
496.877	592.5
497.094	611.5
497.312	612.5
497.529	612.5
497.746	612.5
497.963	624.5
498.181	647.5
498.398	638.5
498.615	634.5
498.832	650.5
499.049	678.5
499.267	671.5
499.484	682.5
499.701	698.5
499.918	729.5
500.135	727.5
500.352	784.5
500.569	796.5
500.786	774.5
501.003	785.5
501.22	773.5
501.437	747.5
501.654	721.5
501.871	711.5
502.088	693.5
502.305	655.5
502.522	663.5
502.739	648.5
502.956	609.5
503.172	629.5
503.389	625.5
503.606	638.5
503.823	635.5
504.04	618.5
504.256	608.5
504.473	611.5
504.69	573.5
504.907	585.5
505.123	577.5
505.34	585.5
505.557	559.5
505.773	587.5
505.99	562.5
506.207	566.5
506.423	577.5
506.64	588.5
506.856	564.5
507.073	563.5
507.289	560.5
507.506	557.5
507.722	565.5
507.939	584.5
508.155	579.5
508.372	557.5
508.588	529.5
508.805	570.5
509.021	540.5
509.238	565.5
509.454	573.5
509.67	565.5
509.887	536.5
510.103	557.5
510.319	585.5
510.536	667.5
510.752	1201.5
510.968	973.5
511.184	591.5
511.401	534.5
511.617	543.5
511.833	537.5
512.049	525.5
512.265	524.5
512.481	520.5
512.698	539.5
512.914	526.5
513.13	526.5
513.346	500.5
513.562	508.5
513.778	533.5
513.994	528.5
514.21	561.5
514.426	567.5
514.642	627.5
514.858	669.5
515.074	693.5
515.29	859.5
515.506	1334.5
515.721	1061.5
515.937	663.5
516.153	591.5
516.369	561.5
516.585	565.5
516.801	544.5
517.016	545.5
517.232	541.5
517.448	546.5
517.664	535.5
517.879	551.5
518.095	548.5
518.311	525.5
518.527	517.5
518.742	524.5
518.958	525.5
519.173	525.5
519.389	516.5
519.605	515.5
519.82	525.5
