Data from 1983.PennyLincolnUp.Lamp.En5.5.200Scan.071819.P1_HRD10591_16-54-03-965.txt Node
Date: Thu Jul 18 16:54:03 EDT 2019
User: cochatt
Spectrometer: HR+D1059
Trigger mode: 1
Integration Time (sec): 1.000000E-1
Scans to average: 1
Electric dark correction enabled: true
Nonlinearity correction enabled: false
Boxcar width: 0
XAxis mode: Wavelengths
Number of Pixels in Spectrum: 2048
>>>>>Begin Spectral Data<<<<<
223.165	-0.12
223.4	-0.12
223.635	-0.12
223.869	-14.12
224.104	-23.12
224.338	-12.12
224.573	-20.12
224.808	-18.12
225.042	-12.12
225.277	7.88
225.511	-1.12
225.746	-1.12
225.98	0.88
226.215	8.88
226.449	24.88
226.683	16.88
226.918	17.88
227.152	24.88
227.387	41.88
227.621	41.88
227.856	46.88
228.09	49.88
228.324	49.88
228.559	60.88
228.793	62.88
229.027	90.88
229.262	87.88
229.496	103.88
229.73	134.88
229.964	141.88
230.199	114.88
230.433	115.88
230.667	108.88
230.901	115.88
231.136	106.88
231.37	100.88
231.604	107.88
231.838	109.88
232.072	123.88
232.306	104.88
232.541	113.88
232.775	104.88
233.009	109.88
233.243	116.88
233.477	115.88
233.711	111.88
233.945	129.88
234.179	114.88
234.413	109.88
234.647	112.88
234.881	115.88
235.115	108.88
235.349	102.88
235.583	108.88
235.817	106.88
236.051	124.88
236.285	124.88
236.519	128.88
236.753	130.88
236.987	141.88
237.221	178.88
237.455	213.88
237.689	171.88
237.922	135.88
238.156	128.88
238.39	113.88
238.624	117.88
238.858	123.88
239.091	116.88
239.325	122.88
239.559	122.88
239.793	115.88
240.027	124.88
240.26	135.88
240.494	160.88
240.728	129.88
240.961	139.88
241.195	134.88
241.429	137.88
241.662	137.88
241.896	129.88
242.13	140.88
242.363	129.88
242.597	140.88
242.83	127.88
243.064	133.88
243.298	130.88
243.531	132.88
243.765	122.88
243.998	144.88
244.232	123.88
244.465	145.88
244.699	138.88
244.932	133.88
245.166	109.88
245.399	138.88
245.633	143.88
245.866	133.88
246.099	132.88
246.333	139.88
246.566	135.88
246.8	131.88
247.033	138.88
247.266	141.88
247.5	154.88
247.733	153.88
247.966	168.88
248.2	156.88
248.433	183.88
248.666	153.88
248.899	165.88
249.133	190.88
249.366	197.88
249.599	181.88
249.832	157.88
250.066	170.88
250.299	156.88
250.532	182.88
250.765	197.88
250.998	190.88
251.231	199.88
251.465	204.88
251.698	180.88
251.931	196.88
252.164	178.88
252.397	171.88
252.63	189.88
252.863	189.88
253.096	205.88
253.329	225.88
253.562	203.88
253.795	198.88
254.028	203.88
254.261	202.88
254.494	213.88
254.727	236.88
254.96	242.88
255.193	253.88
255.426	218.88
255.659	215.88
255.892	217.88
256.124	211.88
256.357	210.88
256.59	218.88
256.823	182.88
257.056	193.88
257.289	201.88
257.521	203.88
257.754	191.88
257.987	173.88
258.22	185.88
258.452	202.88
258.685	210.88
258.918	187.88
259.151	196.88
259.383	195.88
259.616	195.88
259.849	205.88
260.081	230.88
260.314	213.88
260.547	238.88
260.779	223.88
261.012	217.88
261.244	191.88
261.477	213.88
261.71	221.88
261.942	213.88
262.175	218.88
262.407	232.88
262.64	203.88
262.872	193.88
263.105	210.88
263.337	206.88
263.57	186.88
263.802	183.88
264.035	195.88
264.267	185.88
264.499	198.88
264.732	185.88
264.964	198.88
265.197	181.88
265.429	195.88
265.661	202.88
265.894	205.88
266.126	199.88
266.358	226.88
266.591	207.88
266.823	200.88
267.055	215.88
267.287	200.88
267.52	201.88
267.752	199.88
267.984	209.88
268.216	199.88
268.448	220.88
268.681	214.88
268.913	218.88
269.145	230.88
269.377	245.88
269.609	261.88
269.841	250.88
270.073	243.88
270.306	268.88
270.538	287.88
270.77	278.88
271.002	281.88
271.234	260.88
271.466	281.88
271.698	281.88
271.93	292.88
272.162	292.88
272.394	285.88
272.626	280.88
272.858	241.88
273.09	245.88
273.322	248.88
273.553	225.88
273.785	237.88
274.017	238.88
274.249	251.88
274.481	239.88
274.713	227.88
274.945	261.88
275.176	236.88
275.408	244.88
275.64	245.88
275.872	242.88
276.104	246.88
276.335	261.88
276.567	260.88
276.799	274.88
277.031	283.88
277.262	308.88
277.494	289.88
277.726	268.88
277.957	261.88
278.189	255.88
278.421	249.88
278.652	238.88
278.884	245.88
279.115	255.88
279.347	239.88
279.579	238.88
279.81	246.88
280.042	245.88
280.273	243.88
280.505	235.88
280.736	236.88
280.968	244.88
281.199	252.88
281.431	248.88
281.662	246.88
281.894	254.88
282.125	255.88
282.356	263.88
282.588	295.88
282.819	279.88
283.051	266.88
283.282	267.88
283.513	247.88
283.745	238.88
283.976	267.88
284.207	268.88
284.439	262.88
284.67	241.88
284.901	264.88
285.132	253.88
285.364	226.88
285.595	253.88
285.826	233.88
286.057	247.88
286.288	233.88
286.52	254.88
286.751	252.88
286.982	259.88
287.213	249.88
287.444	253.88
287.675	249.88
287.906	276.88
288.138	283.88
288.369	275.88
288.6	279.88
288.831	261.88
289.062	260.88
289.293	266.88
289.524	261.88
289.755	253.88
289.986	284.88
290.217	262.88
290.448	259.88
290.679	279.88
290.91	270.88
291.141	263.88
291.371	258.88
291.602	266.88
291.833	251.88
292.064	244.88
292.295	259.88
292.526	271.88
292.757	256.88
292.987	258.88
293.218	251.88
293.449	262.88
293.68	253.88
293.91	268.88
294.141	247.88
294.372	275.88
294.603	274.88
294.833	259.88
295.064	272.88
295.295	265.88
295.525	273.88
295.756	280.88
295.987	287.88
296.217	311.88
296.448	311.88
296.679	284.88
296.909	276.88
297.14	269.88
297.37	280.88
297.601	278.88
297.831	264.88
298.062	281.88
298.292	277.88
298.523	277.88
298.753	302.88
298.984	279.88
299.214	281.88
299.445	281.88
299.675	286.88
299.905	283.88
300.136	268.88
300.366	288.88
300.597	291.88
300.827	296.88
301.057	293.88
301.288	311.88
301.518	304.88
301.748	302.88
301.979	285.88
302.209	284.88
302.439	298.88
302.669	321.88
302.9	293.88
303.13	291.88
303.36	301.88
303.59	301.88
303.82	315.88
304.051	314.88
304.281	300.88
304.511	288.88
304.741	290.88
304.971	294.88
305.201	301.88
305.431	296.88
305.661	298.88
305.891	286.88
306.121	293.88
306.352	315.88
306.582	317.88
306.812	314.88
307.042	293.88
307.272	307.88
307.502	294.88
307.731	323.88
307.961	315.88
308.191	294.88
308.421	295.88
308.651	298.88
308.881	317.88
309.111	324.88
309.341	326.88
309.571	326.88
309.8	342.88
310.03	341.88
310.26	335.88
310.49	342.88
310.72	341.88
310.949	391.88
311.179	369.88
311.409	353.88
311.639	358.88
311.868	366.88
312.098	354.88
312.328	362.88
312.557	375.88
312.787	394.88
313.017	383.88
313.246	364.88
313.476	336.88
313.706	347.88
313.935	330.88
314.165	369.88
314.394	371.88
314.624	372.88
314.853	373.88
315.083	341.88
315.312	341.88
315.542	333.88
315.771	350.88
316.001	328.88
316.23	334.88
316.46	335.88
316.689	331.88
316.919	349.88
317.148	356.88
317.377	349.88
317.607	355.88
317.836	355.88
318.065	369.88
318.295	353.88
318.524	348.88
318.753	342.88
318.983	356.88
319.212	357.88
319.441	346.88
319.67	378.88
319.9	334.88
320.129	334.88
320.358	347.88
320.587	363.88
320.816	369.88
321.046	381.88
321.275	382.88
321.504	366.88
321.733	359.88
321.962	385.88
322.191	398.88
322.42	410.88
322.649	412.88
322.878	439.88
323.108	433.88
323.337	451.88
323.566	485.88
323.795	510.88
324.024	599.88
324.253	716.88
324.482	1043.88
324.71	1565.88
324.939	2117.88
325.168	1710.88
325.397	931.88
325.626	615.88
325.855	558.88
326.084	488.88
326.313	495.88
326.542	504.88
326.77	544.88
326.999	653.88
327.228	923.88
327.457	1347.88
327.686	1534.88
327.914	1051.88
328.143	703.88
328.372	590.88
328.6	579.88
328.829	561.88
329.058	568.88
329.287	573.88
329.515	524.88
329.744	482.88
329.972	483.88
330.201	483.88
330.43	551.88
330.658	549.88
330.887	598.88
331.115	563.88
331.344	492.88
331.572	469.88
331.801	456.88
332.03	432.88
332.258	436.88
332.486	420.88
332.715	406.88
332.943	415.88
333.172	412.88
333.4	411.88
333.629	429.88
333.857	444.88
334.085	435.88
334.314	433.88
334.542	484.88
334.771	466.88
334.999	421.88
335.227	426.88
335.455	397.88
335.684	395.88
335.912	403.88
336.14	393.88
336.369	393.88
336.597	408.88
336.825	430.88
337.053	399.88
337.281	394.88
337.51	397.88
337.738	399.88
337.966	392.88
338.194	384.88
338.422	409.88
338.65	399.88
338.878	398.88
339.106	380.88
339.334	409.88
339.562	369.88
339.79	374.88
340.018	379.88
340.246	380.88
340.474	405.88
340.702	376.88
340.93	387.88
341.158	385.88
341.386	397.88
341.614	380.88
341.842	396.88
342.07	389.88
342.298	369.88
342.526	373.88
342.754	365.88
342.981	377.88
343.209	374.88
343.437	371.88
343.665	361.88
343.893	376.88
344.12	383.88
344.348	407.88
344.576	392.88
344.804	390.88
345.031	398.88
345.259	407.88
345.487	383.88
345.714	393.88
345.942	371.88
346.17	374.88
346.397	377.88
346.625	376.88
346.853	378.88
347.08	372.88
347.308	366.88
347.535	381.88
347.763	394.88
347.99	383.88
348.218	406.88
348.445	403.88
348.673	392.88
348.9	381.88
349.128	375.88
349.355	364.88
349.583	371.88
349.81	375.88
350.037	362.88
350.265	337.88
350.492	360.88
350.72	363.88
350.947	378.88
351.174	394.88
351.402	380.88
351.629	389.88
351.856	394.88
352.083	402.88
352.311	409.88
352.538	405.88
352.765	418.88
352.992	399.88
353.22	385.88
353.447	376.88
353.674	374.88
353.901	356.88
354.128	349.88
354.355	350.88
354.583	338.88
354.81	342.88
355.037	330.88
355.264	326.88
355.491	348.88
355.718	348.88
355.945	363.88
356.172	338.88
356.399	348.88
356.626	332.88
356.853	342.88
357.08	345.88
357.307	332.88
357.534	334.88
357.761	345.88
357.988	338.88
358.215	344.88
358.441	347.88
358.668	355.88
358.895	341.88
359.122	356.88
359.349	348.88
359.576	378.88
359.802	406.88
360.029	434.88
360.256	444.88
360.483	435.88
360.709	381.88
360.936	376.88
361.163	373.88
361.39	361.88
361.616	395.88
361.843	399.88
362.07	378.88
362.296	377.88
362.523	381.88
362.749	364.88
362.976	369.88
363.203	358.88
363.429	334.88
363.656	365.88
363.882	346.88
364.109	352.88
364.335	353.88
364.562	362.88
364.788	365.88
365.015	347.88
365.241	342.88
365.468	363.88
365.694	364.88
365.92	362.88
366.147	363.88
366.373	359.88
366.599	362.88
366.826	364.88
367.052	366.88
367.278	338.88
367.505	324.88
367.731	342.88
367.957	326.88
368.184	356.88
368.41	364.88
368.636	372.88
368.862	364.88
369.089	365.88
369.315	331.88
369.541	372.88
369.767	349.88
369.993	364.88
370.219	364.88
370.445	341.88
370.672	341.88
370.898	348.88
371.124	324.88
371.35	353.88
371.576	342.88
371.802	354.88
372.028	350.88
372.254	351.88
372.48	349.88
372.706	341.88
372.932	375.88
373.158	350.88
373.384	352.88
373.61	356.88
373.835	362.88
374.061	356.88
374.287	373.88
374.513	365.88
374.739	351.88
374.965	361.88
375.191	341.88
375.416	360.88
375.642	349.88
375.868	360.88
376.094	353.88
376.319	341.88
376.545	355.88
376.771	342.88
376.997	339.88
377.222	324.88
377.448	331.88
377.674	362.88
377.899	334.88
378.125	340.88
378.35	356.88
378.576	351.88
378.802	362.88
379.027	336.88
379.253	343.88
379.478	323.88
379.704	350.88
379.929	356.88
380.155	346.88
380.38	357.88
380.606	329.88
380.831	360.88
381.057	360.88
381.282	346.88
381.507	348.88
381.733	349.88
381.958	374.88
382.184	345.88
382.409	359.88
382.634	353.88
382.86	362.88
383.085	343.88
383.31	371.88
383.535	359.88
383.761	349.88
383.986	372.88
384.211	369.88
384.436	360.88
384.662	367.88
384.887	398.88
385.112	369.88
385.337	379.88
385.562	357.88
385.787	387.88
386.013	389.88
386.238	394.88
386.463	379.88
386.688	375.88
386.913	366.88
387.138	385.88
387.363	362.88
387.588	373.88
387.813	353.88
388.038	388.88
388.263	371.88
388.488	372.88
388.713	363.88
388.938	371.88
389.163	355.88
389.387	375.88
389.612	351.88
389.837	363.88
390.062	364.88
390.287	367.88
390.512	380.88
390.736	371.88
390.961	368.88
391.186	355.88
391.411	379.88
391.636	379.88
391.86	398.88
392.085	391.88
392.31	362.88
392.534	365.88
392.759	377.88
392.984	381.88
393.208	377.88
393.433	365.88
393.658	359.88
393.882	372.88
394.107	375.88
394.331	369.88
394.556	375.88
394.78	390.88
395.005	362.88
395.229	359.88
395.454	391.88
395.678	373.88
395.903	388.88
396.127	405.88
396.352	407.88
396.576	378.88
396.801	361.88
397.025	366.88
397.249	382.88
397.474	386.88
397.698	402.88
397.922	425.88
398.147	451.88
398.371	412.88
398.595	411.88
398.82	405.88
399.044	426.88
399.268	440.88
399.492	435.88
399.717	462.88
399.941	468.88
400.165	517.88
400.389	516.88
400.613	465.88
400.837	434.88
401.062	456.88
401.286	425.88
401.51	430.88
401.734	433.88
401.958	417.88
402.182	418.88
402.406	462.88
402.63	446.88
402.854	452.88
403.078	424.88
403.302	433.88
403.526	437.88
403.75	455.88
403.974	427.88
404.198	431.88
404.422	442.88
404.645	424.88
404.869	442.88
405.093	453.88
405.317	493.88
405.541	503.88
405.765	484.88
405.988	462.88
406.212	467.88
406.436	492.88
406.66	504.88
406.883	490.88
407.107	495.88
407.331	515.88
407.555	563.88
407.778	578.88
408.002	511.88
408.226	497.88
408.449	487.88
408.673	465.88
408.896	486.88
409.12	515.88
409.344	479.88
409.567	463.88
409.791	453.88
410.014	439.88
410.238	408.88
410.461	439.88
410.685	426.88
410.908	450.88
411.132	478.88
411.355	491.88
411.578	463.88
411.802	430.88
412.025	429.88
412.249	422.88
412.472	434.88
412.695	455.88
412.919	467.88
413.142	441.88
413.365	414.88
413.589	425.88
413.812	431.88
414.035	402.88
414.258	414.88
414.482	418.88
414.705	410.88
414.928	382.88
415.151	422.88
415.374	414.88
415.597	392.88
415.821	397.88
416.044	417.88
416.267	411.88
416.49	420.88
416.713	378.88
416.936	403.88
417.159	412.88
417.382	406.88
417.605	395.88
417.828	424.88
418.051	426.88
418.274	424.88
418.497	429.88
418.72	420.88
418.943	402.88
419.166	415.88
419.389	438.88
419.611	434.88
419.834	447.88
420.057	447.88
420.28	430.88
420.503	426.88
420.726	449.88
420.948	436.88
421.171	474.88
421.394	488.88
421.617	449.88
421.839	424.88
422.062	437.88
422.285	416.88
422.507	492.88
422.73	540.88
422.953	518.88
423.175	473.88
423.398	450.88
423.621	452.88
423.843	474.88
424.066	476.88
424.288	466.88
424.511	460.88
424.733	537.88
424.956	579.88
425.178	578.88
425.401	563.88
425.623	566.88
425.846	507.88
426.068	475.88
426.291	466.88
426.513	463.88
426.735	488.88
426.958	499.88
427.18	575.88
427.402	664.88
427.625	742.88
427.847	656.88
428.069	552.88
428.292	515.88
428.514	476.88
428.736	467.88
428.958	449.88
429.181	444.88
429.403	434.88
429.625	442.88
429.847	477.88
430.069	523.88
430.292	527.88
430.514	445.88
430.736	437.88
430.958	418.88
431.18	421.88
431.402	413.88
431.624	413.88
431.846	411.88
432.068	407.88
432.29	410.88
432.512	407.88
432.734	417.88
432.956	414.88
433.178	435.88
433.4	439.88
433.622	424.88
433.844	406.88
434.066	409.88
434.287	399.88
434.509	383.88
434.731	407.88
434.953	426.88
435.175	443.88
435.397	459.88
435.618	473.88
435.84	514.88
436.062	567.88
436.284	607.88
436.505	536.88
436.727	483.88
436.949	431.88
437.17	428.88
437.392	443.88
437.614	445.88
437.835	474.88
438.057	558.88
438.278	639.88
438.5	641.88
438.721	661.88
438.943	643.88
439.165	512.88
439.386	488.88
439.608	477.88
439.829	471.88
440.05	499.88
440.272	538.88
440.493	506.88
440.715	461.88
440.936	449.88
441.158	446.88
441.379	430.88
441.6	453.88
441.822	476.88
442.043	503.88
442.264	580.88
442.486	586.88
442.707	521.88
442.928	480.88
443.149	499.88
443.371	501.88
443.592	573.88
443.813	619.88
444.034	640.88
444.255	554.88
444.476	486.88
444.698	460.88
444.919	463.88
445.14	575.88
445.361	547.88
445.582	501.88
445.803	574.88
446.024	643.88
446.245	637.88
446.466	585.88
446.687	513.88
446.908	481.88
447.129	457.88
447.35	436.88
447.571	455.88
447.792	444.88
448.013	447.88
448.234	446.88
448.455	519.88
448.675	595.88
448.896	657.88
449.117	585.88
449.338	559.88
449.559	631.88
449.779	679.88
450	550.88
450.221	492.88
450.442	438.88
450.662	431.88
450.883	458.88
451.104	476.88
451.324	458.88
451.545	433.88
451.766	407.88
451.986	398.88
452.207	392.88
452.428	392.88
452.648	392.88
452.869	414.88
453.089	399.88
453.31	412.88
453.53	411.88
453.751	401.88
453.971	398.88
454.192	437.88
454.412	421.88
454.633	418.88
454.853	382.88
455.073	415.88
455.294	422.88
455.514	485.88
455.734	450.88
455.955	399.88
456.175	361.88
456.395	371.88
456.616	382.88
456.836	364.88
457.056	358.88
457.276	370.88
457.497	359.88
457.717	369.88
457.937	360.88
458.157	371.88
458.377	379.88
458.598	421.88
458.818	459.88
459.038	545.88
459.258	549.88
459.478	478.88
459.698	421.88
459.918	413.88
460.138	405.88
460.358	408.88
460.578	405.88
460.798	419.88
461.018	385.88
461.238	422.88
461.458	398.88
461.678	437.88
461.898	409.88
462.118	399.88
462.338	412.88
462.558	406.88
462.777	417.88
462.997	442.88
463.217	445.88
463.437	450.88
463.657	445.88
463.876	441.88
464.096	431.88
464.316	434.88
464.536	429.88
464.755	437.88
464.975	471.88
465.195	498.88
465.414	582.88
465.634	488.88
465.854	458.88
466.073	435.88
466.293	403.88
466.512	389.88
466.732	409.88
466.951	390.88
467.171	399.88
467.391	395.88
467.61	420.88
467.829	417.88
468.049	407.88
468.268	425.88
468.488	380.88
468.707	382.88
468.927	391.88
469.146	394.88
469.365	383.88
469.585	372.88
469.804	398.88
470.023	414.88
470.243	422.88
470.462	418.88
470.681	469.88
470.901	443.88
471.12	437.88
471.339	397.88
471.558	419.88
471.777	414.88
471.997	383.88
472.216	389.88
472.435	425.88
472.654	419.88
472.873	395.88
473.092	397.88
473.311	410.88
473.53	402.88
473.749	416.88
473.968	441.88
474.187	534.88
474.406	525.88
474.625	433.88
474.844	431.88
475.063	392.88
475.282	391.88
475.501	404.88
475.72	427.88
475.939	421.88
476.158	414.88
476.377	403.88
476.596	415.88
476.814	441.88
477.033	415.88
477.252	431.88
477.471	449.88
477.69	423.88
477.908	436.88
478.127	459.88
478.346	423.88
478.564	446.88
478.783	451.88
479.002	455.88
479.22	470.88
479.439	459.88
479.658	484.88
479.876	492.88
480.095	488.88
480.313	493.88
480.532	504.88
480.751	494.88
480.969	487.88
481.188	527.88
481.406	565.88
481.624	493.88
481.843	478.88
482.061	477.88
482.28	498.88
482.498	454.88
482.717	476.88
482.935	463.88
483.153	474.88
483.372	469.88
483.59	461.88
483.808	471.88
484.027	477.88
484.245	468.88
484.463	481.88
484.681	493.88
484.9	462.88
485.118	497.88
485.336	472.88
485.554	485.88
485.772	494.88
485.99	471.88
486.209	472.88
486.427	481.88
486.645	510.88
486.863	534.88
487.081	527.88
487.299	524.88
487.517	494.88
487.735	520.88
487.953	484.88
488.171	503.88
488.389	510.88
488.607	501.88
488.825	508.88
489.043	510.88
489.261	497.88
489.479	506.88
489.696	516.88
489.914	507.88
490.132	529.88
490.35	538.88
490.568	534.88
490.786	535.88
491.003	556.88
491.221	567.88
491.439	569.88
491.657	557.88
491.874	581.88
492.092	562.88
492.31	579.88
492.527	587.88
492.745	581.88
492.963	597.88
493.18	589.88
493.398	586.88
493.615	588.88
493.833	585.88
494.05	582.88
494.268	622.88
494.485	602.88
494.703	597.88
494.92	587.88
495.138	615.88
495.355	582.88
495.573	602.88
495.79	618.88
496.008	594.88
496.225	601.88
496.442	585.88
496.66	586.88
496.877	606.88
497.094	589.88
497.312	597.88
497.529	616.88
497.746	613.88
497.963	625.88
498.181	651.88
498.398	648.88
498.615	643.88
498.832	664.88
499.049	667.88
499.267	696.88
499.484	699.88
499.701	704.88
499.918	718.88
500.135	765.88
500.352	800.88
500.569	795.88
500.786	806.88
501.003	781.88
501.22	770.88
501.437	755.88
501.654	743.88
501.871	756.88
