Data from 1983.PennyLincolnUp.Lamp.En5.5.200Scan.071819.P1_HRD10591_16-55-08-967.txt Node
Date: Thu Jul 18 16:55:08 EDT 2019
User: cochatt
Spectrometer: HR+D1059
Trigger mode: 1
Integration Time (sec): 1.000000E-1
Scans to average: 1
Electric dark correction enabled: true
Nonlinearity correction enabled: false
Boxcar width: 0
XAxis mode: Wavelengths
Number of Pixels in Spectrum: 2048
>>>>>Begin Spectral Data<<<<<
223.165	-14.75
223.4	-14.75
223.635	-14.75
223.869	-20.75
224.104	-12.75
224.338	-11.75
224.573	-13.75
224.808	-6.75
225.042	-13.75
225.277	-8.75
225.511	3.25
225.746	-6.75
225.98	1.25
226.215	8.25
226.449	16.25
226.683	28.25
226.918	17.25
227.152	35.25
227.387	52.25
227.621	36.25
227.856	43.25
228.09	42.25
228.324	54.25
228.559	49.25
228.793	74.25
229.027	87.25
229.262	117.25
229.496	115.25
229.73	128.25
229.964	141.25
230.199	134.25
230.433	130.25
230.667	118.25
230.901	115.25
231.136	107.25
231.37	107.25
231.604	110.25
231.838	104.25
232.072	106.25
232.306	116.25
232.541	121.25
232.775	119.25
233.009	108.25
233.243	95.25
233.477	111.25
233.711	111.25
233.945	97.25
234.179	111.25
234.413	127.25
234.647	106.25
234.881	108.25
235.115	117.25
235.349	117.25
235.583	109.25
235.817	126.25
236.051	119.25
236.285	133.25
236.519	127.25
236.753	117.25
236.987	119.25
237.221	150.25
237.455	207.25
237.689	170.25
237.922	141.25
238.156	138.25
238.39	128.25
238.624	109.25
238.858	120.25
239.091	121.25
239.325	107.25
239.559	128.25
239.793	113.25
240.027	131.25
240.26	150.25
240.494	137.25
240.728	135.25
240.961	145.25
241.195	133.25
241.429	136.25
241.662	123.25
241.896	121.25
242.13	132.25
242.363	131.25
242.597	129.25
242.83	143.25
243.064	126.25
243.298	132.25
243.531	137.25
243.765	138.25
243.998	137.25
244.232	155.25
244.465	154.25
244.699	136.25
244.932	127.25
245.166	138.25
245.399	135.25
245.633	138.25
245.866	146.25
246.099	142.25
246.333	147.25
246.566	151.25
246.8	157.25
247.033	149.25
247.266	156.25
247.5	157.25
247.733	158.25
247.966	182.25
248.2	155.25
248.433	172.25
248.666	164.25
248.899	190.25
249.133	185.25
249.366	188.25
249.599	195.25
249.832	174.25
250.066	175.25
250.299	173.25
250.532	180.25
250.765	197.25
250.998	218.25
251.231	221.25
251.465	213.25
251.698	190.25
251.931	189.25
252.164	187.25
252.397	192.25
252.63	179.25
252.863	194.25
253.096	211.25
253.329	215.25
253.562	218.25
253.795	210.25
254.028	208.25
254.261	212.25
254.494	212.25
254.727	235.25
254.96	256.25
255.193	238.25
255.426	228.25
255.659	227.25
255.892	228.25
256.124	240.25
256.357	256.25
256.59	235.25
256.823	216.25
257.056	209.25
257.289	201.25
257.521	192.25
257.754	208.25
257.987	213.25
258.22	204.25
258.452	176.25
258.685	207.25
258.918	199.25
259.151	212.25
259.383	207.25
259.616	217.25
259.849	206.25
260.081	219.25
260.314	243.25
260.547	233.25
260.779	242.25
261.012	227.25
261.244	219.25
261.477	204.25
261.71	201.25
261.942	229.25
262.175	234.25
262.407	221.25
262.64	213.25
262.872	204.25
263.105	208.25
263.337	208.25
263.57	200.25
263.802	213.25
264.035	188.25
264.267	190.25
264.499	198.25
264.732	208.25
264.964	215.25
265.197	210.25
265.429	191.25
265.661	196.25
265.894	215.25
266.126	196.25
266.358	207.25
266.591	202.25
266.823	222.25
267.055	213.25
267.287	218.25
267.52	185.25
267.752	212.25
267.984	216.25
268.216	217.25
268.448	223.25
268.681	197.25
268.913	240.25
269.145	251.25
269.377	263.25
269.609	263.25
269.841	259.25
270.073	278.25
270.306	282.25
270.538	292.25
270.77	287.25
271.002	269.25
271.234	265.25
271.466	264.25
271.698	284.25
271.93	298.25
272.162	310.25
272.394	313.25
272.626	279.25
272.858	271.25
273.09	252.25
273.322	243.25
273.553	242.25
273.785	237.25
274.017	251.25
274.249	257.25
274.481	237.25
274.713	251.25
274.945	255.25
275.176	253.25
275.408	260.25
275.64	256.25
275.872	244.25
276.104	251.25
276.335	271.25
276.567	257.25
276.799	266.25
277.031	272.25
277.262	284.25
277.494	296.25
277.726	282.25
277.957	286.25
278.189	280.25
278.421	263.25
278.652	250.25
278.884	244.25
279.115	243.25
279.347	263.25
279.579	249.25
279.81	254.25
280.042	239.25
280.273	262.25
280.505	232.25
280.736	242.25
280.968	261.25
281.199	256.25
281.431	254.25
281.662	266.25
281.894	240.25
282.125	247.25
282.356	265.25
282.588	300.25
282.819	290.25
283.051	263.25
283.282	251.25
283.513	259.25
283.745	249.25
283.976	281.25
284.207	258.25
284.439	260.25
284.67	265.25
284.901	261.25
285.132	267.25
285.364	257.25
285.595	264.25
285.826	264.25
286.057	262.25
286.288	257.25
286.52	282.25
286.751	249.25
286.982	268.25
287.213	260.25
287.444	261.25
287.675	278.25
287.906	268.25
288.138	301.25
288.369	296.25
288.6	288.25
288.831	272.25
289.062	273.25
289.293	273.25
289.524	271.25
289.755	262.25
289.986	256.25
290.217	273.25
290.448	275.25
290.679	272.25
290.91	289.25
291.141	263.25
291.371	273.25
291.602	255.25
291.833	266.25
292.064	270.25
292.295	269.25
292.526	287.25
292.757	259.25
292.987	261.25
293.218	257.25
293.449	276.25
293.68	271.25
293.91	268.25
294.141	294.25
294.372	292.25
294.603	260.25
294.833	271.25
295.064	261.25
295.295	278.25
295.525	272.25
295.756	281.25
295.987	288.25
296.217	312.25
296.448	309.25
296.679	302.25
296.909	269.25
297.14	279.25
297.37	292.25
297.601	265.25
297.831	270.25
298.062	269.25
298.292	272.25
298.523	286.25
298.753	285.25
298.984	262.25
299.214	273.25
299.445	279.25
299.675	292.25
299.905	309.25
300.136	266.25
300.366	286.25
300.597	301.25
300.827	307.25
301.057	309.25
301.288	312.25
301.518	301.25
301.748	315.25
301.979	310.25
302.209	332.25
302.439	288.25
302.669	287.25
302.9	304.25
303.13	333.25
303.36	323.25
303.59	309.25
303.82	327.25
304.051	330.25
304.281	328.25
304.511	301.25
304.741	311.25
304.971	299.25
305.201	301.25
305.431	305.25
305.661	291.25
305.891	292.25
306.121	308.25
306.352	323.25
306.582	314.25
306.812	300.25
307.042	305.25
307.272	331.25
307.502	310.25
307.731	301.25
307.961	314.25
308.191	311.25
308.421	306.25
308.651	297.25
308.881	322.25
309.111	315.25
309.341	319.25
309.571	345.25
309.8	354.25
310.03	348.25
310.26	353.25
310.49	373.25
310.72	363.25
310.949	348.25
311.179	378.25
311.409	371.25
311.639	329.25
311.868	350.25
312.098	349.25
312.328	364.25
312.557	390.25
312.787	391.25
313.017	380.25
313.246	363.25
313.476	337.25
313.706	356.25
313.935	353.25
314.165	354.25
314.394	383.25
314.624	354.25
314.853	368.25
315.083	351.25
315.312	342.25
315.542	342.25
315.771	341.25
316.001	342.25
316.23	350.25
316.46	355.25
316.689	346.25
316.919	341.25
317.148	371.25
317.377	381.25
317.607	362.25
317.836	382.25
318.065	350.25
318.295	353.25
318.524	347.25
318.753	343.25
318.983	330.25
319.212	359.25
319.441	376.25
319.67	376.25
319.9	371.25
320.129	356.25
320.358	358.25
320.587	381.25
320.816	381.25
321.046	362.25
321.275	382.25
321.504	362.25
321.733	385.25
321.962	400.25
322.191	365.25
322.42	385.25
322.649	431.25
322.878	431.25
323.108	456.25
323.337	447.25
323.566	455.25
323.795	517.25
324.024	560.25
324.253	716.25
324.482	1011.25
324.71	1535.25
324.939	2007.25
325.168	1679.25
325.397	872.25
325.626	631.25
325.855	530.25
326.084	480.25
326.313	480.25
326.542	490.25
326.77	565.25
326.999	653.25
327.228	910.25
327.457	1342.25
327.686	1519.25
327.914	1025.25
328.143	665.25
328.372	615.25
328.6	577.25
328.829	549.25
329.058	579.25
329.287	582.25
329.515	528.25
329.744	513.25
329.972	517.25
330.201	539.25
330.43	593.25
330.658	609.25
330.887	620.25
331.115	592.25
331.344	512.25
331.572	477.25
331.801	461.25
332.03	477.25
332.258	449.25
332.486	426.25
332.715	404.25
332.943	420.25
333.172	430.25
333.4	446.25
333.629	454.25
333.857	478.25
334.085	472.25
334.314	512.25
334.542	551.25
334.771	579.25
334.999	512.25
335.227	443.25
335.455	415.25
335.684	430.25
335.912	414.25
336.14	414.25
336.369	425.25
336.597	437.25
336.825	414.25
337.053	418.25
337.281	391.25
337.51	395.25
337.738	406.25
337.966	392.25
338.194	405.25
338.422	403.25
338.65	398.25
338.878	399.25
339.106	388.25
339.334	381.25
339.562	400.25
339.79	383.25
340.018	390.25
340.246	407.25
340.474	393.25
340.702	373.25
340.93	395.25
341.158	391.25
341.386	381.25
341.614	387.25
341.842	368.25
342.07	392.25
342.298	389.25
342.526	371.25
342.754	384.25
342.981	378.25
343.209	379.25
343.437	402.25
343.665	391.25
343.893	382.25
344.12	400.25
344.348	379.25
344.576	386.25
344.804	410.25
345.031	414.25
345.259	411.25
345.487	398.25
345.714	393.25
345.942	392.25
346.17	385.25
346.397	372.25
346.625	394.25
346.853	384.25
347.08	393.25
347.308	395.25
347.535	407.25
347.763	398.25
347.99	396.25
348.218	379.25
348.445	364.25
348.673	389.25
348.9	375.25
349.128	387.25
349.355	398.25
349.583	361.25
349.81	379.25
350.037	368.25
350.265	387.25
350.492	374.25
350.72	374.25
350.947	392.25
351.174	401.25
351.402	400.25
351.629	383.25
351.856	377.25
352.083	392.25
352.311	388.25
352.538	410.25
352.765	411.25
352.992	392.25
353.22	382.25
353.447	394.25
353.674	382.25
353.901	374.25
354.128	364.25
354.355	340.25
354.583	355.25
354.81	348.25
355.037	343.25
355.264	361.25
355.491	349.25
355.718	341.25
355.945	374.25
356.172	345.25
356.399	353.25
356.626	345.25
356.853	369.25
357.08	350.25
357.307	374.25
357.534	337.25
357.761	364.25
357.988	348.25
358.215	365.25
358.441	339.25
358.668	353.25
358.895	369.25
359.122	364.25
359.349	384.25
359.576	364.25
359.802	415.25
360.029	429.25
360.256	450.25
360.483	429.25
360.709	389.25
360.936	386.25
361.163	367.25
361.39	393.25
361.616	392.25
361.843	384.25
362.07	376.25
362.296	392.25
362.523	390.25
362.749	377.25
362.976	360.25
363.203	383.25
363.429	363.25
363.656	364.25
363.882	366.25
364.109	361.25
364.335	358.25
364.562	346.25
364.788	356.25
365.015	379.25
365.241	363.25
365.468	376.25
365.694	364.25
365.92	377.25
366.147	355.25
366.373	367.25
366.599	356.25
366.826	370.25
367.052	353.25
367.278	364.25
367.505	355.25
367.731	373.25
367.957	357.25
368.184	362.25
368.41	379.25
368.636	376.25
368.862	368.25
369.089	383.25
369.315	357.25
369.541	363.25
369.767	350.25
369.993	352.25
370.219	352.25
370.445	362.25
370.672	367.25
370.898	347.25
371.124	342.25
371.35	343.25
371.576	364.25
371.802	347.25
372.028	355.25
372.254	360.25
372.48	344.25
372.706	347.25
372.932	350.25
373.158	346.25
373.384	368.25
373.61	353.25
373.835	347.25
374.061	361.25
374.287	378.25
374.513	352.25
374.739	367.25
374.965	338.25
375.191	360.25
375.416	369.25
375.642	360.25
375.868	357.25
376.094	363.25
376.319	357.25
376.545	344.25
376.771	350.25
376.997	346.25
377.222	352.25
377.448	347.25
377.674	343.25
377.899	339.25
378.125	349.25
378.35	366.25
378.576	353.25
378.802	343.25
379.027	363.25
379.253	371.25
379.478	357.25
379.704	342.25
379.929	347.25
380.155	329.25
380.38	339.25
380.606	358.25
380.831	351.25
381.057	345.25
381.282	340.25
381.507	354.25
381.733	360.25
381.958	333.25
382.184	348.25
382.409	344.25
382.634	362.25
382.86	337.25
383.085	344.25
383.31	345.25
383.535	357.25
383.761	351.25
383.986	356.25
384.211	351.25
384.436	379.25
384.662	362.25
384.887	355.25
385.112	374.25
385.337	375.25
385.562	372.25
385.787	376.25
386.013	400.25
386.238	380.25
386.463	372.25
386.688	393.25
386.913	369.25
387.138	362.25
387.363	367.25
387.588	347.25
387.813	381.25
388.038	377.25
388.263	389.25
388.488	390.25
388.713	375.25
388.938	362.25
389.163	385.25
389.387	395.25
389.612	367.25
389.837	379.25
390.062	371.25
390.287	391.25
390.512	363.25
390.736	395.25
390.961	363.25
391.186	371.25
391.411	379.25
391.636	400.25
391.86	393.25
392.085	403.25
392.31	371.25
392.534	372.25
392.759	389.25
392.984	361.25
393.208	351.25
393.433	376.25
393.658	361.25
393.882	403.25
394.107	360.25
394.331	361.25
394.556	396.25
394.78	379.25
395.005	376.25
395.229	372.25
395.454	378.25
395.678	394.25
395.903	385.25
396.127	398.25
396.352	415.25
396.576	381.25
396.801	383.25
397.025	385.25
397.249	398.25
397.474	383.25
397.698	383.25
397.922	392.25
398.147	399.25
398.371	425.25
398.595	409.25
398.82	415.25
399.044	413.25
399.268	440.25
399.492	451.25
399.717	472.25
399.941	494.25
400.165	507.25
400.389	512.25
400.613	471.25
400.837	435.25
401.062	430.25
401.286	443.25
401.51	421.25
401.734	417.25
401.958	436.25
402.182	430.25
402.406	427.25
402.63	423.25
402.854	444.25
403.078	435.25
403.302	451.25
403.526	453.25
403.75	438.25
403.974	449.25
404.198	426.25
404.422	434.25
404.645	438.25
404.869	474.25
405.093	465.25
405.317	523.25
405.541	538.25
405.765	500.25
405.988	478.25
406.212	496.25
406.436	511.25
406.66	510.25
406.883	471.25
407.107	501.25
407.331	506.25
407.555	579.25
407.778	569.25
408.002	518.25
408.226	481.25
408.449	502.25
408.673	487.25
408.896	492.25
409.12	516.25
409.344	525.25
409.567	467.25
409.791	465.25
410.014	429.25
410.238	425.25
410.461	452.25
410.685	440.25
410.908	469.25
411.132	488.25
411.355	509.25
411.578	479.25
411.802	448.25
412.025	457.25
412.249	451.25
412.472	482.25
412.695	504.25
412.919	524.25
413.142	468.25
413.365	456.25
413.589	445.25
413.812	431.25
414.035	439.25
414.258	416.25
414.482	425.25
414.705	415.25
414.928	419.25
415.151	405.25
415.374	416.25
415.597	422.25
415.821	404.25
416.044	421.25
416.267	411.25
416.49	408.25
416.713	411.25
416.936	414.25
417.159	412.25
417.382	453.25
417.605	416.25
417.828	428.25
418.051	447.25
418.274	422.25
418.497	412.25
418.72	404.25
418.943	422.25
419.166	428.25
419.389	430.25
419.611	443.25
419.834	439.25
420.057	440.25
420.28	437.25
420.503	450.25
420.726	437.25
420.948	460.25
421.171	481.25
421.394	521.25
421.617	489.25
421.839	453.25
422.062	452.25
422.285	443.25
422.507	490.25
422.73	544.25
422.953	528.25
423.175	490.25
423.398	445.25
423.621	455.25
423.843	468.25
424.066	489.25
424.288	472.25
424.511	477.25
424.733	529.25
424.956	600.25
425.178	563.25
425.401	555.25
425.623	576.25
425.846	491.25
426.068	479.25
426.291	465.25
426.513	452.25
426.735	478.25
426.958	521.25
427.18	590.25
427.402	687.25
427.625	760.25
427.847	667.25
428.069	571.25
428.292	524.25
428.514	464.25
428.736	433.25
428.958	433.25
429.181	461.25
429.403	449.25
429.625	456.25
429.847	457.25
430.069	538.25
430.292	529.25
430.514	455.25
430.736	436.25
430.958	421.25
431.18	418.25
431.402	419.25
431.624	404.25
431.846	401.25
432.068	416.25
432.29	413.25
432.512	420.25
432.734	411.25
432.956	415.25
433.178	434.25
433.4	409.25
433.622	420.25
433.844	399.25
434.066	413.25
434.287	389.25
434.509	406.25
434.731	420.25
434.953	413.25
435.175	444.25
435.397	448.25
435.618	484.25
435.84	495.25
436.062	567.25
436.284	603.25
436.505	520.25
436.727	483.25
436.949	462.25
437.17	424.25
437.392	429.25
437.614	432.25
437.835	499.25
438.057	573.25
438.278	645.25
438.5	613.25
438.721	653.25
438.943	641.25
439.165	513.25
439.386	480.25
439.608	463.25
439.829	478.25
440.05	508.25
440.272	553.25
440.493	514.25
440.715	481.25
440.936	452.25
441.158	447.25
441.379	428.25
441.6	458.25
441.822	462.25
442.043	502.25
442.264	559.25
442.486	601.25
442.707	505.25
442.928	476.25
443.149	499.25
443.371	521.25
443.592	530.25
443.813	607.25
444.034	653.25
444.255	558.25
444.476	471.25
444.698	475.25
444.919	459.25
445.14	546.25
445.361	506.25
445.582	543.25
445.803	550.25
446.024	633.25
446.245	654.25
446.466	599.25
446.687	517.25
446.908	484.25
447.129	442.25
447.35	417.25
447.571	439.25
447.792	448.25
448.013	429.25
448.234	457.25
448.455	499.25
448.675	599.25
448.896	633.25
449.117	577.25
449.338	546.25
449.559	623.25
449.779	682.25
450	553.25
450.221	500.25
450.442	454.25
450.662	445.25
450.883	451.25
451.104	460.25
451.324	455.25
451.545	429.25
451.766	406.25
451.986	393.25
452.207	381.25
452.428	417.25
452.648	410.25
452.869	413.25
453.089	395.25
453.31	422.25
453.53	413.25
453.751	387.25
453.971	412.25
454.192	416.25
454.412	388.25
454.633	389.25
454.853	391.25
455.073	402.25
455.294	439.25
455.514	473.25
455.734	474.25
455.955	379.25
456.175	378.25
456.395	371.25
456.616	359.25
456.836	379.25
457.056	375.25
457.276	356.25
457.497	361.25
457.717	366.25
457.937	372.25
458.157	383.25
458.377	395.25
458.598	411.25
458.818	467.25
459.038	545.25
459.258	524.25
459.478	447.25
459.698	408.25
459.918	412.25
460.138	399.25
460.358	415.25
460.578	401.25
460.798	427.25
461.018	405.25
461.238	410.25
461.458	420.25
461.678	399.25
461.898	404.25
462.118	409.25
462.338	405.25
462.558	421.25
462.777	408.25
462.997	427.25
463.217	443.25
463.437	438.25
463.657	425.25
463.876	457.25
464.096	414.25
464.316	426.25
464.536	460.25
464.755	441.25
464.975	460.25
465.195	500.25
465.414	569.25
465.634	509.25
465.854	462.25
466.073	426.25
466.293	414.25
466.512	407.25
466.732	395.25
466.951	406.25
467.171	414.25
467.391	395.25
467.61	421.25
467.829	419.25
468.049	413.25
468.268	429.25
468.488	381.25
468.707	400.25
468.927	383.25
469.146	393.25
469.365	404.25
469.585	387.25
469.804	419.25
470.023	399.25
470.243	415.25
470.462	425.25
470.681	432.25
470.901	421.25
471.12	407.25
471.339	417.25
471.558	402.25
471.777	398.25
471.997	421.25
472.216	438.25
472.435	517.25
472.654	461.25
472.873	436.25
473.092	407.25
473.311	425.25
473.53	415.25
473.749	435.25
473.968	458.25
474.187	519.25
474.406	563.25
474.625	432.25
474.844	415.25
475.063	412.25
475.282	402.25
475.501	405.25
475.72	413.25
475.939	405.25
476.158	418.25
476.377	426.25
476.596	406.25
476.814	415.25
477.033	430.25
477.252	440.25
477.471	431.25
477.69	442.25
477.908	437.25
478.127	431.25
478.346	432.25
478.564	428.25
478.783	448.25
479.002	453.25
479.22	479.25
479.439	481.25
479.658	495.25
479.876	512.25
480.095	509.25
480.313	515.25
480.532	511.25
480.751	513.25
480.969	512.25
481.188	613.25
481.406	693.25
481.624	554.25
481.843	522.25
482.061	512.25
482.28	516.25
482.498	487.25
482.717	482.25
482.935	463.25
483.153	481.25
483.372	487.25
483.59	480.25
483.808	476.25
484.027	465.25
484.245	465.25
484.463	474.25
484.681	482.25
484.9	477.25
485.118	483.25
485.336	473.25
485.554	493.25
485.772	498.25
485.99	505.25
486.209	503.25
486.427	504.25
486.645	495.25
486.863	528.25
487.081	513.25
487.299	494.25
487.517	516.25
487.735	539.25
487.953	499.25
488.171	528.25
488.389	512.25
488.607	520.25
488.825	520.25
489.043	535.25
489.261	517.25
489.479	516.25
489.696	516.25
489.914	538.25
490.132	527.25
490.35	526.25
490.568	564.25
490.786	543.25
491.003	579.25
491.221	579.25
491.439	572.25
491.657	599.25
491.874	601.25
492.092	602.25
492.31	594.25
492.527	600.25
492.745	618.25
492.963	635.25
493.18	643.25
493.398	619.25
493.615	637.25
493.833	639.25
494.05	644.25
494.268	619.25
494.485	606.25
494.703	612.25
494.92	623.25
495.138	613.25
495.355	616.25
495.573	621.25
495.79	615.25
496.008	616.25
496.225	621.25
496.442	621.25
496.66	629.25
496.877	615.25
497.094	604.25
497.312	622.25
497.529	629.25
497.746	603.25
497.963	605.25
498.181	660.25
498.398	654.25
498.615	657.25
498.832	685.25
499.049	662.25
499.267	681.25
499.484	711.25
499.701	713.25
499.918	729.25
500.135	768.25
500.352	768.25
500.569	797.25
500.786	783.25
501.003	784.25
501.22	795.25
501.437	748.25
501.654	733.25
501.871	712.25
