Data from 1983.PennyLincolnUp.Lamp.En5.5.200Scan.071819.P1_HRD10591_16-53-30-967.txt Node
Date: Thu Jul 18 16:53:30 EDT 2019
User: cochatt
Spectrometer: HR+D1059
Trigger mode: 1
Integration Time (sec): 1.000000E-1
Scans to average: 1
Electric dark correction enabled: true
Nonlinearity correction enabled: false
Boxcar width: 0
XAxis mode: Wavelengths
Number of Pixels in Spectrum: 2048
>>>>>Begin Spectral Data<<<<<
223.165	-10.38
223.4	-10.38
223.635	-10.38
223.869	-2.38
224.104	-16.38
224.338	2.62
224.573	-10.38
224.808	-4.38
225.042	-11.38
225.277	-15.38
225.511	-11.38
225.746	1.62
225.98	-7.38
226.215	4.62
226.449	-1.38
226.683	31.62
226.918	29.62
227.152	20.62
227.387	30.62
227.621	35.62
227.856	41.62
228.09	39.62
228.324	42.62
228.559	68.62
228.793	62.62
229.027	95.62
229.262	92.62
229.496	96.62
229.73	113.62
229.964	139.62
230.199	115.62
230.433	109.62
230.667	120.62
230.901	124.62
231.136	116.62
231.37	98.62
231.604	97.62
231.838	102.62
232.072	101.62
232.306	107.62
232.541	105.62
232.775	113.62
233.009	100.62
233.243	106.62
233.477	105.62
233.711	116.62
233.945	107.62
234.179	106.62
234.413	99.62
234.647	115.62
234.881	116.62
235.115	122.62
235.349	120.62
235.583	103.62
235.817	116.62
236.051	115.62
236.285	124.62
236.519	123.62
236.753	123.62
236.987	148.62
237.221	177.62
237.455	210.62
237.689	168.62
237.922	127.62
238.156	116.62
238.39	136.62
238.624	121.62
238.858	117.62
239.091	121.62
239.325	131.62
239.559	109.62
239.793	124.62
240.027	139.62
240.26	121.62
240.494	155.62
240.728	148.62
240.961	134.62
241.195	140.62
241.429	135.62
241.662	113.62
241.896	136.62
242.13	127.62
242.363	115.62
242.597	136.62
242.83	143.62
243.064	124.62
243.298	131.62
243.531	131.62
243.765	132.62
243.998	120.62
244.232	143.62
244.465	125.62
244.699	126.62
244.932	125.62
245.166	131.62
245.399	137.62
245.633	128.62
245.866	125.62
246.099	124.62
246.333	124.62
246.566	137.62
246.8	143.62
247.033	130.62
247.266	146.62
247.5	137.62
247.733	159.62
247.966	150.62
248.2	146.62
248.433	142.62
248.666	168.62
248.899	172.62
249.133	172.62
249.366	205.62
249.599	175.62
249.832	159.62
250.066	180.62
250.299	155.62
250.532	185.62
250.765	200.62
250.998	194.62
251.231	196.62
251.465	186.62
251.698	179.62
251.931	170.62
252.164	175.62
252.397	183.62
252.63	184.62
252.863	197.62
253.096	198.62
253.329	199.62
253.562	191.62
253.795	213.62
254.028	197.62
254.261	192.62
254.494	229.62
254.727	224.62
254.96	265.62
255.193	252.62
255.426	246.62
255.659	212.62
255.892	195.62
256.124	197.62
256.357	205.62
256.59	183.62
256.823	200.62
257.056	189.62
257.289	195.62
257.521	202.62
257.754	195.62
257.987	188.62
258.22	171.62
258.452	181.62
258.685	186.62
258.918	190.62
259.151	204.62
259.383	197.62
259.616	211.62
259.849	211.62
260.081	210.62
260.314	230.62
260.547	239.62
260.779	208.62
261.012	201.62
261.244	200.62
261.477	205.62
261.71	213.62
261.942	219.62
262.175	214.62
262.407	219.62
262.64	210.62
262.872	196.62
263.105	195.62
263.337	191.62
263.57	182.62
263.802	195.62
264.035	191.62
264.267	198.62
264.499	186.62
264.732	191.62
264.964	184.62
265.197	195.62
265.429	179.62
265.661	184.62
265.894	193.62
266.126	219.62
266.358	191.62
266.591	199.62
266.823	211.62
267.055	205.62
267.287	204.62
267.52	189.62
267.752	210.62
267.984	197.62
268.216	198.62
268.448	216.62
268.681	229.62
268.913	212.62
269.145	233.62
269.377	242.62
269.609	245.62
269.841	241.62
270.073	260.62
270.306	273.62
270.538	284.62
270.77	268.62
271.002	289.62
271.234	273.62
271.466	269.62
271.698	289.62
271.93	268.62
272.162	290.62
272.394	284.62
272.626	284.62
272.858	260.62
273.09	243.62
273.322	247.62
273.553	239.62
273.785	256.62
274.017	233.62
274.249	245.62
274.481	230.62
274.713	233.62
274.945	254.62
275.176	241.62
275.408	241.62
275.64	249.62
275.872	233.62
276.104	252.62
276.335	229.62
276.567	245.62
276.799	266.62
277.031	278.62
277.262	279.62
277.494	281.62
277.726	256.62
277.957	260.62
278.189	236.62
278.421	251.62
278.652	243.62
278.884	238.62
279.115	233.62
279.347	239.62
279.579	228.62
279.81	235.62
280.042	235.62
280.273	263.62
280.505	243.62
280.736	228.62
280.968	233.62
281.199	231.62
281.431	233.62
281.662	241.62
281.894	244.62
282.125	251.62
282.356	261.62
282.588	269.62
282.819	264.62
283.051	242.62
283.282	251.62
283.513	254.62
283.745	239.62
283.976	257.62
284.207	262.62
284.439	258.62
284.67	245.62
284.901	237.62
285.132	258.62
285.364	253.62
285.595	239.62
285.826	231.62
286.057	239.62
286.288	257.62
286.52	246.62
286.751	245.62
286.982	257.62
287.213	246.62
287.444	270.62
287.675	251.62
287.906	277.62
288.138	272.62
288.369	264.62
288.6	269.62
288.831	261.62
289.062	260.62
289.293	248.62
289.524	241.62
289.755	260.62
289.986	274.62
290.217	243.62
290.448	248.62
290.679	264.62
290.91	260.62
291.141	253.62
291.371	255.62
291.602	259.62
291.833	252.62
292.064	253.62
292.295	238.62
292.526	266.62
292.757	259.62
292.987	260.62
293.218	260.62
293.449	257.62
293.68	255.62
293.91	251.62
294.141	258.62
294.372	259.62
294.603	243.62
294.833	264.62
295.064	240.62
295.295	243.62
295.525	273.62
295.756	268.62
295.987	247.62
296.217	279.62
296.448	289.62
296.679	293.62
296.909	280.62
297.14	277.62
297.37	266.62
297.601	268.62
297.831	263.62
298.062	281.62
298.292	287.62
298.523	280.62
298.753	249.62
298.984	282.62
299.214	295.62
299.445	282.62
299.675	282.62
299.905	305.62
300.136	278.62
300.366	272.62
300.597	271.62
300.827	297.62
301.057	275.62
301.288	294.62
301.518	282.62
301.748	277.62
301.979	283.62
302.209	289.62
302.439	305.62
302.669	303.62
302.9	308.62
303.13	274.62
303.36	297.62
303.59	305.62
303.82	305.62
304.051	295.62
304.281	295.62
304.511	292.62
304.741	287.62
304.971	298.62
305.201	287.62
305.431	279.62
305.661	294.62
305.891	290.62
306.121	293.62
306.352	323.62
306.582	297.62
306.812	278.62
307.042	283.62
307.272	276.62
307.502	297.62
307.731	290.62
307.961	292.62
308.191	292.62
308.421	307.62
308.651	299.62
308.881	307.62
309.111	309.62
309.341	304.62
309.571	297.62
309.8	332.62
310.03	330.62
310.26	340.62
310.49	337.62
310.72	338.62
310.949	348.62
311.179	349.62
311.409	344.62
311.639	324.62
311.868	333.62
312.098	351.62
312.328	336.62
312.557	363.62
312.787	357.62
313.017	383.62
313.246	341.62
313.476	345.62
313.706	340.62
313.935	349.62
314.165	364.62
314.394	362.62
314.624	355.62
314.853	351.62
315.083	353.62
315.312	311.62
315.542	335.62
315.771	323.62
316.001	333.62
316.23	312.62
316.46	324.62
316.689	336.62
316.919	335.62
317.148	364.62
317.377	349.62
317.607	350.62
317.836	343.62
318.065	351.62
318.295	348.62
318.524	343.62
318.753	325.62
318.983	348.62
319.212	318.62
319.441	329.62
319.67	368.62
319.9	343.62
320.129	339.62
320.358	357.62
320.587	328.62
320.816	356.62
321.046	376.62
321.275	365.62
321.504	357.62
321.733	373.62
321.962	367.62
322.191	387.62
322.42	394.62
322.649	391.62
322.878	423.62
323.108	434.62
323.337	446.62
323.566	473.62
323.795	490.62
324.024	526.62
324.253	679.62
324.482	938.62
324.71	1426.62
324.939	1858.62
325.168	1559.62
325.397	863.62
325.626	604.62
325.855	505.62
326.084	449.62
326.313	461.62
326.542	463.62
326.77	508.62
326.999	589.62
327.228	808.62
327.457	1237.62
327.686	1395.62
327.914	939.62
328.143	639.62
328.372	575.62
328.6	525.62
328.829	491.62
329.058	523.62
329.287	529.62
329.515	483.62
329.744	447.62
329.972	439.62
330.201	426.62
330.43	480.62
330.658	517.62
330.887	560.62
331.115	520.62
331.344	461.62
331.572	429.62
331.801	438.62
332.03	451.62
332.258	427.62
332.486	395.62
332.715	396.62
332.943	403.62
333.172	395.62
333.4	398.62
333.629	394.62
333.857	407.62
334.085	416.62
334.314	402.62
334.542	440.62
334.771	423.62
334.999	411.62
335.227	416.62
335.455	404.62
335.684	398.62
335.912	377.62
336.14	395.62
336.369	406.62
336.597	386.62
336.825	403.62
337.053	380.62
337.281	381.62
337.51	387.62
337.738	387.62
337.966	394.62
338.194	377.62
338.422	395.62
338.65	377.62
338.878	396.62
339.106	375.62
339.334	392.62
339.562	377.62
339.79	364.62
340.018	392.62
340.246	375.62
340.474	385.62
340.702	396.62
340.93	373.62
341.158	351.62
341.386	361.62
341.614	382.62
341.842	360.62
342.07	356.62
342.298	347.62
342.526	373.62
342.754	362.62
342.981	372.62
343.209	364.62
343.437	393.62
343.665	391.62
343.893	371.62
344.12	375.62
344.348	374.62
344.576	393.62
344.804	376.62
345.031	366.62
345.259	399.62
345.487	374.62
345.714	364.62
345.942	378.62
346.17	378.62
346.397	360.62
346.625	364.62
346.853	368.62
347.08	356.62
347.308	364.62
347.535	383.62
347.763	389.62
347.99	381.62
348.218	371.62
348.445	385.62
348.673	375.62
348.9	371.62
349.128	376.62
349.355	359.62
349.583	354.62
349.81	362.62
350.037	338.62
350.265	355.62
350.492	367.62
350.72	353.62
350.947	351.62
351.174	362.62
351.402	368.62
351.629	372.62
351.856	372.62
352.083	386.62
352.311	383.62
352.538	398.62
352.765	392.62
352.992	371.62
353.22	361.62
353.447	356.62
353.674	357.62
353.901	352.62
354.128	345.62
354.355	343.62
354.583	316.62
354.81	349.62
355.037	327.62
355.264	348.62
355.491	339.62
355.718	320.62
355.945	335.62
356.172	359.62
356.399	339.62
356.626	340.62
356.853	338.62
357.08	356.62
357.307	364.62
357.534	348.62
357.761	349.62
357.988	337.62
358.215	347.62
358.441	354.62
358.668	344.62
358.895	337.62
359.122	360.62
359.349	328.62
359.576	363.62
359.802	396.62
360.029	405.62
360.256	409.62
360.483	402.62
360.709	364.62
360.936	350.62
361.163	380.62
361.39	377.62
361.616	367.62
361.843	372.62
362.07	368.62
362.296	371.62
362.523	365.62
362.749	363.62
362.976	370.62
363.203	349.62
363.429	349.62
363.656	353.62
363.882	361.62
364.109	334.62
364.335	335.62
364.562	353.62
364.788	340.62
365.015	345.62
365.241	367.62
365.468	352.62
365.694	368.62
365.92	362.62
366.147	347.62
366.373	344.62
366.599	360.62
366.826	360.62
367.052	335.62
367.278	347.62
367.505	340.62
367.731	347.62
367.957	328.62
368.184	349.62
368.41	335.62
368.636	367.62
368.862	368.62
369.089	360.62
369.315	362.62
369.541	345.62
369.767	333.62
369.993	349.62
370.219	340.62
370.445	356.62
370.672	340.62
370.898	342.62
371.124	335.62
371.35	354.62
371.576	346.62
371.802	338.62
372.028	330.62
372.254	332.62
372.48	352.62
372.706	339.62
372.932	324.62
373.158	351.62
373.384	357.62
373.61	336.62
373.835	330.62
374.061	337.62
374.287	347.62
374.513	352.62
374.739	353.62
374.965	339.62
375.191	352.62
375.416	343.62
375.642	328.62
375.868	340.62
376.094	321.62
376.319	323.62
376.545	336.62
376.771	345.62
376.997	343.62
377.222	332.62
377.448	344.62
377.674	328.62
377.899	326.62
378.125	342.62
378.35	364.62
378.576	339.62
378.802	328.62
379.027	337.62
379.253	332.62
379.478	351.62
379.704	328.62
379.929	337.62
380.155	326.62
380.38	336.62
380.606	344.62
380.831	345.62
381.057	342.62
381.282	313.62
381.507	347.62
381.733	348.62
381.958	323.62
382.184	350.62
382.409	357.62
382.634	345.62
382.86	349.62
383.085	354.62
383.31	354.62
383.535	355.62
383.761	349.62
383.986	351.62
384.211	373.62
384.436	355.62
384.662	355.62
384.887	359.62
385.112	353.62
385.337	367.62
385.562	357.62
385.787	363.62
386.013	381.62
386.238	393.62
386.463	398.62
386.688	392.62
386.913	367.62
387.138	347.62
387.363	373.62
387.588	367.62
387.813	367.62
388.038	373.62
388.263	360.62
388.488	367.62
388.713	356.62
388.938	348.62
389.163	373.62
389.387	369.62
389.612	373.62
389.837	357.62
390.062	356.62
390.287	373.62
390.512	365.62
390.736	354.62
390.961	371.62
391.186	360.62
391.411	353.62
391.636	355.62
391.86	368.62
392.085	377.62
392.31	379.62
392.534	393.62
392.759	378.62
392.984	370.62
393.208	363.62
393.433	375.62
393.658	361.62
393.882	363.62
394.107	380.62
394.331	360.62
394.556	352.62
394.78	375.62
395.005	387.62
395.229	363.62
395.454	362.62
395.678	381.62
395.903	389.62
396.127	394.62
396.352	397.62
396.576	384.62
396.801	375.62
397.025	374.62
397.249	391.62
397.474	384.62
397.698	391.62
397.922	392.62
398.147	395.62
398.371	406.62
398.595	394.62
398.82	429.62
399.044	425.62
399.268	419.62
399.492	431.62
399.717	476.62
399.941	472.62
400.165	482.62
400.389	511.62
400.613	469.62
400.837	433.62
401.062	408.62
401.286	407.62
401.51	427.62
401.734	411.62
401.958	448.62
402.182	421.62
402.406	438.62
402.63	410.62
402.854	426.62
403.078	420.62
403.302	416.62
403.526	408.62
403.75	420.62
403.974	434.62
404.198	437.62
404.422	432.62
404.645	443.62
404.869	452.62
405.093	451.62
405.317	478.62
405.541	483.62
405.765	452.62
405.988	450.62
406.212	472.62
406.436	481.62
406.66	490.62
406.883	458.62
407.107	472.62
407.331	489.62
407.555	556.62
407.778	535.62
408.002	487.62
408.226	462.62
408.449	482.62
408.673	480.62
408.896	493.62
409.12	517.62
409.344	485.62
409.567	466.62
409.791	444.62
410.014	443.62
410.238	441.62
410.461	434.62
410.685	435.62
410.908	437.62
411.132	465.62
411.355	488.62
411.578	467.62
411.802	423.62
412.025	406.62
412.249	408.62
412.472	425.62
412.695	442.62
412.919	442.62
413.142	436.62
413.365	415.62
413.589	390.62
413.812	411.62
414.035	389.62
414.258	421.62
414.482	385.62
414.705	393.62
414.928	396.62
415.151	385.62
415.374	385.62
415.597	411.62
415.821	407.62
416.044	402.62
416.267	397.62
416.49	414.62
416.713	385.62
416.936	386.62
417.159	383.62
417.382	397.62
417.605	401.62
417.828	418.62
418.051	417.62
418.274	412.62
418.497	399.62
418.72	391.62
418.943	393.62
419.166	421.62
419.389	420.62
419.611	428.62
419.834	414.62
420.057	405.62
420.28	416.62
420.503	414.62
420.726	422.62
420.948	418.62
421.171	429.62
421.394	487.62
421.617	433.62
421.839	438.62
422.062	409.62
422.285	435.62
422.507	477.62
422.73	531.62
422.953	516.62
423.175	473.62
423.398	456.62
423.621	462.62
423.843	457.62
424.066	442.62
424.288	448.62
424.511	449.62
424.733	505.62
424.956	547.62
425.178	533.62
425.401	538.62
425.623	566.62
425.846	473.62
426.068	462.62
426.291	470.62
426.513	464.62
426.735	451.62
426.958	499.62
427.18	555.62
427.402	634.62
427.625	707.62
427.847	633.62
428.069	544.62
428.292	501.62
428.514	452.62
428.736	447.62
428.958	452.62
429.181	436.62
429.403	429.62
429.625	426.62
429.847	452.62
430.069	504.62
430.292	510.62
430.514	439.62
430.736	425.62
430.958	413.62
431.18	414.62
431.402	417.62
431.624	376.62
431.846	390.62
432.068	384.62
432.29	407.62
432.512	407.62
432.734	430.62
432.956	415.62
433.178	405.62
433.4	405.62
433.622	412.62
433.844	415.62
434.066	400.62
434.287	394.62
434.509	407.62
434.731	412.62
434.953	421.62
435.175	393.62
435.397	437.62
435.618	443.62
435.84	513.62
436.062	567.62
436.284	588.62
436.505	519.62
436.727	455.62
436.949	445.62
437.17	440.62
437.392	421.62
437.614	418.62
437.835	465.62
438.057	533.62
438.278	624.62
438.5	609.62
438.721	636.62
438.943	635.62
439.165	497.62
439.386	464.62
439.608	455.62
439.829	468.62
440.05	467.62
440.272	510.62
440.493	503.62
440.715	460.62
440.936	446.62
441.158	448.62
441.379	429.62
441.6	428.62
441.822	476.62
442.043	476.62
442.264	535.62
442.486	593.62
442.707	487.62
442.928	461.62
443.149	476.62
443.371	510.62
443.592	541.62
443.813	611.62
444.034	635.62
444.255	544.62
444.476	469.62
444.698	453.62
444.919	453.62
445.14	576.62
445.361	514.62
445.582	497.62
445.803	544.62
446.024	606.62
446.245	635.62
446.466	552.62
446.687	482.62
446.908	463.62
447.129	437.62
447.35	418.62
447.571	434.62
447.792	403.62
448.013	433.62
448.234	423.62
448.455	463.62
448.675	571.62
448.896	637.62
449.117	546.62
449.338	563.62
449.559	631.62
449.779	681.62
450	546.62
450.221	472.62
450.442	422.62
450.662	407.62
450.883	436.62
451.104	449.62
451.324	423.62
451.545	395.62
451.766	414.62
451.986	393.62
452.207	382.62
452.428	390.62
452.648	372.62
452.869	385.62
453.089	407.62
453.31	412.62
453.53	407.62
453.751	370.62
453.971	381.62
454.192	414.62
454.412	411.62
454.633	397.62
454.853	375.62
455.073	374.62
455.294	408.62
455.514	460.62
455.734	431.62
455.955	381.62
456.175	385.62
456.395	358.62
456.616	353.62
456.836	353.62
457.056	370.62
457.276	362.62
457.497	342.62
457.717	355.62
457.937	360.62
458.157	361.62
458.377	379.62
458.598	393.62
458.818	443.62
459.038	519.62
459.258	513.62
459.478	450.62
459.698	412.62
459.918	402.62
460.138	422.62
460.358	403.62
460.578	392.62
460.798	395.62
461.018	409.62
461.238	411.62
461.458	389.62
461.678	406.62
461.898	401.62
462.118	401.62
462.338	413.62
462.558	408.62
462.777	389.62
462.997	426.62
463.217	416.62
463.437	447.62
463.657	432.62
463.876	420.62
464.096	424.62
464.316	411.62
464.536	428.62
464.755	429.62
464.975	440.62
465.195	488.62
465.414	549.62
465.634	491.62
465.854	436.62
466.073	413.62
466.293	383.62
466.512	406.62
466.732	399.62
466.951	401.62
467.171	418.62
467.391	407.62
467.61	399.62
467.829	432.62
468.049	393.62
468.268	390.62
468.488	379.62
468.707	373.62
468.927	372.62
469.146	377.62
469.365	359.62
469.585	370.62
469.804	393.62
470.023	428.62
470.243	402.62
470.462	399.62
470.681	428.62
470.901	386.62
471.12	421.62
471.339	401.62
471.558	396.62
471.777	379.62
471.997	373.62
472.216	407.62
472.435	397.62
472.654	396.62
472.873	389.62
473.092	390.62
473.311	398.62
473.53	402.62
473.749	396.62
473.968	440.62
474.187	521.62
474.406	538.62
474.625	451.62
474.844	397.62
475.063	401.62
475.282	399.62
475.501	396.62
475.72	398.62
475.939	394.62
476.158	432.62
476.377	417.62
476.596	398.62
476.814	430.62
477.033	424.62
477.252	399.62
477.471	417.62
477.69	418.62
477.908	438.62
478.127	424.62
478.346	435.62
478.564	439.62
478.783	428.62
479.002	457.62
479.22	447.62
479.439	441.62
479.658	455.62
479.876	482.62
480.095	471.62
480.313	468.62
480.532	484.62
480.751	484.62
480.969	483.62
481.188	499.62
481.406	529.62
481.624	491.62
481.843	456.62
482.061	463.62
482.28	464.62
482.498	446.62
482.717	452.62
482.935	456.62
483.153	452.62
483.372	448.62
483.59	461.62
483.808	465.62
484.027	477.62
484.245	453.62
484.463	459.62
484.681	443.62
484.9	471.62
485.118	469.62
485.336	490.62
485.554	472.62
485.772	470.62
485.99	480.62
486.209	480.62
486.427	482.62
486.645	496.62
486.863	495.62
487.081	502.62
487.299	499.62
487.517	491.62
487.735	500.62
487.953	485.62
488.171	495.62
488.389	488.62
488.607	487.62
488.825	507.62
489.043	487.62
489.261	500.62
489.479	475.62
489.696	482.62
489.914	519.62
490.132	515.62
490.35	495.62
490.568	504.62
490.786	517.62
491.003	542.62
491.221	531.62
491.439	548.62
491.657	548.62
491.874	567.62
492.092	560.62
492.31	579.62
492.527	553.62
492.745	568.62
492.963	563.62
493.18	569.62
493.398	574.62
493.615	616.62
493.833	585.62
494.05	607.62
494.268	585.62
494.485	583.62
494.703	583.62
494.92	571.62
495.138	571.62
495.355	577.62
495.573	587.62
495.79	592.62
496.008	578.62
496.225	588.62
496.442	583.62
496.66	587.62
496.877	588.62
497.094	611.62
497.312	596.62
497.529	581.62
497.746	607.62
497.963	612.62
498.181	618.62
498.398	638.62
498.615	646.62
498.832	658.62
499.049	651.62
499.267	673.62
499.484	670.62
499.701	697.62
499.918	718.62
500.135	743.62
500.352	759.62
500.569	753.62
500.786	761.62
501.003	760.62
501.22	742.62
501.437	747.62
501.654	713.62
501.871	724.62
502.088	701.62
