Data from 1983.PennyLincolnUp.Lamp.En5.5.200Scan.071819.P1_HRD10591_16-55-16-967.txt Node
Date: Thu Jul 18 16:55:16 EDT 2019
User: cochatt
Spectrometer: HR+D1059
Trigger mode: 1
Integration Time (sec): 1.000000E-1
Scans to average: 1
Electric dark correction enabled: true
Nonlinearity correction enabled: false
Boxcar width: 0
XAxis mode: Wavelengths
Number of Pixels in Spectrum: 2048
>>>>>Begin Spectral Data<<<<<
223.165	-17.06
223.4	-17.06
223.635	-17.06
223.869	-15.06
224.104	-19.06
224.338	-23.06
224.573	-21.06
224.808	-4.06
225.042	-3.06
225.277	-4.06
225.511	19.94
225.746	2.94
225.98	5.94
226.215	12.94
226.449	7.94
226.683	25.94
226.918	16.94
227.152	13.94
227.387	44.94
227.621	29.94
227.856	61.94
228.09	47.94
228.324	58.94
228.559	66.94
228.793	58.94
229.027	85.94
229.262	100.94
229.496	106.94
229.73	120.94
229.964	138.94
230.199	126.94
230.433	110.94
230.667	105.94
230.901	108.94
231.136	117.94
231.37	114.94
231.604	99.94
231.838	102.94
232.072	116.94
232.306	109.94
232.541	114.94
232.775	124.94
233.009	115.94
233.243	103.94
233.477	120.94
233.711	118.94
233.945	108.94
234.179	127.94
234.413	123.94
234.647	111.94
234.881	117.94
235.115	116.94
235.349	118.94
235.583	99.94
235.817	108.94
236.051	128.94
236.285	114.94
236.519	111.94
236.753	127.94
236.987	139.94
237.221	168.94
237.455	209.94
237.689	196.94
237.922	134.94
238.156	114.94
238.39	107.94
238.624	123.94
238.858	130.94
239.091	119.94
239.325	125.94
239.559	121.94
239.793	122.94
240.027	136.94
240.26	137.94
240.494	142.94
240.728	167.94
240.961	135.94
241.195	140.94
241.429	143.94
241.662	122.94
241.896	128.94
242.13	132.94
242.363	136.94
242.597	133.94
242.83	126.94
243.064	123.94
243.298	131.94
243.531	134.94
243.765	126.94
243.998	137.94
244.232	138.94
244.465	154.94
244.699	133.94
244.932	133.94
245.166	136.94
245.399	128.94
245.633	136.94
245.866	148.94
246.099	135.94
246.333	143.94
246.566	135.94
246.8	154.94
247.033	151.94
247.266	126.94
247.5	158.94
247.733	150.94
247.966	165.94
248.2	163.94
248.433	160.94
248.666	173.94
248.899	180.94
249.133	188.94
249.366	201.94
249.599	180.94
249.832	189.94
250.066	164.94
250.299	181.94
250.532	186.94
250.765	200.94
250.998	242.94
251.231	221.94
251.465	216.94
251.698	190.94
251.931	181.94
252.164	192.94
252.397	182.94
252.63	189.94
252.863	189.94
253.096	187.94
253.329	219.94
253.562	216.94
253.795	206.94
254.028	209.94
254.261	208.94
254.494	218.94
254.727	257.94
254.96	266.94
255.193	266.94
255.426	250.94
255.659	234.94
255.892	251.94
256.124	250.94
256.357	263.94
256.59	225.94
256.823	246.94
257.056	223.94
257.289	205.94
257.521	204.94
257.754	204.94
257.987	192.94
258.22	211.94
258.452	202.94
258.685	205.94
258.918	207.94
259.151	217.94
259.383	223.94
259.616	214.94
259.849	208.94
260.081	218.94
260.314	240.94
260.547	255.94
260.779	241.94
261.012	220.94
261.244	200.94
261.477	216.94
261.71	194.94
261.942	227.94
262.175	231.94
262.407	227.94
262.64	198.94
262.872	210.94
263.105	219.94
263.337	207.94
263.57	209.94
263.802	188.94
264.035	197.94
264.267	192.94
264.499	195.94
264.732	193.94
264.964	206.94
265.197	202.94
265.429	207.94
265.661	199.94
265.894	202.94
266.126	208.94
266.358	217.94
266.591	210.94
266.823	213.94
267.055	222.94
267.287	234.94
267.52	210.94
267.752	214.94
267.984	214.94
268.216	208.94
268.448	219.94
268.681	248.94
268.913	223.94
269.145	247.94
269.377	284.94
269.609	266.94
269.841	234.94
270.073	272.94
270.306	267.94
270.538	294.94
270.77	294.94
271.002	301.94
271.234	266.94
271.466	285.94
271.698	285.94
271.93	292.94
272.162	318.94
272.394	302.94
272.626	288.94
272.858	274.94
273.09	260.94
273.322	268.94
273.553	265.94
273.785	252.94
274.017	247.94
274.249	268.94
274.481	249.94
274.713	255.94
274.945	267.94
275.176	252.94
275.408	254.94
275.64	237.94
275.872	257.94
276.104	255.94
276.335	253.94
276.567	253.94
276.799	282.94
277.031	284.94
277.262	314.94
277.494	307.94
277.726	288.94
277.957	275.94
278.189	274.94
278.421	258.94
278.652	254.94
278.884	239.94
279.115	264.94
279.347	263.94
279.579	277.94
279.81	258.94
280.042	251.94
280.273	250.94
280.505	249.94
280.736	269.94
280.968	266.94
281.199	243.94
281.431	258.94
281.662	263.94
281.894	242.94
282.125	254.94
282.356	272.94
282.588	317.94
282.819	289.94
283.051	265.94
283.282	250.94
283.513	293.94
283.745	270.94
283.976	242.94
284.207	253.94
284.439	252.94
284.67	286.94
284.901	272.94
285.132	276.94
285.364	278.94
285.595	277.94
285.826	277.94
286.057	268.94
286.288	258.94
286.52	272.94
286.751	268.94
286.982	261.94
287.213	248.94
287.444	264.94
287.675	286.94
287.906	275.94
288.138	270.94
288.369	266.94
288.6	279.94
288.831	286.94
289.062	268.94
289.293	254.94
289.524	279.94
289.755	282.94
289.986	278.94
290.217	270.94
290.448	263.94
290.679	268.94
290.91	279.94
291.141	262.94
291.371	278.94
291.602	267.94
291.833	279.94
292.064	281.94
292.295	299.94
292.526	288.94
292.757	278.94
292.987	272.94
293.218	270.94
293.449	293.94
293.68	282.94
293.91	271.94
294.141	262.94
294.372	259.94
294.603	278.94
294.833	291.94
295.064	290.94
295.295	271.94
295.525	269.94
295.756	287.94
295.987	288.94
296.217	291.94
296.448	302.94
296.679	296.94
296.909	294.94
297.14	280.94
297.37	278.94
297.601	269.94
297.831	269.94
298.062	284.94
298.292	290.94
298.523	297.94
298.753	287.94
298.984	294.94
299.214	287.94
299.445	288.94
299.675	292.94
299.905	306.94
300.136	294.94
300.366	296.94
300.597	289.94
300.827	291.94
301.057	312.94
301.288	303.94
301.518	306.94
301.748	300.94
301.979	307.94
302.209	297.94
302.439	301.94
302.669	296.94
302.9	324.94
303.13	308.94
303.36	315.94
303.59	315.94
303.82	330.94
304.051	335.94
304.281	327.94
304.511	319.94
304.741	309.94
304.971	293.94
305.201	316.94
305.431	312.94
305.661	308.94
305.891	322.94
306.121	298.94
306.352	337.94
306.582	320.94
306.812	316.94
307.042	316.94
307.272	325.94
307.502	317.94
307.731	310.94
307.961	316.94
308.191	318.94
308.421	322.94
308.651	333.94
308.881	335.94
309.111	331.94
309.341	334.94
309.571	321.94
309.8	322.94
310.03	347.94
310.26	366.94
310.49	359.94
310.72	362.94
310.949	388.94
311.179	373.94
311.409	378.94
311.639	352.94
311.868	352.94
312.098	371.94
312.328	380.94
312.557	388.94
312.787	396.94
313.017	391.94
313.246	371.94
313.476	348.94
313.706	364.94
313.935	380.94
314.165	353.94
314.394	367.94
314.624	376.94
314.853	372.94
315.083	368.94
315.312	336.94
315.542	345.94
315.771	358.94
316.001	365.94
316.23	370.94
316.46	357.94
316.689	375.94
316.919	356.94
317.148	380.94
317.377	375.94
317.607	358.94
317.836	380.94
318.065	375.94
318.295	365.94
318.524	366.94
318.753	366.94
318.983	344.94
319.212	353.94
319.441	372.94
319.67	374.94
319.9	363.94
320.129	358.94
320.358	351.94
320.587	366.94
320.816	383.94
321.046	373.94
321.275	395.94
321.504	375.94
321.733	388.94
321.962	397.94
322.191	424.94
322.42	415.94
322.649	423.94
322.878	445.94
323.108	464.94
323.337	474.94
323.566	526.94
323.795	524.94
324.024	594.94
324.253	732.94
324.482	1053.94
324.71	1554.94
324.939	2175.94
325.168	1772.94
325.397	952.94
325.626	670.94
325.855	562.94
326.084	514.94
326.313	507.94
326.542	506.94
326.77	553.94
326.999	674.94
327.228	922.94
327.457	1379.94
327.686	1567.94
327.914	1060.94
328.143	734.94
328.372	657.94
328.6	628.94
328.829	588.94
329.058	582.94
329.287	612.94
329.515	562.94
329.744	552.94
329.972	500.94
330.201	571.94
330.43	628.94
330.658	640.94
330.887	633.94
331.115	620.94
331.344	494.94
331.572	492.94
331.801	474.94
332.03	488.94
332.258	488.94
332.486	444.94
332.715	423.94
332.943	448.94
333.172	447.94
333.4	471.94
333.629	479.94
333.857	489.94
334.085	494.94
334.314	520.94
334.542	612.94
334.771	640.94
334.999	516.94
335.227	487.94
335.455	464.94
335.684	426.94
335.912	430.94
336.14	424.94
336.369	428.94
336.597	434.94
336.825	450.94
337.053	430.94
337.281	423.94
337.51	418.94
337.738	425.94
337.966	401.94
338.194	434.94
338.422	427.94
338.65	409.94
338.878	397.94
339.106	399.94
339.334	413.94
339.562	412.94
339.79	396.94
340.018	408.94
340.246	400.94
340.474	407.94
340.702	420.94
340.93	409.94
341.158	415.94
341.386	399.94
341.614	400.94
341.842	392.94
342.07	396.94
342.298	407.94
342.526	394.94
342.754	392.94
342.981	399.94
343.209	380.94
343.437	383.94
343.665	399.94
343.893	389.94
344.12	406.94
344.348	393.94
344.576	398.94
344.804	424.94
345.031	423.94
345.259	417.94
345.487	412.94
345.714	383.94
345.942	371.94
346.17	380.94
346.397	394.94
346.625	390.94
346.853	401.94
347.08	386.94
347.308	383.94
347.535	390.94
347.763	409.94
347.99	397.94
348.218	415.94
348.445	406.94
348.673	391.94
348.9	380.94
349.128	383.94
349.355	386.94
349.583	391.94
349.81	379.94
350.037	367.94
350.265	380.94
350.492	370.94
350.72	379.94
350.947	384.94
351.174	401.94
351.402	406.94
351.629	402.94
351.856	399.94
352.083	405.94
352.311	407.94
352.538	420.94
352.765	392.94
352.992	391.94
353.22	380.94
353.447	385.94
353.674	379.94
353.901	381.94
354.128	373.94
354.355	359.94
354.583	368.94
354.81	351.94
355.037	346.94
355.264	352.94
355.491	367.94
355.718	355.94
355.945	362.94
356.172	366.94
356.399	372.94
356.626	364.94
356.853	366.94
357.08	347.94
357.307	357.94
357.534	351.94
357.761	354.94
357.988	370.94
358.215	364.94
358.441	376.94
358.668	358.94
358.895	353.94
359.122	358.94
359.349	376.94
359.576	388.94
359.802	421.94
360.029	440.94
360.256	454.94
360.483	411.94
360.709	397.94
360.936	385.94
361.163	396.94
361.39	398.94
361.616	374.94
361.843	381.94
362.07	382.94
362.296	381.94
362.523	387.94
362.749	376.94
362.976	380.94
363.203	378.94
363.429	378.94
363.656	367.94
363.882	349.94
364.109	371.94
364.335	370.94
364.562	372.94
364.788	356.94
365.015	389.94
365.241	359.94
365.468	392.94
365.694	381.94
365.92	378.94
366.147	388.94
366.373	377.94
366.599	374.94
366.826	365.94
367.052	371.94
367.278	362.94
367.505	369.94
367.731	354.94
367.957	356.94
368.184	362.94
368.41	378.94
368.636	370.94
368.862	378.94
369.089	362.94
369.315	372.94
369.541	372.94
369.767	369.94
369.993	370.94
370.219	364.94
370.445	359.94
370.672	363.94
370.898	375.94
371.124	380.94
371.35	372.94
371.576	372.94
371.802	375.94
372.028	376.94
372.254	361.94
372.48	348.94
372.706	365.94
372.932	364.94
373.158	359.94
373.384	334.94
373.61	378.94
373.835	363.94
374.061	369.94
374.287	352.94
374.513	349.94
374.739	349.94
374.965	351.94
375.191	353.94
375.416	366.94
375.642	354.94
375.868	342.94
376.094	352.94
376.319	344.94
376.545	347.94
376.771	366.94
376.997	360.94
377.222	350.94
377.448	374.94
377.674	354.94
377.899	361.94
378.125	376.94
378.35	362.94
378.576	364.94
378.802	350.94
379.027	366.94
379.253	354.94
379.478	351.94
379.704	360.94
379.929	366.94
380.155	382.94
380.38	345.94
380.606	363.94
380.831	389.94
381.057	373.94
381.282	337.94
381.507	350.94
381.733	341.94
381.958	362.94
382.184	360.94
382.409	344.94
382.634	344.94
382.86	341.94
383.085	358.94
383.31	346.94
383.535	370.94
383.761	356.94
383.986	386.94
384.211	381.94
384.436	378.94
384.662	382.94
384.887	378.94
385.112	363.94
385.337	383.94
385.562	379.94
385.787	371.94
386.013	381.94
386.238	395.94
386.463	401.94
386.688	389.94
386.913	383.94
387.138	374.94
387.363	391.94
387.588	391.94
387.813	378.94
388.038	375.94
388.263	380.94
388.488	363.94
388.713	384.94
388.938	403.94
389.163	379.94
389.387	394.94
389.612	345.94
389.837	376.94
390.062	374.94
390.287	378.94
390.512	381.94
390.736	380.94
390.961	391.94
391.186	381.94
391.411	370.94
391.636	402.94
391.86	409.94
392.085	405.94
392.31	378.94
392.534	380.94
392.759	398.94
392.984	380.94
393.208	383.94
393.433	370.94
393.658	395.94
393.882	366.94
394.107	378.94
394.331	374.94
394.556	390.94
394.78	406.94
395.005	383.94
395.229	380.94
395.454	387.94
395.678	400.94
395.903	407.94
396.127	428.94
396.352	426.94
396.576	398.94
396.801	387.94
397.025	393.94
397.249	405.94
397.474	414.94
397.698	421.94
397.922	423.94
398.147	432.94
398.371	411.94
398.595	414.94
398.82	411.94
399.044	447.94
399.268	451.94
399.492	477.94
399.717	502.94
399.941	525.94
400.165	534.94
400.389	524.94
400.613	482.94
400.837	460.94
401.062	448.94
401.286	468.94
401.51	432.94
401.734	426.94
401.958	441.94
402.182	431.94
402.406	452.94
402.63	457.94
402.854	447.94
403.078	434.94
403.302	459.94
403.526	450.94
403.75	444.94
403.974	456.94
404.198	441.94
404.422	452.94
404.645	470.94
404.869	460.94
405.093	491.94
405.317	543.94
405.541	567.94
405.765	520.94
405.988	502.94
406.212	484.94
406.436	537.94
406.66	512.94
406.883	474.94
407.107	511.94
407.331	543.94
407.555	572.94
407.778	566.94
408.002	529.94
408.226	503.94
408.449	475.94
408.673	518.94
408.896	516.94
409.12	553.94
409.344	532.94
409.567	461.94
409.791	444.94
410.014	423.94
410.238	464.94
410.461	452.94
410.685	461.94
410.908	467.94
411.132	483.94
411.355	519.94
411.578	480.94
411.802	439.94
412.025	455.94
412.249	451.94
412.472	483.94
412.695	517.94
412.919	548.94
413.142	499.94
413.365	479.94
413.589	459.94
413.812	434.94
414.035	434.94
414.258	438.94
414.482	421.94
414.705	443.94
414.928	401.94
415.151	414.94
415.374	425.94
415.597	409.94
415.821	416.94
416.044	426.94
416.267	427.94
416.49	436.94
416.713	426.94
416.936	411.94
417.159	415.94
417.382	430.94
417.605	436.94
417.828	452.94
418.051	450.94
418.274	448.94
418.497	413.94
418.72	435.94
418.943	449.94
419.166	445.94
419.389	448.94
419.611	435.94
419.834	469.94
420.057	460.94
420.28	455.94
420.503	459.94
420.726	454.94
420.948	469.94
421.171	493.94
421.394	528.94
421.617	479.94
421.839	458.94
422.062	454.94
422.285	476.94
422.507	510.94
422.73	575.94
422.953	536.94
423.175	478.94
423.398	472.94
423.621	473.94
423.843	462.94
424.066	484.94
424.288	476.94
424.511	490.94
424.733	538.94
424.956	595.94
425.178	564.94
425.401	556.94
425.623	588.94
425.846	501.94
426.068	471.94
426.291	462.94
426.513	500.94
426.735	472.94
426.958	502.94
427.18	591.94
427.402	682.94
427.625	746.94
427.847	707.94
428.069	597.94
428.292	554.94
428.514	509.94
428.736	468.94
428.958	456.94
429.181	447.94
429.403	455.94
429.625	439.94
429.847	487.94
430.069	545.94
430.292	518.94
430.514	481.94
430.736	468.94
430.958	458.94
431.18	424.94
431.402	428.94
431.624	413.94
431.846	430.94
432.068	414.94
432.29	421.94
432.512	419.94
432.734	421.94
432.956	437.94
433.178	424.94
433.4	438.94
433.622	428.94
433.844	435.94
434.066	422.94
434.287	412.94
434.509	451.94
434.731	431.94
434.953	440.94
435.175	452.94
435.397	486.94
435.618	487.94
435.84	534.94
436.062	588.94
436.284	645.94
436.505	547.94
436.727	492.94
436.949	461.94
437.17	442.94
437.392	458.94
437.614	458.94
437.835	512.94
438.057	586.94
438.278	662.94
438.5	620.94
438.721	657.94
438.943	676.94
439.165	542.94
439.386	514.94
439.608	501.94
439.829	487.94
440.05	523.94
440.272	565.94
440.493	534.94
440.715	487.94
440.936	459.94
441.158	443.94
441.379	455.94
441.6	470.94
441.822	492.94
442.043	506.94
442.264	583.94
442.486	604.94
442.707	540.94
442.928	502.94
443.149	526.94
443.371	534.94
443.592	571.94
443.813	636.94
444.034	654.94
444.255	558.94
444.476	532.94
444.698	481.94
444.919	479.94
445.14	546.94
445.361	518.94
445.582	526.94
445.803	580.94
446.024	663.94
446.245	679.94
446.466	620.94
446.687	528.94
446.908	486.94
447.129	467.94
447.35	442.94
447.571	446.94
447.792	455.94
448.013	451.94
448.234	468.94
448.455	526.94
448.675	600.94
448.896	671.94
449.117	595.94
449.338	588.94
449.559	636.94
449.779	714.94
450	582.94
450.221	494.94
450.442	474.94
450.662	452.94
450.883	470.94
451.104	460.94
451.324	453.94
451.545	433.94
451.766	408.94
451.986	421.94
452.207	416.94
452.428	385.94
452.648	394.94
452.869	400.94
453.089	417.94
453.31	440.94
453.53	412.94
453.751	408.94
453.971	409.94
454.192	426.94
454.412	424.94
454.633	415.94
454.853	396.94
455.073	405.94
455.294	440.94
455.514	468.94
455.734	461.94
455.955	389.94
456.175	398.94
456.395	370.94
456.616	375.94
456.836	375.94
457.056	389.94
457.276	363.94
457.497	363.94
457.717	376.94
457.937	387.94
458.157	394.94
458.377	397.94
458.598	436.94
458.818	470.94
459.038	555.94
459.258	555.94
459.478	471.94
459.698	426.94
459.918	414.94
460.138	410.94
460.358	412.94
460.578	426.94
460.798	422.94
461.018	435.94
461.238	427.94
461.458	406.94
461.678	414.94
461.898	415.94
462.118	416.94
462.338	424.94
462.558	426.94
462.777	424.94
462.997	460.94
463.217	445.94
463.437	452.94
463.657	461.94
463.876	462.94
464.096	460.94
464.316	433.94
464.536	450.94
464.755	460.94
464.975	454.94
465.195	523.94
465.414	593.94
465.634	516.94
465.854	443.94
466.073	440.94
466.293	426.94
466.512	406.94
466.732	420.94
466.951	422.94
467.171	392.94
467.391	415.94
467.61	431.94
467.829	454.94
468.049	443.94
468.268	463.94
468.488	425.94
468.707	401.94
468.927	419.94
469.146	404.94
469.365	384.94
469.585	391.94
469.804	401.94
470.023	429.94
470.243	401.94
470.462	422.94
470.681	436.94
470.901	428.94
471.12	423.94
471.339	427.94
471.558	440.94
471.777	423.94
471.997	426.94
472.216	442.94
472.435	516.94
472.654	478.94
472.873	428.94
473.092	413.94
473.311	420.94
473.53	418.94
473.749	445.94
473.968	454.94
474.187	553.94
474.406	582.94
474.625	482.94
474.844	442.94
475.063	430.94
475.282	405.94
475.501	422.94
475.72	443.94
475.939	426.94
476.158	430.94
476.377	425.94
476.596	430.94
476.814	445.94
477.033	448.94
477.252	436.94
477.471	443.94
477.69	443.94
477.908	450.94
478.127	465.94
478.346	451.94
478.564	447.94
478.783	458.94
479.002	473.94
479.22	463.94
479.439	487.94
479.658	523.94
479.876	512.94
480.095	503.94
480.313	526.94
480.532	509.94
480.751	527.94
480.969	550.94
481.188	653.94
481.406	747.94
481.624	593.94
481.843	536.94
482.061	514.94
482.28	510.94
482.498	527.94
482.717	500.94
482.935	496.94
483.153	495.94
483.372	492.94
483.59	514.94
483.808	485.94
484.027	479.94
484.245	510.94
484.463	481.94
484.681	489.94
484.9	522.94
485.118	514.94
485.336	500.94
485.554	520.94
485.772	493.94
485.99	537.94
486.209	498.94
486.427	502.94
486.645	503.94
486.863	535.94
487.081	536.94
487.299	544.94
487.517	524.94
487.735	519.94
487.953	520.94
488.171	542.94
488.389	538.94
488.607	544.94
488.825	533.94
489.043	536.94
489.261	525.94
489.479	535.94
489.696	546.94
489.914	531.94
490.132	551.94
490.35	546.94
490.568	593.94
490.786	600.94
491.003	588.94
491.221	629.94
491.439	619.94
491.657	616.94
491.874	643.94
492.092	611.94
492.31	623.94
492.527	632.94
492.745	636.94
492.963	626.94
493.18	637.94
493.398	638.94
493.615	654.94
493.833	639.94
494.05	644.94
494.268	627.94
494.485	623.94
494.703	623.94
494.92	632.94
495.138	664.94
495.355	650.94
495.573	620.94
495.79	633.94
496.008	621.94
496.225	630.94
496.442	614.94
496.66	643.94
496.877	660.94
497.094	638.94
497.312	642.94
497.529	635.94
497.746	669.94
497.963	651.94
498.181	672.94
498.398	668.94
498.615	669.94
498.832	696.94
499.049	687.94
499.267	678.94
499.484	719.94
499.701	733.94
499.918	744.94
500.135	776.94
500.352	804.94
500.569	824.94
500.786	812.94
501.003	816.94
501.22	776.94
501.437	788.94
501.654	759.94
501.871	798.94
