Data from 1983.PennyLincolnUp.Lamp.En5.5.200Scan.071819.P1_HRD10591_16-54-07-965.txt Node
Date: Thu Jul 18 16:54:07 EDT 2019
User: cochatt
Spectrometer: HR+D1059
Trigger mode: 1
Integration Time (sec): 1.000000E-1
Scans to average: 1
Electric dark correction enabled: true
Nonlinearity correction enabled: false
Boxcar width: 0
XAxis mode: Wavelengths
Number of Pixels in Spectrum: 2048
>>>>>Begin Spectral Data<<<<<
223.165	-20.12
223.4	-20.12
223.635	-20.12
223.869	-26.12
224.104	-15.12
224.338	-10.12
224.573	-27.12
224.808	-5.12
225.042	-1.12
225.277	5.88
225.511	-8.12
225.746	12.88
225.98	3.88
226.215	3.88
226.449	9.88
226.683	21.88
226.918	27.88
227.152	26.88
227.387	34.88
227.621	26.88
227.856	37.88
228.09	47.88
228.324	46.88
228.559	49.88
228.793	53.88
229.027	82.88
229.262	93.88
229.496	97.88
229.73	115.88
229.964	143.88
230.199	133.88
230.433	104.88
230.667	118.88
230.901	107.88
231.136	99.88
231.37	90.88
231.604	112.88
231.838	94.88
232.072	109.88
232.306	118.88
232.541	98.88
232.775	110.88
233.009	108.88
233.243	110.88
233.477	99.88
233.711	119.88
233.945	109.88
234.179	119.88
234.413	110.88
234.647	91.88
234.881	102.88
235.115	108.88
235.349	110.88
235.583	120.88
235.817	111.88
236.051	119.88
236.285	117.88
236.519	113.88
236.753	117.88
236.987	131.88
237.221	163.88
237.455	193.88
237.689	153.88
237.922	130.88
238.156	127.88
238.39	122.88
238.624	121.88
238.858	112.88
239.091	123.88
239.325	117.88
239.559	106.88
239.793	119.88
240.027	127.88
240.26	139.88
240.494	139.88
240.728	130.88
240.961	132.88
241.195	135.88
241.429	131.88
241.662	122.88
241.896	124.88
242.13	131.88
242.363	126.88
242.597	125.88
242.83	128.88
243.064	122.88
243.298	136.88
243.531	121.88
243.765	121.88
243.998	136.88
244.232	123.88
244.465	124.88
244.699	127.88
244.932	138.88
245.166	121.88
245.399	127.88
245.633	128.88
245.866	138.88
246.099	139.88
246.333	139.88
246.566	146.88
246.8	120.88
247.033	147.88
247.266	148.88
247.5	137.88
247.733	156.88
247.966	140.88
248.2	134.88
248.433	149.88
248.666	173.88
248.899	155.88
249.133	169.88
249.366	191.88
249.599	173.88
249.832	166.88
250.066	153.88
250.299	153.88
250.532	158.88
250.765	189.88
250.998	191.88
251.231	194.88
251.465	184.88
251.698	185.88
251.931	182.88
252.164	166.88
252.397	170.88
252.63	178.88
252.863	191.88
253.096	189.88
253.329	198.88
253.562	206.88
253.795	193.88
254.028	202.88
254.261	197.88
254.494	210.88
254.727	237.88
254.96	257.88
255.193	246.88
255.426	210.88
255.659	218.88
255.892	220.88
256.124	195.88
256.357	191.88
256.59	189.88
256.823	198.88
257.056	175.88
257.289	191.88
257.521	186.88
257.754	182.88
257.987	185.88
258.22	172.88
258.452	184.88
258.685	173.88
258.918	178.88
259.151	181.88
259.383	182.88
259.616	187.88
259.849	200.88
260.081	215.88
260.314	224.88
260.547	238.88
260.779	218.88
261.012	200.88
261.244	195.88
261.477	207.88
261.71	197.88
261.942	209.88
262.175	207.88
262.407	214.88
262.64	205.88
262.872	192.88
263.105	184.88
263.337	188.88
263.57	194.88
263.802	195.88
264.035	205.88
264.267	183.88
264.499	199.88
264.732	178.88
264.964	174.88
265.197	187.88
265.429	175.88
265.661	175.88
265.894	186.88
266.126	184.88
266.358	192.88
266.591	197.88
266.823	192.88
267.055	205.88
267.287	199.88
267.52	208.88
267.752	202.88
267.984	211.88
268.216	206.88
268.448	202.88
268.681	206.88
268.913	214.88
269.145	227.88
269.377	232.88
269.609	250.88
269.841	245.88
270.073	235.88
270.306	267.88
270.538	283.88
270.77	271.88
271.002	258.88
271.234	265.88
271.466	264.88
271.698	286.88
271.93	281.88
272.162	270.88
272.394	290.88
272.626	271.88
272.858	230.88
273.09	262.88
273.322	237.88
273.553	242.88
273.785	229.88
274.017	240.88
274.249	227.88
274.481	245.88
274.713	239.88
274.945	228.88
275.176	233.88
275.408	242.88
275.64	237.88
275.872	231.88
276.104	234.88
276.335	241.88
276.567	253.88
276.799	253.88
277.031	275.88
277.262	272.88
277.494	277.88
277.726	257.88
277.957	280.88
278.189	243.88
278.421	234.88
278.652	230.88
278.884	231.88
279.115	237.88
279.347	214.88
279.579	232.88
279.81	227.88
280.042	218.88
280.273	250.88
280.505	234.88
280.736	239.88
280.968	215.88
281.199	246.88
281.431	221.88
281.662	241.88
281.894	236.88
282.125	242.88
282.356	283.88
282.588	267.88
282.819	276.88
283.051	243.88
283.282	242.88
283.513	262.88
283.745	241.88
283.976	253.88
284.207	238.88
284.439	247.88
284.67	230.88
284.901	256.88
285.132	232.88
285.364	258.88
285.595	251.88
285.826	233.88
286.057	250.88
286.288	243.88
286.52	233.88
286.751	241.88
286.982	249.88
287.213	243.88
287.444	245.88
287.675	253.88
287.906	258.88
288.138	276.88
288.369	267.88
288.6	272.88
288.831	257.88
289.062	258.88
289.293	251.88
289.524	253.88
289.755	258.88
289.986	237.88
290.217	267.88
290.448	252.88
290.679	242.88
290.91	256.88
291.141	250.88
291.371	247.88
291.602	256.88
291.833	262.88
292.064	253.88
292.295	247.88
292.526	248.88
292.757	262.88
292.987	262.88
293.218	253.88
293.449	257.88
293.68	247.88
293.91	258.88
294.141	264.88
294.372	251.88
294.603	257.88
294.833	253.88
295.064	259.88
295.295	253.88
295.525	244.88
295.756	267.88
295.987	273.88
296.217	296.88
296.448	308.88
296.679	259.88
296.909	257.88
297.14	250.88
297.37	275.88
297.601	272.88
297.831	250.88
298.062	251.88
298.292	284.88
298.523	267.88
298.753	283.88
298.984	263.88
299.214	261.88
299.445	268.88
299.675	273.88
299.905	269.88
300.136	266.88
300.366	273.88
300.597	282.88
300.827	280.88
301.057	283.88
301.288	295.88
301.518	273.88
301.748	274.88
301.979	281.88
302.209	280.88
302.439	301.88
302.669	283.88
302.9	282.88
303.13	286.88
303.36	275.88
303.59	294.88
303.82	295.88
304.051	307.88
304.281	289.88
304.511	275.88
304.741	266.88
304.971	289.88
305.201	294.88
305.431	279.88
305.661	287.88
305.891	286.88
306.121	296.88
306.352	286.88
306.582	282.88
306.812	278.88
307.042	294.88
307.272	305.88
307.502	293.88
307.731	288.88
307.961	294.88
308.191	282.88
308.421	306.88
308.651	286.88
308.881	303.88
309.111	305.88
309.341	311.88
309.571	315.88
309.8	336.88
310.03	322.88
310.26	334.88
310.49	320.88
310.72	351.88
310.949	357.88
311.179	356.88
311.409	373.88
311.639	339.88
311.868	329.88
312.098	338.88
312.328	350.88
312.557	340.88
312.787	373.88
313.017	360.88
313.246	340.88
313.476	350.88
313.706	336.88
313.935	342.88
314.165	348.88
314.394	366.88
314.624	355.88
314.853	349.88
315.083	334.88
315.312	332.88
315.542	318.88
315.771	319.88
316.001	320.88
316.23	331.88
316.46	309.88
316.689	357.88
316.919	344.88
317.148	356.88
317.377	354.88
317.607	350.88
317.836	354.88
318.065	343.88
318.295	321.88
318.524	336.88
318.753	344.88
318.983	327.88
319.212	336.88
319.441	351.88
319.67	348.88
319.9	337.88
320.129	324.88
320.358	321.88
320.587	331.88
320.816	343.88
321.046	349.88
321.275	373.88
321.504	371.88
321.733	358.88
321.962	370.88
322.191	363.88
322.42	373.88
322.649	405.88
322.878	389.88
323.108	424.88
323.337	426.88
323.566	452.88
323.795	466.88
324.024	538.88
324.253	682.88
324.482	958.88
324.71	1409.88
324.939	1908.88
325.168	1581.88
325.397	888.88
325.626	594.88
325.855	507.88
326.084	473.88
326.313	450.88
326.542	464.88
326.77	498.88
326.999	632.88
327.228	840.88
327.457	1235.88
327.686	1434.88
327.914	961.88
328.143	647.88
328.372	598.88
328.6	547.88
328.829	505.88
329.058	531.88
329.287	529.88
329.515	489.88
329.744	459.88
329.972	455.88
330.201	485.88
330.43	524.88
330.658	550.88
330.887	549.88
331.115	524.88
331.344	464.88
331.572	448.88
331.801	458.88
332.03	443.88
332.258	435.88
332.486	419.88
332.715	394.88
332.943	399.88
333.172	406.88
333.4	410.88
333.629	413.88
333.857	409.88
334.085	418.88
334.314	446.88
334.542	443.88
334.771	458.88
334.999	418.88
335.227	408.88
335.455	385.88
335.684	383.88
335.912	384.88
336.14	385.88
336.369	388.88
336.597	410.88
336.825	401.88
337.053	399.88
337.281	396.88
337.51	375.88
337.738	376.88
337.966	377.88
338.194	388.88
338.422	402.88
338.65	383.88
338.878	366.88
339.106	367.88
339.334	371.88
339.562	386.88
339.79	362.88
340.018	367.88
340.246	383.88
340.474	374.88
340.702	377.88
340.93	381.88
341.158	369.88
341.386	385.88
341.614	370.88
341.842	379.88
342.07	382.88
342.298	373.88
342.526	354.88
342.754	359.88
342.981	374.88
343.209	343.88
343.437	356.88
343.665	349.88
343.893	358.88
344.12	352.88
344.348	382.88
344.576	366.88
344.804	377.88
345.031	374.88
345.259	402.88
345.487	393.88
345.714	392.88
345.942	372.88
346.17	374.88
346.397	372.88
346.625	370.88
346.853	366.88
347.08	354.88
347.308	381.88
347.535	388.88
347.763	389.88
347.99	411.88
348.218	369.88
348.445	373.88
348.673	375.88
348.9	388.88
349.128	365.88
349.355	362.88
349.583	365.88
349.81	345.88
350.037	349.88
350.265	374.88
350.492	362.88
350.72	368.88
350.947	371.88
351.174	368.88
351.402	366.88
351.629	372.88
351.856	383.88
352.083	354.88
352.311	399.88
352.538	375.88
352.765	370.88
352.992	373.88
353.22	371.88
353.447	378.88
353.674	378.88
353.901	352.88
354.128	367.88
354.355	357.88
354.583	354.88
354.81	367.88
355.037	333.88
355.264	327.88
355.491	330.88
355.718	336.88
355.945	321.88
356.172	340.88
356.399	339.88
356.626	349.88
356.853	338.88
357.08	329.88
357.307	322.88
357.534	319.88
357.761	329.88
357.988	323.88
358.215	337.88
358.441	329.88
358.668	342.88
358.895	347.88
359.122	340.88
359.349	362.88
359.576	377.88
359.802	394.88
360.029	408.88
360.256	434.88
360.483	414.88
360.709	365.88
360.936	360.88
361.163	353.88
361.39	350.88
361.616	367.88
361.843	359.88
362.07	349.88
362.296	350.88
362.523	383.88
362.749	357.88
362.976	365.88
363.203	349.88
363.429	340.88
363.656	349.88
363.882	355.88
364.109	337.88
364.335	339.88
364.562	352.88
364.788	345.88
365.015	338.88
365.241	335.88
365.468	347.88
365.694	359.88
365.92	337.88
366.147	355.88
366.373	342.88
366.599	349.88
366.826	345.88
367.052	341.88
367.278	338.88
367.505	332.88
367.731	349.88
367.957	334.88
368.184	345.88
368.41	338.88
368.636	350.88
368.862	341.88
369.089	358.88
369.315	357.88
369.541	342.88
369.767	332.88
369.993	329.88
370.219	344.88
370.445	334.88
370.672	331.88
370.898	346.88
371.124	341.88
371.35	350.88
371.576	323.88
371.802	319.88
372.028	322.88
372.254	329.88
372.48	342.88
372.706	351.88
372.932	341.88
373.158	357.88
373.384	347.88
373.61	365.88
373.835	350.88
374.061	337.88
374.287	339.88
374.513	341.88
374.739	343.88
374.965	350.88
375.191	326.88
375.416	355.88
375.642	347.88
375.868	330.88
376.094	351.88
376.319	334.88
376.545	326.88
376.771	344.88
376.997	340.88
377.222	337.88
377.448	333.88
377.674	336.88
377.899	330.88
378.125	342.88
378.35	337.88
378.576	330.88
378.802	326.88
379.027	335.88
379.253	319.88
379.478	325.88
379.704	338.88
379.929	339.88
380.155	323.88
380.38	343.88
380.606	365.88
380.831	342.88
381.057	360.88
381.282	338.88
381.507	325.88
381.733	350.88
381.958	359.88
382.184	356.88
382.409	346.88
382.634	340.88
382.86	330.88
383.085	342.88
383.31	343.88
383.535	341.88
383.761	347.88
383.986	351.88
384.211	337.88
384.436	354.88
384.662	357.88
384.887	338.88
385.112	342.88
385.337	341.88
385.562	343.88
385.787	362.88
386.013	366.88
386.238	361.88
386.463	371.88
386.688	355.88
386.913	362.88
387.138	374.88
387.363	362.88
387.588	339.88
387.813	359.88
388.038	357.88
388.263	360.88
388.488	366.88
388.713	354.88
388.938	367.88
389.163	374.88
389.387	380.88
389.612	375.88
389.837	374.88
390.062	352.88
390.287	341.88
390.512	366.88
390.736	373.88
390.961	361.88
391.186	361.88
391.411	366.88
391.636	377.88
391.86	389.88
392.085	372.88
392.31	368.88
392.534	371.88
392.759	358.88
392.984	353.88
393.208	365.88
393.433	375.88
393.658	371.88
393.882	334.88
394.107	360.88
394.331	369.88
394.556	356.88
394.78	375.88
395.005	367.88
395.229	357.88
395.454	375.88
395.678	381.88
395.903	387.88
396.127	383.88
396.352	381.88
396.576	375.88
396.801	375.88
397.025	355.88
397.249	372.88
397.474	391.88
397.698	396.88
397.922	384.88
398.147	399.88
398.371	407.88
398.595	400.88
398.82	424.88
399.044	415.88
399.268	421.88
399.492	431.88
399.717	457.88
399.941	489.88
400.165	469.88
400.389	488.88
400.613	441.88
400.837	435.88
401.062	417.88
401.286	400.88
401.51	397.88
401.734	426.88
401.958	407.88
402.182	393.88
402.406	399.88
402.63	435.88
402.854	417.88
403.078	411.88
403.302	420.88
403.526	424.88
403.75	408.88
403.974	433.88
404.198	404.88
404.422	423.88
404.645	451.88
404.869	439.88
405.093	446.88
405.317	465.88
405.541	502.88
405.765	455.88
405.988	446.88
406.212	467.88
406.436	474.88
406.66	504.88
406.883	469.88
407.107	471.88
407.331	527.88
407.555	545.88
407.778	536.88
408.002	519.88
408.226	461.88
408.449	467.88
408.673	467.88
408.896	446.88
409.12	487.88
409.344	491.88
409.567	434.88
409.791	434.88
410.014	427.88
410.238	421.88
410.461	429.88
410.685	414.88
410.908	444.88
411.132	448.88
411.355	469.88
411.578	472.88
411.802	417.88
412.025	411.88
412.249	427.88
412.472	439.88
412.695	464.88
412.919	450.88
413.142	427.88
413.365	427.88
413.589	424.88
413.812	390.88
414.035	403.88
414.258	392.88
414.482	399.88
414.705	412.88
414.928	401.88
415.151	378.88
415.374	385.88
415.597	387.88
415.821	368.88
416.044	390.88
416.267	381.88
416.49	401.88
416.713	382.88
416.936	399.88
417.159	400.88
417.382	377.88
417.605	389.88
417.828	429.88
418.051	415.88
418.274	415.88
418.497	406.88
418.72	409.88
418.943	383.88
419.166	412.88
419.389	422.88
419.611	419.88
419.834	414.88
420.057	412.88
420.28	419.88
420.503	420.88
420.726	440.88
420.948	433.88
421.171	458.88
421.394	476.88
421.617	434.88
421.839	405.88
422.062	420.88
422.285	431.88
422.507	459.88
422.73	527.88
422.953	481.88
423.175	438.88
423.398	421.88
423.621	421.88
423.843	446.88
424.066	441.88
424.288	438.88
424.511	471.88
424.733	493.88
424.956	563.88
425.178	541.88
425.401	546.88
425.623	554.88
425.846	473.88
426.068	456.88
426.291	453.88
426.513	446.88
426.735	461.88
426.958	496.88
427.18	566.88
427.402	626.88
427.625	693.88
427.847	623.88
428.069	544.88
428.292	482.88
428.514	456.88
428.736	437.88
428.958	419.88
429.181	399.88
429.403	417.88
429.625	427.88
429.847	451.88
430.069	497.88
430.292	481.88
430.514	425.88
430.736	433.88
430.958	405.88
431.18	400.88
431.402	397.88
431.624	375.88
431.846	409.88
432.068	404.88
432.29	381.88
432.512	393.88
432.734	401.88
432.956	394.88
433.178	423.88
433.4	413.88
433.622	404.88
433.844	405.88
434.066	399.88
434.287	402.88
434.509	395.88
434.731	411.88
434.953	405.88
435.175	416.88
435.397	455.88
435.618	441.88
435.84	490.88
436.062	575.88
436.284	598.88
436.505	510.88
436.727	465.88
436.949	429.88
437.17	404.88
437.392	413.88
437.614	431.88
437.835	482.88
438.057	545.88
438.278	632.88
438.5	591.88
438.721	630.88
438.943	623.88
439.165	499.88
439.386	473.88
439.608	448.88
439.829	455.88
440.05	469.88
440.272	512.88
440.493	478.88
440.715	444.88
440.936	417.88
441.158	409.88
441.379	437.88
441.6	441.88
441.822	457.88
442.043	486.88
442.264	555.88
442.486	596.88
442.707	529.88
442.928	451.88
443.149	486.88
443.371	476.88
443.592	533.88
443.813	584.88
444.034	614.88
444.255	524.88
444.476	476.88
444.698	455.88
444.919	447.88
445.14	574.88
445.361	510.88
445.582	494.88
445.803	529.88
446.024	616.88
446.245	630.88
446.466	551.88
446.687	467.88
446.908	453.88
447.129	444.88
447.35	425.88
447.571	412.88
447.792	411.88
448.013	434.88
448.234	441.88
448.455	483.88
448.675	563.88
448.896	615.88
449.117	535.88
449.338	505.88
449.559	613.88
449.779	629.88
450	531.88
450.221	456.88
450.442	435.88
450.662	426.88
450.883	414.88
451.104	439.88
451.324	435.88
451.545	407.88
451.766	403.88
451.986	377.88
452.207	369.88
452.428	382.88
452.648	387.88
452.869	383.88
453.089	405.88
453.31	390.88
453.53	386.88
453.751	386.88
453.971	385.88
454.192	415.88
454.412	407.88
454.633	378.88
454.853	373.88
455.073	366.88
455.294	400.88
455.514	467.88
455.734	433.88
455.955	385.88
456.175	371.88
456.395	337.88
456.616	356.88
456.836	358.88
457.056	340.88
457.276	345.88
457.497	362.88
457.717	351.88
457.937	343.88
458.157	360.88
458.377	358.88
458.598	385.88
458.818	457.88
459.038	514.88
459.258	509.88
459.478	442.88
459.698	414.88
459.918	375.88
460.138	383.88
460.358	387.88
460.578	371.88
460.798	400.88
461.018	418.88
461.238	386.88
461.458	389.88
461.678	399.88
461.898	396.88
462.118	390.88
462.338	423.88
462.558	410.88
462.777	400.88
462.997	417.88
463.217	435.88
463.437	430.88
463.657	434.88
463.876	421.88
464.096	412.88
464.316	424.88
464.536	444.88
464.755	429.88
464.975	447.88
465.195	473.88
465.414	545.88
465.634	485.88
465.854	438.88
466.073	423.88
466.293	397.88
466.512	382.88
466.732	387.88
466.951	399.88
467.171	375.88
467.391	383.88
467.61	400.88
467.829	403.88
468.049	389.88
468.268	403.88
468.488	378.88
468.707	383.88
468.927	368.88
469.146	367.88
469.365	372.88
469.585	370.88
469.804	383.88
470.023	384.88
470.243	392.88
470.462	422.88
470.681	412.88
470.901	408.88
471.12	400.88
471.339	397.88
471.558	391.88
471.777	394.88
471.997	397.88
472.216	393.88
472.435	414.88
472.654	395.88
472.873	379.88
473.092	382.88
473.311	389.88
473.53	385.88
473.749	408.88
473.968	436.88
474.187	509.88
474.406	518.88
474.625	435.88
474.844	424.88
475.063	416.88
475.282	389.88
475.501	402.88
475.72	412.88
475.939	399.88
476.158	408.88
476.377	394.88
476.596	405.88
476.814	408.88
477.033	426.88
477.252	423.88
477.471	414.88
477.69	388.88
477.908	411.88
478.127	426.88
478.346	427.88
478.564	416.88
478.783	435.88
479.002	431.88
479.22	455.88
479.439	451.88
479.658	459.88
479.876	475.88
480.095	473.88
480.313	477.88
480.532	477.88
480.751	480.88
480.969	476.88
481.188	535.88
481.406	553.88
481.624	491.88
481.843	447.88
482.061	459.88
482.28	457.88
482.498	461.88
482.717	452.88
482.935	454.88
483.153	440.88
483.372	437.88
483.59	464.88
483.808	459.88
484.027	467.88
484.245	471.88
484.463	472.88
484.681	460.88
484.9	484.88
485.118	476.88
485.336	460.88
485.554	468.88
485.772	471.88
485.99	456.88
486.209	455.88
486.427	463.88
486.645	487.88
486.863	494.88
487.081	493.88
487.299	479.88
487.517	503.88
487.735	477.88
487.953	492.88
488.171	490.88
488.389	471.88
488.607	477.88
488.825	479.88
489.043	475.88
489.261	488.88
489.479	497.88
489.696	505.88
489.914	514.88
490.132	524.88
490.35	510.88
490.568	533.88
490.786	514.88
491.003	516.88
491.221	522.88
491.439	549.88
491.657	552.88
491.874	553.88
492.092	559.88
492.31	583.88
492.527	582.88
492.745	566.88
492.963	561.88
493.18	597.88
493.398	588.88
493.615	578.88
493.833	564.88
494.05	585.88
494.268	580.88
494.485	586.88
494.703	586.88
494.92	606.88
495.138	586.88
495.355	562.88
495.573	592.88
495.79	568.88
496.008	588.88
496.225	574.88
496.442	603.88
496.66	578.88
496.877	583.88
497.094	583.88
497.312	597.88
497.529	576.88
497.746	599.88
497.963	599.88
498.181	598.88
498.398	623.88
498.615	618.88
498.832	639.88
499.049	659.88
499.267	649.88
499.484	682.88
499.701	708.88
499.918	709.88
500.135	714.88
500.352	766.88
500.569	787.88
500.786	739.88
501.003	769.88
501.22	742.88
501.437	738.88
501.654	728.88
501.871	714.88
502.088	702.88
