Data from 1983.PennyLincolnUp.Lamp.En5.5.200Scan.071819.P1_HRD10591_16-54-30-966.txt Node
Date: Thu Jul 18 16:54:30 EDT 2019
User: cochatt
Spectrometer: HR+D1059
Trigger mode: 1
Integration Time (sec): 1.000000E-1
Scans to average: 1
Electric dark correction enabled: true
Nonlinearity correction enabled: false
Boxcar width: 0
XAxis mode: Wavelengths
Number of Pixels in Spectrum: 2048
>>>>>Begin Spectral Data<<<<<
223.165	-16.69
223.4	-16.69
223.635	-16.69
223.869	-14.69
224.104	-9.69
224.338	-23.69
224.573	-5.69
224.808	-20.69
225.042	-2.69
225.277	-9.69
225.511	2.31
225.746	3.31
225.98	9.31
226.215	8.31
226.449	17.31
226.683	17.31
226.918	26.31
227.152	19.31
227.387	41.31
227.621	28.31
227.856	32.31
228.09	48.31
228.324	51.31
228.559	42.31
228.793	65.31
229.027	90.31
229.262	93.31
229.496	116.31
229.73	120.31
229.964	145.31
230.199	120.31
230.433	97.31
230.667	92.31
230.901	114.31
231.136	108.31
231.37	102.31
231.604	106.31
231.838	112.31
232.072	99.31
232.306	105.31
232.541	108.31
232.775	115.31
233.009	114.31
233.243	96.31
233.477	86.31
233.711	118.31
233.945	99.31
234.179	105.31
234.413	105.31
234.647	105.31
234.881	107.31
235.115	114.31
235.349	122.31
235.583	118.31
235.817	104.31
236.051	123.31
236.285	120.31
236.519	106.31
236.753	136.31
236.987	124.31
237.221	176.31
237.455	210.31
237.689	154.31
237.922	131.31
238.156	132.31
238.39	130.31
238.624	119.31
238.858	110.31
239.091	117.31
239.325	108.31
239.559	112.31
239.793	130.31
240.027	120.31
240.26	130.31
240.494	146.31
240.728	126.31
240.961	131.31
241.195	135.31
241.429	133.31
241.662	124.31
241.896	120.31
242.13	113.31
242.363	142.31
242.597	122.31
242.83	116.31
243.064	129.31
243.298	119.31
243.531	140.31
243.765	131.31
243.998	139.31
244.232	125.31
244.465	128.31
244.699	130.31
244.932	126.31
245.166	124.31
245.399	140.31
245.633	133.31
245.866	134.31
246.099	136.31
246.333	150.31
246.566	146.31
246.8	129.31
247.033	160.31
247.266	127.31
247.5	136.31
247.733	153.31
247.966	155.31
248.2	150.31
248.433	163.31
248.666	164.31
248.899	181.31
249.133	168.31
249.366	176.31
249.599	170.31
249.832	160.31
250.066	163.31
250.299	163.31
250.532	188.31
250.765	184.31
250.998	204.31
251.231	222.31
251.465	197.31
251.698	185.31
251.931	158.31
252.164	174.31
252.397	165.31
252.63	186.31
252.863	190.31
253.096	193.31
253.329	213.31
253.562	190.31
253.795	200.31
254.028	202.31
254.261	207.31
254.494	215.31
254.727	233.31
254.96	259.31
255.193	258.31
255.426	238.31
255.659	211.31
255.892	205.31
256.124	210.31
256.357	218.31
256.59	209.31
256.823	216.31
257.056	199.31
257.289	212.31
257.521	194.31
257.754	200.31
257.987	184.31
258.22	192.31
258.452	186.31
258.685	200.31
258.918	191.31
259.151	197.31
259.383	200.31
259.616	211.31
259.849	220.31
260.081	207.31
260.314	231.31
260.547	233.31
260.779	227.31
261.012	212.31
261.244	212.31
261.477	210.31
261.71	207.31
261.942	217.31
262.175	222.31
262.407	216.31
262.64	216.31
262.872	203.31
263.105	191.31
263.337	188.31
263.57	180.31
263.802	198.31
264.035	207.31
264.267	200.31
264.499	200.31
264.732	191.31
264.964	214.31
265.197	191.31
265.429	197.31
265.661	203.31
265.894	199.31
266.126	204.31
266.358	212.31
266.591	190.31
266.823	193.31
267.055	199.31
267.287	190.31
267.52	220.31
267.752	206.31
267.984	208.31
268.216	199.31
268.448	213.31
268.681	217.31
268.913	226.31
269.145	224.31
269.377	237.31
269.609	261.31
269.841	253.31
270.073	248.31
270.306	268.31
270.538	290.31
270.77	297.31
271.002	272.31
271.234	284.31
271.466	262.31
271.698	272.31
271.93	316.31
272.162	282.31
272.394	286.31
272.626	261.31
272.858	274.31
273.09	247.31
273.322	255.31
273.553	232.31
273.785	230.31
274.017	268.31
274.249	220.31
274.481	233.31
274.713	257.31
274.945	235.31
275.176	258.31
275.408	245.31
275.64	236.31
275.872	243.31
276.104	274.31
276.335	253.31
276.567	270.31
276.799	248.31
277.031	300.31
277.262	262.31
277.494	295.31
277.726	275.31
277.957	257.31
278.189	274.31
278.421	249.31
278.652	264.31
278.884	226.31
279.115	247.31
279.347	252.31
279.579	246.31
279.81	242.31
280.042	245.31
280.273	229.31
280.505	257.31
280.736	238.31
280.968	257.31
281.199	251.31
281.431	253.31
281.662	234.31
281.894	239.31
282.125	246.31
282.356	278.31
282.588	289.31
282.819	282.31
283.051	242.31
283.282	247.31
283.513	239.31
283.745	255.31
283.976	258.31
284.207	233.31
284.439	246.31
284.67	243.31
284.901	243.31
285.132	232.31
285.364	258.31
285.595	259.31
285.826	264.31
286.057	252.31
286.288	241.31
286.52	240.31
286.751	272.31
286.982	257.31
287.213	250.31
287.444	247.31
287.675	272.31
287.906	271.31
288.138	275.31
288.369	287.31
288.6	272.31
288.831	262.31
289.062	258.31
289.293	261.31
289.524	244.31
289.755	274.31
289.986	258.31
290.217	253.31
290.448	260.31
290.679	259.31
290.91	258.31
291.141	270.31
291.371	254.31
291.602	265.31
291.833	252.31
292.064	258.31
292.295	262.31
292.526	258.31
292.757	258.31
292.987	267.31
293.218	255.31
293.449	279.31
293.68	270.31
293.91	267.31
294.141	262.31
294.372	245.31
294.603	274.31
294.833	254.31
295.064	259.31
295.295	274.31
295.525	262.31
295.756	283.31
295.987	284.31
296.217	304.31
296.448	306.31
296.679	281.31
296.909	263.31
297.14	260.31
297.37	260.31
297.601	272.31
297.831	262.31
298.062	275.31
298.292	260.31
298.523	271.31
298.753	258.31
298.984	281.31
299.214	263.31
299.445	297.31
299.675	294.31
299.905	274.31
300.136	266.31
300.366	279.31
300.597	283.31
300.827	275.31
301.057	288.31
301.288	286.31
301.518	306.31
301.748	276.31
301.979	308.31
302.209	295.31
302.439	294.31
302.669	302.31
302.9	305.31
303.13	291.31
303.36	295.31
303.59	306.31
303.82	306.31
304.051	303.31
304.281	290.31
304.511	309.31
304.741	300.31
304.971	302.31
305.201	314.31
305.431	279.31
305.661	292.31
305.891	304.31
306.121	299.31
306.352	305.31
306.582	298.31
306.812	295.31
307.042	295.31
307.272	293.31
307.502	311.31
307.731	308.31
307.961	283.31
308.191	286.31
308.421	302.31
308.651	318.31
308.881	300.31
309.111	310.31
309.341	314.31
309.571	320.31
309.8	324.31
310.03	347.31
310.26	326.31
310.49	347.31
310.72	352.31
310.949	378.31
311.179	371.31
311.409	350.31
311.639	333.31
311.868	351.31
312.098	354.31
312.328	350.31
312.557	389.31
312.787	395.31
313.017	386.31
313.246	372.31
313.476	362.31
313.706	353.31
313.935	344.31
314.165	372.31
314.394	369.31
314.624	381.31
314.853	332.31
315.083	354.31
315.312	340.31
315.542	337.31
315.771	346.31
316.001	336.31
316.23	338.31
316.46	351.31
316.689	334.31
316.919	354.31
317.148	345.31
317.377	361.31
317.607	358.31
317.836	347.31
318.065	360.31
318.295	351.31
318.524	367.31
318.753	338.31
318.983	360.31
319.212	360.31
319.441	355.31
319.67	354.31
319.9	356.31
320.129	360.31
320.358	357.31
320.587	340.31
320.816	383.31
321.046	366.31
321.275	348.31
321.504	371.31
321.733	388.31
321.962	379.31
322.191	411.31
322.42	423.31
322.649	426.31
322.878	441.31
323.108	429.31
323.337	461.31
323.566	475.31
323.795	512.31
324.024	592.31
324.253	712.31
324.482	1050.31
324.71	1547.31
324.939	2121.31
325.168	1742.31
325.397	948.31
325.626	634.31
325.855	536.31
326.084	470.31
326.313	482.31
326.542	495.31
326.77	534.31
326.999	668.31
327.228	936.31
327.457	1375.31
327.686	1547.31
327.914	1031.31
328.143	682.31
328.372	630.31
328.6	563.31
328.829	547.31
329.058	539.31
329.287	569.31
329.515	534.31
329.744	503.31
329.972	475.31
330.201	498.31
330.43	519.31
330.658	554.31
330.887	599.31
331.115	562.31
331.344	487.31
331.572	463.31
331.801	451.31
332.03	447.31
332.258	447.31
332.486	423.31
332.715	380.31
332.943	411.31
333.172	415.31
333.4	423.31
333.629	442.31
333.857	430.31
334.085	446.31
334.314	457.31
334.542	495.31
334.771	506.31
334.999	440.31
335.227	420.31
335.455	430.31
335.684	424.31
335.912	405.31
336.14	380.31
336.369	387.31
336.597	405.31
336.825	395.31
337.053	406.31
337.281	390.31
337.51	389.31
337.738	393.31
337.966	394.31
338.194	404.31
338.422	403.31
338.65	384.31
338.878	395.31
339.106	380.31
339.334	386.31
339.562	363.31
339.79	378.31
340.018	382.31
340.246	386.31
340.474	401.31
340.702	379.31
340.93	370.31
341.158	374.31
341.386	386.31
341.614	390.31
341.842	424.31
342.07	394.31
342.298	381.31
342.526	363.31
342.754	391.31
342.981	340.31
343.209	387.31
343.437	384.31
343.665	394.31
343.893	398.31
344.12	406.31
344.348	388.31
344.576	416.31
344.804	402.31
345.031	384.31
345.259	407.31
345.487	386.31
345.714	381.31
345.942	370.31
346.17	378.31
346.397	382.31
346.625	370.31
346.853	375.31
347.08	365.31
347.308	396.31
347.535	377.31
347.763	390.31
347.99	394.31
348.218	383.31
348.445	396.31
348.673	398.31
348.9	386.31
349.128	386.31
349.355	354.31
349.583	334.31
349.81	361.31
350.037	350.31
350.265	350.31
350.492	362.31
350.72	367.31
350.947	370.31
351.174	379.31
351.402	385.31
351.629	392.31
351.856	394.31
352.083	386.31
352.311	386.31
352.538	405.31
352.765	414.31
352.992	402.31
353.22	386.31
353.447	403.31
353.674	374.31
353.901	348.31
354.128	374.31
354.355	344.31
354.583	349.31
354.81	349.31
355.037	347.31
355.264	351.31
355.491	326.31
355.718	336.31
355.945	354.31
356.172	355.31
356.399	360.31
356.626	352.31
356.853	367.31
357.08	338.31
357.307	332.31
357.534	357.31
357.761	334.31
357.988	331.31
358.215	332.31
358.441	342.31
358.668	324.31
358.895	345.31
359.122	351.31
359.349	363.31
359.576	377.31
359.802	400.31
360.029	430.31
360.256	434.31
360.483	418.31
360.709	379.31
360.936	362.31
361.163	378.31
361.39	396.31
361.616	379.31
361.843	379.31
362.07	381.31
362.296	370.31
362.523	369.31
362.749	363.31
362.976	356.31
363.203	343.31
363.429	363.31
363.656	357.31
363.882	368.31
364.109	349.31
364.335	359.31
364.562	357.31
364.788	354.31
365.015	386.31
365.241	364.31
365.468	376.31
365.694	356.31
365.92	369.31
366.147	337.31
366.373	338.31
366.599	344.31
366.826	347.31
367.052	351.31
367.278	348.31
367.505	354.31
367.731	348.31
367.957	342.31
368.184	354.31
368.41	369.31
368.636	380.31
368.862	376.31
369.089	377.31
369.315	369.31
369.541	352.31
369.767	355.31
369.993	348.31
370.219	369.31
370.445	366.31
370.672	348.31
370.898	347.31
371.124	350.31
371.35	348.31
371.576	354.31
371.802	350.31
372.028	338.31
372.254	338.31
372.48	341.31
372.706	325.31
372.932	339.31
373.158	358.31
373.384	357.31
373.61	359.31
373.835	375.31
374.061	344.31
374.287	350.31
374.513	350.31
374.739	346.31
374.965	336.31
375.191	339.31
375.416	364.31
375.642	352.31
375.868	351.31
376.094	336.31
376.319	355.31
376.545	343.31
376.771	336.31
376.997	353.31
377.222	345.31
377.448	341.31
377.674	347.31
377.899	349.31
378.125	326.31
378.35	352.31
378.576	345.31
378.802	339.31
379.027	364.31
379.253	334.31
379.478	325.31
379.704	344.31
379.929	335.31
380.155	343.31
380.38	331.31
380.606	335.31
380.831	339.31
381.057	346.31
381.282	333.31
381.507	322.31
381.733	325.31
381.958	355.31
382.184	340.31
382.409	344.31
382.634	362.31
382.86	359.31
383.085	340.31
383.31	343.31
383.535	359.31
383.761	370.31
383.986	353.31
384.211	363.31
384.436	361.31
384.662	354.31
384.887	356.31
385.112	353.31
385.337	378.31
385.562	375.31
385.787	359.31
386.013	384.31
386.238	391.31
386.463	357.31
386.688	382.31
386.913	356.31
387.138	351.31
387.363	370.31
387.588	364.31
387.813	376.31
388.038	362.31
388.263	376.31
388.488	359.31
388.713	377.31
388.938	351.31
389.163	373.31
389.387	383.31
389.612	368.31
389.837	368.31
390.062	373.31
390.287	351.31
390.512	357.31
390.736	375.31
390.961	372.31
391.186	357.31
391.411	363.31
391.636	367.31
391.86	367.31
392.085	361.31
392.31	384.31
392.534	370.31
392.759	368.31
392.984	373.31
393.208	384.31
393.433	371.31
393.658	381.31
393.882	362.31
394.107	383.31
394.331	370.31
394.556	360.31
394.78	358.31
395.005	372.31
395.229	372.31
395.454	372.31
395.678	389.31
395.903	400.31
396.127	398.31
396.352	400.31
396.576	399.31
396.801	391.31
397.025	394.31
397.249	390.31
397.474	409.31
397.698	409.31
397.922	414.31
398.147	428.31
398.371	398.31
398.595	413.31
398.82	410.31
399.044	425.31
399.268	441.31
399.492	443.31
399.717	464.31
399.941	478.31
400.165	502.31
400.389	496.31
400.613	441.31
400.837	426.31
401.062	428.31
401.286	421.31
401.51	416.31
401.734	400.31
401.958	415.31
402.182	425.31
402.406	441.31
402.63	436.31
402.854	428.31
403.078	432.31
403.302	438.31
403.526	438.31
403.75	444.31
403.974	435.31
404.198	403.31
404.422	428.31
404.645	451.31
404.869	452.31
405.093	448.31
405.317	495.31
405.541	514.31
405.765	483.31
405.988	455.31
406.212	458.31
406.436	489.31
406.66	486.31
406.883	504.31
407.107	506.31
407.331	522.31
407.555	559.31
407.778	554.31
408.002	516.31
408.226	487.31
408.449	462.31
408.673	459.31
408.896	481.31
409.12	537.31
409.344	514.31
409.567	485.31
409.791	440.31
410.014	422.31
410.238	454.31
410.461	451.31
410.685	439.31
410.908	443.31
411.132	454.31
411.355	500.31
411.578	487.31
411.802	445.31
412.025	423.31
412.249	462.31
412.472	440.31
412.695	490.31
412.919	485.31
413.142	427.31
413.365	440.31
413.589	422.31
413.812	412.31
414.035	426.31
414.258	423.31
414.482	418.31
414.705	423.31
414.928	395.31
415.151	410.31
415.374	401.31
415.597	399.31
415.821	409.31
416.044	403.31
416.267	399.31
416.49	403.31
416.713	380.31
416.936	441.31
417.159	400.31
417.382	400.31
417.605	413.31
417.828	416.31
418.051	420.31
418.274	434.31
418.497	407.31
418.72	412.31
418.943	390.31
419.166	432.31
419.389	438.31
419.611	451.31
419.834	426.31
420.057	427.31
420.28	420.31
420.503	440.31
420.726	450.31
420.948	438.31
421.171	461.31
421.394	495.31
421.617	446.31
421.839	443.31
422.062	415.31
422.285	434.31
422.507	481.31
422.73	529.31
422.953	499.31
423.175	445.31
423.398	451.31
423.621	437.31
423.843	455.31
424.066	462.31
424.288	426.31
424.511	464.31
424.733	536.31
424.956	594.31
425.178	555.31
425.401	570.31
425.623	578.31
425.846	494.31
426.068	470.31
426.291	440.31
426.513	463.31
426.735	480.31
426.958	506.31
427.18	580.31
427.402	656.31
427.625	738.31
427.847	673.31
428.069	586.31
428.292	495.31
428.514	487.31
428.736	443.31
428.958	429.31
429.181	446.31
429.403	432.31
429.625	452.31
429.847	475.31
430.069	494.31
430.292	488.31
430.514	442.31
430.736	436.31
430.958	432.31
431.18	410.31
431.402	402.31
431.624	404.31
431.846	397.31
432.068	387.31
432.29	412.31
432.512	426.31
432.734	414.31
432.956	407.31
433.178	428.31
433.4	414.31
433.622	416.31
433.844	412.31
434.066	387.31
434.287	390.31
434.509	410.31
434.731	415.31
434.953	422.31
435.175	414.31
435.397	428.31
435.618	436.31
435.84	508.31
436.062	579.31
436.284	643.31
436.505	543.31
436.727	449.31
436.949	438.31
437.17	427.31
437.392	443.31
437.614	436.31
437.835	455.31
438.057	560.31
438.278	627.31
438.5	624.31
438.721	686.31
438.943	645.31
439.165	511.31
439.386	481.31
439.608	487.31
439.829	479.31
440.05	479.31
440.272	541.31
440.493	497.31
440.715	466.31
440.936	440.31
441.158	433.31
441.379	455.31
441.6	448.31
441.822	475.31
442.043	500.31
442.264	560.31
442.486	603.31
442.707	516.31
442.928	481.31
443.149	469.31
443.371	490.31
443.592	546.31
443.813	595.31
444.034	652.31
444.255	539.31
444.476	490.31
444.698	468.31
444.919	467.31
445.14	602.31
445.361	518.31
445.582	519.31
445.803	572.31
446.024	657.31
446.245	653.31
446.466	579.31
446.687	484.31
446.908	467.31
447.129	454.31
447.35	442.31
447.571	438.31
447.792	422.31
448.013	431.31
448.234	438.31
448.455	498.31
448.675	594.31
448.896	658.31
449.117	548.31
449.338	544.31
449.559	623.31
449.779	695.31
450	551.31
450.221	473.31
450.442	438.31
450.662	430.31
450.883	446.31
451.104	459.31
451.324	429.31
451.545	403.31
451.766	429.31
451.986	393.31
452.207	386.31
452.428	376.31
452.648	382.31
452.869	388.31
453.089	428.31
453.31	403.31
453.53	403.31
453.751	407.31
453.971	398.31
454.192	428.31
454.412	417.31
454.633	395.31
454.853	375.31
455.073	391.31
455.294	405.31
455.514	461.31
455.734	463.31
455.955	391.31
456.175	400.31
456.395	391.31
456.616	366.31
456.836	362.31
457.056	376.31
457.276	377.31
457.497	346.31
457.717	378.31
457.937	391.31
458.157	378.31
458.377	376.31
458.598	395.31
458.818	470.31
459.038	545.31
459.258	538.31
459.478	456.31
459.698	436.31
459.918	413.31
460.138	409.31
460.358	418.31
460.578	393.31
460.798	399.31
461.018	409.31
461.238	421.31
461.458	426.31
461.678	400.31
461.898	406.31
462.118	395.31
462.338	430.31
462.558	415.31
462.777	421.31
462.997	415.31
463.217	415.31
463.437	443.31
463.657	443.31
463.876	431.31
464.096	424.31
464.316	426.31
464.536	436.31
464.755	439.31
464.975	466.31
465.195	513.31
465.414	592.31
465.634	478.31
465.854	470.31
466.073	434.31
466.293	420.31
466.512	399.31
466.732	410.31
466.951	414.31
467.171	392.31
467.391	393.31
467.61	409.31
467.829	419.31
468.049	404.31
468.268	408.31
468.488	416.31
468.707	396.31
468.927	402.31
469.146	402.31
469.365	375.31
469.585	386.31
469.804	385.31
470.023	395.31
470.243	424.31
470.462	399.31
470.681	425.31
470.901	424.31
471.12	414.31
471.339	407.31
471.558	419.31
471.777	403.31
471.997	411.31
472.216	426.31
472.435	448.31
472.654	407.31
472.873	424.31
473.092	404.31
473.311	400.31
473.53	401.31
473.749	425.31
473.968	456.31
474.187	532.31
474.406	534.31
474.625	469.31
474.844	412.31
475.063	380.31
475.282	411.31
475.501	427.31
475.72	394.31
475.939	418.31
476.158	414.31
476.377	402.31
476.596	400.31
476.814	406.31
477.033	429.31
477.252	430.31
477.471	423.31
477.69	422.31
477.908	449.31
478.127	453.31
478.346	443.31
478.564	423.31
478.783	436.31
479.002	450.31
479.22	447.31
479.439	474.31
479.658	486.31
479.876	505.31
480.095	499.31
480.313	510.31
480.532	488.31
480.751	506.31
480.969	522.31
481.188	562.31
481.406	589.31
481.624	506.31
481.843	495.31
482.061	482.31
482.28	470.31
482.498	454.31
482.717	454.31
482.935	479.31
483.153	455.31
483.372	450.31
483.59	485.31
483.808	485.31
484.027	446.31
484.245	486.31
484.463	467.31
484.681	484.31
484.9	480.31
485.118	470.31
485.336	474.31
485.554	482.31
485.772	494.31
485.99	468.31
486.209	489.31
486.427	490.31
486.645	485.31
486.863	517.31
487.081	496.31
487.299	499.31
487.517	519.31
487.735	506.31
487.953	496.31
488.171	488.31
488.389	498.31
488.607	510.31
488.825	503.31
489.043	531.31
489.261	522.31
489.479	519.31
489.696	499.31
489.914	485.31
490.132	527.31
490.35	518.31
490.568	523.31
490.786	546.31
491.003	586.31
491.221	576.31
491.439	568.31
491.657	590.31
491.874	599.31
492.092	577.31
492.31	608.31
492.527	584.31
492.745	585.31
492.963	600.31
493.18	579.31
493.398	610.31
493.615	591.31
493.833	599.31
494.05	608.31
494.268	617.31
494.485	590.31
494.703	603.31
494.92	574.31
495.138	606.31
495.355	608.31
495.573	588.31
495.79	613.31
496.008	603.31
496.225	600.31
496.442	588.31
496.66	628.31
496.877	605.31
497.094	588.31
497.312	611.31
497.529	611.31
497.746	633.31
497.963	615.31
498.181	666.31
498.398	630.31
498.615	660.31
498.832	656.31
499.049	672.31
499.267	670.31
499.484	689.31
499.701	698.31
499.918	737.31
500.135	755.31
500.352	758.31
500.569	797.31
500.786	802.31
501.003	776.31
501.22	773.31
501.437	728.31
501.654	726.31
501.871	730.31
502.088	705.31
