Data from 1983.PennyLincolnUp.Lamp.En5.5.200Scan.071819.P1_HRD10591_16-54-51-966.txt Node
Date: Thu Jul 18 16:54:51 EDT 2019
User: cochatt
Spectrometer: HR+D1059
Trigger mode: 1
Integration Time (sec): 1.000000E-1
Scans to average: 1
Electric dark correction enabled: true
Nonlinearity correction enabled: false
Boxcar width: 0
XAxis mode: Wavelengths
Number of Pixels in Spectrum: 2048
>>>>>Begin Spectral Data<<<<<
223.165	-16.56
223.4	-16.56
223.635	-16.56
223.869	-11.56
224.104	-14.56
224.338	-25.56
224.573	-10.56
224.808	-11.56
225.042	-10.56
225.277	-9.56
225.511	-9.56
225.746	11.44
225.98	13.44
226.215	17.44
226.449	18.44
226.683	9.44
226.918	18.44
227.152	31.44
227.387	38.44
227.621	41.44
227.856	37.44
228.09	58.44
228.324	48.44
228.559	52.44
228.793	66.44
229.027	94.44
229.262	105.44
229.496	103.44
229.73	131.44
229.964	146.44
230.199	126.44
230.433	104.44
230.667	116.44
230.901	109.44
231.136	113.44
231.37	101.44
231.604	112.44
231.838	112.44
232.072	102.44
232.306	117.44
232.541	92.44
232.775	116.44
233.009	95.44
233.243	118.44
233.477	118.44
233.711	99.44
233.945	114.44
234.179	118.44
234.413	106.44
234.647	111.44
234.881	125.44
235.115	122.44
235.349	113.44
235.583	124.44
235.817	123.44
236.051	129.44
236.285	121.44
236.519	134.44
236.753	139.44
236.987	137.44
237.221	193.44
237.455	201.44
237.689	167.44
237.922	144.44
238.156	127.44
238.39	117.44
238.624	117.44
238.858	138.44
239.091	114.44
239.325	120.44
239.559	125.44
239.793	132.44
240.027	126.44
240.26	128.44
240.494	165.44
240.728	140.44
240.961	135.44
241.195	154.44
241.429	130.44
241.662	117.44
241.896	127.44
242.13	112.44
242.363	126.44
242.597	130.44
242.83	129.44
243.064	145.44
243.298	136.44
243.531	130.44
243.765	155.44
243.998	138.44
244.232	147.44
244.465	146.44
244.699	136.44
244.932	136.44
245.166	141.44
245.399	136.44
245.633	139.44
245.866	143.44
246.099	143.44
246.333	149.44
246.566	136.44
246.8	138.44
247.033	147.44
247.266	150.44
247.5	146.44
247.733	165.44
247.966	162.44
248.2	153.44
248.433	164.44
248.666	183.44
248.899	172.44
249.133	196.44
249.366	201.44
249.599	200.44
249.832	175.44
250.066	189.44
250.299	182.44
250.532	182.44
250.765	200.44
250.998	210.44
251.231	208.44
251.465	214.44
251.698	214.44
251.931	200.44
252.164	191.44
252.397	182.44
252.63	188.44
252.863	193.44
253.096	206.44
253.329	224.44
253.562	218.44
253.795	207.44
254.028	202.44
254.261	208.44
254.494	213.44
254.727	240.44
254.96	244.44
255.193	243.44
255.426	236.44
255.659	216.44
255.892	228.44
256.124	239.44
256.357	239.44
256.59	237.44
256.823	228.44
257.056	216.44
257.289	214.44
257.521	201.44
257.754	201.44
257.987	193.44
258.22	191.44
258.452	197.44
258.685	191.44
258.918	211.44
259.151	212.44
259.383	221.44
259.616	198.44
259.849	213.44
260.081	216.44
260.314	241.44
260.547	234.44
260.779	233.44
261.012	219.44
261.244	213.44
261.477	204.44
261.71	209.44
261.942	228.44
262.175	237.44
262.407	221.44
262.64	218.44
262.872	197.44
263.105	210.44
263.337	206.44
263.57	190.44
263.802	205.44
264.035	207.44
264.267	186.44
264.499	191.44
264.732	201.44
264.964	201.44
265.197	211.44
265.429	204.44
265.661	194.44
265.894	208.44
266.126	191.44
266.358	213.44
266.591	191.44
266.823	213.44
267.055	213.44
267.287	225.44
267.52	199.44
267.752	202.44
267.984	201.44
268.216	209.44
268.448	219.44
268.681	213.44
268.913	250.44
269.145	263.44
269.377	263.44
269.609	247.44
269.841	240.44
270.073	260.44
270.306	264.44
270.538	298.44
270.77	285.44
271.002	270.44
271.234	271.44
271.466	293.44
271.698	301.44
271.93	302.44
272.162	317.44
272.394	284.44
272.626	274.44
272.858	265.44
273.09	249.44
273.322	283.44
273.553	263.44
273.785	256.44
274.017	254.44
274.249	253.44
274.481	270.44
274.713	259.44
274.945	278.44
275.176	262.44
275.408	257.44
275.64	262.44
275.872	260.44
276.104	241.44
276.335	248.44
276.567	273.44
276.799	271.44
277.031	270.44
277.262	296.44
277.494	308.44
277.726	293.44
277.957	281.44
278.189	265.44
278.421	242.44
278.652	254.44
278.884	260.44
279.115	235.44
279.347	234.44
279.579	240.44
279.81	263.44
280.042	265.44
280.273	252.44
280.505	270.44
280.736	254.44
280.968	255.44
281.199	248.44
281.431	273.44
281.662	254.44
281.894	252.44
282.125	235.44
282.356	282.44
282.588	300.44
282.819	281.44
283.051	274.44
283.282	268.44
283.513	253.44
283.745	267.44
283.976	248.44
284.207	268.44
284.439	270.44
284.67	282.44
284.901	254.44
285.132	262.44
285.364	273.44
285.595	268.44
285.826	249.44
286.057	268.44
286.288	261.44
286.52	267.44
286.751	254.44
286.982	253.44
287.213	252.44
287.444	272.44
287.675	265.44
287.906	283.44
288.138	280.44
288.369	276.44
288.6	289.44
288.831	285.44
289.062	272.44
289.293	280.44
289.524	289.44
289.755	252.44
289.986	269.44
290.217	251.44
290.448	272.44
290.679	285.44
290.91	265.44
291.141	254.44
291.371	249.44
291.602	269.44
291.833	273.44
292.064	272.44
292.295	268.44
292.526	280.44
292.757	294.44
292.987	262.44
293.218	260.44
293.449	277.44
293.68	300.44
293.91	272.44
294.141	257.44
294.372	280.44
294.603	278.44
294.833	290.44
295.064	300.44
295.295	282.44
295.525	270.44
295.756	277.44
295.987	290.44
296.217	306.44
296.448	310.44
296.679	286.44
296.909	286.44
297.14	275.44
297.37	292.44
297.601	288.44
297.831	264.44
298.062	268.44
298.292	298.44
298.523	282.44
298.753	294.44
298.984	272.44
299.214	284.44
299.445	268.44
299.675	292.44
299.905	303.44
300.136	292.44
300.366	292.44
300.597	301.44
300.827	289.44
301.057	303.44
301.288	303.44
301.518	311.44
301.748	321.44
301.979	313.44
302.209	311.44
302.439	315.44
302.669	297.44
302.9	282.44
303.13	295.44
303.36	278.44
303.59	296.44
303.82	320.44
304.051	322.44
304.281	325.44
304.511	305.44
304.741	296.44
304.971	300.44
305.201	319.44
305.431	298.44
305.661	300.44
305.891	294.44
306.121	330.44
306.352	335.44
306.582	311.44
306.812	303.44
307.042	319.44
307.272	319.44
307.502	316.44
307.731	325.44
307.961	312.44
308.191	308.44
308.421	311.44
308.651	302.44
308.881	344.44
309.111	315.44
309.341	316.44
309.571	344.44
309.8	344.44
310.03	345.44
310.26	372.44
310.49	344.44
310.72	383.44
310.949	382.44
311.179	379.44
311.409	355.44
311.639	354.44
311.868	342.44
312.098	370.44
312.328	369.44
312.557	378.44
312.787	372.44
313.017	406.44
313.246	373.44
313.476	354.44
313.706	380.44
313.935	361.44
314.165	364.44
314.394	386.44
314.624	367.44
314.853	367.44
315.083	350.44
315.312	351.44
315.542	357.44
315.771	367.44
316.001	344.44
316.23	352.44
316.46	368.44
316.689	364.44
316.919	353.44
317.148	379.44
317.377	384.44
317.607	374.44
317.836	358.44
318.065	375.44
318.295	356.44
318.524	356.44
318.753	368.44
318.983	352.44
319.212	345.44
319.441	360.44
319.67	346.44
319.9	352.44
320.129	371.44
320.358	349.44
320.587	352.44
320.816	370.44
321.046	366.44
321.275	372.44
321.504	382.44
321.733	376.44
321.962	384.44
322.191	390.44
322.42	406.44
322.649	452.44
322.878	431.44
323.108	432.44
323.337	475.44
323.566	523.44
323.795	524.44
324.024	572.44
324.253	720.44
324.482	979.44
324.71	1541.44
324.939	2070.44
325.168	1708.44
325.397	906.44
325.626	646.44
325.855	526.44
326.084	489.44
326.313	509.44
326.542	498.44
326.77	551.44
326.999	647.44
327.228	919.44
327.457	1334.44
327.686	1524.44
327.914	1044.44
328.143	703.44
328.372	621.44
328.6	595.44
328.829	578.44
329.058	583.44
329.287	568.44
329.515	525.44
329.744	494.44
329.972	505.44
330.201	536.44
330.43	574.44
330.658	607.44
330.887	610.44
331.115	589.44
331.344	510.44
331.572	471.44
331.801	476.44
332.03	455.44
332.258	452.44
332.486	429.44
332.715	434.44
332.943	429.44
333.172	440.44
333.4	421.44
333.629	444.44
333.857	434.44
334.085	440.44
334.314	483.44
334.542	546.44
334.771	582.44
334.999	471.44
335.227	445.44
335.455	448.44
335.684	443.44
335.912	432.44
336.14	430.44
336.369	407.44
336.597	416.44
336.825	438.44
337.053	414.44
337.281	410.44
337.51	415.44
337.738	428.44
337.966	430.44
338.194	401.44
338.422	414.44
338.65	398.44
338.878	384.44
339.106	388.44
339.334	398.44
339.562	397.44
339.79	389.44
340.018	398.44
340.246	399.44
340.474	410.44
340.702	381.44
340.93	401.44
341.158	390.44
341.386	389.44
341.614	392.44
341.842	412.44
342.07	409.44
342.298	399.44
342.526	383.44
342.754	375.44
342.981	382.44
343.209	395.44
343.437	395.44
343.665	393.44
343.893	402.44
344.12	399.44
344.348	382.44
344.576	384.44
344.804	399.44
345.031	405.44
345.259	426.44
345.487	410.44
345.714	401.44
345.942	389.44
346.17	393.44
346.397	392.44
346.625	393.44
346.853	384.44
347.08	398.44
347.308	417.44
347.535	392.44
347.763	402.44
347.99	398.44
348.218	392.44
348.445	415.44
348.673	410.44
348.9	379.44
349.128	385.44
349.355	382.44
349.583	373.44
349.81	388.44
350.037	368.44
350.265	392.44
350.492	377.44
350.72	358.44
350.947	386.44
351.174	377.44
351.402	408.44
351.629	401.44
351.856	377.44
352.083	392.44
352.311	412.44
352.538	403.44
352.765	411.44
352.992	400.44
353.22	408.44
353.447	388.44
353.674	382.44
353.901	387.44
354.128	359.44
354.355	372.44
354.583	365.44
354.81	363.44
355.037	357.44
355.264	355.44
355.491	357.44
355.718	344.44
355.945	341.44
356.172	349.44
356.399	356.44
356.626	351.44
356.853	373.44
357.08	346.44
357.307	360.44
357.534	345.44
357.761	363.44
357.988	346.44
358.215	356.44
358.441	346.44
358.668	357.44
358.895	347.44
359.122	384.44
359.349	358.44
359.576	382.44
359.802	415.44
360.029	450.44
360.256	446.44
360.483	415.44
360.709	410.44
360.936	394.44
361.163	374.44
361.39	413.44
361.616	385.44
361.843	380.44
362.07	377.44
362.296	388.44
362.523	380.44
362.749	384.44
362.976	372.44
363.203	375.44
363.429	365.44
363.656	357.44
363.882	368.44
364.109	360.44
364.335	365.44
364.562	374.44
364.788	369.44
365.015	361.44
365.241	376.44
365.468	359.44
365.694	362.44
365.92	359.44
366.147	349.44
366.373	372.44
366.599	352.44
366.826	370.44
367.052	367.44
367.278	356.44
367.505	351.44
367.731	382.44
367.957	374.44
368.184	344.44
368.41	364.44
368.636	376.44
368.862	370.44
369.089	384.44
369.315	378.44
369.541	345.44
369.767	349.44
369.993	355.44
370.219	350.44
370.445	350.44
370.672	363.44
370.898	366.44
371.124	362.44
371.35	362.44
371.576	361.44
371.802	361.44
372.028	351.44
372.254	358.44
372.48	352.44
372.706	369.44
372.932	361.44
373.158	366.44
373.384	380.44
373.61	358.44
373.835	334.44
374.061	349.44
374.287	348.44
374.513	352.44
374.739	343.44
374.965	372.44
375.191	349.44
375.416	365.44
375.642	367.44
375.868	356.44
376.094	368.44
376.319	360.44
376.545	342.44
376.771	352.44
376.997	354.44
377.222	368.44
377.448	341.44
377.674	356.44
377.899	352.44
378.125	358.44
378.35	361.44
378.576	368.44
378.802	342.44
379.027	363.44
379.253	364.44
379.478	364.44
379.704	351.44
379.929	352.44
380.155	370.44
380.38	375.44
380.606	344.44
380.831	352.44
381.057	345.44
381.282	358.44
381.507	361.44
381.733	372.44
381.958	365.44
382.184	350.44
382.409	375.44
382.634	363.44
382.86	346.44
383.085	360.44
383.31	362.44
383.535	392.44
383.761	350.44
383.986	355.44
384.211	358.44
384.436	374.44
384.662	372.44
384.887	374.44
385.112	381.44
385.337	365.44
385.562	358.44
385.787	380.44
386.013	380.44
386.238	376.44
386.463	373.44
386.688	396.44
386.913	369.44
387.138	375.44
387.363	391.44
387.588	385.44
387.813	390.44
388.038	380.44
388.263	370.44
388.488	374.44
388.713	402.44
388.938	375.44
389.163	379.44
389.387	402.44
389.612	372.44
389.837	391.44
390.062	373.44
390.287	373.44
390.512	365.44
390.736	373.44
390.961	357.44
391.186	386.44
391.411	367.44
391.636	392.44
391.86	367.44
392.085	388.44
392.31	392.44
392.534	397.44
392.759	383.44
392.984	378.44
393.208	376.44
393.433	364.44
393.658	375.44
393.882	372.44
394.107	372.44
394.331	389.44
394.556	369.44
394.78	374.44
395.005	390.44
395.229	381.44
395.454	384.44
395.678	381.44
395.903	394.44
396.127	400.44
396.352	438.44
396.576	373.44
396.801	390.44
397.025	403.44
397.249	392.44
397.474	416.44
397.698	407.44
397.922	410.44
398.147	424.44
398.371	448.44
398.595	424.44
398.82	421.44
399.044	426.44
399.268	448.44
399.492	448.44
399.717	505.44
399.941	486.44
400.165	502.44
400.389	520.44
400.613	476.44
400.837	452.44
401.062	438.44
401.286	412.44
401.51	421.44
401.734	408.44
401.958	401.44
402.182	430.44
402.406	419.44
402.63	444.44
402.854	433.44
403.078	436.44
403.302	449.44
403.526	444.44
403.75	442.44
403.974	453.44
404.198	445.44
404.422	462.44
404.645	442.44
404.869	464.44
405.093	504.44
405.317	508.44
405.541	535.44
405.765	506.44
405.988	482.44
406.212	475.44
406.436	489.44
406.66	494.44
406.883	485.44
407.107	485.44
407.331	548.44
407.555	585.44
407.778	557.44
408.002	509.44
408.226	498.44
408.449	492.44
408.673	469.44
408.896	495.44
409.12	520.44
409.344	498.44
409.567	483.44
409.791	443.44
410.014	455.44
410.238	437.44
410.461	447.44
410.685	450.44
410.908	466.44
411.132	481.44
411.355	528.44
411.578	497.44
411.802	450.44
412.025	442.44
412.249	452.44
412.472	478.44
412.695	505.44
412.919	497.44
413.142	453.44
413.365	457.44
413.589	429.44
413.812	417.44
414.035	440.44
414.258	434.44
414.482	402.44
414.705	397.44
414.928	440.44
415.151	421.44
415.374	420.44
415.597	422.44
415.821	426.44
416.044	451.44
416.267	432.44
416.49	431.44
416.713	404.44
416.936	411.44
417.159	424.44
417.382	406.44
417.605	428.44
417.828	445.44
418.051	466.44
418.274	452.44
418.497	433.44
418.72	406.44
418.943	432.44
419.166	413.44
419.389	457.44
419.611	446.44
419.834	438.44
420.057	442.44
420.28	457.44
420.503	430.44
420.726	438.44
420.948	449.44
421.171	512.44
421.394	492.44
421.617	468.44
421.839	424.44
422.062	454.44
422.285	440.44
422.507	506.44
422.73	540.44
422.953	516.44
423.175	472.44
423.398	474.44
423.621	465.44
423.843	483.44
424.066	472.44
424.288	483.44
424.511	506.44
424.733	537.44
424.956	577.44
425.178	592.44
425.401	594.44
425.623	581.44
425.846	497.44
426.068	481.44
426.291	460.44
426.513	461.44
426.735	495.44
426.958	528.44
427.18	588.44
427.402	662.44
427.625	758.44
427.847	684.44
428.069	555.44
428.292	519.44
428.514	473.44
428.736	458.44
428.958	449.44
429.181	450.44
429.403	432.44
429.625	454.44
429.847	474.44
430.069	525.44
430.292	527.44
430.514	445.44
430.736	441.44
430.958	432.44
431.18	424.44
431.402	420.44
431.624	411.44
431.846	429.44
432.068	400.44
432.29	399.44
432.512	417.44
432.734	444.44
432.956	421.44
433.178	428.44
433.4	448.44
433.622	412.44
433.844	432.44
434.066	417.44
434.287	399.44
434.509	405.44
434.731	431.44
434.953	451.44
435.175	456.44
435.397	475.44
435.618	467.44
435.84	521.44
436.062	585.44
436.284	607.44
436.505	528.44
436.727	481.44
436.949	455.44
437.17	442.44
437.392	415.44
437.614	464.44
437.835	495.44
438.057	561.44
438.278	640.44
438.5	625.44
438.721	664.44
438.943	642.44
439.165	535.44
439.386	505.44
439.608	486.44
439.829	476.44
440.05	525.44
440.272	550.44
440.493	487.44
440.715	478.44
440.936	449.44
441.158	445.44
441.379	439.44
441.6	447.44
441.822	481.44
442.043	507.44
442.264	589.44
442.486	598.44
442.707	518.44
442.928	528.44
443.149	493.44
443.371	533.44
443.592	541.44
443.813	621.44
444.034	659.44
444.255	553.44
444.476	492.44
444.698	484.44
444.919	499.44
445.14	612.44
445.361	544.44
445.582	518.44
445.803	549.44
446.024	610.44
446.245	646.44
446.466	605.44
446.687	503.44
446.908	492.44
447.129	426.44
447.35	442.44
447.571	459.44
447.792	417.44
448.013	438.44
448.234	470.44
448.455	523.44
448.675	602.44
448.896	666.44
449.117	590.44
449.338	548.44
449.559	614.44
449.779	694.44
450	547.44
450.221	490.44
450.442	454.44
450.662	432.44
450.883	451.44
451.104	482.44
451.324	466.44
451.545	438.44
451.766	417.44
451.986	389.44
452.207	394.44
452.428	393.44
452.648	393.44
452.869	404.44
453.089	402.44
453.31	414.44
453.53	419.44
453.751	391.44
453.971	427.44
454.192	448.44
454.412	422.44
454.633	403.44
454.853	394.44
455.073	407.44
455.294	430.44
455.514	475.44
455.734	469.44
455.955	389.44
456.175	375.44
456.395	376.44
456.616	362.44
456.836	382.44
457.056	374.44
457.276	380.44
457.497	356.44
457.717	377.44
457.937	378.44
458.157	390.44
458.377	386.44
458.598	393.44
458.818	460.44
459.038	534.44
459.258	556.44
459.478	462.44
459.698	398.44
459.918	409.44
460.138	422.44
460.358	425.44
460.578	420.44
460.798	423.44
461.018	400.44
461.238	402.44
461.458	402.44
461.678	403.44
461.898	413.44
462.118	415.44
462.338	410.44
462.558	407.44
462.777	432.44
462.997	432.44
463.217	449.44
463.437	447.44
463.657	423.44
463.876	443.44
464.096	426.44
464.316	446.44
464.536	457.44
464.755	433.44
464.975	440.44
465.195	491.44
465.414	584.44
465.634	506.44
465.854	448.44
466.073	440.44
466.293	406.44
466.512	429.44
466.732	409.44
466.951	409.44
467.171	395.44
467.391	406.44
467.61	431.44
467.829	414.44
468.049	427.44
468.268	425.44
468.488	409.44
468.707	397.44
468.927	397.44
469.146	388.44
469.365	380.44
469.585	381.44
469.804	394.44
470.023	429.44
470.243	410.44
470.462	418.44
470.681	440.44
470.901	446.44
471.12	428.44
471.339	430.44
471.558	416.44
471.777	428.44
471.997	407.44
472.216	417.44
472.435	493.44
472.654	454.44
472.873	419.44
473.092	414.44
473.311	412.44
473.53	414.44
473.749	408.44
473.968	448.44
474.187	546.44
474.406	559.44
474.625	444.44
474.844	432.44
475.063	402.44
475.282	416.44
475.501	406.44
475.72	412.44
475.939	417.44
476.158	426.44
476.377	444.44
476.596	426.44
476.814	452.44
477.033	414.44
477.252	431.44
477.471	414.44
477.69	450.44
477.908	448.44
478.127	450.44
478.346	442.44
478.564	438.44
478.783	436.44
479.002	452.44
479.22	474.44
479.439	474.44
479.658	511.44
479.876	516.44
480.095	501.44
480.313	493.44
480.532	501.44
480.751	504.44
480.969	508.44
481.188	604.44
481.406	646.44
481.624	559.44
481.843	493.44
482.061	489.44
482.28	490.44
482.498	472.44
482.717	482.44
482.935	493.44
483.153	461.44
483.372	491.44
483.59	491.44
483.808	482.44
484.027	474.44
484.245	490.44
484.463	485.44
484.681	476.44
484.9	474.44
485.118	514.44
485.336	500.44
485.554	512.44
485.772	478.44
485.99	496.44
486.209	503.44
486.427	513.44
486.645	504.44
486.863	529.44
487.081	518.44
487.299	535.44
487.517	505.44
487.735	491.44
487.953	506.44
488.171	512.44
488.389	518.44
488.607	550.44
488.825	510.44
489.043	530.44
489.261	538.44
489.479	541.44
489.696	542.44
489.914	530.44
490.132	530.44
490.35	551.44
490.568	518.44
490.786	562.44
491.003	540.44
491.221	580.44
491.439	587.44
491.657	590.44
491.874	584.44
492.092	612.44
492.31	620.44
492.527	607.44
492.745	612.44
492.963	605.44
493.18	619.44
493.398	604.44
493.615	626.44
493.833	609.44
494.05	618.44
494.268	638.44
494.485	612.44
494.703	612.44
494.92	617.44
495.138	616.44
495.355	612.44
495.573	633.44
495.79	616.44
496.008	612.44
496.225	616.44
496.442	635.44
496.66	626.44
496.877	627.44
497.094	621.44
497.312	644.44
497.529	632.44
497.746	645.44
497.963	636.44
498.181	650.44
498.398	657.44
498.615	650.44
498.832	674.44
499.049	658.44
499.267	676.44
499.484	699.44
499.701	720.44
499.918	732.44
500.135	761.44
500.352	764.44
500.569	790.44
500.786	796.44
501.003	770.44
501.22	776.44
501.437	770.44
501.654	742.44
501.871	756.44
