Data from 1983.PennyLincolnUp.Lamp.En5.5.200Scan.071819.P1_HRD10591_16-53-10-965.txt Node
Date: Thu Jul 18 16:53:10 EDT 2019
User: cochatt
Spectrometer: HR+D1059
Trigger mode: 1
Integration Time (sec): 1.000000E-1
Scans to average: 1
Electric dark correction enabled: true
Nonlinearity correction enabled: false
Boxcar width: 0
XAxis mode: Wavelengths
Number of Pixels in Spectrum: 2048
>>>>>Begin Spectral Data<<<<<
223.165	-10.75
223.4	-10.75
223.635	-10.75
223.869	-18.75
224.104	-18.75
224.338	-28.75
224.573	-6.75
224.808	-4.75
225.042	-0.75
225.277	-2.75
225.511	-7.75
225.746	-8.75
225.98	8.25
226.215	9.25
226.449	11.25
226.683	19.25
226.918	33.25
227.152	27.25
227.387	31.25
227.621	32.25
227.856	53.25
228.09	35.25
228.324	56.25
228.559	59.25
228.793	63.25
229.027	100.25
229.262	86.25
229.496	100.25
229.73	125.25
229.964	148.25
230.199	124.25
230.433	108.25
230.667	100.25
230.901	108.25
231.136	91.25
231.37	109.25
231.604	102.25
231.838	109.25
232.072	100.25
232.306	113.25
232.541	112.25
232.775	106.25
233.009	98.25
233.243	105.25
233.477	104.25
233.711	104.25
233.945	117.25
234.179	119.25
234.413	105.25
234.647	99.25
234.881	131.25
235.115	113.25
235.349	118.25
235.583	115.25
235.817	99.25
236.051	112.25
236.285	118.25
236.519	129.25
236.753	123.25
236.987	132.25
237.221	152.25
237.455	185.25
237.689	149.25
237.922	125.25
238.156	124.25
238.39	103.25
238.624	115.25
238.858	113.25
239.091	113.25
239.325	123.25
239.559	115.25
239.793	124.25
240.027	120.25
240.26	145.25
240.494	142.25
240.728	139.25
240.961	131.25
241.195	144.25
241.429	135.25
241.662	123.25
241.896	121.25
242.13	102.25
242.363	123.25
242.597	115.25
242.83	128.25
243.064	123.25
243.298	129.25
243.531	135.25
243.765	131.25
243.998	127.25
244.232	130.25
244.465	125.25
244.699	127.25
244.932	129.25
245.166	141.25
245.399	138.25
245.633	137.25
245.866	124.25
246.099	117.25
246.333	128.25
246.566	112.25
246.8	138.25
247.033	127.25
247.266	147.25
247.5	140.25
247.733	141.25
247.966	149.25
248.2	146.25
248.433	152.25
248.666	151.25
248.899	161.25
249.133	169.25
249.366	175.25
249.599	181.25
249.832	180.25
250.066	165.25
250.299	170.25
250.532	172.25
250.765	192.25
250.998	195.25
251.231	197.25
251.465	182.25
251.698	165.25
251.931	176.25
252.164	166.25
252.397	161.25
252.63	181.25
252.863	192.25
253.096	198.25
253.329	200.25
253.562	199.25
253.795	208.25
254.028	203.25
254.261	187.25
254.494	195.25
254.727	223.25
254.96	232.25
255.193	231.25
255.426	234.25
255.659	187.25
255.892	201.25
256.124	204.25
256.357	187.25
256.59	179.25
256.823	186.25
257.056	185.25
257.289	181.25
257.521	201.25
257.754	198.25
257.987	190.25
258.22	185.25
258.452	180.25
258.685	183.25
258.918	191.25
259.151	192.25
259.383	200.25
259.616	189.25
259.849	191.25
260.081	199.25
260.314	210.25
260.547	215.25
260.779	208.25
261.012	212.25
261.244	189.25
261.477	199.25
261.71	181.25
261.942	189.25
262.175	200.25
262.407	197.25
262.64	196.25
262.872	186.25
263.105	191.25
263.337	182.25
263.57	183.25
263.802	181.25
264.035	181.25
264.267	188.25
264.499	177.25
264.732	184.25
264.964	188.25
265.197	188.25
265.429	177.25
265.661	187.25
265.894	191.25
266.126	188.25
266.358	189.25
266.591	201.25
266.823	200.25
267.055	213.25
267.287	187.25
267.52	199.25
267.752	199.25
267.984	204.25
268.216	194.25
268.448	220.25
268.681	219.25
268.913	217.25
269.145	218.25
269.377	221.25
269.609	236.25
269.841	234.25
270.073	236.25
270.306	246.25
270.538	284.25
270.77	288.25
271.002	269.25
271.234	237.25
271.466	271.25
271.698	265.25
271.93	265.25
272.162	264.25
272.394	287.25
272.626	256.25
272.858	247.25
273.09	247.25
273.322	250.25
273.553	233.25
273.785	218.25
274.017	217.25
274.249	231.25
274.481	219.25
274.713	226.25
274.945	223.25
275.176	236.25
275.408	235.25
275.64	226.25
275.872	225.25
276.104	216.25
276.335	223.25
276.567	239.25
276.799	243.25
277.031	277.25
277.262	277.25
277.494	268.25
277.726	255.25
277.957	237.25
278.189	247.25
278.421	234.25
278.652	245.25
278.884	249.25
279.115	241.25
279.347	230.25
279.579	225.25
279.81	241.25
280.042	236.25
280.273	231.25
280.505	229.25
280.736	239.25
280.968	233.25
281.199	231.25
281.431	226.25
281.662	215.25
281.894	217.25
282.125	240.25
282.356	257.25
282.588	273.25
282.819	283.25
283.051	249.25
283.282	228.25
283.513	231.25
283.745	238.25
283.976	245.25
284.207	246.25
284.439	257.25
284.67	245.25
284.901	244.25
285.132	244.25
285.364	246.25
285.595	235.25
285.826	228.25
286.057	239.25
286.288	227.25
286.52	249.25
286.751	260.25
286.982	234.25
287.213	252.25
287.444	246.25
287.675	262.25
287.906	252.25
288.138	256.25
288.369	268.25
288.6	243.25
288.831	273.25
289.062	251.25
289.293	257.25
289.524	245.25
289.755	252.25
289.986	236.25
290.217	259.25
290.448	236.25
290.679	244.25
290.91	248.25
291.141	241.25
291.371	245.25
291.602	254.25
291.833	249.25
292.064	257.25
292.295	250.25
292.526	250.25
292.757	253.25
292.987	236.25
293.218	251.25
293.449	255.25
293.68	236.25
293.91	263.25
294.141	246.25
294.372	243.25
294.603	251.25
294.833	267.25
295.064	255.25
295.295	268.25
295.525	243.25
295.756	263.25
295.987	264.25
296.217	276.25
296.448	294.25
296.679	273.25
296.909	256.25
297.14	260.25
297.37	246.25
297.601	256.25
297.831	253.25
298.062	273.25
298.292	268.25
298.523	252.25
298.753	260.25
298.984	264.25
299.214	268.25
299.445	267.25
299.675	274.25
299.905	277.25
300.136	262.25
300.366	277.25
300.597	270.25
300.827	262.25
301.057	268.25
301.288	276.25
301.518	282.25
301.748	294.25
301.979	283.25
302.209	290.25
302.439	281.25
302.669	269.25
302.9	275.25
303.13	292.25
303.36	288.25
303.59	284.25
303.82	293.25
304.051	299.25
304.281	274.25
304.511	289.25
304.741	281.25
304.971	282.25
305.201	277.25
305.431	291.25
305.661	278.25
305.891	291.25
306.121	287.25
306.352	300.25
306.582	282.25
306.812	283.25
307.042	307.25
307.272	273.25
307.502	291.25
307.731	282.25
307.961	278.25
308.191	285.25
308.421	296.25
308.651	291.25
308.881	280.25
309.111	298.25
309.341	288.25
309.571	311.25
309.8	303.25
310.03	317.25
310.26	320.25
310.49	339.25
310.72	339.25
310.949	338.25
311.179	355.25
311.409	330.25
311.639	322.25
311.868	323.25
312.098	343.25
312.328	350.25
312.557	322.25
312.787	350.25
313.017	356.25
313.246	355.25
313.476	331.25
313.706	346.25
313.935	346.25
314.165	348.25
314.394	354.25
314.624	362.25
314.853	348.25
315.083	338.25
315.312	328.25
315.542	333.25
315.771	334.25
316.001	340.25
316.23	321.25
316.46	320.25
316.689	324.25
316.919	315.25
317.148	355.25
317.377	344.25
317.607	340.25
317.836	348.25
318.065	331.25
318.295	344.25
318.524	329.25
318.753	317.25
318.983	312.25
319.212	332.25
319.441	335.25
319.67	338.25
319.9	338.25
320.129	320.25
320.358	343.25
320.587	332.25
320.816	337.25
321.046	351.25
321.275	334.25
321.504	355.25
321.733	343.25
321.962	352.25
322.191	379.25
322.42	371.25
322.649	362.25
322.878	403.25
323.108	407.25
323.337	417.25
323.566	452.25
323.795	460.25
324.024	536.25
324.253	635.25
324.482	917.25
324.71	1368.25
324.939	1829.25
325.168	1521.25
325.397	821.25
325.626	565.25
325.855	484.25
326.084	475.25
326.313	433.25
326.542	440.25
326.77	472.25
326.999	594.25
327.228	795.25
327.457	1191.25
327.686	1351.25
327.914	919.25
328.143	623.25
328.372	537.25
328.6	506.25
328.829	492.25
329.058	484.25
329.287	512.25
329.515	467.25
329.744	447.25
329.972	433.25
330.201	431.25
330.43	458.25
330.658	488.25
330.887	522.25
331.115	511.25
331.344	439.25
331.572	419.25
331.801	413.25
332.03	407.25
332.258	397.25
332.486	371.25
332.715	389.25
332.943	378.25
333.172	383.25
333.4	364.25
333.629	370.25
333.857	378.25
334.085	406.25
334.314	405.25
334.542	386.25
334.771	396.25
334.999	391.25
335.227	382.25
335.455	402.25
335.684	387.25
335.912	354.25
336.14	370.25
336.369	375.25
336.597	394.25
336.825	388.25
337.053	377.25
337.281	361.25
337.51	387.25
337.738	383.25
337.966	374.25
338.194	358.25
338.422	379.25
338.65	379.25
338.878	380.25
339.106	353.25
339.334	369.25
339.562	354.25
339.79	360.25
340.018	374.25
340.246	362.25
340.474	365.25
340.702	365.25
340.93	378.25
341.158	356.25
341.386	357.25
341.614	384.25
341.842	370.25
342.07	362.25
342.298	373.25
342.526	330.25
342.754	376.25
342.981	351.25
343.209	348.25
343.437	352.25
343.665	348.25
343.893	364.25
344.12	374.25
344.348	394.25
344.576	370.25
344.804	408.25
345.031	370.25
345.259	387.25
345.487	374.25
345.714	369.25
345.942	379.25
346.17	362.25
346.397	367.25
346.625	354.25
346.853	365.25
347.08	358.25
347.308	367.25
347.535	385.25
347.763	375.25
347.99	359.25
348.218	358.25
348.445	376.25
348.673	363.25
348.9	347.25
349.128	367.25
349.355	334.25
349.583	343.25
349.81	331.25
350.037	348.25
350.265	354.25
350.492	344.25
350.72	335.25
350.947	353.25
351.174	373.25
351.402	369.25
351.629	368.25
351.856	362.25
352.083	386.25
352.311	367.25
352.538	380.25
352.765	369.25
352.992	367.25
353.22	360.25
353.447	347.25
353.674	367.25
353.901	324.25
354.128	343.25
354.355	345.25
354.583	337.25
354.81	325.25
355.037	342.25
355.264	336.25
355.491	325.25
355.718	338.25
355.945	329.25
356.172	332.25
356.399	322.25
356.626	313.25
356.853	333.25
357.08	314.25
357.307	340.25
357.534	323.25
357.761	347.25
357.988	341.25
358.215	336.25
358.441	337.25
358.668	329.25
358.895	340.25
359.122	346.25
359.349	339.25
359.576	368.25
359.802	363.25
360.029	387.25
360.256	399.25
360.483	401.25
360.709	378.25
360.936	376.25
361.163	367.25
361.39	360.25
361.616	372.25
361.843	362.25
362.07	351.25
362.296	350.25
362.523	348.25
362.749	341.25
362.976	355.25
363.203	347.25
363.429	337.25
363.656	329.25
363.882	362.25
364.109	325.25
364.335	339.25
364.562	327.25
364.788	356.25
365.015	359.25
365.241	311.25
365.468	345.25
365.694	363.25
365.92	329.25
366.147	330.25
366.373	340.25
366.599	331.25
366.826	323.25
367.052	355.25
367.278	320.25
367.505	331.25
367.731	345.25
367.957	332.25
368.184	352.25
368.41	346.25
368.636	359.25
368.862	356.25
369.089	355.25
369.315	339.25
369.541	341.25
369.767	339.25
369.993	348.25
370.219	340.25
370.445	342.25
370.672	350.25
370.898	324.25
371.124	347.25
371.35	324.25
371.576	339.25
371.802	351.25
372.028	336.25
372.254	340.25
372.48	354.25
372.706	340.25
372.932	341.25
373.158	327.25
373.384	311.25
373.61	328.25
373.835	334.25
374.061	331.25
374.287	325.25
374.513	344.25
374.739	340.25
374.965	339.25
375.191	328.25
375.416	339.25
375.642	336.25
375.868	339.25
376.094	354.25
376.319	353.25
376.545	325.25
376.771	308.25
376.997	343.25
377.222	334.25
377.448	341.25
377.674	338.25
377.899	330.25
378.125	326.25
378.35	349.25
378.576	316.25
378.802	331.25
379.027	326.25
379.253	332.25
379.478	348.25
379.704	346.25
379.929	341.25
380.155	311.25
380.38	329.25
380.606	329.25
380.831	339.25
381.057	330.25
381.282	340.25
381.507	326.25
381.733	327.25
381.958	319.25
382.184	329.25
382.409	364.25
382.634	339.25
382.86	328.25
383.085	327.25
383.31	331.25
383.535	345.25
383.761	334.25
383.986	351.25
384.211	357.25
384.436	349.25
384.662	355.25
384.887	362.25
385.112	345.25
385.337	339.25
385.562	365.25
385.787	352.25
386.013	389.25
386.238	346.25
386.463	365.25
386.688	372.25
386.913	364.25
387.138	362.25
387.363	345.25
387.588	351.25
387.813	353.25
388.038	367.25
388.263	364.25
388.488	346.25
388.713	360.25
388.938	346.25
389.163	355.25
389.387	370.25
389.612	353.25
389.837	337.25
390.062	350.25
390.287	357.25
390.512	353.25
390.736	355.25
390.961	349.25
391.186	359.25
391.411	370.25
391.636	371.25
391.86	347.25
392.085	395.25
392.31	345.25
392.534	369.25
392.759	361.25
392.984	349.25
393.208	359.25
393.433	341.25
393.658	367.25
393.882	347.25
394.107	367.25
394.331	348.25
394.556	356.25
394.78	351.25
395.005	367.25
395.229	362.25
395.454	363.25
395.678	373.25
395.903	405.25
396.127	370.25
396.352	409.25
396.576	352.25
396.801	359.25
397.025	385.25
397.249	372.25
397.474	380.25
397.698	354.25
397.922	375.25
398.147	401.25
398.371	394.25
398.595	397.25
398.82	388.25
399.044	407.25
399.268	417.25
399.492	447.25
399.717	460.25
399.941	476.25
400.165	495.25
400.389	497.25
400.613	447.25
400.837	406.25
401.062	418.25
401.286	407.25
401.51	426.25
401.734	423.25
401.958	416.25
402.182	411.25
402.406	435.25
402.63	412.25
402.854	403.25
403.078	417.25
403.302	432.25
403.526	424.25
403.75	425.25
403.974	431.25
404.198	412.25
404.422	407.25
404.645	420.25
404.869	431.25
405.093	434.25
405.317	443.25
405.541	457.25
405.765	436.25
405.988	440.25
406.212	437.25
406.436	487.25
406.66	480.25
406.883	465.25
407.107	490.25
407.331	517.25
407.555	562.25
407.778	541.25
408.002	484.25
408.226	479.25
408.449	462.25
408.673	448.25
408.896	469.25
409.12	492.25
409.344	495.25
409.567	455.25
409.791	409.25
410.014	427.25
410.238	414.25
410.461	432.25
410.685	440.25
410.908	442.25
411.132	464.25
411.355	474.25
411.578	444.25
411.802	428.25
412.025	416.25
412.249	410.25
412.472	416.25
412.695	413.25
412.919	410.25
413.142	405.25
413.365	399.25
413.589	395.25
413.812	404.25
414.035	397.25
414.258	384.25
414.482	408.25
414.705	389.25
414.928	387.25
415.151	379.25
415.374	406.25
415.597	395.25
415.821	377.25
416.044	396.25
416.267	377.25
416.49	385.25
416.713	386.25
416.936	398.25
417.159	389.25
417.382	400.25
417.605	403.25
417.828	396.25
418.051	413.25
418.274	412.25
418.497	401.25
418.72	390.25
418.943	379.25
419.166	415.25
419.389	405.25
419.611	410.25
419.834	435.25
420.057	415.25
420.28	410.25
420.503	395.25
420.726	398.25
420.948	425.25
421.171	445.25
421.394	482.25
421.617	457.25
421.839	455.25
422.062	424.25
422.285	417.25
422.507	464.25
422.73	513.25
422.953	499.25
423.175	437.25
423.398	443.25
423.621	420.25
423.843	453.25
424.066	446.25
424.288	421.25
424.511	451.25
424.733	495.25
424.956	545.25
425.178	522.25
425.401	520.25
425.623	533.25
425.846	479.25
426.068	450.25
426.291	437.25
426.513	444.25
426.735	461.25
426.958	488.25
427.18	523.25
427.402	617.25
427.625	709.25
427.847	616.25
428.069	522.25
428.292	468.25
428.514	434.25
428.736	428.25
428.958	429.25
429.181	423.25
429.403	424.25
429.625	436.25
429.847	452.25
430.069	481.25
430.292	476.25
430.514	411.25
430.736	397.25
430.958	403.25
431.18	404.25
431.402	403.25
431.624	387.25
431.846	384.25
432.068	383.25
432.29	404.25
432.512	391.25
432.734	394.25
432.956	393.25
433.178	409.25
433.4	421.25
433.622	391.25
433.844	375.25
434.066	396.25
434.287	372.25
434.509	375.25
434.731	399.25
434.953	401.25
435.175	410.25
435.397	438.25
435.618	448.25
435.84	475.25
436.062	537.25
436.284	589.25
436.505	513.25
436.727	466.25
436.949	448.25
437.17	423.25
437.392	415.25
437.614	423.25
437.835	457.25
438.057	549.25
438.278	581.25
438.5	576.25
438.721	666.25
438.943	604.25
439.165	503.25
439.386	476.25
439.608	435.25
439.829	461.25
440.05	459.25
440.272	514.25
440.493	461.25
440.715	440.25
440.936	420.25
441.158	422.25
441.379	415.25
441.6	450.25
441.822	442.25
442.043	494.25
442.264	553.25
442.486	565.25
442.707	479.25
442.928	465.25
443.149	449.25
443.371	477.25
443.592	497.25
443.813	577.25
444.034	613.25
444.255	526.25
444.476	469.25
444.698	438.25
444.919	439.25
445.14	564.25
445.361	522.25
445.582	486.25
445.803	533.25
446.024	591.25
446.245	612.25
446.466	571.25
446.687	501.25
446.908	446.25
447.129	439.25
447.35	439.25
447.571	424.25
447.792	424.25
448.013	427.25
448.234	433.25
448.455	469.25
448.675	553.25
448.896	615.25
449.117	538.25
449.338	521.25
449.559	609.25
449.779	647.25
450	523.25
450.221	460.25
450.442	418.25
450.662	408.25
450.883	441.25
451.104	426.25
451.324	434.25
451.545	411.25
451.766	377.25
451.986	381.25
452.207	360.25
452.428	370.25
452.648	351.25
452.869	387.25
453.089	394.25
453.31	419.25
453.53	383.25
453.751	377.25
453.971	398.25
454.192	393.25
454.412	378.25
454.633	391.25
454.853	361.25
455.073	382.25
455.294	411.25
455.514	433.25
455.734	439.25
455.955	396.25
456.175	373.25
456.395	375.25
456.616	342.25
456.836	365.25
457.056	346.25
457.276	358.25
457.497	353.25
457.717	357.25
457.937	370.25
458.157	364.25
458.377	385.25
458.598	404.25
458.818	440.25
459.038	500.25
459.258	505.25
459.478	454.25
459.698	406.25
459.918	400.25
460.138	377.25
460.358	385.25
460.578	401.25
460.798	380.25
461.018	403.25
461.238	381.25
461.458	375.25
461.678	372.25
461.898	401.25
462.118	379.25
462.338	391.25
462.558	405.25
462.777	413.25
462.997	407.25
463.217	434.25
463.437	411.25
463.657	444.25
463.876	403.25
464.096	404.25
464.316	417.25
464.536	436.25
464.755	406.25
464.975	436.25
465.195	486.25
465.414	552.25
465.634	459.25
465.854	425.25
466.073	411.25
466.293	402.25
466.512	378.25
466.732	379.25
466.951	388.25
467.171	379.25
467.391	379.25
467.61	397.25
467.829	416.25
468.049	408.25
468.268	396.25
468.488	368.25
468.707	359.25
468.927	375.25
469.146	371.25
469.365	346.25
469.585	379.25
469.804	401.25
470.023	401.25
470.243	386.25
470.462	413.25
470.681	398.25
470.901	392.25
471.12	399.25
471.339	386.25
471.558	393.25
471.777	378.25
471.997	389.25
472.216	385.25
472.435	386.25
472.654	376.25
472.873	379.25
473.092	374.25
473.311	383.25
473.53	387.25
473.749	394.25
473.968	444.25
474.187	521.25
474.406	514.25
474.625	435.25
474.844	395.25
475.063	409.25
475.282	395.25
475.501	385.25
475.72	407.25
475.939	403.25
476.158	394.25
476.377	399.25
476.596	411.25
476.814	417.25
477.033	411.25
477.252	437.25
477.471	421.25
477.69	396.25
477.908	392.25
478.127	424.25
478.346	405.25
478.564	413.25
478.783	421.25
479.002	443.25
479.22	449.25
479.439	458.25
479.658	455.25
479.876	469.25
480.095	459.25
480.313	491.25
480.532	493.25
480.751	476.25
480.969	486.25
481.188	472.25
481.406	473.25
481.624	458.25
481.843	424.25
482.061	450.25
482.28	468.25
482.498	456.25
482.717	441.25
482.935	440.25
483.153	451.25
483.372	453.25
483.59	448.25
483.808	455.25
484.027	445.25
484.245	437.25
484.463	448.25
484.681	443.25
484.9	470.25
485.118	471.25
485.336	452.25
485.554	472.25
485.772	471.25
485.99	464.25
486.209	473.25
486.427	445.25
486.645	459.25
486.863	482.25
487.081	507.25
487.299	466.25
487.517	466.25
487.735	485.25
487.953	502.25
488.171	483.25
488.389	453.25
488.607	492.25
488.825	465.25
489.043	492.25
489.261	500.25
489.479	496.25
489.696	492.25
489.914	505.25
490.132	509.25
490.35	481.25
490.568	517.25
490.786	511.25
491.003	510.25
491.221	521.25
491.439	524.25
491.657	553.25
491.874	544.25
492.092	535.25
492.31	546.25
492.527	547.25
492.745	538.25
492.963	567.25
493.18	565.25
493.398	572.25
493.615	566.25
493.833	565.25
494.05	546.25
494.268	554.25
494.485	561.25
494.703	566.25
494.92	560.25
495.138	559.25
495.355	554.25
495.573	574.25
495.79	581.25
496.008	595.25
496.225	548.25
496.442	561.25
496.66	586.25
496.877	593.25
497.094	587.25
497.312	575.25
497.529	589.25
497.746	605.25
497.963	593.25
498.181	629.25
498.398	627.25
498.615	651.25
498.832	643.25
499.049	635.25
499.267	657.25
499.484	652.25
499.701	689.25
499.918	720.25
500.135	718.25
500.352	737.25
500.569	740.25
500.786	754.25
501.003	744.25
501.22	727.25
501.437	695.25
501.654	725.25
501.871	713.25
502.088	675.25
