Data from 1983.PennyLincolnUp.Lamp.En5.5.200Scan.071819.P1_HRD10591_16-55-25-967.txt Node
Date: Thu Jul 18 16:55:25 EDT 2019
User: cochatt
Spectrometer: HR+D1059
Trigger mode: 1
Integration Time (sec): 1.000000E-1
Scans to average: 1
Electric dark correction enabled: true
Nonlinearity correction enabled: false
Boxcar width: 0
XAxis mode: Wavelengths
Number of Pixels in Spectrum: 2048
>>>>>Begin Spectral Data<<<<<
223.165	-23.94
223.4	-23.94
223.635	-23.94
223.869	-10.94
224.104	-20.94
224.338	-15.94
224.573	-14.94
224.808	-6.94
225.042	-13.94
225.277	-4.94
225.511	-3.94
225.746	0.06
225.98	5.06
226.215	21.06
226.449	18.06
226.683	15.06
226.918	22.06
227.152	35.06
227.387	38.06
227.621	29.06
227.856	43.06
228.09	47.06
228.324	56.06
228.559	60.06
228.793	80.06
229.027	109.06
229.262	99.06
229.496	106.06
229.73	146.06
229.964	145.06
230.199	127.06
230.433	121.06
230.667	134.06
230.901	106.06
231.136	113.06
231.37	124.06
231.604	95.06
231.838	98.06
232.072	94.06
232.306	116.06
232.541	107.06
232.775	110.06
233.009	114.06
233.243	126.06
233.477	101.06
233.711	108.06
233.945	110.06
234.179	113.06
234.413	108.06
234.647	123.06
234.881	120.06
235.115	118.06
235.349	136.06
235.583	105.06
235.817	118.06
236.051	129.06
236.285	132.06
236.519	131.06
236.753	125.06
236.987	145.06
237.221	172.06
237.455	215.06
237.689	165.06
237.922	137.06
238.156	134.06
238.39	128.06
238.624	122.06
238.858	100.06
239.091	120.06
239.325	124.06
239.559	136.06
239.793	136.06
240.027	128.06
240.26	144.06
240.494	151.06
240.728	138.06
240.961	155.06
241.195	141.06
241.429	126.06
241.662	142.06
241.896	117.06
242.13	137.06
242.363	120.06
242.597	141.06
242.83	130.06
243.064	125.06
243.298	129.06
243.531	144.06
243.765	148.06
243.998	154.06
244.232	125.06
244.465	136.06
244.699	135.06
244.932	139.06
245.166	136.06
245.399	154.06
245.633	154.06
245.866	137.06
246.099	140.06
246.333	149.06
246.566	126.06
246.8	151.06
247.033	154.06
247.266	168.06
247.5	150.06
247.733	156.06
247.966	167.06
248.2	165.06
248.433	176.06
248.666	163.06
248.899	184.06
249.133	188.06
249.366	206.06
249.599	196.06
249.832	178.06
250.066	172.06
250.299	173.06
250.532	201.06
250.765	200.06
250.998	213.06
251.231	213.06
251.465	219.06
251.698	206.06
251.931	188.06
252.164	184.06
252.397	189.06
252.63	187.06
252.863	184.06
253.096	207.06
253.329	217.06
253.562	202.06
253.795	213.06
254.028	225.06
254.261	190.06
254.494	207.06
254.727	242.06
254.96	266.06
255.193	255.06
255.426	231.06
255.659	237.06
255.892	237.06
256.124	229.06
256.357	246.06
256.59	246.06
256.823	224.06
257.056	220.06
257.289	197.06
257.521	210.06
257.754	214.06
257.987	206.06
258.22	207.06
258.452	206.06
258.685	190.06
258.918	197.06
259.151	198.06
259.383	210.06
259.616	212.06
259.849	216.06
260.081	219.06
260.314	221.06
260.547	255.06
260.779	253.06
261.012	228.06
261.244	220.06
261.477	215.06
261.71	213.06
261.942	233.06
262.175	224.06
262.407	234.06
262.64	191.06
262.872	208.06
263.105	190.06
263.337	208.06
263.57	205.06
263.802	196.06
264.035	199.06
264.267	199.06
264.499	200.06
264.732	201.06
264.964	210.06
265.197	197.06
265.429	207.06
265.661	209.06
265.894	213.06
266.126	204.06
266.358	200.06
266.591	204.06
266.823	224.06
267.055	221.06
267.287	213.06
267.52	227.06
267.752	214.06
267.984	236.06
268.216	226.06
268.448	231.06
268.681	228.06
268.913	240.06
269.145	258.06
269.377	260.06
269.609	242.06
269.841	254.06
270.073	268.06
270.306	277.06
270.538	298.06
270.77	295.06
271.002	278.06
271.234	282.06
271.466	278.06
271.698	291.06
271.93	273.06
272.162	308.06
272.394	306.06
272.626	284.06
272.858	264.06
273.09	260.06
273.322	263.06
273.553	252.06
273.785	241.06
274.017	255.06
274.249	260.06
274.481	254.06
274.713	245.06
274.945	274.06
275.176	252.06
275.408	258.06
275.64	252.06
275.872	245.06
276.104	265.06
276.335	240.06
276.567	272.06
276.799	285.06
277.031	286.06
277.262	306.06
277.494	313.06
277.726	293.06
277.957	274.06
278.189	270.06
278.421	251.06
278.652	265.06
278.884	248.06
279.115	266.06
279.347	267.06
279.579	281.06
279.81	230.06
280.042	248.06
280.273	229.06
280.505	257.06
280.736	258.06
280.968	259.06
281.199	261.06
281.431	248.06
281.662	264.06
281.894	254.06
282.125	246.06
282.356	275.06
282.588	308.06
282.819	296.06
283.051	266.06
283.282	255.06
283.513	265.06
283.745	273.06
283.976	260.06
284.207	272.06
284.439	269.06
284.67	261.06
284.901	248.06
285.132	270.06
285.364	272.06
285.595	277.06
285.826	258.06
286.057	274.06
286.288	250.06
286.52	275.06
286.751	278.06
286.982	288.06
287.213	253.06
287.444	277.06
287.675	278.06
287.906	281.06
288.138	289.06
288.369	284.06
288.6	284.06
288.831	288.06
289.062	291.06
289.293	283.06
289.524	259.06
289.755	260.06
289.986	270.06
290.217	283.06
290.448	277.06
290.679	264.06
290.91	280.06
291.141	265.06
291.371	274.06
291.602	271.06
291.833	276.06
292.064	268.06
292.295	271.06
292.526	268.06
292.757	270.06
292.987	272.06
293.218	297.06
293.449	276.06
293.68	287.06
293.91	277.06
294.141	238.06
294.372	271.06
294.603	274.06
294.833	281.06
295.064	270.06
295.295	281.06
295.525	275.06
295.756	298.06
295.987	293.06
296.217	290.06
296.448	322.06
296.679	289.06
296.909	265.06
297.14	265.06
297.37	285.06
297.601	286.06
297.831	285.06
298.062	263.06
298.292	270.06
298.523	267.06
298.753	308.06
298.984	272.06
299.214	291.06
299.445	289.06
299.675	289.06
299.905	298.06
300.136	286.06
300.366	288.06
300.597	295.06
300.827	279.06
301.057	306.06
301.288	316.06
301.518	300.06
301.748	298.06
301.979	336.06
302.209	329.06
302.439	316.06
302.669	295.06
302.9	283.06
303.13	293.06
303.36	308.06
303.59	303.06
303.82	318.06
304.051	320.06
304.281	296.06
304.511	326.06
304.741	299.06
304.971	303.06
305.201	304.06
305.431	308.06
305.661	290.06
305.891	305.06
306.121	318.06
306.352	296.06
306.582	313.06
306.812	323.06
307.042	324.06
307.272	333.06
307.502	332.06
307.731	316.06
307.961	329.06
308.191	292.06
308.421	312.06
308.651	314.06
308.881	325.06
309.111	339.06
309.341	325.06
309.571	314.06
309.8	327.06
310.03	353.06
310.26	356.06
310.49	355.06
310.72	372.06
310.949	373.06
311.179	374.06
311.409	363.06
311.639	369.06
311.868	353.06
312.098	339.06
312.328	367.06
312.557	376.06
312.787	392.06
313.017	404.06
313.246	378.06
313.476	360.06
313.706	373.06
313.935	381.06
314.165	363.06
314.394	368.06
314.624	365.06
314.853	374.06
315.083	366.06
315.312	360.06
315.542	338.06
315.771	360.06
316.001	349.06
316.23	365.06
316.46	348.06
316.689	363.06
316.919	363.06
317.148	378.06
317.377	345.06
317.607	378.06
317.836	378.06
318.065	366.06
318.295	369.06
318.524	365.06
318.753	357.06
318.983	348.06
319.212	351.06
319.441	377.06
319.67	368.06
319.9	372.06
320.129	358.06
320.358	362.06
320.587	387.06
320.816	363.06
321.046	382.06
321.275	380.06
321.504	393.06
321.733	408.06
321.962	389.06
322.191	422.06
322.42	418.06
322.649	441.06
322.878	444.06
323.108	447.06
323.337	458.06
323.566	485.06
323.795	536.06
324.024	591.06
324.253	692.06
324.482	1014.06
324.71	1510.06
324.939	2050.06
325.168	1690.06
325.397	922.06
325.626	636.06
325.855	524.06
326.084	507.06
326.313	491.06
326.542	483.06
326.77	527.06
326.999	649.06
327.228	904.06
327.457	1312.06
327.686	1498.06
327.914	1009.06
328.143	688.06
328.372	652.06
328.6	584.06
328.829	582.06
329.058	579.06
329.287	580.06
329.515	536.06
329.744	540.06
329.972	545.06
330.201	575.06
330.43	600.06
330.658	629.06
330.887	616.06
331.115	582.06
331.344	489.06
331.572	481.06
331.801	482.06
332.03	469.06
332.258	454.06
332.486	432.06
332.715	444.06
332.943	444.06
333.172	421.06
333.4	457.06
333.629	455.06
333.857	470.06
334.085	497.06
334.314	528.06
334.542	596.06
334.771	617.06
334.999	524.06
335.227	476.06
335.455	442.06
335.684	433.06
335.912	425.06
336.14	423.06
336.369	407.06
336.597	424.06
336.825	428.06
337.053	393.06
337.281	415.06
337.51	398.06
337.738	406.06
337.966	410.06
338.194	427.06
338.422	392.06
338.65	416.06
338.878	395.06
339.106	383.06
339.334	403.06
339.562	411.06
339.79	403.06
340.018	399.06
340.246	405.06
340.474	396.06
340.702	410.06
340.93	393.06
341.158	397.06
341.386	405.06
341.614	400.06
341.842	398.06
342.07	409.06
342.298	363.06
342.526	402.06
342.754	390.06
342.981	360.06
343.209	379.06
343.437	380.06
343.665	386.06
343.893	420.06
344.12	373.06
344.348	401.06
344.576	405.06
344.804	420.06
345.031	421.06
345.259	437.06
345.487	408.06
345.714	389.06
345.942	412.06
346.17	377.06
346.397	375.06
346.625	400.06
346.853	392.06
347.08	407.06
347.308	383.06
347.535	381.06
347.763	392.06
347.99	404.06
348.218	384.06
348.445	402.06
348.673	401.06
348.9	396.06
349.128	391.06
349.355	377.06
349.583	375.06
349.81	374.06
350.037	375.06
350.265	370.06
350.492	369.06
350.72	380.06
350.947	362.06
351.174	400.06
351.402	396.06
351.629	374.06
351.856	402.06
352.083	393.06
352.311	402.06
352.538	422.06
352.765	390.06
352.992	393.06
353.22	401.06
353.447	392.06
353.674	364.06
353.901	354.06
354.128	362.06
354.355	365.06
354.583	364.06
354.81	369.06
355.037	370.06
355.264	370.06
355.491	348.06
355.718	354.06
355.945	348.06
356.172	346.06
356.399	348.06
356.626	344.06
356.853	354.06
357.08	358.06
357.307	348.06
357.534	358.06
357.761	352.06
357.988	366.06
358.215	360.06
358.441	352.06
358.668	342.06
358.895	360.06
359.122	364.06
359.349	401.06
359.576	397.06
359.802	421.06
360.029	450.06
360.256	432.06
360.483	433.06
360.709	373.06
360.936	376.06
361.163	395.06
361.39	389.06
361.616	389.06
361.843	361.06
362.07	380.06
362.296	386.06
362.523	392.06
362.749	376.06
362.976	381.06
363.203	377.06
363.429	376.06
363.656	375.06
363.882	383.06
364.109	392.06
364.335	357.06
364.562	360.06
364.788	361.06
365.015	382.06
365.241	386.06
365.468	374.06
365.694	365.06
365.92	371.06
366.147	372.06
366.373	375.06
366.599	369.06
366.826	376.06
367.052	364.06
367.278	361.06
367.505	378.06
367.731	360.06
367.957	379.06
368.184	384.06
368.41	369.06
368.636	377.06
368.862	381.06
369.089	358.06
369.315	349.06
369.541	362.06
369.767	368.06
369.993	381.06
370.219	374.06
370.445	362.06
370.672	362.06
370.898	350.06
371.124	361.06
371.35	366.06
371.576	356.06
371.802	356.06
372.028	365.06
372.254	350.06
372.48	362.06
372.706	359.06
372.932	358.06
373.158	365.06
373.384	353.06
373.61	367.06
373.835	374.06
374.061	346.06
374.287	374.06
374.513	360.06
374.739	360.06
374.965	361.06
375.191	378.06
375.416	369.06
375.642	360.06
375.868	378.06
376.094	382.06
376.319	349.06
376.545	372.06
376.771	374.06
376.997	358.06
377.222	361.06
377.448	351.06
377.674	351.06
377.899	346.06
378.125	349.06
378.35	347.06
378.576	351.06
378.802	362.06
379.027	351.06
379.253	352.06
379.478	342.06
379.704	359.06
379.929	351.06
380.155	352.06
380.38	350.06
380.606	353.06
380.831	336.06
381.057	356.06
381.282	359.06
381.507	368.06
381.733	366.06
381.958	371.06
382.184	365.06
382.409	358.06
382.634	353.06
382.86	347.06
383.085	349.06
383.31	368.06
383.535	379.06
383.761	365.06
383.986	364.06
384.211	360.06
384.436	372.06
384.662	360.06
384.887	382.06
385.112	365.06
385.337	382.06
385.562	379.06
385.787	365.06
386.013	382.06
386.238	405.06
386.463	377.06
386.688	392.06
386.913	370.06
387.138	365.06
387.363	390.06
387.588	375.06
387.813	392.06
388.038	378.06
388.263	406.06
388.488	385.06
388.713	382.06
388.938	379.06
389.163	377.06
389.387	394.06
389.612	368.06
389.837	379.06
390.062	374.06
390.287	381.06
390.512	356.06
390.736	353.06
390.961	381.06
391.186	374.06
391.411	399.06
391.636	394.06
391.86	366.06
392.085	386.06
392.31	385.06
392.534	378.06
392.759	393.06
392.984	371.06
393.208	384.06
393.433	392.06
393.658	390.06
393.882	368.06
394.107	368.06
394.331	406.06
394.556	388.06
394.78	372.06
395.005	382.06
395.229	386.06
395.454	384.06
395.678	402.06
395.903	396.06
396.127	410.06
396.352	404.06
396.576	401.06
396.801	383.06
397.025	406.06
397.249	408.06
397.474	404.06
397.698	415.06
397.922	410.06
398.147	424.06
398.371	406.06
398.595	428.06
398.82	409.06
399.044	431.06
399.268	441.06
399.492	467.06
399.717	502.06
399.941	513.06
400.165	516.06
400.389	505.06
400.613	483.06
400.837	421.06
401.062	441.06
401.286	431.06
401.51	432.06
401.734	407.06
401.958	420.06
402.182	438.06
402.406	437.06
402.63	441.06
402.854	440.06
403.078	441.06
403.302	454.06
403.526	460.06
403.75	453.06
403.974	455.06
404.198	415.06
404.422	467.06
404.645	462.06
404.869	468.06
405.093	495.06
405.317	521.06
405.541	568.06
405.765	502.06
405.988	477.06
406.212	485.06
406.436	503.06
406.66	521.06
406.883	500.06
407.107	504.06
407.331	538.06
407.555	582.06
407.778	566.06
408.002	526.06
408.226	491.06
408.449	453.06
408.673	508.06
408.896	493.06
409.12	519.06
409.344	523.06
409.567	441.06
409.791	445.06
410.014	454.06
410.238	439.06
410.461	445.06
410.685	450.06
410.908	457.06
411.132	485.06
411.355	502.06
411.578	506.06
411.802	448.06
412.025	448.06
412.249	473.06
412.472	494.06
412.695	542.06
412.919	503.06
413.142	490.06
413.365	440.06
413.589	474.06
413.812	440.06
414.035	438.06
414.258	418.06
414.482	416.06
414.705	425.06
414.928	416.06
415.151	442.06
415.374	429.06
415.597	398.06
415.821	426.06
416.044	442.06
416.267	417.06
416.49	438.06
416.713	428.06
416.936	429.06
417.159	411.06
417.382	404.06
417.605	433.06
417.828	425.06
418.051	471.06
418.274	441.06
418.497	424.06
418.72	422.06
418.943	420.06
419.166	426.06
419.389	440.06
419.611	451.06
419.834	452.06
420.057	477.06
420.28	452.06
420.503	458.06
420.726	458.06
420.948	458.06
421.171	490.06
421.394	495.06
421.617	465.06
421.839	438.06
422.062	442.06
422.285	470.06
422.507	505.06
422.73	533.06
422.953	532.06
423.175	480.06
423.398	452.06
423.621	454.06
423.843	466.06
424.066	468.06
424.288	478.06
424.511	510.06
424.733	520.06
424.956	584.06
425.178	549.06
425.401	583.06
425.623	580.06
425.846	509.06
426.068	477.06
426.291	472.06
426.513	468.06
426.735	472.06
426.958	514.06
427.18	606.06
427.402	702.06
427.625	764.06
427.847	662.06
428.069	587.06
428.292	521.06
428.514	480.06
428.736	470.06
428.958	448.06
429.181	443.06
429.403	443.06
429.625	440.06
429.847	477.06
430.069	516.06
430.292	498.06
430.514	459.06
430.736	448.06
430.958	451.06
431.18	424.06
431.402	428.06
431.624	425.06
431.846	398.06
432.068	409.06
432.29	402.06
432.512	440.06
432.734	427.06
432.956	440.06
433.178	421.06
433.4	441.06
433.622	444.06
433.844	430.06
434.066	429.06
434.287	402.06
434.509	429.06
434.731	424.06
434.953	428.06
435.175	449.06
435.397	477.06
435.618	462.06
435.84	518.06
436.062	579.06
436.284	614.06
436.505	524.06
436.727	477.06
436.949	460.06
437.17	444.06
437.392	451.06
437.614	450.06
437.835	481.06
438.057	564.06
438.278	623.06
438.5	630.06
438.721	690.06
438.943	658.06
439.165	538.06
439.386	490.06
439.608	481.06
439.829	493.06
440.05	525.06
440.272	527.06
440.493	506.06
440.715	503.06
440.936	446.06
441.158	447.06
441.379	453.06
441.6	462.06
441.822	477.06
442.043	484.06
442.264	583.06
442.486	624.06
442.707	530.06
442.928	489.06
443.149	503.06
443.371	510.06
443.592	538.06
443.813	626.06
444.034	639.06
444.255	564.06
444.476	492.06
444.698	456.06
444.919	489.06
445.14	596.06
445.361	537.06
445.582	508.06
445.803	580.06
446.024	668.06
446.245	658.06
446.466	603.06
446.687	504.06
446.908	467.06
447.129	465.06
447.35	439.06
447.571	408.06
447.792	438.06
448.013	447.06
448.234	458.06
448.455	504.06
448.675	592.06
448.896	653.06
449.117	584.06
449.338	557.06
449.559	640.06
449.779	711.06
450	559.06
450.221	480.06
450.442	458.06
450.662	454.06
450.883	442.06
451.104	454.06
451.324	460.06
451.545	440.06
451.766	411.06
451.986	412.06
452.207	408.06
452.428	395.06
452.648	395.06
452.869	396.06
453.089	419.06
453.31	404.06
453.53	440.06
453.751	396.06
453.971	406.06
454.192	426.06
454.412	420.06
454.633	393.06
454.853	391.06
455.073	395.06
455.294	422.06
455.514	485.06
455.734	465.06
455.955	408.06
456.175	380.06
456.395	362.06
456.616	375.06
456.836	367.06
457.056	348.06
457.276	375.06
457.497	378.06
457.717	364.06
457.937	386.06
458.157	380.06
458.377	402.06
458.598	421.06
458.818	478.06
459.038	543.06
459.258	549.06
459.478	462.06
459.698	430.06
459.918	421.06
460.138	422.06
460.358	411.06
460.578	406.06
460.798	423.06
461.018	400.06
461.238	407.06
461.458	432.06
461.678	428.06
461.898	416.06
462.118	412.06
462.338	421.06
462.558	422.06
462.777	450.06
462.997	476.06
463.217	419.06
463.437	442.06
463.657	428.06
463.876	433.06
464.096	448.06
464.316	456.06
464.536	435.06
464.755	438.06
464.975	440.06
465.195	501.06
465.414	554.06
465.634	503.06
465.854	422.06
466.073	428.06
466.293	429.06
466.512	403.06
466.732	427.06
466.951	407.06
467.171	403.06
467.391	404.06
467.61	421.06
467.829	441.06
468.049	437.06
468.268	422.06
468.488	432.06
468.707	410.06
468.927	411.06
469.146	413.06
469.365	416.06
469.585	394.06
469.804	414.06
470.023	407.06
470.243	414.06
470.462	433.06
470.681	438.06
470.901	431.06
471.12	428.06
471.339	424.06
471.558	405.06
471.777	436.06
471.997	423.06
472.216	445.06
472.435	490.06
472.654	474.06
472.873	442.06
473.092	437.06
473.311	430.06
473.53	415.06
473.749	414.06
473.968	467.06
474.187	549.06
474.406	545.06
474.625	479.06
474.844	437.06
475.063	414.06
475.282	426.06
475.501	423.06
475.72	432.06
475.939	423.06
476.158	400.06
476.377	420.06
476.596	412.06
476.814	439.06
477.033	444.06
477.252	448.06
477.471	447.06
477.69	429.06
477.908	434.06
478.127	453.06
478.346	429.06
478.564	454.06
478.783	450.06
479.002	470.06
479.22	459.06
479.439	488.06
479.658	500.06
479.876	492.06
480.095	526.06
480.313	503.06
480.532	519.06
480.751	515.06
480.969	534.06
481.188	668.06
481.406	728.06
481.624	565.06
481.843	542.06
482.061	522.06
482.28	528.06
482.498	514.06
482.717	501.06
482.935	491.06
483.153	492.06
483.372	500.06
483.59	493.06
483.808	488.06
484.027	481.06
484.245	486.06
484.463	528.06
484.681	496.06
484.9	509.06
485.118	496.06
485.336	497.06
485.554	492.06
485.772	504.06
485.99	478.06
486.209	520.06
486.427	515.06
486.645	520.06
486.863	536.06
487.081	530.06
487.299	531.06
487.517	518.06
487.735	520.06
487.953	520.06
488.171	539.06
488.389	525.06
488.607	534.06
488.825	508.06
489.043	525.06
489.261	565.06
489.479	535.06
489.696	559.06
489.914	548.06
490.132	562.06
490.35	568.06
490.568	563.06
490.786	545.06
491.003	571.06
491.221	584.06
491.439	587.06
491.657	586.06
491.874	601.06
492.092	611.06
492.31	628.06
492.527	649.06
492.745	638.06
492.963	615.06
493.18	618.06
493.398	651.06
493.615	656.06
493.833	637.06
494.05	623.06
494.268	621.06
494.485	631.06
494.703	633.06
494.92	629.06
495.138	622.06
495.355	610.06
495.573	631.06
495.79	618.06
496.008	640.06
496.225	618.06
496.442	641.06
496.66	637.06
496.877	626.06
497.094	616.06
497.312	606.06
497.529	648.06
497.746	657.06
497.963	641.06
498.181	680.06
498.398	664.06
498.615	687.06
498.832	672.06
499.049	690.06
499.267	693.06
499.484	698.06
499.701	719.06
499.918	758.06
500.135	767.06
500.352	787.06
500.569	816.06
500.786	817.06
501.003	805.06
501.22	791.06
501.437	776.06
501.654	771.06
501.871	752.06
