Data from 1983.PennyLincolnUp.Lamp.En5.5.200Scan.071819.P1_HRD10591_16-52-36-964.txt Node
Date: Thu Jul 18 16:52:36 EDT 2019
User: cochatt
Spectrometer: HR+D1059
Trigger mode: 1
Integration Time (sec): 1.000000E-1
Scans to average: 1
Electric dark correction enabled: true
Nonlinearity correction enabled: false
Boxcar width: 0
XAxis mode: Wavelengths
Number of Pixels in Spectrum: 2048
>>>>>Begin Spectral Data<<<<<
223.165	-17.44
223.4	-17.44
223.635	-17.44
223.869	-18.44
224.104	-21.44
224.338	-16.44
224.573	-13.44
224.808	-11.44
225.042	-10.44
225.277	-0.44
225.511	-2.44
225.746	-3.44
225.98	7.56
226.215	14.56
226.449	16.56
226.683	29.56
226.918	24.56
227.152	22.56
227.387	38.56
227.621	34.56
227.856	50.56
228.09	52.56
228.324	51.56
228.559	64.56
228.793	54.56
229.027	92.56
229.262	110.56
229.496	107.56
229.73	105.56
229.964	127.56
230.199	121.56
230.433	94.56
230.667	103.56
230.901	100.56
231.136	106.56
231.37	104.56
231.604	109.56
231.838	97.56
232.072	108.56
232.306	108.56
232.541	108.56
232.775	103.56
233.009	95.56
233.243	115.56
233.477	111.56
233.711	111.56
233.945	106.56
234.179	108.56
234.413	108.56
234.647	91.56
234.881	124.56
235.115	100.56
235.349	107.56
235.583	115.56
235.817	110.56
236.051	114.56
236.285	113.56
236.519	118.56
236.753	123.56
236.987	120.56
237.221	148.56
237.455	194.56
237.689	161.56
237.922	124.56
238.156	122.56
238.39	125.56
238.624	111.56
238.858	122.56
239.091	111.56
239.325	108.56
239.559	106.56
239.793	100.56
240.027	112.56
240.26	120.56
240.494	142.56
240.728	144.56
240.961	141.56
241.195	131.56
241.429	124.56
241.662	133.56
241.896	136.56
242.13	125.56
242.363	110.56
242.597	110.56
242.83	124.56
243.064	134.56
243.298	131.56
243.531	122.56
243.765	118.56
243.998	124.56
244.232	130.56
244.465	131.56
244.699	134.56
244.932	127.56
245.166	138.56
245.399	150.56
245.633	130.56
245.866	138.56
246.099	136.56
246.333	127.56
246.566	132.56
246.8	136.56
247.033	133.56
247.266	142.56
247.5	144.56
247.733	159.56
247.966	141.56
248.2	156.56
248.433	134.56
248.666	151.56
248.899	171.56
249.133	181.56
249.366	187.56
249.599	169.56
249.832	158.56
250.066	176.56
250.299	165.56
250.532	152.56
250.765	172.56
250.998	189.56
251.231	199.56
251.465	180.56
251.698	180.56
251.931	166.56
252.164	171.56
252.397	164.56
252.63	183.56
252.863	187.56
253.096	187.56
253.329	204.56
253.562	202.56
253.795	191.56
254.028	169.56
254.261	203.56
254.494	204.56
254.727	214.56
254.96	242.56
255.193	231.56
255.426	206.56
255.659	204.56
255.892	181.56
256.124	190.56
256.357	176.56
256.59	196.56
256.823	182.56
257.056	172.56
257.289	182.56
257.521	188.56
257.754	180.56
257.987	175.56
258.22	190.56
258.452	175.56
258.685	179.56
258.918	175.56
259.151	183.56
259.383	203.56
259.616	180.56
259.849	184.56
260.081	193.56
260.314	222.56
260.547	222.56
260.779	202.56
261.012	204.56
261.244	187.56
261.477	194.56
261.71	190.56
261.942	194.56
262.175	204.56
262.407	190.56
262.64	193.56
262.872	184.56
263.105	187.56
263.337	188.56
263.57	175.56
263.802	198.56
264.035	182.56
264.267	184.56
264.499	191.56
264.732	174.56
264.964	191.56
265.197	190.56
265.429	193.56
265.661	170.56
265.894	196.56
266.126	200.56
266.358	183.56
266.591	184.56
266.823	190.56
267.055	192.56
267.287	206.56
267.52	196.56
267.752	208.56
267.984	203.56
268.216	187.56
268.448	204.56
268.681	217.56
268.913	212.56
269.145	226.56
269.377	242.56
269.609	219.56
269.841	213.56
270.073	229.56
270.306	247.56
270.538	235.56
270.77	260.56
271.002	258.56
271.234	265.56
271.466	264.56
271.698	285.56
271.93	272.56
272.162	271.56
272.394	260.56
272.626	260.56
272.858	248.56
273.09	236.56
273.322	232.56
273.553	248.56
273.785	231.56
274.017	227.56
274.249	261.56
274.481	227.56
274.713	239.56
274.945	236.56
275.176	221.56
275.408	244.56
275.64	235.56
275.872	230.56
276.104	231.56
276.335	233.56
276.567	233.56
276.799	255.56
277.031	262.56
277.262	245.56
277.494	244.56
277.726	241.56
277.957	237.56
278.189	245.56
278.421	223.56
278.652	234.56
278.884	234.56
279.115	236.56
279.347	224.56
279.579	228.56
279.81	231.56
280.042	254.56
280.273	225.56
280.505	232.56
280.736	225.56
280.968	227.56
281.199	210.56
281.431	251.56
281.662	220.56
281.894	214.56
282.125	256.56
282.356	251.56
282.588	224.56
282.819	265.56
283.051	241.56
283.282	232.56
283.513	240.56
283.745	225.56
283.976	251.56
284.207	217.56
284.439	237.56
284.67	238.56
284.901	234.56
285.132	227.56
285.364	243.56
285.595	222.56
285.826	243.56
286.057	256.56
286.288	236.56
286.52	226.56
286.751	235.56
286.982	247.56
287.213	234.56
287.444	226.56
287.675	236.56
287.906	265.56
288.138	265.56
288.369	261.56
288.6	267.56
288.831	254.56
289.062	239.56
289.293	256.56
289.524	242.56
289.755	248.56
289.986	253.56
290.217	258.56
290.448	261.56
290.679	240.56
290.91	229.56
291.141	249.56
291.371	248.56
291.602	250.56
291.833	243.56
292.064	246.56
292.295	251.56
292.526	250.56
292.757	253.56
292.987	252.56
293.218	256.56
293.449	251.56
293.68	263.56
293.91	259.56
294.141	245.56
294.372	250.56
294.603	269.56
294.833	241.56
295.064	265.56
295.295	260.56
295.525	278.56
295.756	261.56
295.987	278.56
296.217	279.56
296.448	281.56
296.679	265.56
296.909	262.56
297.14	249.56
297.37	260.56
297.601	263.56
297.831	249.56
298.062	263.56
298.292	276.56
298.523	262.56
298.753	280.56
298.984	251.56
299.214	281.56
299.445	284.56
299.675	272.56
299.905	275.56
300.136	272.56
300.366	261.56
300.597	266.56
300.827	283.56
301.057	282.56
301.288	299.56
301.518	270.56
301.748	284.56
301.979	272.56
302.209	264.56
302.439	277.56
302.669	292.56
302.9	296.56
303.13	275.56
303.36	269.56
303.59	300.56
303.82	298.56
304.051	279.56
304.281	288.56
304.511	263.56
304.741	286.56
304.971	298.56
305.201	279.56
305.431	302.56
305.661	287.56
305.891	276.56
306.121	286.56
306.352	279.56
306.582	287.56
306.812	290.56
307.042	290.56
307.272	277.56
307.502	304.56
307.731	282.56
307.961	281.56
308.191	289.56
308.421	295.56
308.651	283.56
308.881	292.56
309.111	318.56
309.341	284.56
309.571	311.56
309.8	328.56
310.03	312.56
310.26	316.56
310.49	338.56
310.72	325.56
310.949	350.56
311.179	338.56
311.409	329.56
311.639	317.56
311.868	322.56
312.098	335.56
312.328	342.56
312.557	336.56
312.787	350.56
313.017	351.56
313.246	335.56
313.476	320.56
313.706	328.56
313.935	324.56
314.165	336.56
314.394	338.56
314.624	335.56
314.853	331.56
315.083	317.56
315.312	338.56
315.542	310.56
315.771	306.56
316.001	317.56
316.23	310.56
316.46	325.56
316.689	328.56
316.919	331.56
317.148	335.56
317.377	343.56
317.607	340.56
317.836	310.56
318.065	326.56
318.295	323.56
318.524	326.56
318.753	319.56
318.983	318.56
319.212	326.56
319.441	318.56
319.67	325.56
319.9	327.56
320.129	324.56
320.358	361.56
320.587	326.56
320.816	352.56
321.046	353.56
321.275	342.56
321.504	350.56
321.733	336.56
321.962	341.56
322.191	349.56
322.42	383.56
322.649	378.56
322.878	386.56
323.108	398.56
323.337	402.56
323.566	404.56
323.795	456.56
324.024	471.56
324.253	577.56
324.482	815.56
324.71	1165.56
324.939	1598.56
325.168	1336.56
325.397	713.56
325.626	518.56
325.855	442.56
326.084	414.56
326.313	390.56
326.542	417.56
326.77	447.56
326.999	553.56
327.228	728.56
327.457	1015.56
327.686	1138.56
327.914	792.56
328.143	559.56
328.372	487.56
328.6	481.56
328.829	456.56
329.058	460.56
329.287	478.56
329.515	443.56
329.744	433.56
329.972	398.56
330.201	429.56
330.43	435.56
330.658	450.56
330.887	484.56
331.115	482.56
331.344	418.56
331.572	414.56
331.801	411.56
332.03	407.56
332.258	395.56
332.486	383.56
332.715	383.56
332.943	366.56
333.172	378.56
333.4	381.56
333.629	372.56
333.857	387.56
334.085	400.56
334.314	400.56
334.542	388.56
334.771	411.56
334.999	394.56
335.227	391.56
335.455	380.56
335.684	382.56
335.912	382.56
336.14	393.56
336.369	384.56
336.597	378.56
336.825	377.56
337.053	376.56
337.281	382.56
337.51	370.56
337.738	379.56
337.966	367.56
338.194	362.56
338.422	368.56
338.65	377.56
338.878	359.56
339.106	361.56
339.334	370.56
339.562	357.56
339.79	365.56
340.018	364.56
340.246	357.56
340.474	338.56
340.702	351.56
340.93	365.56
341.158	349.56
341.386	365.56
341.614	375.56
341.842	356.56
342.07	363.56
342.298	358.56
342.526	360.56
342.754	351.56
342.981	354.56
343.209	364.56
343.437	345.56
343.665	361.56
343.893	376.56
344.12	372.56
344.348	393.56
344.576	377.56
344.804	383.56
345.031	347.56
345.259	384.56
345.487	375.56
345.714	372.56
345.942	360.56
346.17	376.56
346.397	362.56
346.625	351.56
346.853	354.56
347.08	343.56
347.308	333.56
347.535	359.56
347.763	375.56
347.99	366.56
348.218	351.56
348.445	374.56
348.673	357.56
348.9	350.56
349.128	364.56
349.355	334.56
349.583	332.56
349.81	346.56
350.037	338.56
350.265	355.56
350.492	345.56
350.72	348.56
350.947	338.56
351.174	364.56
351.402	358.56
351.629	357.56
351.856	381.56
352.083	362.56
352.311	345.56
352.538	372.56
352.765	364.56
352.992	345.56
353.22	352.56
353.447	358.56
353.674	349.56
353.901	351.56
354.128	343.56
354.355	339.56
354.583	335.56
354.81	327.56
355.037	335.56
355.264	327.56
355.491	335.56
355.718	325.56
355.945	348.56
356.172	334.56
356.399	314.56
356.626	333.56
356.853	325.56
357.08	335.56
357.307	310.56
357.534	308.56
357.761	328.56
357.988	336.56
358.215	329.56
358.441	335.56
358.668	326.56
358.895	332.56
359.122	320.56
359.349	336.56
359.576	343.56
359.802	363.56
360.029	376.56
360.256	390.56
360.483	382.56
360.709	349.56
360.936	337.56
361.163	349.56
361.39	364.56
361.616	370.56
361.843	342.56
362.07	343.56
362.296	360.56
362.523	372.56
362.749	343.56
362.976	344.56
363.203	361.56
363.429	354.56
363.656	335.56
363.882	328.56
364.109	342.56
364.335	349.56
364.562	337.56
364.788	353.56
365.015	344.56
365.241	336.56
365.468	344.56
365.694	342.56
365.92	354.56
366.147	330.56
366.373	338.56
366.599	326.56
366.826	346.56
367.052	325.56
367.278	314.56
367.505	333.56
367.731	323.56
367.957	343.56
368.184	339.56
368.41	338.56
368.636	353.56
368.862	351.56
369.089	354.56
369.315	324.56
369.541	354.56
369.767	340.56
369.993	338.56
370.219	339.56
370.445	318.56
370.672	332.56
370.898	339.56
371.124	324.56
371.35	339.56
371.576	341.56
371.802	333.56
372.028	341.56
372.254	344.56
372.48	336.56
372.706	344.56
372.932	341.56
373.158	343.56
373.384	345.56
373.61	340.56
373.835	343.56
374.061	340.56
374.287	345.56
374.513	336.56
374.739	345.56
374.965	348.56
375.191	345.56
375.416	324.56
375.642	331.56
375.868	343.56
376.094	329.56
376.319	330.56
376.545	352.56
376.771	323.56
376.997	338.56
377.222	326.56
377.448	324.56
377.674	317.56
377.899	342.56
378.125	304.56
378.35	323.56
378.576	336.56
378.802	339.56
379.027	338.56
379.253	337.56
379.478	323.56
379.704	340.56
379.929	344.56
380.155	340.56
380.38	326.56
380.606	346.56
380.831	332.56
381.057	333.56
381.282	336.56
381.507	318.56
381.733	343.56
381.958	338.56
382.184	336.56
382.409	339.56
382.634	338.56
382.86	342.56
383.085	349.56
383.31	360.56
383.535	354.56
383.761	366.56
383.986	348.56
384.211	358.56
384.436	360.56
384.662	344.56
384.887	353.56
385.112	355.56
385.337	344.56
385.562	372.56
385.787	347.56
386.013	363.56
386.238	379.56
386.463	362.56
386.688	368.56
386.913	357.56
387.138	363.56
387.363	363.56
387.588	349.56
387.813	347.56
388.038	372.56
388.263	380.56
388.488	354.56
388.713	376.56
388.938	374.56
389.163	360.56
389.387	358.56
389.612	347.56
389.837	378.56
390.062	346.56
390.287	374.56
390.512	356.56
390.736	362.56
390.961	382.56
391.186	358.56
391.411	372.56
391.636	371.56
391.86	398.56
392.085	372.56
392.31	366.56
392.534	374.56
392.759	355.56
392.984	374.56
393.208	376.56
393.433	379.56
393.658	373.56
393.882	351.56
394.107	367.56
394.331	372.56
394.556	366.56
394.78	370.56
395.005	363.56
395.229	372.56
395.454	380.56
395.678	367.56
395.903	383.56
396.127	386.56
396.352	376.56
396.576	377.56
396.801	370.56
397.025	386.56
397.249	384.56
397.474	377.56
397.698	382.56
397.922	390.56
398.147	430.56
398.371	407.56
398.595	411.56
398.82	400.56
399.044	404.56
399.268	418.56
399.492	422.56
399.717	451.56
399.941	483.56
400.165	480.56
400.389	494.56
400.613	442.56
400.837	454.56
401.062	422.56
401.286	407.56
401.51	415.56
401.734	396.56
401.958	399.56
402.182	414.56
402.406	427.56
402.63	406.56
402.854	434.56
403.078	422.56
403.302	429.56
403.526	412.56
403.75	425.56
403.974	435.56
404.198	413.56
404.422	442.56
404.645	450.56
404.869	427.56
405.093	447.56
405.317	452.56
405.541	482.56
405.765	451.56
405.988	426.56
406.212	447.56
406.436	452.56
406.66	476.56
406.883	471.56
407.107	471.56
407.331	489.56
407.555	557.56
407.778	524.56
408.002	507.56
408.226	479.56
408.449	444.56
408.673	453.56
408.896	471.56
409.12	492.56
409.344	477.56
409.567	427.56
409.791	443.56
410.014	438.56
410.238	406.56
410.461	412.56
410.685	427.56
410.908	448.56
411.132	460.56
411.355	487.56
411.578	456.56
411.802	451.56
412.025	420.56
412.249	395.56
412.472	409.56
412.695	436.56
412.919	417.56
413.142	418.56
413.365	409.56
413.589	407.56
413.812	404.56
414.035	419.56
414.258	392.56
414.482	402.56
414.705	388.56
414.928	399.56
415.151	400.56
415.374	404.56
415.597	400.56
415.821	389.56
416.044	415.56
416.267	396.56
416.49	386.56
416.713	378.56
416.936	386.56
417.159	380.56
417.382	408.56
417.605	393.56
417.828	395.56
418.051	400.56
418.274	411.56
418.497	405.56
418.72	407.56
418.943	416.56
419.166	404.56
419.389	446.56
419.611	415.56
419.834	418.56
420.057	420.56
420.28	409.56
420.503	409.56
420.726	410.56
420.948	412.56
421.171	469.56
421.394	446.56
421.617	437.56
421.839	414.56
422.062	423.56
422.285	446.56
422.507	469.56
422.73	518.56
422.953	507.56
423.175	441.56
423.398	425.56
423.621	430.56
423.843	445.56
424.066	458.56
424.288	420.56
424.511	468.56
424.733	481.56
424.956	565.56
425.178	536.56
425.401	533.56
425.623	536.56
425.846	465.56
426.068	456.56
426.291	429.56
426.513	429.56
426.735	462.56
426.958	477.56
427.18	549.56
427.402	615.56
427.625	672.56
427.847	614.56
428.069	528.56
428.292	461.56
428.514	464.56
428.736	413.56
428.958	428.56
429.181	420.56
429.403	390.56
429.625	401.56
429.847	451.56
430.069	475.56
430.292	485.56
430.514	439.56
430.736	397.56
430.958	420.56
431.18	387.56
431.402	394.56
431.624	397.56
431.846	377.56
432.068	404.56
432.29	392.56
432.512	381.56
432.734	400.56
432.956	414.56
433.178	410.56
433.4	406.56
433.622	404.56
433.844	401.56
434.066	408.56
434.287	380.56
434.509	391.56
434.731	406.56
434.953	421.56
435.175	432.56
435.397	454.56
435.618	446.56
435.84	463.56
436.062	533.56
436.284	581.56
436.505	485.56
436.727	442.56
436.949	435.56
437.17	421.56
437.392	404.56
437.614	412.56
437.835	458.56
438.057	524.56
438.278	582.56
438.5	561.56
438.721	611.56
438.943	592.56
439.165	499.56
439.386	446.56
439.608	461.56
439.829	442.56
440.05	454.56
440.272	506.56
440.493	465.56
440.715	434.56
440.936	420.56
441.158	420.56
441.379	428.56
441.6	427.56
441.822	460.56
442.043	475.56
442.264	517.56
442.486	553.56
442.707	489.56
442.928	456.56
443.149	442.56
443.371	478.56
443.592	536.56
443.813	574.56
444.034	598.56
444.255	508.56
444.476	450.56
444.698	461.56
444.919	451.56
445.14	555.56
445.361	519.56
445.582	491.56
445.803	514.56
446.024	599.56
446.245	588.56
446.466	546.56
446.687	458.56
446.908	443.56
447.129	454.56
447.35	400.56
447.571	404.56
447.792	407.56
448.013	408.56
448.234	438.56
448.455	484.56
448.675	572.56
448.896	644.56
449.117	542.56
449.338	518.56
449.559	584.56
449.779	640.56
450	539.56
450.221	476.56
450.442	408.56
450.662	404.56
450.883	432.56
451.104	431.56
451.324	414.56
451.545	380.56
451.766	394.56
451.986	363.56
452.207	379.56
452.428	380.56
452.648	384.56
452.869	379.56
453.089	381.56
453.31	383.56
453.53	396.56
453.751	372.56
453.971	388.56
454.192	395.56
454.412	383.56
454.633	378.56
454.853	365.56
455.073	392.56
455.294	408.56
455.514	442.56
455.734	424.56
455.955	365.56
456.175	376.56
456.395	370.56
456.616	357.56
456.836	366.56
457.056	347.56
457.276	323.56
457.497	352.56
457.717	358.56
457.937	346.56
458.157	362.56
458.377	352.56
458.598	374.56
458.818	410.56
459.038	469.56
459.258	470.56
459.478	434.56
459.698	379.56
459.918	395.56
460.138	394.56
460.358	398.56
460.578	393.56
460.798	400.56
461.018	392.56
461.238	409.56
461.458	405.56
461.678	393.56
461.898	416.56
462.118	415.56
462.338	387.56
462.558	386.56
462.777	390.56
462.997	426.56
463.217	436.56
463.437	443.56
463.657	400.56
463.876	436.56
464.096	447.56
464.316	424.56
464.536	420.56
464.755	423.56
464.975	419.56
465.195	464.56
465.414	516.56
465.634	461.56
465.854	435.56
466.073	402.56
466.293	405.56
466.512	385.56
466.732	374.56
466.951	400.56
467.171	379.56
467.391	379.56
467.61	403.56
467.829	399.56
468.049	380.56
468.268	385.56
468.488	371.56
468.707	377.56
468.927	380.56
469.146	363.56
469.365	362.56
469.585	377.56
469.804	401.56
470.023	398.56
470.243	386.56
470.462	393.56
470.681	400.56
470.901	389.56
471.12	382.56
471.339	396.56
471.558	386.56
471.777	380.56
471.997	379.56
472.216	379.56
472.435	375.56
472.654	362.56
472.873	370.56
473.092	378.56
473.311	373.56
473.53	382.56
473.749	384.56
473.968	430.56
474.187	503.56
474.406	494.56
474.625	428.56
474.844	397.56
475.063	396.56
475.282	381.56
475.501	393.56
475.72	414.56
475.939	399.56
476.158	399.56
476.377	403.56
476.596	399.56
476.814	419.56
477.033	416.56
477.252	403.56
477.471	401.56
477.69	401.56
477.908	397.56
478.127	414.56
478.346	441.56
478.564	432.56
478.783	429.56
479.002	427.56
479.22	451.56
479.439	448.56
479.658	454.56
479.876	473.56
480.095	462.56
480.313	466.56
480.532	457.56
480.751	478.56
480.969	460.56
481.188	469.56
481.406	484.56
481.624	473.56
481.843	455.56
482.061	435.56
482.28	467.56
482.498	447.56
482.717	438.56
482.935	453.56
483.153	436.56
483.372	464.56
483.59	439.56
483.808	445.56
484.027	441.56
484.245	443.56
484.463	435.56
484.681	478.56
484.9	462.56
485.118	469.56
485.336	461.56
485.554	452.56
485.772	469.56
485.99	472.56
486.209	476.56
486.427	456.56
486.645	489.56
486.863	484.56
487.081	494.56
487.299	484.56
487.517	488.56
487.735	452.56
487.953	471.56
488.171	502.56
488.389	469.56
488.607	478.56
488.825	475.56
489.043	490.56
489.261	454.56
489.479	478.56
489.696	485.56
489.914	495.56
490.132	489.56
490.35	522.56
490.568	500.56
490.786	504.56
491.003	520.56
491.221	518.56
491.439	537.56
491.657	528.56
491.874	548.56
492.092	551.56
492.31	545.56
492.527	531.56
492.745	555.56
492.963	548.56
493.18	539.56
493.398	558.56
493.615	556.56
493.833	586.56
494.05	562.56
494.268	578.56
494.485	556.56
494.703	550.56
494.92	577.56
495.138	525.56
495.355	555.56
495.573	570.56
495.79	589.56
496.008	551.56
496.225	567.56
496.442	540.56
496.66	577.56
496.877	574.56
497.094	560.56
497.312	573.56
497.529	572.56
497.746	586.56
497.963	588.56
498.181	590.56
498.398	624.56
498.615	628.56
498.832	626.56
499.049	626.56
499.267	629.56
499.484	669.56
499.701	710.56
499.918	726.56
500.135	718.56
500.352	781.56
500.569	764.56
500.786	768.56
501.003	751.56
501.22	745.56
501.437	716.56
501.654	696.56
501.871	712.56
