Data from 1983.PennyLincolnUp.Lamp.En5.5.200Scan.071819.P1_HRD10591_16-54-11-965.txt Node
Date: Thu Jul 18 16:54:11 EDT 2019
User: cochatt
Spectrometer: HR+D1059
Trigger mode: 1
Integration Time (sec): 1.000000E-1
Scans to average: 1
Electric dark correction enabled: true
Nonlinearity correction enabled: false
Boxcar width: 0
XAxis mode: Wavelengths
Number of Pixels in Spectrum: 2048
>>>>>Begin Spectral Data<<<<<
223.165	-12.38
223.4	-12.38
223.635	-12.38
223.869	-11.38
224.104	-15.38
224.338	-2.38
224.573	-13.38
224.808	-17.38
225.042	-3.38
225.277	-22.38
225.511	-1.38
225.746	1.62
225.98	-2.38
226.215	6.62
226.449	19.62
226.683	19.62
226.918	32.62
227.152	21.62
227.387	28.62
227.621	40.62
227.856	51.62
228.09	47.62
228.324	41.62
228.559	52.62
228.793	72.62
229.027	96.62
229.262	98.62
229.496	103.62
229.73	121.62
229.964	124.62
230.199	108.62
230.433	115.62
230.667	104.62
230.901	107.62
231.136	99.62
231.37	97.62
231.604	115.62
231.838	97.62
232.072	96.62
232.306	108.62
232.541	107.62
232.775	114.62
233.009	123.62
233.243	125.62
233.477	107.62
233.711	113.62
233.945	102.62
234.179	113.62
234.413	107.62
234.647	105.62
234.881	118.62
235.115	106.62
235.349	111.62
235.583	129.62
235.817	112.62
236.051	134.62
236.285	118.62
236.519	103.62
236.753	112.62
236.987	141.62
237.221	167.62
237.455	201.62
237.689	163.62
237.922	157.62
238.156	135.62
238.39	121.62
238.624	124.62
238.858	127.62
239.091	118.62
239.325	104.62
239.559	100.62
239.793	125.62
240.027	119.62
240.26	133.62
240.494	141.62
240.728	139.62
240.961	136.62
241.195	128.62
241.429	138.62
241.662	122.62
241.896	123.62
242.13	140.62
242.363	123.62
242.597	130.62
242.83	127.62
243.064	107.62
243.298	129.62
243.531	139.62
243.765	125.62
243.998	129.62
244.232	122.62
244.465	139.62
244.699	147.62
244.932	125.62
245.166	139.62
245.399	134.62
245.633	128.62
245.866	135.62
246.099	136.62
246.333	142.62
246.566	122.62
246.8	147.62
247.033	144.62
247.266	134.62
247.5	136.62
247.733	154.62
247.966	175.62
248.2	154.62
248.433	160.62
248.666	157.62
248.899	191.62
249.133	176.62
249.366	177.62
249.599	169.62
249.832	145.62
250.066	154.62
250.299	145.62
250.532	172.62
250.765	169.62
250.998	197.62
251.231	216.62
251.465	192.62
251.698	191.62
251.931	188.62
252.164	177.62
252.397	179.62
252.63	198.62
252.863	179.62
253.096	197.62
253.329	214.62
253.562	219.62
253.795	187.62
254.028	207.62
254.261	202.62
254.494	216.62
254.727	231.62
254.96	240.62
255.193	250.62
255.426	222.62
255.659	203.62
255.892	203.62
256.124	200.62
256.357	218.62
256.59	211.62
256.823	196.62
257.056	200.62
257.289	183.62
257.521	195.62
257.754	186.62
257.987	196.62
258.22	201.62
258.452	197.62
258.685	203.62
258.918	189.62
259.151	173.62
259.383	199.62
259.616	203.62
259.849	216.62
260.081	213.62
260.314	218.62
260.547	243.62
260.779	230.62
261.012	223.62
261.244	213.62
261.477	213.62
261.71	172.62
261.942	211.62
262.175	211.62
262.407	204.62
262.64	185.62
262.872	197.62
263.105	187.62
263.337	181.62
263.57	202.62
263.802	192.62
264.035	192.62
264.267	191.62
264.499	191.62
264.732	198.62
264.964	195.62
265.197	198.62
265.429	201.62
265.661	190.62
265.894	178.62
266.126	200.62
266.358	192.62
266.591	211.62
266.823	192.62
267.055	209.62
267.287	221.62
267.52	220.62
267.752	208.62
267.984	204.62
268.216	186.62
268.448	199.62
268.681	218.62
268.913	219.62
269.145	234.62
269.377	267.62
269.609	237.62
269.841	223.62
270.073	256.62
270.306	269.62
270.538	269.62
270.77	284.62
271.002	273.62
271.234	268.62
271.466	271.62
271.698	289.62
271.93	267.62
272.162	283.62
272.394	272.62
272.626	283.62
272.858	264.62
273.09	251.62
273.322	247.62
273.553	244.62
273.785	248.62
274.017	240.62
274.249	242.62
274.481	237.62
274.713	242.62
274.945	249.62
275.176	235.62
275.408	231.62
275.64	245.62
275.872	241.62
276.104	232.62
276.335	224.62
276.567	259.62
276.799	271.62
277.031	269.62
277.262	278.62
277.494	277.62
277.726	277.62
277.957	240.62
278.189	268.62
278.421	265.62
278.652	257.62
278.884	224.62
279.115	231.62
279.347	247.62
279.579	248.62
279.81	227.62
280.042	227.62
280.273	227.62
280.505	236.62
280.736	239.62
280.968	226.62
281.199	223.62
281.431	234.62
281.662	234.62
281.894	243.62
282.125	229.62
282.356	243.62
282.588	271.62
282.819	288.62
283.051	248.62
283.282	268.62
283.513	249.62
283.745	241.62
283.976	244.62
284.207	234.62
284.439	234.62
284.67	259.62
284.901	239.62
285.132	247.62
285.364	243.62
285.595	244.62
285.826	235.62
286.057	246.62
286.288	262.62
286.52	267.62
286.751	264.62
286.982	229.62
287.213	241.62
287.444	259.62
287.675	263.62
287.906	256.62
288.138	267.62
288.369	264.62
288.6	277.62
288.831	244.62
289.062	273.62
289.293	280.62
289.524	257.62
289.755	266.62
289.986	276.62
290.217	261.62
290.448	269.62
290.679	267.62
290.91	243.62
291.141	264.62
291.371	229.62
291.602	266.62
291.833	265.62
292.064	249.62
292.295	261.62
292.526	272.62
292.757	257.62
292.987	255.62
293.218	257.62
293.449	276.62
293.68	268.62
293.91	265.62
294.141	262.62
294.372	267.62
294.603	259.62
294.833	279.62
295.064	250.62
295.295	269.62
295.525	268.62
295.756	279.62
295.987	273.62
296.217	269.62
296.448	291.62
296.679	268.62
296.909	265.62
297.14	256.62
297.37	250.62
297.601	278.62
297.831	254.62
298.062	256.62
298.292	256.62
298.523	274.62
298.753	265.62
298.984	292.62
299.214	279.62
299.445	279.62
299.675	280.62
299.905	293.62
300.136	276.62
300.366	284.62
300.597	284.62
300.827	282.62
301.057	290.62
301.288	310.62
301.518	290.62
301.748	297.62
301.979	279.62
302.209	303.62
302.439	305.62
302.669	300.62
302.9	290.62
303.13	287.62
303.36	298.62
303.59	279.62
303.82	301.62
304.051	307.62
304.281	283.62
304.511	273.62
304.741	281.62
304.971	270.62
305.201	292.62
305.431	307.62
305.661	300.62
305.891	292.62
306.121	292.62
306.352	322.62
306.582	301.62
306.812	315.62
307.042	299.62
307.272	278.62
307.502	277.62
307.731	288.62
307.961	295.62
308.191	294.62
308.421	306.62
308.651	295.62
308.881	298.62
309.111	312.62
309.341	307.62
309.571	305.62
309.8	303.62
310.03	332.62
310.26	342.62
310.49	338.62
310.72	350.62
310.949	349.62
311.179	342.62
311.409	336.62
311.639	330.62
311.868	324.62
312.098	352.62
312.328	355.62
312.557	375.62
312.787	383.62
313.017	369.62
313.246	349.62
313.476	350.62
313.706	345.62
313.935	342.62
314.165	352.62
314.394	367.62
314.624	331.62
314.853	336.62
315.083	342.62
315.312	338.62
315.542	321.62
315.771	337.62
316.001	341.62
316.23	344.62
316.46	348.62
316.689	342.62
316.919	351.62
317.148	340.62
317.377	347.62
317.607	338.62
317.836	345.62
318.065	335.62
318.295	318.62
318.524	340.62
318.753	336.62
318.983	358.62
319.212	331.62
319.441	353.62
319.67	365.62
319.9	338.62
320.129	356.62
320.358	350.62
320.587	328.62
320.816	378.62
321.046	345.62
321.275	351.62
321.504	373.62
321.733	395.62
321.962	384.62
322.191	398.62
322.42	395.62
322.649	400.62
322.878	411.62
323.108	443.62
323.337	467.62
323.566	463.62
323.795	502.62
324.024	531.62
324.253	680.62
324.482	974.62
324.71	1439.62
324.939	1944.62
325.168	1599.62
325.397	881.62
325.626	598.62
325.855	499.62
326.084	476.62
326.313	469.62
326.542	504.62
326.77	535.62
326.999	645.62
327.228	844.62
327.457	1283.62
327.686	1471.62
327.914	965.62
328.143	671.62
328.372	603.62
328.6	556.62
328.829	525.62
329.058	539.62
329.287	556.62
329.515	508.62
329.744	465.62
329.972	453.62
330.201	497.62
330.43	533.62
330.658	537.62
330.887	582.62
331.115	571.62
331.344	477.62
331.572	434.62
331.801	449.62
332.03	430.62
332.258	438.62
332.486	421.62
332.715	409.62
332.943	393.62
333.172	401.62
333.4	418.62
333.629	407.62
333.857	421.62
334.085	426.62
334.314	443.62
334.542	446.62
334.771	479.62
334.999	439.62
335.227	428.62
335.455	412.62
335.684	404.62
335.912	417.62
336.14	380.62
336.369	403.62
336.597	400.62
336.825	403.62
337.053	373.62
337.281	379.62
337.51	376.62
337.738	384.62
337.966	403.62
338.194	405.62
338.422	403.62
338.65	399.62
338.878	407.62
339.106	371.62
339.334	388.62
339.562	370.62
339.79	391.62
340.018	379.62
340.246	379.62
340.474	367.62
340.702	377.62
340.93	376.62
341.158	397.62
341.386	376.62
341.614	374.62
341.842	385.62
342.07	379.62
342.298	369.62
342.526	373.62
342.754	355.62
342.981	369.62
343.209	381.62
343.437	354.62
343.665	372.62
343.893	395.62
344.12	385.62
344.348	385.62
344.576	390.62
344.804	420.62
345.031	403.62
345.259	396.62
345.487	381.62
345.714	383.62
345.942	384.62
346.17	371.62
346.397	349.62
346.625	372.62
346.853	389.62
347.08	368.62
347.308	374.62
347.535	398.62
347.763	384.62
347.99	380.62
348.218	382.62
348.445	391.62
348.673	389.62
348.9	361.62
349.128	362.62
349.355	357.62
349.583	357.62
349.81	357.62
350.037	356.62
350.265	349.62
350.492	373.62
350.72	357.62
350.947	374.62
351.174	369.62
351.402	389.62
351.629	387.62
351.856	374.62
352.083	383.62
352.311	386.62
352.538	390.62
352.765	399.62
352.992	377.62
353.22	387.62
353.447	388.62
353.674	358.62
353.901	373.62
354.128	348.62
354.355	335.62
354.583	367.62
354.81	334.62
355.037	340.62
355.264	339.62
355.491	342.62
355.718	331.62
355.945	340.62
356.172	332.62
356.399	351.62
356.626	327.62
356.853	337.62
357.08	351.62
357.307	367.62
357.534	334.62
357.761	327.62
357.988	350.62
358.215	357.62
358.441	340.62
358.668	352.62
358.895	353.62
359.122	358.62
359.349	361.62
359.576	353.62
359.802	380.62
360.029	411.62
360.256	424.62
360.483	420.62
360.709	379.62
360.936	391.62
361.163	362.62
361.39	378.62
361.616	386.62
361.843	362.62
362.07	371.62
362.296	383.62
362.523	352.62
362.749	381.62
362.976	358.62
363.203	373.62
363.429	356.62
363.656	367.62
363.882	367.62
364.109	360.62
364.335	349.62
364.562	335.62
364.788	347.62
365.015	352.62
365.241	367.62
365.468	367.62
365.694	360.62
365.92	359.62
366.147	364.62
366.373	338.62
366.599	354.62
366.826	361.62
367.052	332.62
367.278	321.62
367.505	376.62
367.731	371.62
367.957	346.62
368.184	353.62
368.41	361.62
368.636	371.62
368.862	381.62
369.089	365.62
369.315	349.62
369.541	347.62
369.767	363.62
369.993	356.62
370.219	363.62
370.445	355.62
370.672	351.62
370.898	323.62
371.124	343.62
371.35	337.62
371.576	338.62
371.802	356.62
372.028	349.62
372.254	347.62
372.48	343.62
372.706	335.62
372.932	354.62
373.158	347.62
373.384	353.62
373.61	348.62
373.835	351.62
374.061	345.62
374.287	357.62
374.513	354.62
374.739	371.62
374.965	369.62
375.191	348.62
375.416	356.62
375.642	353.62
375.868	347.62
376.094	330.62
376.319	327.62
376.545	343.62
376.771	344.62
376.997	320.62
377.222	339.62
377.448	331.62
377.674	342.62
377.899	338.62
378.125	344.62
378.35	336.62
378.576	349.62
378.802	343.62
379.027	349.62
379.253	355.62
379.478	344.62
379.704	332.62
379.929	348.62
380.155	359.62
380.38	360.62
380.606	330.62
380.831	345.62
381.057	363.62
381.282	355.62
381.507	359.62
381.733	338.62
381.958	340.62
382.184	341.62
382.409	332.62
382.634	342.62
382.86	354.62
383.085	347.62
383.31	333.62
383.535	357.62
383.761	352.62
383.986	336.62
384.211	331.62
384.436	352.62
384.662	353.62
384.887	352.62
385.112	361.62
385.337	352.62
385.562	360.62
385.787	371.62
386.013	377.62
386.238	379.62
386.463	357.62
386.688	355.62
386.913	341.62
387.138	349.62
387.363	355.62
387.588	343.62
387.813	376.62
388.038	353.62
388.263	344.62
388.488	355.62
388.713	351.62
388.938	388.62
389.163	363.62
389.387	367.62
389.612	368.62
389.837	370.62
390.062	378.62
390.287	367.62
390.512	357.62
390.736	352.62
390.961	353.62
391.186	340.62
391.411	367.62
391.636	373.62
391.86	366.62
392.085	356.62
392.31	377.62
392.534	375.62
392.759	390.62
392.984	360.62
393.208	359.62
393.433	376.62
393.658	349.62
393.882	371.62
394.107	360.62
394.331	373.62
394.556	369.62
394.78	372.62
395.005	373.62
395.229	378.62
395.454	354.62
395.678	387.62
395.903	383.62
396.127	391.62
396.352	387.62
396.576	380.62
396.801	381.62
397.025	378.62
397.249	381.62
397.474	376.62
397.698	398.62
397.922	385.62
398.147	416.62
398.371	424.62
398.595	395.62
398.82	405.62
399.044	413.62
399.268	421.62
399.492	442.62
399.717	462.62
399.941	488.62
400.165	481.62
400.389	483.62
400.613	468.62
400.837	451.62
401.062	427.62
401.286	401.62
401.51	446.62
401.734	407.62
401.958	405.62
402.182	424.62
402.406	449.62
402.63	435.62
402.854	413.62
403.078	431.62
403.302	417.62
403.526	421.62
403.75	423.62
403.974	410.62
404.198	414.62
404.422	437.62
404.645	440.62
404.869	434.62
405.093	450.62
405.317	470.62
405.541	490.62
405.765	475.62
405.988	455.62
406.212	445.62
406.436	490.62
406.66	510.62
406.883	469.62
407.107	491.62
407.331	503.62
407.555	576.62
407.778	563.62
408.002	500.62
408.226	455.62
408.449	480.62
408.673	481.62
408.896	476.62
409.12	535.62
409.344	479.62
409.567	445.62
409.791	431.62
410.014	439.62
410.238	430.62
410.461	439.62
410.685	420.62
410.908	435.62
411.132	461.62
411.355	488.62
411.578	491.62
411.802	441.62
412.025	418.62
412.249	428.62
412.472	456.62
412.695	483.62
412.919	471.62
413.142	417.62
413.365	418.62
413.589	419.62
413.812	425.62
414.035	417.62
414.258	400.62
414.482	381.62
414.705	389.62
414.928	400.62
415.151	384.62
415.374	406.62
415.597	396.62
415.821	407.62
416.044	407.62
416.267	393.62
416.49	415.62
416.713	408.62
416.936	388.62
417.159	408.62
417.382	419.62
417.605	413.62
417.828	418.62
418.051	431.62
418.274	414.62
418.497	407.62
418.72	410.62
418.943	410.62
419.166	412.62
419.389	427.62
419.611	430.62
419.834	415.62
420.057	415.62
420.28	418.62
420.503	434.62
420.726	415.62
420.948	411.62
421.171	465.62
421.394	485.62
421.617	443.62
421.839	406.62
422.062	415.62
422.285	423.62
422.507	447.62
422.73	541.62
422.953	537.62
423.175	464.62
423.398	440.62
423.621	451.62
423.843	444.62
424.066	473.62
424.288	449.62
424.511	473.62
424.733	528.62
424.956	568.62
425.178	534.62
425.401	529.62
425.623	573.62
425.846	507.62
426.068	455.62
426.291	475.62
426.513	471.62
426.735	465.62
426.958	487.62
427.18	563.62
427.402	657.62
427.625	731.62
427.847	647.62
428.069	569.62
428.292	504.62
428.514	453.62
428.736	460.62
428.958	442.62
429.181	421.62
429.403	428.62
429.625	426.62
429.847	469.62
430.069	504.62
430.292	507.62
430.514	454.62
430.736	412.62
430.958	413.62
431.18	412.62
431.402	411.62
431.624	422.62
431.846	407.62
432.068	401.62
432.29	396.62
432.512	401.62
432.734	413.62
432.956	387.62
433.178	421.62
433.4	417.62
433.622	410.62
433.844	414.62
434.066	396.62
434.287	409.62
434.509	398.62
434.731	434.62
434.953	411.62
435.175	437.62
435.397	455.62
435.618	458.62
435.84	487.62
436.062	562.62
436.284	596.62
436.505	525.62
436.727	449.62
436.949	451.62
437.17	416.62
437.392	441.62
437.614	461.62
437.835	470.62
438.057	542.62
438.278	615.62
438.5	624.62
438.721	664.62
438.943	601.62
439.165	540.62
439.386	445.62
439.608	456.62
439.829	488.62
440.05	497.62
440.272	545.62
440.493	473.62
440.715	444.62
440.936	424.62
441.158	443.62
441.379	419.62
441.6	448.62
441.822	461.62
442.043	490.62
442.264	542.62
442.486	588.62
442.707	537.62
442.928	479.62
443.149	476.62
443.371	489.62
443.592	536.62
443.813	607.62
444.034	619.62
444.255	530.62
444.476	483.62
444.698	439.62
444.919	451.62
445.14	540.62
445.361	494.62
445.582	497.62
445.803	586.62
446.024	615.62
446.245	628.62
446.466	583.62
446.687	503.62
446.908	490.62
447.129	427.62
447.35	427.62
447.571	447.62
447.792	432.62
448.013	423.62
448.234	469.62
448.455	469.62
448.675	580.62
448.896	674.62
449.117	561.62
449.338	545.62
449.559	609.62
449.779	663.62
450	548.62
450.221	465.62
450.442	464.62
450.662	423.62
450.883	429.62
451.104	461.62
451.324	438.62
451.545	425.62
451.766	423.62
451.986	387.62
452.207	376.62
452.428	383.62
452.648	404.62
452.869	393.62
453.089	400.62
453.31	397.62
453.53	401.62
453.751	383.62
453.971	390.62
454.192	415.62
454.412	398.62
454.633	401.62
454.853	380.62
455.073	399.62
455.294	401.62
455.514	475.62
455.734	449.62
455.955	375.62
456.175	361.62
456.395	367.62
456.616	355.62
456.836	348.62
457.056	363.62
457.276	341.62
457.497	345.62
457.717	343.62
457.937	374.62
458.157	368.62
458.377	395.62
458.598	401.62
458.818	465.62
459.038	534.62
459.258	524.62
459.478	413.62
459.698	401.62
459.918	400.62
460.138	388.62
460.358	415.62
460.578	391.62
460.798	397.62
461.018	391.62
461.238	386.62
461.458	391.62
461.678	404.62
461.898	383.62
462.118	389.62
462.338	402.62
462.558	412.62
462.777	423.62
462.997	407.62
463.217	417.62
463.437	419.62
463.657	424.62
463.876	443.62
464.096	425.62
464.316	433.62
464.536	427.62
464.755	431.62
464.975	425.62
465.195	488.62
465.414	578.62
465.634	478.62
465.854	447.62
466.073	418.62
466.293	399.62
466.512	400.62
466.732	359.62
466.951	388.62
467.171	407.62
467.391	393.62
467.61	414.62
467.829	403.62
468.049	411.62
468.268	390.62
468.488	387.62
468.707	383.62
468.927	373.62
469.146	363.62
469.365	354.62
469.585	385.62
469.804	385.62
470.023	414.62
470.243	396.62
470.462	396.62
470.681	423.62
470.901	417.62
471.12	397.62
471.339	408.62
471.558	390.62
471.777	409.62
471.997	377.62
472.216	405.62
472.435	430.62
472.654	434.62
472.873	404.62
473.092	383.62
473.311	379.62
473.53	410.62
473.749	413.62
473.968	440.62
474.187	499.62
474.406	519.62
474.625	431.62
474.844	399.62
475.063	412.62
475.282	414.62
475.501	403.62
475.72	398.62
475.939	423.62
476.158	388.62
476.377	419.62
476.596	409.62
476.814	397.62
477.033	408.62
477.252	403.62
477.471	425.62
477.69	448.62
477.908	437.62
478.127	418.62
478.346	424.62
478.564	436.62
478.783	435.62
479.002	452.62
479.22	438.62
479.439	477.62
479.658	472.62
479.876	455.62
480.095	476.62
480.313	500.62
480.532	468.62
480.751	485.62
480.969	491.62
481.188	529.62
481.406	538.62
481.624	501.62
481.843	465.62
482.061	460.62
482.28	452.62
482.498	472.62
482.717	460.62
482.935	459.62
483.153	452.62
483.372	451.62
483.59	461.62
483.808	454.62
484.027	456.62
484.245	487.62
484.463	469.62
484.681	476.62
484.9	468.62
485.118	470.62
485.336	461.62
485.554	487.62
485.772	459.62
485.99	467.62
486.209	475.62
486.427	492.62
486.645	492.62
486.863	514.62
487.081	513.62
487.299	509.62
487.517	498.62
487.735	490.62
487.953	489.62
488.171	492.62
488.389	480.62
488.607	509.62
488.825	515.62
489.043	500.62
489.261	512.62
489.479	479.62
489.696	500.62
489.914	523.62
490.132	520.62
490.35	497.62
490.568	489.62
490.786	531.62
491.003	535.62
491.221	562.62
491.439	550.62
491.657	583.62
491.874	562.62
492.092	573.62
492.31	571.62
492.527	561.62
492.745	563.62
492.963	584.62
493.18	569.62
493.398	564.62
493.615	578.62
493.833	580.62
494.05	588.62
494.268	574.62
494.485	587.62
494.703	599.62
494.92	590.62
495.138	601.62
495.355	593.62
495.573	603.62
495.79	586.62
496.008	553.62
496.225	574.62
496.442	566.62
496.66	605.62
496.877	581.62
497.094	563.62
497.312	586.62
497.529	602.62
497.746	606.62
497.963	606.62
498.181	605.62
498.398	602.62
498.615	618.62
498.832	657.62
499.049	657.62
499.267	659.62
499.484	680.62
499.701	705.62
499.918	695.62
500.135	699.62
500.352	757.62
500.569	757.62
500.786	756.62
501.003	792.62
501.22	736.62
501.437	738.62
501.654	743.62
501.871	703.62
502.088	673.62
